Data from SampC_HRD10591_00057.txt Node
Date: Mon Jan 19 11:37:49 EST 2026
User: Yrep
Spectrometer: HR+D1059
Trigger mode: 0
Integration Time (sec): 3.443000E-1
Scans to average: 1
Electric dark correction enabled: true
Nonlinearity correction enabled: false
Boxcar width: 0
XAxis mode: Wavelengths
Number of Pixels in Spectrum: 2048
>>>>>Begin Spectral Data<<<<<
223.165	-17.25
223.4	-17.25
223.635	-17.25
223.869	-17.25
224.104	-26.25
224.338	-15.25
224.573	-8.25
224.808	-6.25
225.042	12.75
225.277	-13.25
225.511	-15.25
225.746	17.75
225.98	3.75
226.215	8.75
226.449	14.75
226.683	15.75
226.918	8.75
227.152	36.75
227.387	28.75
227.621	45.75
227.856	39.75
228.09	63.75
228.324	48.75
228.559	72.75
228.793	64.75
229.027	89.75
229.262	95.75
229.496	90.75
229.73	91.75
229.964	107.75
230.199	106.75
230.433	104.75
230.667	104.75
230.901	95.75
231.136	113.75
231.37	120.75
231.604	111.75
231.838	116.75
232.072	114.75
232.306	123.75
232.541	128.75
232.775	118.75
233.009	105.75
233.243	118.75
233.477	114.75
233.711	117.75
233.945	133.75
234.179	114.75
234.413	108.75
234.647	126.75
234.881	130.75
235.115	112.75
235.349	129.75
235.583	128.75
235.817	118.75
236.051	124.75
236.285	149.75
236.519	138.75
236.753	181.75
236.987	222.75
237.221	219.75
237.455	238.75
237.689	255.75
237.922	210.75
238.156	166.75
238.39	156.75
238.624	145.75
238.858	117.75
239.091	126.75
239.325	133.75
239.559	113.75
239.793	135.75
240.027	137.75
240.26	119.75
240.494	122.75
240.728	114.75
240.961	120.75
241.195	123.75
241.429	114.75
241.662	117.75
241.896	105.75
242.13	109.75
242.363	112.75
242.597	125.75
242.83	123.75
243.064	133.75
243.298	133.75
243.531	121.75
243.765	113.75
243.998	125.75
244.232	133.75
244.465	115.75
244.699	126.75
244.932	139.75
245.166	124.75
245.399	125.75
245.633	129.75
245.866	136.75
246.099	136.75
246.333	144.75
246.566	144.75
246.8	128.75
247.033	146.75
247.266	122.75
247.5	146.75
247.733	118.75
247.966	123.75
248.2	132.75
248.433	131.75
248.666	130.75
248.899	145.75
249.133	151.75
249.366	147.75
249.599	159.75
249.832	149.75
250.066	135.75
250.299	135.75
250.532	148.75
250.765	144.75
250.998	154.75
251.231	136.75
251.465	145.75
251.698	156.75
251.931	164.75
252.164	135.75
252.397	147.75
252.63	140.75
252.863	149.75
253.096	134.75
253.329	160.75
253.562	134.75
253.795	150.75
254.028	153.75
254.261	149.75
254.494	154.75
254.727	158.75
254.96	163.75
255.193	167.75
255.426	169.75
255.659	171.75
255.892	189.75
256.124	176.75
256.357	173.75
256.59	189.75
256.823	240.75
257.056	286.75
257.289	302.75
257.521	318.75
257.754	355.75
257.987	325.75
258.22	263.75
258.452	211.75
258.685	188.75
258.918	192.75
259.151	184.75
259.383	166.75
259.616	172.75
259.849	173.75
260.081	172.75
260.314	171.75
260.547	188.75
260.779	163.75
261.012	201.75
261.244	168.75
261.477	188.75
261.71	187.75
261.942	170.75
262.175	186.75
262.407	174.75
262.64	189.75
262.872	206.75
263.105	238.75
263.337	253.75
263.57	259.75
263.802	254.75
264.035	203.75
264.267	203.75
264.499	223.75
264.732	207.75
264.964	227.75
265.197	230.75
265.429	257.75
265.661	261.75
265.894	250.75
266.126	307.75
266.358	326.75
266.591	279.75
266.823	225.75
267.055	198.75
267.287	209.75
267.52	197.75
267.752	200.75
267.984	170.75
268.216	185.75
268.448	197.75
268.681	168.75
268.913	194.75
269.145	184.75
269.377	193.75
269.609	172.75
269.841	184.75
270.073	178.75
270.306	180.75
270.538	189.75
270.77	159.75
271.002	185.75
271.234	185.75
271.466	186.75
271.698	182.75
271.93	192.75
272.162	196.75
272.394	194.75
272.626	193.75
272.858	184.75
273.09	192.75
273.322	213.75
273.553	192.75
273.785	214.75
274.017	188.75
274.249	208.75
274.481	192.75
274.713	195.75
274.945	208.75
275.176	211.75
275.408	235.75
275.64	218.75
275.872	223.75
276.104	222.75
276.335	211.75
276.567	216.75
276.799	205.75
277.031	210.75
277.262	208.75
277.494	234.75
277.726	239.75
277.957	268.75
278.189	270.75
278.421	291.75
278.652	284.75
278.884	320.75
279.115	422.75
279.347	619.75
279.579	847.75
279.81	969.75
280.042	766.75
280.273	720.75
280.505	708.75
280.736	474.75
280.968	365.75
281.199	347.75
281.431	404.75
281.662	503.75
281.894	581.75
282.125	465.75
282.356	371.75
282.588	326.75
282.819	273.75
283.051	275.75
283.282	256.75
283.513	269.75
283.745	258.75
283.976	271.75
284.207	257.75
284.439	250.75
284.67	260.75
284.901	274.75
285.132	348.75
285.364	411.75
285.595	331.75
285.826	273.75
286.057	241.75
286.288	252.75
286.52	243.75
286.751	230.75
286.982	232.75
287.213	212.75
287.444	225.75
287.675	240.75
287.906	234.75
288.138	235.75
288.369	245.75
288.6	242.75
288.831	212.75
289.062	248.75
289.293	226.75
289.524	231.75
289.755	237.75
289.986	245.75
290.217	223.75
290.448	221.75
290.679	249.75
290.91	228.75
291.141	240.75
291.371	263.75
291.602	249.75
291.833	236.75
292.064	244.75
292.295	263.75
292.526	277.75
292.757	290.75
292.987	284.75
293.218	295.75
293.449	270.75
293.68	304.75
293.91	278.75
294.141	284.75
294.372	233.75
294.603	240.75
294.833	244.75
295.064	248.75
295.295	249.75
295.525	234.75
295.756	263.75
295.987	243.75
296.217	241.75
296.448	254.75
296.679	256.75
296.909	262.75
297.14	250.75
297.37	268.75
297.601	248.75
297.831	250.75
298.062	263.75
298.292	256.75
298.523	247.75
298.753	242.75
298.984	256.75
299.214	242.75
299.445	236.75
299.675	257.75
299.905	260.75
300.136	246.75
300.366	257.75
300.597	264.75
300.827	266.75
301.057	260.75
301.288	284.75
301.518	257.75
301.748	284.75
301.979	329.75
302.209	299.75
302.439	292.75
302.669	286.75
302.9	314.75
303.13	321.75
303.36	298.75
303.59	315.75
303.82	321.75
304.051	329.75
304.281	375.75
304.511	371.75
304.741	403.75
304.971	465.75
305.201	545.75
305.431	597.75
305.661	680.75
305.891	735.75
306.121	686.75
306.352	593.75
306.582	626.75
306.812	644.75
307.042	558.75
307.272	532.75
307.502	601.75
307.731	839.75
307.961	1200.75
308.191	1732.75
308.421	1998.75
308.651	1700.75
308.881	1489.75
309.111	1896.75
309.341	2418.75
309.571	2284.75
309.8	1466.75
310.03	943.75
310.26	697.75
310.49	580.75
310.72	514.75
310.949	451.75
311.179	432.75
311.409	412.75
311.639	398.75
311.868	388.75
312.098	365.75
312.328	364.75
312.557	348.75
312.787	341.75
313.017	348.75
313.246	322.75
313.476	327.75
313.706	326.75
313.935	309.75
314.165	329.75
314.394	309.75
314.624	306.75
314.853	302.75
315.083	303.75
315.312	301.75
315.542	303.75
315.771	304.75
316.001	312.75
316.23	299.75
316.46	281.75
316.689	305.75
316.919	300.75
317.148	306.75
317.377	321.75
317.607	308.75
317.836	292.75
318.065	307.75
318.295	288.75
318.524	295.75
318.753	290.75
318.983	298.75
319.212	278.75
319.441	292.75
319.67	288.75
319.9	286.75
320.129	272.75
320.358	288.75
320.587	275.75
320.816	281.75
321.046	295.75
321.275	282.75
321.504	270.75
321.733	283.75
321.962	277.75
322.191	274.75
322.42	276.75
322.649	289.75
322.878	276.75
323.108	278.75
323.337	304.75
323.566	303.75
323.795	309.75
324.024	294.75
324.253	307.75
324.482	298.75
324.71	312.75
324.939	306.75
325.168	289.75
325.397	306.75
325.626	294.75
325.855	285.75
326.084	298.75
326.313	290.75
326.542	309.75
326.77	296.75
326.999	302.75
327.228	296.75
327.457	302.75
327.686	302.75
327.914	296.75
328.143	294.75
328.372	311.75
328.6	299.75
328.829	292.75
329.058	296.75
329.287	286.75
329.515	292.75
329.744	306.75
329.972	292.75
330.201	307.75
330.43	298.75
330.658	280.75
330.887	305.75
331.115	295.75
331.344	303.75
331.572	297.75
331.801	308.75
332.03	311.75
332.258	309.75
332.486	338.75
332.715	332.75
332.943	326.75
333.172	330.75
333.4	342.75
333.629	327.75
333.857	354.75
334.085	336.75
334.314	333.75
334.542	347.75
334.771	329.75
334.999	328.75
335.227	327.75
335.455	334.75
335.684	329.75
335.912	332.75
336.14	309.75
336.369	317.75
336.597	320.75
336.825	314.75
337.053	317.75
337.281	324.75
337.51	331.75
337.738	313.75
337.966	303.75
338.194	327.75
338.422	304.75
338.65	316.75
338.878	323.75
339.106	308.75
339.334	322.75
339.562	315.75
339.79	303.75
340.018	316.75
340.246	290.75
340.474	289.75
340.702	289.75
340.93	295.75
341.158	320.75
341.386	298.75
341.614	315.75
341.842	308.75
342.07	299.75
342.298	309.75
342.526	316.75
342.754	311.75
342.981	315.75
343.209	319.75
343.437	347.75
343.665	333.75
343.893	336.75
344.12	366.75
344.348	344.75
344.576	343.75
344.804	318.75
345.031	316.75
345.259	324.75
345.487	325.75
345.714	318.75
345.942	316.75
346.17	342.75
346.397	312.75
346.625	321.75
346.853	302.75
347.08	303.75
347.308	312.75
347.535	314.75
347.763	303.75
347.99	333.75
348.218	309.75
348.445	324.75
348.673	315.75
348.9	328.75
349.128	311.75
349.355	308.75
349.583	310.75
349.81	320.75
350.037	290.75
350.265	314.75
350.492	304.75
350.72	318.75
350.947	311.75
351.174	318.75
351.402	312.75
351.629	325.75
351.856	322.75
352.083	334.75
352.311	354.75
352.538	335.75
352.765	343.75
352.992	350.75
353.22	346.75
353.447	346.75
353.674	363.75
353.901	358.75
354.128	368.75
354.355	362.75
354.583	373.75
354.81	374.75
355.037	381.75
355.264	373.75
355.491	378.75
355.718	403.75
355.945	398.75
356.172	397.75
356.399	407.75
356.626	442.75
356.853	445.75
357.08	484.75
357.307	504.75
357.534	524.75
357.761	596.75
357.988	664.75
358.215	754.75
358.441	873.75
358.668	966.75
358.895	913.75
359.122	766.75
359.349	642.75
359.576	581.75
359.802	547.75
360.029	510.75
360.256	501.75
360.483	469.75
360.709	468.75
360.936	463.75
361.163	455.75
361.39	423.75
361.616	432.75
361.843	412.75
362.07	410.75
362.296	405.75
362.523	384.75
362.749	381.75
362.976	386.75
363.203	387.75
363.429	360.75
363.656	369.75
363.882	355.75
364.109	370.75
364.335	352.75
364.562	343.75
364.788	346.75
365.015	341.75
365.241	342.75
365.468	355.75
365.694	352.75
365.92	356.75
366.147	329.75
366.373	324.75
366.599	337.75
366.826	332.75
367.052	336.75
367.278	335.75
367.505	341.75
367.731	350.75
367.957	332.75
368.184	323.75
368.41	347.75
368.636	318.75
368.862	343.75
369.089	332.75
369.315	334.75
369.541	334.75
369.767	337.75
369.993	326.75
370.219	337.75
370.445	343.75
370.672	349.75
370.898	354.75
371.124	346.75
371.35	354.75
371.576	358.75
371.802	360.75
372.028	360.75
372.254	361.75
372.48	365.75
372.706	351.75
372.932	355.75
373.158	337.75
373.384	368.75
373.61	366.75
373.835	369.75
374.061	357.75
374.287	361.75
374.513	371.75
374.739	381.75
374.965	366.75
375.191	397.75
375.416	373.75
375.642	351.75
375.868	364.75
376.094	363.75
376.319	376.75
376.545	351.75
376.771	346.75
376.997	339.75
377.222	339.75
377.448	361.75
377.674	352.75
377.899	354.75
378.125	359.75
378.35	361.75
378.576	330.75
378.802	347.75
379.027	337.75
379.253	343.75
379.478	344.75
379.704	339.75
379.929	337.75
380.155	338.75
380.38	350.75
380.606	354.75
380.831	371.75
381.057	371.75
381.282	376.75
381.507	360.75
381.733	377.75
381.958	378.75
382.184	394.75
382.409	397.75
382.634	428.75
382.86	460.75
383.085	511.75
383.31	530.75
383.535	538.75
383.761	574.75
383.986	571.75
384.211	456.75
384.436	405.75
384.662	402.75
384.887	385.75
385.112	390.75
385.337	383.75
385.562	408.75
385.787	401.75
386.013	420.75
386.238	412.75
386.463	420.75
386.688	457.75
386.913	409.75
387.138	423.75
387.363	394.75
387.588	401.75
387.813	430.75
388.038	416.75
388.263	425.75
388.488	427.75
388.713	415.75
388.938	422.75
389.163	418.75
389.387	432.75
389.612	418.75
389.837	407.75
390.062	425.75
390.287	429.75
390.512	423.75
390.736	432.75
390.961	431.75
391.186	426.75
391.411	461.75
391.636	436.75
391.86	447.75
392.085	487.75
392.31	477.75
392.534	503.75
392.759	512.75
392.984	581.75
393.208	666.75
393.433	828.75
393.658	865.75
393.882	932.75
394.107	1518.75
394.331	2816.75
394.556	3846.75
394.78	2489.75
395.005	1378.75
395.229	1044.75
395.454	1101.75
395.678	1384.75
395.903	2393.75
396.127	4247.75
396.352	4890.75
396.576	2900.75
396.801	1640.75
397.025	1240.75
397.249	924.75
397.474	772.75
397.698	691.75
397.922	654.75
398.147	630.75
398.371	595.75
398.595	592.75
398.82	563.75
399.044	581.75
399.268	583.75
399.492	619.75
399.717	628.75
399.941	595.75
400.165	560.75
400.389	524.75
400.613	534.75
400.837	512.75
401.062	485.75
401.286	495.75
401.51	484.75
401.734	478.75
401.958	483.75
402.182	494.75
402.406	495.75
402.63	497.75
402.854	497.75
403.078	503.75
403.302	493.75
403.526	504.75
403.75	498.75
403.974	497.75
404.198	480.75
404.422	491.75
404.645	500.75
404.869	492.75
405.093	486.75
405.317	510.75
405.541	494.75
405.765	478.75
405.988	474.75
406.212	488.75
406.436	496.75
406.66	504.75
406.883	499.75
407.107	505.75
407.331	510.75
407.555	513.75
407.778	530.75
408.002	516.75
408.226	497.75
408.449	519.75
408.673	494.75
408.896	489.75
409.12	481.75
409.344	491.75
409.567	488.75
409.791	482.75
410.014	498.75
410.238	489.75
410.461	486.75
410.685	475.75
410.908	479.75
411.132	475.75
411.355	465.75
411.578	474.75
411.802	463.75
412.025	476.75
412.249	462.75
412.472	494.75
412.695	490.75
412.919	453.75
413.142	470.75
413.365	463.75
413.589	480.75
413.812	482.75
414.035	451.75
414.258	470.75
414.482	446.75
414.705	461.75
414.928	481.75
415.151	449.75
415.374	475.75
415.597	476.75
415.821	456.75
416.044	443.75
416.267	448.75
416.49	464.75
416.713	468.75
416.936	465.75
417.159	468.75
417.382	476.75
417.605	461.75
417.828	474.75
418.051	499.75
418.274	460.75
418.497	470.75
418.72	478.75
418.943	485.75
419.166	502.75
419.389	504.75
419.611	486.75
419.834	509.75
420.057	474.75
420.28	473.75
420.503	465.75
420.726	455.75
420.948	463.75
421.171	474.75
421.394	478.75
421.617	494.75
421.839	484.75
422.062	479.75
422.285	483.75
422.507	484.75
422.73	530.75
422.953	494.75
423.175	505.75
423.398	471.75
423.621	488.75
423.843	474.75
424.066	489.75
424.288	487.75
424.511	487.75
424.733	473.75
424.956	472.75
425.178	481.75
425.401	509.75
425.623	476.75
425.846	476.75
426.068	477.75
426.291	444.75
426.513	448.75
426.735	420.75
426.958	450.75
427.18	477.75
427.402	459.75
427.625	458.75
427.847	444.75
428.069	442.75
428.292	449.75
428.514	445.75
428.736	442.75
428.958	455.75
429.181	456.75
429.403	446.75
429.625	447.75
429.847	452.75
430.069	458.75
430.292	433.75
430.514	456.75
430.736	445.75
430.958	454.75
431.18	442.75
431.402	436.75
431.624	427.75
431.846	399.75
432.068	397.75
432.29	433.75
432.512	430.75
432.734	440.75
432.956	463.75
433.178	462.75
433.4	450.75
433.622	441.75
433.844	445.75
434.066	442.75
434.287	420.75
434.509	393.75
434.731	418.75
434.953	448.75
435.175	461.75
435.397	463.75
435.618	439.75
435.84	436.75
436.062	421.75
436.284	424.75
436.505	455.75
436.727	446.75
436.949	461.75
437.17	428.75
437.392	438.75
437.614	434.75
437.835	402.75
438.057	394.75
438.278	418.75
438.5	410.75
438.721	445.75
438.943	462.75
439.165	440.75
439.386	469.75
439.608	460.75
439.829	458.75
440.05	463.75
440.272	488.75
440.493	458.75
440.715	456.75
440.936	479.75
441.158	479.75
441.379	486.75
441.6	512.75
441.822	486.75
442.043	485.75
442.264	490.75
442.486	503.75
442.707	475.75
442.928	481.75
443.149	487.75
443.371	492.75
443.592	515.75
443.813	502.75
444.034	493.75
444.255	520.75
444.476	515.75
444.698	531.75
444.919	528.75
445.14	685.75
445.361	584.75
445.582	485.75
445.803	482.75
446.024	482.75
446.245	504.75
446.466	482.75
446.687	480.75
446.908	484.75
447.129	466.75
447.35	492.75
447.571	494.75
447.792	465.75
448.013	458.75
448.234	478.75
448.455	492.75
448.675	450.75
448.896	444.75
449.117	457.75
449.338	456.75
449.559	453.75
449.779	449.75
450	418.75
450.221	446.75
450.442	452.75
450.662	444.75
450.883	448.75
451.104	440.75
451.324	453.75
451.545	438.75
451.766	467.75
451.986	422.75
452.207	433.75
452.428	462.75
452.648	459.75
452.869	452.75
453.089	453.75
453.31	436.75
453.53	436.75
453.751	433.75
453.971	444.75
454.192	436.75
454.412	423.75
454.633	444.75
454.853	436.75
455.073	425.75
455.294	428.75
455.514	412.75
455.734	404.75
455.955	398.75
456.175	392.75
456.395	383.75
456.616	406.75
456.836	408.75
457.056	411.75
457.276	381.75
457.497	391.75
457.717	374.75
457.937	371.75
458.157	381.75
458.377	388.75
458.598	398.75
458.818	386.75
459.038	389.75
459.258	392.75
459.478	404.75
459.698	409.75
459.918	430.75
460.138	426.75
460.358	453.75
460.578	463.75
460.798	461.75
461.018	465.75
461.238	442.75
461.458	460.75
461.678	444.75
461.898	455.75
462.118	462.75
462.338	488.75
462.558	482.75
462.777	505.75
462.997	510.75
463.217	541.75
463.437	531.75
463.657	530.75
463.876	509.75
464.096	492.75
464.316	498.75
464.536	502.75
464.755	503.75
464.975	513.75
465.195	483.75
465.414	487.75
465.634	479.75
465.854	473.75
466.073	490.75
466.293	543.75
466.512	592.75
466.732	581.75
466.951	544.75
467.171	522.75
467.391	515.75
467.61	537.75
467.829	486.75
468.049	487.75
468.268	476.75
468.488	468.75
468.707	472.75
468.927	471.75
469.146	469.75
469.365	506.75
469.585	479.75
469.804	480.75
470.023	497.75
470.243	472.75
470.462	467.75
470.681	462.75
470.901	483.75
471.12	471.75
471.339	468.75
471.558	454.75
471.777	458.75
471.997	469.75
472.216	446.75
472.435	437.75
472.654	432.75
472.873	468.75
473.092	488.75
473.311	472.75
473.53	509.75
473.749	552.75
473.968	552.75
474.187	538.75
474.406	550.75
474.625	555.75
474.844	575.75
475.063	562.75
475.282	535.75
475.501	479.75
475.72	476.75
475.939	473.75
476.158	473.75
476.377	464.75
476.596	439.75
476.814	445.75
477.033	425.75
477.252	448.75
477.471	461.75
477.69	473.75
477.908	476.75
478.127	472.75
478.346	484.75
478.564	473.75
478.783	476.75
479.002	496.75
479.22	510.75
479.439	493.75
479.658	483.75
479.876	464.75
480.095	453.75
480.313	494.75
480.532	470.75
480.751	460.75
480.969	445.75
481.188	439.75
481.406	438.75
481.624	421.75
481.843	404.75
482.061	419.75
482.28	454.75
482.498	420.75
482.717	420.75
482.935	460.75
483.153	477.75
483.372	484.75
483.59	488.75
483.808	474.75
484.027	479.75
484.245	531.75
484.463	555.75
484.681	593.75
484.9	544.75
485.118	530.75
485.336	529.75
485.554	506.75
485.772	500.75
485.99	509.75
486.209	515.75
486.427	497.75
486.645	518.75
486.863	549.75
487.081	536.75
487.299	534.75
487.517	539.75
487.735	552.75
487.953	578.75
488.171	589.75
488.389	554.75
488.607	525.75
488.825	536.75
489.043	512.75
489.261	530.75
489.479	534.75
489.696	516.75
489.914	535.75
490.132	534.75
490.35	550.75
490.568	554.75
490.786	560.75
491.003	569.75
491.221	572.75
491.439	587.75
491.657	590.75
491.874	598.75
492.092	591.75
492.31	614.75
492.527	597.75
492.745	592.75
492.963	568.75
493.18	599.75
493.398	594.75
493.615	554.75
493.833	567.75
494.05	552.75
494.268	553.75
494.485	537.75
494.703	556.75
494.92	556.75
495.138	545.75
495.355	553.75
495.573	540.75
495.79	543.75
496.008	529.75
496.225	554.75
496.442	548.75
496.66	572.75
496.877	560.75
497.094	568.75
497.312	549.75
497.529	516.75
497.746	550.75
497.963	552.75
498.181	553.75
498.398	553.75
498.615	563.75
498.832	573.75
499.049	624.75
499.267	640.75
499.484	652.75
499.701	709.75
499.918	744.75
500.135	780.75
500.352	849.75
500.569	840.75
500.786	864.75
501.003	838.75
501.22	760.75
501.437	718.75
501.654	669.75
501.871	650.75
502.088	621.75
502.305	609.75
502.522	576.75
