Data from SampC_HRD10591_00007.txt Node
Date: Mon Jan 19 11:37:31 EST 2026
User: Yrep
Spectrometer: HR+D1059
Trigger mode: 0
Integration Time (sec): 3.443000E-1
Scans to average: 1
Electric dark correction enabled: true
Nonlinearity correction enabled: false
Boxcar width: 0
XAxis mode: Wavelengths
Number of Pixels in Spectrum: 2048
>>>>>Begin Spectral Data<<<<<
223.165	-8.56
223.4	-8.56
223.635	-8.56
223.869	-20.56
224.104	-31.56
224.338	-20.56
224.573	-18.56
224.808	-13.56
225.042	-12.56
225.277	-9.56
225.511	-9.56
225.746	11.44
225.98	6.44
226.215	21.44
226.449	14.44
226.683	25.44
226.918	33.44
227.152	32.44
227.387	33.44
227.621	47.44
227.856	39.44
228.09	37.44
228.324	53.44
228.559	57.44
228.793	57.44
229.027	93.44
229.262	85.44
229.496	73.44
229.73	80.44
229.964	91.44
230.199	86.44
230.433	66.44
230.667	105.44
230.901	93.44
231.136	93.44
231.37	95.44
231.604	105.44
231.838	93.44
232.072	100.44
232.306	113.44
232.541	115.44
232.775	87.44
233.009	97.44
233.243	90.44
233.477	98.44
233.711	106.44
233.945	87.44
234.179	115.44
234.413	104.44
234.647	99.44
234.881	85.44
235.115	105.44
235.349	109.44
235.583	106.44
235.817	94.44
236.051	105.44
236.285	95.44
236.519	110.44
236.753	136.44
236.987	148.44
237.221	162.44
237.455	171.44
237.689	162.44
237.922	153.44
238.156	130.44
238.39	124.44
238.624	109.44
238.858	118.44
239.091	98.44
239.325	101.44
239.559	107.44
239.793	108.44
240.027	110.44
240.26	106.44
240.494	96.44
240.728	97.44
240.961	102.44
241.195	107.44
241.429	98.44
241.662	119.44
241.896	91.44
242.13	106.44
242.363	110.44
242.597	106.44
242.83	106.44
243.064	101.44
243.298	102.44
243.531	100.44
243.765	104.44
243.998	114.44
244.232	122.44
244.465	111.44
244.699	108.44
244.932	105.44
245.166	98.44
245.399	123.44
245.633	97.44
245.866	110.44
246.099	103.44
246.333	108.44
246.566	113.44
246.8	98.44
247.033	110.44
247.266	109.44
247.5	109.44
247.733	98.44
247.966	122.44
248.2	112.44
248.433	99.44
248.666	106.44
248.899	114.44
249.133	113.44
249.366	124.44
249.599	131.44
249.832	116.44
250.066	128.44
250.299	125.44
250.532	110.44
250.765	119.44
250.998	136.44
251.231	115.44
251.465	115.44
251.698	119.44
251.931	132.44
252.164	139.44
252.397	114.44
252.63	103.44
252.863	123.44
253.096	110.44
253.329	125.44
253.562	112.44
253.795	128.44
254.028	141.44
254.261	107.44
254.494	119.44
254.727	133.44
254.96	125.44
255.193	139.44
255.426	119.44
255.659	127.44
255.892	120.44
256.124	130.44
256.357	137.44
256.59	154.44
256.823	157.44
257.056	187.44
257.289	190.44
257.521	188.44
257.754	212.44
257.987	205.44
258.22	174.44
258.452	171.44
258.685	162.44
258.918	146.44
259.151	126.44
259.383	142.44
259.616	124.44
259.849	137.44
260.081	155.44
260.314	138.44
260.547	137.44
260.779	142.44
261.012	113.44
261.244	137.44
261.477	137.44
261.71	138.44
261.942	130.44
262.175	140.44
262.407	146.44
262.64	137.44
262.872	171.44
263.105	157.44
263.337	190.44
263.57	202.44
263.802	179.44
264.035	177.44
264.267	177.44
264.499	176.44
264.732	162.44
264.964	159.44
265.197	197.44
265.429	179.44
265.661	213.44
265.894	191.44
266.126	213.44
266.358	209.44
266.591	176.44
266.823	155.44
267.055	149.44
267.287	157.44
267.52	150.44
267.752	157.44
267.984	140.44
268.216	164.44
268.448	144.44
268.681	146.44
268.913	148.44
269.145	160.44
269.377	146.44
269.609	142.44
269.841	138.44
270.073	140.44
270.306	145.44
270.538	142.44
270.77	142.44
271.002	139.44
271.234	145.44
271.466	167.44
271.698	142.44
271.93	162.44
272.162	151.44
272.394	157.44
272.626	151.44
272.858	153.44
273.09	158.44
273.322	143.44
273.553	164.44
273.785	154.44
274.017	153.44
274.249	143.44
274.481	168.44
274.713	144.44
274.945	171.44
275.176	157.44
275.408	156.44
275.64	159.44
275.872	155.44
276.104	160.44
276.335	170.44
276.567	147.44
276.799	160.44
277.031	175.44
277.262	154.44
277.494	180.44
277.726	171.44
277.957	180.44
278.189	196.44
278.421	181.44
278.652	214.44
278.884	230.44
279.115	296.44
279.347	381.44
279.579	509.44
279.81	591.44
280.042	478.44
280.273	460.44
280.505	431.44
280.736	298.44
280.968	238.44
281.199	256.44
281.431	294.44
281.662	380.44
281.894	414.44
282.125	344.44
282.356	284.44
282.588	228.44
282.819	228.44
283.051	203.44
283.282	202.44
283.513	194.44
283.745	188.44
283.976	179.44
284.207	188.44
284.439	180.44
284.67	197.44
284.901	215.44
285.132	210.44
285.364	231.44
285.595	217.44
285.826	193.44
286.057	182.44
286.288	168.44
286.52	173.44
286.751	182.44
286.982	176.44
287.213	165.44
287.444	165.44
287.675	167.44
287.906	180.44
288.138	179.44
288.369	195.44
288.6	185.44
288.831	178.44
289.062	198.44
289.293	192.44
289.524	162.44
289.755	201.44
289.986	163.44
290.217	176.44
290.448	186.44
290.679	174.44
290.91	191.44
291.141	198.44
291.371	196.44
291.602	178.44
291.833	171.44
292.064	188.44
292.295	173.44
292.526	212.44
292.757	214.44
292.987	199.44
293.218	212.44
293.449	218.44
293.68	196.44
293.91	214.44
294.141	203.44
294.372	189.44
294.603	189.44
294.833	196.44
295.064	172.44
295.295	190.44
295.525	165.44
295.756	197.44
295.987	189.44
296.217	183.44
296.448	174.44
296.679	178.44
296.909	182.44
297.14	203.44
297.37	185.44
297.601	186.44
297.831	189.44
298.062	205.44
298.292	186.44
298.523	197.44
298.753	213.44
298.984	181.44
299.214	186.44
299.445	187.44
299.675	197.44
299.905	199.44
300.136	197.44
300.366	190.44
300.597	202.44
300.827	193.44
301.057	199.44
301.288	211.44
301.518	215.44
301.748	207.44
301.979	243.44
302.209	215.44
302.439	212.44
302.669	194.44
302.9	213.44
303.13	223.44
303.36	221.44
303.59	224.44
303.82	214.44
304.051	250.44
304.281	256.44
304.511	259.44
304.741	275.44
304.971	316.44
305.201	361.44
305.431	399.44
305.661	433.44
305.891	460.44
306.121	412.44
306.352	395.44
306.582	399.44
306.812	375.44
307.042	354.44
307.272	355.44
307.502	379.44
307.731	476.44
307.961	634.44
308.191	896.44
308.421	1078.44
308.651	887.44
308.881	810.44
309.111	1045.44
309.341	1295.44
309.571	1275.44
309.8	794.44
310.03	569.44
310.26	403.44
310.49	370.44
310.72	319.44
310.949	309.44
311.179	303.44
311.409	284.44
311.639	259.44
311.868	250.44
312.098	252.44
312.328	244.44
312.557	246.44
312.787	247.44
313.017	239.44
313.246	259.44
313.476	234.44
313.706	237.44
313.935	223.44
314.165	229.44
314.394	230.44
314.624	226.44
314.853	221.44
315.083	236.44
315.312	226.44
315.542	216.44
315.771	223.44
316.001	225.44
316.23	212.44
316.46	210.44
316.689	236.44
316.919	217.44
317.148	219.44
317.377	208.44
317.607	239.44
317.836	214.44
318.065	214.44
318.295	218.44
318.524	203.44
318.753	204.44
318.983	211.44
319.212	220.44
319.441	217.44
319.67	216.44
319.9	210.44
320.129	225.44
320.358	205.44
320.587	210.44
320.816	225.44
321.046	226.44
321.275	212.44
321.504	207.44
321.733	209.44
321.962	212.44
322.191	223.44
322.42	218.44
322.649	209.44
322.878	222.44
323.108	218.44
323.337	215.44
323.566	230.44
323.795	229.44
324.024	225.44
324.253	219.44
324.482	227.44
324.71	222.44
324.939	224.44
325.168	235.44
325.397	233.44
325.626	238.44
325.855	207.44
326.084	221.44
326.313	229.44
326.542	213.44
326.77	222.44
326.999	231.44
327.228	219.44
327.457	237.44
327.686	224.44
327.914	234.44
328.143	220.44
328.372	224.44
328.6	222.44
328.829	211.44
329.058	226.44
329.287	225.44
329.515	230.44
329.744	246.44
329.972	231.44
330.201	201.44
330.43	219.44
330.658	216.44
330.887	222.44
331.115	232.44
331.344	223.44
331.572	239.44
331.801	225.44
332.03	239.44
332.258	222.44
332.486	224.44
332.715	244.44
332.943	241.44
333.172	257.44
333.4	251.44
333.629	267.44
333.857	241.44
334.085	253.44
334.314	237.44
334.542	242.44
334.771	243.44
334.999	238.44
335.227	234.44
335.455	258.44
335.684	247.44
335.912	246.44
336.14	258.44
336.369	233.44
336.597	249.44
336.825	227.44
337.053	244.44
337.281	252.44
337.51	238.44
337.738	242.44
337.966	235.44
338.194	230.44
338.422	222.44
338.65	246.44
338.878	233.44
339.106	228.44
339.334	225.44
339.562	249.44
339.79	236.44
340.018	241.44
340.246	219.44
340.474	222.44
340.702	220.44
340.93	229.44
341.158	215.44
341.386	234.44
341.614	243.44
341.842	243.44
342.07	220.44
342.298	240.44
342.526	224.44
342.754	228.44
342.981	235.44
343.209	232.44
343.437	274.44
343.665	250.44
343.893	262.44
344.12	251.44
344.348	252.44
344.576	258.44
344.804	252.44
345.031	243.44
345.259	250.44
345.487	226.44
345.714	218.44
345.942	252.44
346.17	226.44
346.397	240.44
346.625	246.44
346.853	231.44
347.08	220.44
347.308	229.44
347.535	259.44
347.763	219.44
347.99	238.44
348.218	228.44
348.445	234.44
348.673	237.44
348.9	231.44
349.128	234.44
349.355	240.44
349.583	248.44
349.81	234.44
350.037	222.44
350.265	229.44
350.492	219.44
350.72	229.44
350.947	243.44
351.174	250.44
351.402	256.44
351.629	238.44
351.856	259.44
352.083	249.44
352.311	255.44
352.538	230.44
352.765	237.44
352.992	270.44
353.22	263.44
353.447	250.44
353.674	248.44
353.901	259.44
354.128	254.44
354.355	269.44
354.583	263.44
354.81	287.44
355.037	274.44
355.264	301.44
355.491	291.44
355.718	296.44
355.945	315.44
356.172	310.44
356.399	328.44
356.626	347.44
356.853	354.44
357.08	345.44
357.307	372.44
357.534	410.44
357.761	445.44
357.988	487.44
358.215	589.44
358.441	672.44
358.668	753.44
358.895	748.44
359.122	588.44
359.349	495.44
359.576	457.44
359.802	397.44
360.029	385.44
360.256	347.44
360.483	360.44
360.709	325.44
360.936	351.44
361.163	331.44
361.39	318.44
361.616	295.44
361.843	308.44
362.07	297.44
362.296	287.44
362.523	270.44
362.749	291.44
362.976	289.44
363.203	277.44
363.429	259.44
363.656	292.44
363.882	257.44
364.109	275.44
364.335	256.44
364.562	267.44
364.788	265.44
365.015	253.44
365.241	262.44
365.468	282.44
365.694	258.44
365.92	265.44
366.147	253.44
366.373	258.44
366.599	267.44
366.826	256.44
367.052	250.44
367.278	268.44
367.505	269.44
367.731	270.44
367.957	271.44
368.184	254.44
368.41	237.44
368.636	241.44
368.862	244.44
369.089	266.44
369.315	246.44
369.541	260.44
369.767	261.44
369.993	254.44
370.219	255.44
370.445	257.44
370.672	262.44
370.898	250.44
371.124	267.44
371.35	271.44
371.576	260.44
371.802	253.44
372.028	272.44
372.254	246.44
372.48	261.44
372.706	267.44
372.932	265.44
373.158	266.44
373.384	271.44
373.61	267.44
373.835	264.44
374.061	270.44
374.287	268.44
374.513	254.44
374.739	263.44
374.965	251.44
375.191	263.44
375.416	254.44
375.642	251.44
375.868	256.44
376.094	241.44
376.319	255.44
376.545	232.44
376.771	260.44
376.997	251.44
377.222	260.44
377.448	252.44
377.674	257.44
377.899	249.44
378.125	248.44
378.35	262.44
378.576	244.44
378.802	251.44
379.027	271.44
379.253	240.44
379.478	253.44
379.704	257.44
379.929	262.44
380.155	243.44
380.38	237.44
380.606	245.44
380.831	246.44
381.057	276.44
381.282	268.44
381.507	259.44
381.733	270.44
381.958	261.44
382.184	270.44
382.409	293.44
382.634	287.44
382.86	299.44
383.085	301.44
383.31	326.44
383.535	339.44
383.761	311.44
383.986	331.44
384.211	291.44
384.436	282.44
384.662	282.44
384.887	278.44
385.112	277.44
385.337	276.44
385.562	293.44
385.787	296.44
386.013	291.44
386.238	285.44
386.463	294.44
386.688	329.44
386.913	293.44
387.138	296.44
387.363	283.44
387.588	294.44
387.813	301.44
388.038	293.44
388.263	285.44
388.488	290.44
388.713	294.44
388.938	301.44
389.163	315.44
389.387	290.44
389.612	285.44
389.837	295.44
390.062	304.44
390.287	306.44
390.512	308.44
390.736	311.44
390.961	283.44
391.186	301.44
391.411	316.44
391.636	316.44
391.86	315.44
392.085	313.44
392.31	313.44
392.534	325.44
392.759	327.44
392.984	348.44
393.208	383.44
393.433	416.44
393.658	445.44
393.882	506.44
394.107	792.44
394.331	1388.44
394.556	1818.44
394.78	1278.44
395.005	756.44
395.229	598.44
395.454	581.44
395.678	739.44
395.903	1193.44
396.127	2071.44
396.352	2457.44
396.576	1467.44
396.801	876.44
397.025	621.44
397.249	518.44
397.474	473.44
397.698	443.44
397.922	412.44
398.147	412.44
398.371	399.44
398.595	407.44
398.82	404.44
399.044	395.44
399.268	383.44
399.492	411.44
399.717	399.44
399.941	417.44
400.165	420.44
400.389	388.44
400.613	363.44
400.837	358.44
401.062	349.44
401.286	355.44
401.51	349.44
401.734	347.44
401.958	327.44
402.182	334.44
402.406	320.44
402.63	331.44
402.854	339.44
403.078	344.44
403.302	345.44
403.526	373.44
403.75	350.44
403.974	351.44
404.198	349.44
404.422	362.44
404.645	335.44
404.869	363.44
405.093	347.44
405.317	338.44
405.541	351.44
405.765	339.44
405.988	333.44
406.212	333.44
406.436	340.44
406.66	340.44
406.883	341.44
407.107	356.44
407.331	373.44
407.555	356.44
407.778	355.44
408.002	354.44
408.226	359.44
408.449	353.44
408.673	368.44
408.896	348.44
409.12	336.44
409.344	337.44
409.567	329.44
409.791	338.44
410.014	331.44
410.238	331.44
410.461	346.44
410.685	334.44
410.908	318.44
411.132	354.44
411.355	342.44
411.578	363.44
411.802	335.44
412.025	319.44
412.249	329.44
412.472	339.44
412.695	315.44
412.919	348.44
413.142	320.44
413.365	302.44
413.589	323.44
413.812	321.44
414.035	324.44
414.258	327.44
414.482	336.44
414.705	344.44
414.928	324.44
415.151	337.44
415.374	323.44
415.597	318.44
415.821	325.44
416.044	321.44
416.267	325.44
416.49	324.44
416.713	321.44
416.936	333.44
417.159	335.44
417.382	322.44
417.605	331.44
417.828	331.44
418.051	315.44
418.274	318.44
418.497	320.44
418.72	326.44
418.943	334.44
419.166	345.44
419.389	357.44
419.611	349.44
419.834	310.44
420.057	350.44
420.28	335.44
420.503	315.44
420.726	333.44
420.948	333.44
421.171	338.44
421.394	324.44
421.617	337.44
421.839	339.44
422.062	318.44
422.285	332.44
422.507	317.44
422.73	345.44
422.953	319.44
423.175	339.44
423.398	325.44
423.621	331.44
423.843	331.44
424.066	318.44
424.288	339.44
424.511	325.44
424.733	329.44
424.956	322.44
425.178	339.44
425.401	326.44
425.623	333.44
425.846	317.44
426.068	318.44
426.291	318.44
426.513	321.44
426.735	343.44
426.958	314.44
427.18	308.44
427.402	322.44
427.625	321.44
427.847	309.44
428.069	305.44
428.292	287.44
428.514	304.44
428.736	317.44
428.958	316.44
429.181	314.44
429.403	291.44
429.625	323.44
429.847	310.44
430.069	317.44
430.292	305.44
430.514	302.44
430.736	308.44
430.958	318.44
431.18	309.44
431.402	312.44
431.624	317.44
431.846	303.44
432.068	301.44
432.29	314.44
432.512	299.44
432.734	316.44
432.956	318.44
433.178	333.44
433.4	315.44
433.622	306.44
433.844	306.44
434.066	330.44
434.287	291.44
434.509	306.44
434.731	316.44
434.953	304.44
435.175	329.44
435.397	325.44
435.618	318.44
435.84	304.44
436.062	294.44
436.284	309.44
436.505	297.44
436.727	309.44
436.949	319.44
437.17	308.44
437.392	307.44
437.614	290.44
437.835	300.44
438.057	299.44
438.278	316.44
438.5	297.44
438.721	324.44
438.943	303.44
439.165	301.44
439.386	315.44
439.608	323.44
439.829	318.44
440.05	314.44
440.272	319.44
440.493	312.44
440.715	335.44
440.936	348.44
441.158	346.44
441.379	325.44
441.6	331.44
441.822	336.44
442.043	345.44
442.264	334.44
442.486	328.44
442.707	306.44
442.928	333.44
443.149	322.44
443.371	324.44
443.592	320.44
443.813	319.44
444.034	337.44
444.255	341.44
444.476	348.44
444.698	364.44
444.919	369.44
445.14	528.44
445.361	415.44
445.582	333.44
445.803	334.44
446.024	321.44
446.245	338.44
446.466	326.44
446.687	337.44
446.908	331.44
447.129	344.44
447.35	322.44
447.571	331.44
447.792	322.44
448.013	313.44
448.234	324.44
448.455	330.44
448.675	332.44
448.896	304.44
449.117	311.44
449.338	283.44
449.559	307.44
449.779	322.44
450	322.44
450.221	306.44
450.442	290.44
450.662	309.44
450.883	306.44
451.104	312.44
451.324	308.44
451.545	311.44
451.766	319.44
451.986	310.44
452.207	308.44
452.428	304.44
452.648	320.44
452.869	313.44
453.089	311.44
453.31	317.44
453.53	318.44
453.751	310.44
453.971	303.44
454.192	301.44
454.412	287.44
454.633	291.44
454.853	305.44
455.073	267.44
455.294	286.44
455.514	299.44
455.734	289.44
455.955	281.44
456.175	296.44
456.395	285.44
456.616	275.44
456.836	274.44
457.056	266.44
457.276	277.44
457.497	287.44
457.717	271.44
457.937	284.44
458.157	281.44
458.377	283.44
458.598	275.44
458.818	277.44
459.038	284.44
459.258	276.44
459.478	294.44
459.698	308.44
459.918	280.44
460.138	311.44
460.358	309.44
460.578	331.44
460.798	320.44
461.018	322.44
461.238	337.44
461.458	324.44
461.678	315.44
461.898	318.44
462.118	339.44
462.338	343.44
462.558	346.44
462.777	354.44
462.997	372.44
463.217	365.44
463.437	385.44
463.657	354.44
463.876	350.44
464.096	348.44
464.316	354.44
464.536	359.44
464.755	367.44
464.975	339.44
465.195	359.44
465.414	348.44
465.634	326.44
465.854	341.44
466.073	366.44
466.293	383.44
466.512	412.44
466.732	396.44
466.951	388.44
467.171	370.44
467.391	367.44
467.61	341.44
467.829	336.44
468.049	338.44
468.268	340.44
468.488	314.44
468.707	307.44
468.927	314.44
469.146	310.44
469.365	333.44
469.585	309.44
469.804	334.44
470.023	310.44
470.243	313.44
470.462	332.44
470.681	347.44
470.901	328.44
471.12	317.44
471.339	310.44
471.558	313.44
471.777	316.44
471.997	293.44
472.216	322.44
472.435	309.44
472.654	308.44
472.873	313.44
473.092	308.44
473.311	325.44
473.53	346.44
473.749	352.44
473.968	375.44
474.187	367.44
474.406	353.44
474.625	389.44
474.844	385.44
475.063	365.44
475.282	340.44
475.501	319.44
475.72	330.44
475.939	326.44
476.158	316.44
476.377	303.44
476.596	305.44
476.814	292.44
477.033	289.44
477.252	309.44
477.471	329.44
477.69	333.44
477.908	354.44
478.127	335.44
478.346	318.44
478.564	327.44
478.783	342.44
479.002	338.44
479.22	346.44
479.439	349.44
479.658	325.44
479.876	321.44
480.095	326.44
480.313	326.44
480.532	340.44
480.751	332.44
480.969	306.44
481.188	317.44
481.406	324.44
481.624	294.44
481.843	318.44
482.061	294.44
482.28	330.44
482.498	301.44
482.717	302.44
482.935	318.44
483.153	327.44
483.372	324.44
483.59	349.44
483.808	323.44
484.027	320.44
484.245	357.44
484.463	384.44
484.681	374.44
484.9	354.44
485.118	369.44
485.336	333.44
485.554	336.44
485.772	361.44
485.99	356.44
486.209	350.44
486.427	330.44
486.645	353.44
486.863	374.44
487.081	365.44
487.299	355.44
487.517	380.44
487.735	375.44
487.953	388.44
488.171	396.44
488.389	374.44
488.607	373.44
488.825	342.44
489.043	351.44
489.261	385.44
489.479	358.44
489.696	358.44
489.914	358.44
490.132	358.44
490.35	367.44
490.568	379.44
490.786	369.44
491.003	360.44
491.221	394.44
491.439	375.44
491.657	397.44
491.874	410.44
492.092	413.44
492.31	423.44
492.527	430.44
492.745	378.44
492.963	380.44
493.18	375.44
493.398	363.44
493.615	382.44
493.833	378.44
494.05	366.44
494.268	370.44
494.485	372.44
494.703	375.44
494.92	390.44
495.138	371.44
495.355	392.44
495.573	372.44
495.79	347.44
496.008	366.44
496.225	385.44
496.442	375.44
496.66	385.44
496.877	368.44
497.094	409.44
497.312	409.44
497.529	360.44
497.746	386.44
497.963	386.44
498.181	382.44
498.398	407.44
498.615	415.44
498.832	405.44
499.049	457.44
499.267	461.44
499.484	467.44
499.701	494.44
499.918	549.44
500.135	573.44
500.352	591.44
500.569	596.44
500.786	596.44
501.003	562.44
501.22	549.44
501.437	523.44
501.654	461.44
501.871	441.44
502.088	430.44
502.305	423.44
502.522	411.44
502.739	396.44
502.956	402.44
