Data from SampC_HRD10591_00039.txt Node
Date: Mon Jan 19 11:37:42 EST 2026
User: Yrep
Spectrometer: HR+D1059
Trigger mode: 0
Integration Time (sec): 3.443000E-1
Scans to average: 1
Electric dark correction enabled: true
Nonlinearity correction enabled: false
Boxcar width: 0
XAxis mode: Wavelengths
Number of Pixels in Spectrum: 2048
>>>>>Begin Spectral Data<<<<<
223.165	-21.75
223.4	-21.75
223.635	-21.75
223.869	-20.75
224.104	-31.75
224.338	-20.75
224.573	-15.75
224.808	-13.75
225.042	-9.75
225.277	5.25
225.511	5.25
225.746	12.25
225.98	6.25
226.215	13.25
226.449	15.25
226.683	21.25
226.918	31.25
227.152	24.25
227.387	31.25
227.621	28.25
227.856	33.25
228.09	34.25
228.324	53.25
228.559	56.25
228.793	58.25
229.027	83.25
229.262	88.25
229.496	84.25
229.73	73.25
229.964	79.25
230.199	87.25
230.433	84.25
230.667	98.25
230.901	93.25
231.136	100.25
231.37	92.25
231.604	108.25
231.838	115.25
232.072	102.25
232.306	106.25
232.541	95.25
232.775	100.25
233.009	89.25
233.243	98.25
233.477	108.25
233.711	119.25
233.945	103.25
234.179	106.25
234.413	101.25
234.647	113.25
234.881	109.25
235.115	98.25
235.349	103.25
235.583	92.25
235.817	114.25
236.051	120.25
236.285	109.25
236.519	117.25
236.753	124.25
236.987	158.25
237.221	169.25
237.455	164.25
237.689	172.25
237.922	151.25
238.156	108.25
238.39	128.25
238.624	110.25
238.858	112.25
239.091	106.25
239.325	98.25
239.559	118.25
239.793	107.25
240.027	97.25
240.26	105.25
240.494	112.25
240.728	106.25
240.961	85.25
241.195	101.25
241.429	94.25
241.662	99.25
241.896	102.25
242.13	109.25
242.363	94.25
242.597	93.25
242.83	98.25
243.064	101.25
243.298	103.25
243.531	94.25
243.765	113.25
243.998	86.25
244.232	116.25
244.465	101.25
244.699	99.25
244.932	111.25
245.166	117.25
245.399	113.25
245.633	114.25
245.866	106.25
246.099	120.25
246.333	103.25
246.566	122.25
246.8	120.25
247.033	107.25
247.266	109.25
247.5	120.25
247.733	114.25
247.966	108.25
248.2	115.25
248.433	97.25
248.666	118.25
248.899	117.25
249.133	120.25
249.366	128.25
249.599	125.25
249.832	116.25
250.066	106.25
250.299	113.25
250.532	92.25
250.765	107.25
250.998	118.25
251.231	111.25
251.465	120.25
251.698	129.25
251.931	125.25
252.164	115.25
252.397	107.25
252.63	134.25
252.863	111.25
253.096	112.25
253.329	118.25
253.562	129.25
253.795	114.25
254.028	129.25
254.261	149.25
254.494	125.25
254.727	124.25
254.96	133.25
255.193	121.25
255.426	113.25
255.659	125.25
255.892	133.25
256.124	136.25
256.357	143.25
256.59	147.25
256.823	174.25
257.056	198.25
257.289	212.25
257.521	220.25
257.754	254.25
257.987	226.25
258.22	174.25
258.452	156.25
258.685	144.25
258.918	149.25
259.151	138.25
259.383	147.25
259.616	153.25
259.849	140.25
260.081	146.25
260.314	136.25
260.547	135.25
260.779	137.25
261.012	140.25
261.244	134.25
261.477	134.25
261.71	136.25
261.942	151.25
262.175	148.25
262.407	139.25
262.64	150.25
262.872	158.25
263.105	175.25
263.337	187.25
263.57	184.25
263.802	190.25
264.035	188.25
264.267	175.25
264.499	168.25
264.732	161.25
264.964	169.25
265.197	179.25
265.429	193.25
265.661	210.25
265.894	198.25
266.126	218.25
266.358	235.25
266.591	191.25
266.823	173.25
267.055	153.25
267.287	172.25
267.52	158.25
267.752	159.25
267.984	150.25
268.216	139.25
268.448	152.25
268.681	159.25
268.913	144.25
269.145	162.25
269.377	148.25
269.609	152.25
269.841	163.25
270.073	141.25
270.306	134.25
270.538	152.25
270.77	149.25
271.002	128.25
271.234	142.25
271.466	162.25
271.698	156.25
271.93	153.25
272.162	142.25
272.394	152.25
272.626	147.25
272.858	138.25
273.09	155.25
273.322	145.25
273.553	144.25
273.785	159.25
274.017	155.25
274.249	158.25
274.481	161.25
274.713	153.25
274.945	169.25
275.176	164.25
275.408	168.25
275.64	157.25
275.872	150.25
276.104	166.25
276.335	178.25
276.567	156.25
276.799	149.25
277.031	161.25
277.262	181.25
277.494	188.25
277.726	197.25
277.957	186.25
278.189	202.25
278.421	193.25
278.652	202.25
278.884	230.25
279.115	269.25
279.347	396.25
279.579	505.25
279.81	554.25
280.042	478.25
280.273	452.25
280.505	428.25
280.736	293.25
280.968	229.25
281.199	249.25
281.431	290.25
281.662	323.25
281.894	376.25
282.125	310.25
282.356	248.25
282.588	235.25
282.819	209.25
283.051	185.25
283.282	204.25
283.513	204.25
283.745	181.25
283.976	189.25
284.207	182.25
284.439	190.25
284.67	187.25
284.901	196.25
285.132	230.25
285.364	260.25
285.595	238.25
285.826	191.25
286.057	190.25
286.288	179.25
286.52	178.25
286.751	165.25
286.982	187.25
287.213	173.25
287.444	186.25
287.675	186.25
287.906	187.25
288.138	189.25
288.369	189.25
288.6	199.25
288.831	188.25
289.062	164.25
289.293	177.25
289.524	181.25
289.755	178.25
289.986	183.25
290.217	196.25
290.448	176.25
290.679	185.25
290.91	196.25
291.141	161.25
291.371	175.25
291.602	191.25
291.833	193.25
292.064	197.25
292.295	191.25
292.526	197.25
292.757	207.25
292.987	206.25
293.218	212.25
293.449	202.25
293.68	226.25
293.91	199.25
294.141	211.25
294.372	205.25
294.603	208.25
294.833	187.25
295.064	176.25
295.295	192.25
295.525	185.25
295.756	174.25
295.987	194.25
296.217	182.25
296.448	201.25
296.679	189.25
296.909	181.25
297.14	178.25
297.37	182.25
297.601	198.25
297.831	197.25
298.062	194.25
298.292	183.25
298.523	182.25
298.753	204.25
298.984	182.25
299.214	196.25
299.445	201.25
299.675	201.25
299.905	212.25
300.136	200.25
300.366	198.25
300.597	205.25
300.827	213.25
301.057	204.25
301.288	211.25
301.518	213.25
301.748	204.25
301.979	251.25
302.209	221.25
302.439	217.25
302.669	224.25
302.9	214.25
303.13	237.25
303.36	240.25
303.59	240.25
303.82	260.25
304.051	244.25
304.281	265.25
304.511	268.25
304.741	265.25
304.971	298.25
305.201	349.25
305.431	392.25
305.661	424.25
305.891	475.25
306.121	441.25
306.352	400.25
306.582	434.25
306.812	452.25
307.042	411.25
307.272	368.25
307.502	412.25
307.731	532.25
307.961	725.25
308.191	978.25
308.421	1165.25
308.651	982.25
308.881	919.25
309.111	1098.25
309.341	1353.25
309.571	1326.25
309.8	873.25
310.03	618.25
310.26	461.25
310.49	413.25
310.72	364.25
310.949	317.25
311.179	330.25
311.409	282.25
311.639	278.25
311.868	271.25
312.098	268.25
312.328	272.25
312.557	263.25
312.787	261.25
313.017	238.25
313.246	254.25
313.476	237.25
313.706	254.25
313.935	232.25
314.165	241.25
314.394	224.25
314.624	224.25
314.853	236.25
315.083	238.25
315.312	222.25
315.542	224.25
315.771	208.25
316.001	221.25
316.23	221.25
316.46	205.25
316.689	229.25
316.919	219.25
317.148	230.25
317.377	223.25
317.607	220.25
317.836	213.25
318.065	220.25
318.295	217.25
318.524	211.25
318.753	214.25
318.983	216.25
319.212	230.25
319.441	210.25
319.67	208.25
319.9	211.25
320.129	209.25
320.358	205.25
320.587	222.25
320.816	199.25
321.046	202.25
321.275	214.25
321.504	215.25
321.733	216.25
321.962	201.25
322.191	211.25
322.42	225.25
322.649	210.25
322.878	226.25
323.108	225.25
323.337	219.25
323.566	213.25
323.795	220.25
324.024	233.25
324.253	217.25
324.482	230.25
324.71	240.25
324.939	227.25
325.168	228.25
325.397	221.25
325.626	216.25
325.855	219.25
326.084	206.25
326.313	217.25
326.542	219.25
326.77	213.25
326.999	229.25
327.228	209.25
327.457	236.25
327.686	223.25
327.914	233.25
328.143	226.25
328.372	220.25
328.6	217.25
328.829	235.25
329.058	215.25
329.287	207.25
329.515	213.25
329.744	222.25
329.972	221.25
330.201	216.25
330.43	228.25
330.658	216.25
330.887	222.25
331.115	221.25
331.344	220.25
331.572	220.25
331.801	251.25
332.03	250.25
332.258	240.25
332.486	242.25
332.715	255.25
332.943	252.25
333.172	249.25
333.4	259.25
333.629	256.25
333.857	236.25
334.085	252.25
334.314	240.25
334.542	254.25
334.771	236.25
334.999	261.25
335.227	251.25
335.455	249.25
335.684	251.25
335.912	244.25
336.14	255.25
336.369	232.25
336.597	229.25
336.825	259.25
337.053	247.25
337.281	234.25
337.51	242.25
337.738	236.25
337.966	224.25
338.194	232.25
338.422	236.25
338.65	221.25
338.878	256.25
339.106	221.25
339.334	225.25
339.562	229.25
339.79	224.25
340.018	226.25
340.246	234.25
340.474	215.25
340.702	230.25
340.93	224.25
341.158	210.25
341.386	246.25
341.614	233.25
341.842	217.25
342.07	223.25
342.298	235.25
342.526	236.25
342.754	248.25
342.981	235.25
343.209	231.25
343.437	264.25
343.665	239.25
343.893	240.25
344.12	257.25
344.348	245.25
344.576	241.25
344.804	239.25
345.031	236.25
345.259	234.25
345.487	233.25
345.714	229.25
345.942	232.25
346.17	231.25
346.397	242.25
346.625	223.25
346.853	242.25
347.08	222.25
347.308	240.25
347.535	225.25
347.763	230.25
347.99	239.25
348.218	227.25
348.445	235.25
348.673	234.25
348.9	249.25
349.128	237.25
349.355	238.25
349.583	230.25
349.81	235.25
350.037	229.25
350.265	224.25
350.492	229.25
350.72	232.25
350.947	247.25
351.174	243.25
351.402	244.25
351.629	240.25
351.856	242.25
352.083	247.25
352.311	236.25
352.538	234.25
352.765	252.25
352.992	269.25
353.22	257.25
353.447	240.25
353.674	245.25
353.901	251.25
354.128	265.25
354.355	268.25
354.583	270.25
354.81	281.25
355.037	272.25
355.264	272.25
355.491	279.25
355.718	286.25
355.945	287.25
356.172	276.25
356.399	292.25
356.626	316.25
356.853	327.25
357.08	338.25
357.307	349.25
357.534	386.25
357.761	388.25
357.988	435.25
358.215	499.25
358.441	554.25
358.668	595.25
358.895	608.25
359.122	511.25
359.349	448.25
359.576	405.25
359.802	378.25
360.029	361.25
360.256	343.25
360.483	352.25
360.709	330.25
360.936	329.25
361.163	329.25
361.39	308.25
361.616	310.25
361.843	299.25
362.07	290.25
362.296	289.25
362.523	293.25
362.749	277.25
362.976	290.25
363.203	274.25
363.429	265.25
363.656	265.25
363.882	277.25
364.109	254.25
364.335	269.25
364.562	247.25
364.788	257.25
365.015	263.25
365.241	258.25
365.468	248.25
365.694	246.25
365.92	249.25
366.147	235.25
366.373	251.25
366.599	233.25
366.826	227.25
367.052	225.25
367.278	246.25
367.505	248.25
367.731	273.25
367.957	253.25
368.184	261.25
368.41	262.25
368.636	254.25
368.862	268.25
369.089	249.25
369.315	248.25
369.541	262.25
369.767	239.25
369.993	268.25
370.219	246.25
370.445	244.25
370.672	272.25
370.898	237.25
371.124	267.25
371.35	262.25
371.576	268.25
371.802	276.25
372.028	274.25
372.254	267.25
372.48	267.25
372.706	264.25
372.932	267.25
373.158	273.25
373.384	263.25
373.61	238.25
373.835	264.25
374.061	274.25
374.287	265.25
374.513	259.25
374.739	266.25
374.965	251.25
375.191	261.25
375.416	278.25
375.642	247.25
375.868	262.25
376.094	276.25
376.319	253.25
376.545	253.25
376.771	257.25
376.997	239.25
377.222	264.25
377.448	278.25
377.674	250.25
377.899	254.25
378.125	244.25
378.35	264.25
378.576	256.25
378.802	250.25
379.027	272.25
379.253	262.25
379.478	269.25
379.704	254.25
379.929	260.25
380.155	266.25
380.38	281.25
380.606	265.25
380.831	268.25
381.057	268.25
381.282	276.25
381.507	263.25
381.733	283.25
381.958	282.25
382.184	282.25
382.409	273.25
382.634	313.25
382.86	315.25
383.085	352.25
383.31	354.25
383.535	351.25
383.761	346.25
383.986	345.25
384.211	312.25
384.436	295.25
384.662	298.25
384.887	282.25
385.112	286.25
385.337	310.25
385.562	282.25
385.787	290.25
386.013	306.25
386.238	312.25
386.463	305.25
386.688	343.25
386.913	310.25
387.138	311.25
387.363	317.25
387.588	326.25
387.813	299.25
388.038	314.25
388.263	306.25
388.488	314.25
388.713	297.25
388.938	299.25
389.163	324.25
389.387	307.25
389.612	310.25
389.837	317.25
390.062	319.25
390.287	299.25
390.512	310.25
390.736	319.25
390.961	323.25
391.186	319.25
391.411	322.25
391.636	329.25
391.86	350.25
392.085	343.25
392.31	347.25
392.534	349.25
392.759	367.25
392.984	387.25
393.208	418.25
393.433	463.25
393.658	488.25
393.882	583.25
394.107	908.25
394.331	1569.25
394.556	2036.25
394.78	1448.25
395.005	883.25
395.229	702.25
395.454	709.25
395.678	874.25
395.903	1370.25
396.127	2285.25
396.352	2593.25
396.576	1636.25
396.801	987.25
397.025	728.25
397.249	596.25
397.474	551.25
397.698	508.25
397.922	477.25
398.147	443.25
398.371	443.25
398.595	448.25
398.82	422.25
399.044	428.25
399.268	449.25
399.492	443.25
399.717	457.25
399.941	440.25
400.165	417.25
400.389	408.25
400.613	397.25
400.837	398.25
401.062	362.25
401.286	372.25
401.51	375.25
401.734	358.25
401.958	367.25
402.182	358.25
402.406	346.25
402.63	354.25
402.854	350.25
403.078	335.25
403.302	374.25
403.526	385.25
403.75	352.25
403.974	344.25
404.198	380.25
404.422	376.25
404.645	375.25
404.869	386.25
405.093	370.25
405.317	361.25
405.541	376.25
405.765	359.25
405.988	378.25
406.212	361.25
406.436	358.25
406.66	364.25
406.883	377.25
407.107	385.25
407.331	369.25
407.555	399.25
407.778	392.25
408.002	376.25
408.226	386.25
408.449	385.25
408.673	349.25
408.896	364.25
409.12	374.25
409.344	365.25
409.567	372.25
409.791	376.25
410.014	362.25
410.238	358.25
410.461	366.25
410.685	365.25
410.908	353.25
411.132	350.25
411.355	344.25
411.578	358.25
411.802	350.25
412.025	341.25
412.249	337.25
412.472	348.25
412.695	337.25
412.919	333.25
413.142	353.25
413.365	354.25
413.589	350.25
413.812	331.25
414.035	344.25
414.258	361.25
414.482	362.25
414.705	342.25
414.928	357.25
415.151	356.25
415.374	346.25
415.597	354.25
415.821	360.25
416.044	358.25
416.267	356.25
416.49	347.25
416.713	353.25
416.936	359.25
417.159	349.25
417.382	349.25
417.605	369.25
417.828	356.25
418.051	324.25
418.274	365.25
418.497	340.25
418.72	357.25
418.943	361.25
419.166	356.25
419.389	387.25
419.611	376.25
419.834	365.25
420.057	381.25
420.28	363.25
420.503	356.25
420.726	346.25
420.948	357.25
421.171	369.25
421.394	357.25
421.617	377.25
421.839	365.25
422.062	363.25
422.285	369.25
422.507	339.25
422.73	343.25
422.953	361.25
423.175	357.25
423.398	342.25
423.621	358.25
423.843	354.25
424.066	356.25
424.288	354.25
424.511	381.25
424.733	368.25
424.956	355.25
425.178	365.25
425.401	346.25
425.623	360.25
425.846	345.25
426.068	345.25
426.291	348.25
426.513	362.25
426.735	341.25
426.958	364.25
427.18	362.25
427.402	337.25
427.625	341.25
427.847	346.25
428.069	351.25
428.292	342.25
428.514	344.25
428.736	335.25
428.958	335.25
429.181	349.25
429.403	333.25
429.625	327.25
429.847	326.25
430.069	319.25
430.292	361.25
430.514	327.25
430.736	328.25
430.958	341.25
431.18	332.25
431.402	316.25
431.624	321.25
431.846	316.25
432.068	304.25
432.29	284.25
432.512	315.25
432.734	327.25
432.956	344.25
433.178	364.25
433.4	344.25
433.622	351.25
433.844	351.25
434.066	351.25
434.287	326.25
434.509	324.25
434.731	326.25
434.953	320.25
435.175	347.25
435.397	347.25
435.618	336.25
435.84	324.25
436.062	310.25
436.284	333.25
436.505	344.25
436.727	346.25
436.949	354.25
437.17	336.25
437.392	322.25
437.614	329.25
437.835	306.25
438.057	302.25
438.278	313.25
438.5	334.25
438.721	335.25
438.943	333.25
439.165	365.25
439.386	344.25
439.608	352.25
439.829	351.25
440.05	340.25
440.272	348.25
440.493	345.25
440.715	348.25
440.936	375.25
441.158	386.25
441.379	367.25
441.6	380.25
441.822	372.25
442.043	357.25
442.264	377.25
442.486	360.25
442.707	352.25
442.928	344.25
443.149	357.25
443.371	354.25
443.592	353.25
443.813	356.25
444.034	383.25
444.255	384.25
444.476	397.25
444.698	392.25
444.919	389.25
445.14	634.25
445.361	501.25
445.582	390.25
445.803	380.25
446.024	365.25
446.245	353.25
446.466	362.25
446.687	369.25
446.908	373.25
447.129	372.25
447.35	365.25
447.571	357.25
447.792	344.25
448.013	357.25
448.234	336.25
448.455	328.25
448.675	346.25
448.896	339.25
449.117	333.25
449.338	342.25
449.559	336.25
449.779	360.25
450	346.25
450.221	340.25
450.442	329.25
450.662	343.25
450.883	325.25
451.104	321.25
451.324	320.25
451.545	309.25
451.766	341.25
451.986	328.25
452.207	332.25
452.428	329.25
452.648	318.25
452.869	335.25
453.089	312.25
453.31	330.25
453.53	306.25
453.751	325.25
453.971	328.25
454.192	327.25
454.412	311.25
454.633	307.25
454.853	339.25
455.073	312.25
455.294	313.25
455.514	314.25
455.734	300.25
455.955	308.25
456.175	310.25
456.395	296.25
456.616	304.25
456.836	286.25
457.056	292.25
457.276	285.25
457.497	307.25
457.717	295.25
457.937	294.25
458.157	296.25
458.377	274.25
458.598	288.25
458.818	283.25
459.038	302.25
459.258	271.25
459.478	294.25
459.698	312.25
459.918	322.25
460.138	324.25
460.358	343.25
460.578	357.25
460.798	332.25
461.018	330.25
461.238	345.25
461.458	343.25
461.678	329.25
461.898	370.25
462.118	341.25
462.338	348.25
462.558	359.25
462.777	372.25
462.997	396.25
463.217	397.25
463.437	404.25
463.657	367.25
463.876	363.25
464.096	377.25
464.316	385.25
464.536	383.25
464.755	385.25
464.975	361.25
465.195	357.25
465.414	370.25
465.634	360.25
465.854	358.25
466.073	366.25
466.293	363.25
466.512	416.25
466.732	385.25
466.951	385.25
467.171	377.25
467.391	361.25
467.61	359.25
467.829	344.25
468.049	366.25
468.268	358.25
468.488	353.25
468.707	331.25
468.927	343.25
469.146	355.25
469.365	336.25
469.585	324.25
469.804	359.25
470.023	365.25
470.243	370.25
470.462	349.25
470.681	344.25
470.901	352.25
471.12	340.25
471.339	362.25
471.558	354.25
471.777	354.25
471.997	362.25
472.216	327.25
472.435	317.25
472.654	306.25
472.873	324.25
473.092	337.25
473.311	353.25
473.53	371.25
473.749	374.25
473.968	389.25
474.187	353.25
474.406	385.25
474.625	405.25
474.844	423.25
475.063	386.25
475.282	393.25
475.501	360.25
475.72	356.25
475.939	348.25
476.158	337.25
476.377	344.25
476.596	326.25
476.814	317.25
477.033	304.25
477.252	326.25
477.471	351.25
477.69	356.25
477.908	360.25
478.127	353.25
478.346	380.25
478.564	377.25
478.783	364.25
479.002	369.25
479.22	360.25
479.439	365.25
479.658	342.25
479.876	329.25
480.095	336.25
480.313	350.25
480.532	372.25
480.751	351.25
480.969	325.25
481.188	329.25
481.406	311.25
481.624	320.25
481.843	299.25
482.061	294.25
482.28	338.25
482.498	340.25
482.717	330.25
482.935	346.25
483.153	359.25
483.372	355.25
483.59	364.25
483.808	348.25
484.027	353.25
484.245	356.25
484.463	388.25
484.681	404.25
484.9	402.25
485.118	367.25
485.336	365.25
485.554	364.25
485.772	340.25
485.99	345.25
486.209	352.25
486.427	351.25
486.645	371.25
486.863	389.25
487.081	404.25
487.299	393.25
487.517	380.25
487.735	433.25
487.953	440.25
488.171	442.25
488.389	405.25
488.607	403.25
488.825	357.25
489.043	374.25
489.261	365.25
489.479	382.25
489.696	366.25
489.914	356.25
490.132	388.25
490.35	397.25
490.568	388.25
490.786	416.25
491.003	422.25
491.221	430.25
491.439	455.25
491.657	421.25
491.874	443.25
492.092	477.25
492.31	496.25
492.527	454.25
492.745	449.25
492.963	433.25
493.18	438.25
493.398	431.25
493.615	436.25
493.833	431.25
494.05	424.25
494.268	415.25
494.485	425.25
494.703	409.25
494.92	410.25
495.138	415.25
495.355	426.25
495.573	424.25
495.79	408.25
496.008	411.25
496.225	424.25
496.442	432.25
496.66	418.25
496.877	456.25
497.094	426.25
497.312	440.25
497.529	408.25
497.746	434.25
497.963	414.25
498.181	404.25
498.398	431.25
498.615	446.25
498.832	446.25
499.049	466.25
499.267	470.25
499.484	484.25
499.701	527.25
499.918	554.25
500.135	590.25
500.352	605.25
500.569	623.25
500.786	630.25
501.003	592.25
501.22	548.25
501.437	534.25
501.654	513.25
501.871	486.25
502.088	460.25
502.305	447.25
502.522	435.25
502.739	429.25
502.956	409.25
