Data from SampC_HRD10591_00036.txt Node
Date: Mon Jan 19 11:37:41 EST 2026
User: Yrep
Spectrometer: HR+D1059
Trigger mode: 0
Integration Time (sec): 3.443000E-1
Scans to average: 1
Electric dark correction enabled: true
Nonlinearity correction enabled: false
Boxcar width: 0
XAxis mode: Wavelengths
Number of Pixels in Spectrum: 2048
>>>>>Begin Spectral Data<<<<<
223.165	-23.19
223.4	-23.19
223.635	-23.19
223.869	-26.19
224.104	-31.19
224.338	-13.19
224.573	-12.19
224.808	-13.19
225.042	-8.19
225.277	14.81
225.511	3.81
225.746	5.81
225.98	5.81
226.215	9.81
226.449	22.81
226.683	21.81
226.918	22.81
227.152	19.81
227.387	53.81
227.621	37.81
227.856	39.81
228.09	41.81
228.324	40.81
228.559	59.81
228.793	60.81
229.027	64.81
229.262	65.81
229.496	67.81
229.73	79.81
229.964	70.81
230.199	86.81
230.433	69.81
230.667	79.81
230.901	85.81
231.136	73.81
231.37	89.81
231.604	105.81
231.838	89.81
232.072	92.81
232.306	103.81
232.541	91.81
232.775	77.81
233.009	89.81
233.243	81.81
233.477	79.81
233.711	98.81
233.945	82.81
234.179	105.81
234.413	73.81
234.647	96.81
234.881	80.81
235.115	90.81
235.349	92.81
235.583	79.81
235.817	98.81
236.051	106.81
236.285	98.81
236.519	92.81
236.753	90.81
236.987	91.81
237.221	104.81
237.455	124.81
237.689	129.81
237.922	105.81
238.156	98.81
238.39	102.81
238.624	106.81
238.858	102.81
239.091	78.81
239.325	86.81
239.559	91.81
239.793	85.81
240.027	101.81
240.26	78.81
240.494	91.81
240.728	86.81
240.961	85.81
241.195	89.81
241.429	87.81
241.662	90.81
241.896	74.81
242.13	77.81
242.363	81.81
242.597	81.81
242.83	85.81
243.064	94.81
243.298	85.81
243.531	78.81
243.765	91.81
243.998	87.81
244.232	90.81
244.465	86.81
244.699	87.81
244.932	90.81
245.166	90.81
245.399	77.81
245.633	85.81
245.866	76.81
246.099	92.81
246.333	97.81
246.566	89.81
246.8	95.81
247.033	89.81
247.266	87.81
247.5	104.81
247.733	98.81
247.966	91.81
248.2	108.81
248.433	71.81
248.666	81.81
248.899	103.81
249.133	85.81
249.366	102.81
249.599	98.81
249.832	85.81
250.066	96.81
250.299	95.81
250.532	94.81
250.765	102.81
250.998	90.81
251.231	99.81
251.465	95.81
251.698	99.81
251.931	103.81
252.164	93.81
252.397	107.81
252.63	107.81
252.863	104.81
253.096	99.81
253.329	92.81
253.562	104.81
253.795	107.81
254.028	109.81
254.261	103.81
254.494	95.81
254.727	112.81
254.96	112.81
255.193	104.81
255.426	95.81
255.659	103.81
255.892	96.81
256.124	112.81
256.357	97.81
256.59	127.81
256.823	113.81
257.056	126.81
257.289	123.81
257.521	130.81
257.754	142.81
257.987	129.81
258.22	127.81
258.452	117.81
258.685	107.81
258.918	114.81
259.151	89.81
259.383	112.81
259.616	93.81
259.849	114.81
260.081	108.81
260.314	104.81
260.547	105.81
260.779	117.81
261.012	122.81
261.244	96.81
261.477	127.81
261.71	104.81
261.942	112.81
262.175	106.81
262.407	88.81
262.64	104.81
262.872	121.81
263.105	117.81
263.337	128.81
263.57	121.81
263.802	135.81
264.035	133.81
264.267	114.81
264.499	136.81
264.732	119.81
264.964	122.81
265.197	119.81
265.429	131.81
265.661	132.81
265.894	111.81
266.126	139.81
266.358	140.81
266.591	130.81
266.823	121.81
267.055	111.81
267.287	111.81
267.52	113.81
267.752	112.81
267.984	108.81
268.216	110.81
268.448	119.81
268.681	111.81
268.913	96.81
269.145	111.81
269.377	113.81
269.609	105.81
269.841	111.81
270.073	106.81
270.306	108.81
270.538	110.81
270.77	96.81
271.002	117.81
271.234	130.81
271.466	139.81
271.698	108.81
271.93	110.81
272.162	111.81
272.394	118.81
272.626	120.81
272.858	109.81
273.09	119.81
273.322	114.81
273.553	119.81
273.785	126.81
274.017	113.81
274.249	118.81
274.481	112.81
274.713	118.81
274.945	124.81
275.176	116.81
275.408	121.81
275.64	121.81
275.872	110.81
276.104	120.81
276.335	119.81
276.567	119.81
276.799	116.81
277.031	115.81
277.262	127.81
277.494	141.81
277.726	127.81
277.957	120.81
278.189	121.81
278.421	152.81
278.652	145.81
278.884	152.81
279.115	165.81
279.347	207.81
279.579	288.81
279.81	304.81
280.042	266.81
280.273	253.81
280.505	239.81
280.736	191.81
280.968	171.81
281.199	154.81
281.431	173.81
281.662	209.81
281.894	242.81
282.125	183.81
282.356	158.81
282.588	153.81
282.819	155.81
283.051	140.81
283.282	126.81
283.513	141.81
283.745	140.81
283.976	133.81
284.207	130.81
284.439	137.81
284.67	135.81
284.901	125.81
285.132	163.81
285.364	166.81
285.595	141.81
285.826	135.81
286.057	135.81
286.288	114.81
286.52	117.81
286.751	125.81
286.982	126.81
287.213	113.81
287.444	127.81
287.675	128.81
287.906	131.81
288.138	143.81
288.369	131.81
288.6	130.81
288.831	151.81
289.062	139.81
289.293	123.81
289.524	129.81
289.755	131.81
289.986	130.81
290.217	140.81
290.448	124.81
290.679	135.81
290.91	142.81
291.141	140.81
291.371	134.81
291.602	151.81
291.833	144.81
292.064	122.81
292.295	144.81
292.526	146.81
292.757	133.81
292.987	146.81
293.218	138.81
293.449	132.81
293.68	145.81
293.91	145.81
294.141	158.81
294.372	144.81
294.603	155.81
294.833	152.81
295.064	138.81
295.295	125.81
295.525	133.81
295.756	140.81
295.987	127.81
296.217	135.81
296.448	131.81
296.679	136.81
296.909	134.81
297.14	124.81
297.37	125.81
297.601	119.81
297.831	135.81
298.062	130.81
298.292	136.81
298.523	135.81
298.753	124.81
298.984	143.81
299.214	138.81
299.445	128.81
299.675	138.81
299.905	137.81
300.136	137.81
300.366	120.81
300.597	141.81
300.827	124.81
301.057	129.81
301.288	143.81
301.518	159.81
301.748	136.81
301.979	163.81
302.209	142.81
302.439	127.81
302.669	130.81
302.9	141.81
303.13	151.81
303.36	164.81
303.59	153.81
303.82	158.81
304.051	153.81
304.281	169.81
304.511	181.81
304.741	167.81
304.971	190.81
305.201	224.81
305.431	241.81
305.661	242.81
305.891	251.81
306.121	251.81
306.352	243.81
306.582	227.81
306.812	234.81
307.042	202.81
307.272	201.81
307.502	225.81
307.731	254.81
307.961	358.81
308.191	441.81
308.421	520.81
308.651	437.81
308.881	431.81
309.111	500.81
309.341	621.81
309.571	625.81
309.8	437.81
310.03	322.81
310.26	258.81
310.49	221.81
310.72	209.81
310.949	193.81
311.179	203.81
311.409	191.81
311.639	169.81
311.868	186.81
312.098	183.81
312.328	161.81
312.557	168.81
312.787	152.81
313.017	163.81
313.246	176.81
313.476	163.81
313.706	147.81
313.935	150.81
314.165	166.81
314.394	172.81
314.624	168.81
314.853	152.81
315.083	144.81
315.312	157.81
315.542	141.81
315.771	152.81
316.001	154.81
316.23	146.81
316.46	157.81
316.689	160.81
316.919	151.81
317.148	157.81
317.377	153.81
317.607	145.81
317.836	148.81
318.065	154.81
318.295	138.81
318.524	157.81
318.753	152.81
318.983	151.81
319.212	143.81
319.441	148.81
319.67	158.81
319.9	150.81
320.129	144.81
320.358	151.81
320.587	153.81
320.816	161.81
321.046	137.81
321.275	140.81
321.504	139.81
321.733	135.81
321.962	146.81
322.191	138.81
322.42	149.81
322.649	129.81
322.878	148.81
323.108	160.81
323.337	156.81
323.566	139.81
323.795	153.81
324.024	152.81
324.253	145.81
324.482	150.81
324.71	155.81
324.939	157.81
325.168	151.81
325.397	163.81
325.626	159.81
325.855	150.81
326.084	135.81
326.313	166.81
326.542	149.81
326.77	139.81
326.999	134.81
327.228	149.81
327.457	151.81
327.686	161.81
327.914	158.81
328.143	178.81
328.372	172.81
328.6	166.81
328.829	141.81
329.058	174.81
329.287	150.81
329.515	130.81
329.744	152.81
329.972	159.81
330.201	153.81
330.43	141.81
330.658	161.81
330.887	142.81
331.115	143.81
331.344	138.81
331.572	155.81
331.801	153.81
332.03	162.81
332.258	147.81
332.486	146.81
332.715	155.81
332.943	151.81
333.172	163.81
333.4	172.81
333.629	157.81
333.857	169.81
334.085	167.81
334.314	162.81
334.542	161.81
334.771	156.81
334.999	163.81
335.227	166.81
335.455	173.81
335.684	173.81
335.912	162.81
336.14	173.81
336.369	157.81
336.597	158.81
336.825	162.81
337.053	154.81
337.281	161.81
337.51	171.81
337.738	167.81
337.966	157.81
338.194	157.81
338.422	133.81
338.65	157.81
338.878	160.81
339.106	172.81
339.334	169.81
339.562	163.81
339.79	150.81
340.018	159.81
340.246	134.81
340.474	147.81
340.702	136.81
340.93	154.81
341.158	160.81
341.386	136.81
341.614	133.81
341.842	157.81
342.07	153.81
342.298	157.81
342.526	149.81
342.754	157.81
342.981	158.81
343.209	163.81
343.437	188.81
343.665	162.81
343.893	155.81
344.12	183.81
344.348	158.81
344.576	162.81
344.804	148.81
345.031	153.81
345.259	159.81
345.487	161.81
345.714	163.81
345.942	159.81
346.17	155.81
346.397	160.81
346.625	151.81
346.853	142.81
347.08	158.81
347.308	152.81
347.535	163.81
347.763	159.81
347.99	152.81
348.218	166.81
348.445	155.81
348.673	175.81
348.9	142.81
349.128	154.81
349.355	154.81
349.583	151.81
349.81	169.81
350.037	143.81
350.265	158.81
350.492	149.81
350.72	154.81
350.947	160.81
351.174	144.81
351.402	171.81
351.629	153.81
351.856	147.81
352.083	149.81
352.311	165.81
352.538	141.81
352.765	176.81
352.992	185.81
353.22	151.81
353.447	161.81
353.674	172.81
353.901	176.81
354.128	182.81
354.355	161.81
354.583	157.81
354.81	168.81
355.037	179.81
355.264	177.81
355.491	188.81
355.718	179.81
355.945	198.81
356.172	202.81
356.399	201.81
356.626	192.81
356.853	192.81
357.08	213.81
357.307	202.81
357.534	225.81
357.761	237.81
357.988	257.81
358.215	317.81
358.441	309.81
358.668	337.81
358.895	325.81
359.122	278.81
359.349	257.81
359.576	248.81
359.802	234.81
360.029	201.81
360.256	223.81
360.483	207.81
360.709	203.81
360.936	226.81
361.163	201.81
361.39	194.81
361.616	191.81
361.843	194.81
362.07	195.81
362.296	168.81
362.523	177.81
362.749	181.81
362.976	163.81
363.203	190.81
363.429	166.81
363.656	182.81
363.882	164.81
364.109	168.81
364.335	181.81
364.562	174.81
364.788	149.81
365.015	169.81
365.241	161.81
365.468	182.81
365.694	162.81
365.92	162.81
366.147	163.81
366.373	156.81
366.599	170.81
366.826	171.81
367.052	173.81
367.278	152.81
367.505	173.81
367.731	178.81
367.957	163.81
368.184	139.81
368.41	166.81
368.636	181.81
368.862	165.81
369.089	175.81
369.315	160.81
369.541	167.81
369.767	181.81
369.993	161.81
370.219	176.81
370.445	167.81
370.672	165.81
370.898	163.81
371.124	181.81
371.35	169.81
371.576	174.81
371.802	157.81
372.028	175.81
372.254	173.81
372.48	160.81
372.706	172.81
372.932	169.81
373.158	165.81
373.384	175.81
373.61	164.81
373.835	184.81
374.061	167.81
374.287	172.81
374.513	175.81
374.739	159.81
374.965	177.81
375.191	163.81
375.416	172.81
375.642	163.81
375.868	165.81
376.094	175.81
376.319	167.81
376.545	154.81
376.771	171.81
376.997	154.81
377.222	160.81
377.448	180.81
377.674	177.81
377.899	173.81
378.125	169.81
378.35	171.81
378.576	161.81
378.802	157.81
379.027	175.81
379.253	168.81
379.478	170.81
379.704	160.81
379.929	175.81
380.155	178.81
380.38	166.81
380.606	176.81
380.831	186.81
381.057	182.81
381.282	177.81
381.507	173.81
381.733	171.81
381.958	171.81
382.184	177.81
382.409	179.81
382.634	184.81
382.86	197.81
383.085	209.81
383.31	196.81
383.535	207.81
383.761	193.81
383.986	191.81
384.211	184.81
384.436	198.81
384.662	181.81
384.887	183.81
385.112	159.81
385.337	171.81
385.562	193.81
385.787	185.81
386.013	189.81
386.238	193.81
386.463	194.81
386.688	230.81
386.913	191.81
387.138	193.81
387.363	188.81
387.588	199.81
387.813	209.81
388.038	175.81
388.263	181.81
388.488	181.81
388.713	176.81
388.938	189.81
389.163	193.81
389.387	203.81
389.612	186.81
389.837	188.81
390.062	190.81
390.287	217.81
390.512	204.81
390.736	193.81
390.961	188.81
391.186	198.81
391.411	177.81
391.636	207.81
391.86	215.81
392.085	193.81
392.31	196.81
392.534	206.81
392.759	215.81
392.984	210.81
393.208	214.81
393.433	235.81
393.658	247.81
393.882	292.81
394.107	439.81
394.331	672.81
394.556	875.81
394.78	622.81
395.005	421.81
395.229	357.81
395.454	342.81
395.678	390.81
395.903	597.81
396.127	893.81
396.352	1072.81
396.576	705.81
396.801	470.81
397.025	354.81
397.249	330.81
397.474	299.81
397.698	288.81
397.922	254.81
398.147	253.81
398.371	249.81
398.595	235.81
398.82	241.81
399.044	245.81
399.268	254.81
399.492	253.81
399.717	253.81
399.941	265.81
400.165	245.81
400.389	248.81
400.613	216.81
400.837	222.81
401.062	224.81
401.286	222.81
401.51	218.81
401.734	215.81
401.958	218.81
402.182	212.81
402.406	215.81
402.63	219.81
402.854	208.81
403.078	210.81
403.302	233.81
403.526	215.81
403.75	218.81
403.974	213.81
404.198	206.81
404.422	217.81
404.645	217.81
404.869	207.81
405.093	199.81
405.317	215.81
405.541	223.81
405.765	216.81
405.988	221.81
406.212	232.81
406.436	209.81
406.66	224.81
406.883	208.81
407.107	213.81
407.331	227.81
407.555	241.81
407.778	233.81
408.002	235.81
408.226	215.81
408.449	216.81
408.673	221.81
408.896	209.81
409.12	215.81
409.344	224.81
409.567	219.81
409.791	205.81
410.014	235.81
410.238	216.81
410.461	219.81
410.685	205.81
410.908	222.81
411.132	233.81
411.355	215.81
411.578	206.81
411.802	226.81
412.025	204.81
412.249	223.81
412.472	212.81
412.695	206.81
412.919	207.81
413.142	211.81
413.365	230.81
413.589	211.81
413.812	211.81
414.035	214.81
414.258	203.81
414.482	209.81
414.705	210.81
414.928	202.81
415.151	201.81
415.374	213.81
415.597	213.81
415.821	191.81
416.044	205.81
416.267	208.81
416.49	205.81
416.713	215.81
416.936	203.81
417.159	203.81
417.382	211.81
417.605	211.81
417.828	225.81
418.051	193.81
418.274	224.81
418.497	202.81
418.72	201.81
418.943	208.81
419.166	231.81
419.389	231.81
419.611	222.81
419.834	217.81
420.057	216.81
420.28	207.81
420.503	199.81
420.726	201.81
420.948	207.81
421.171	214.81
421.394	229.81
421.617	203.81
421.839	205.81
422.062	211.81
422.285	210.81
422.507	203.81
422.73	230.81
422.953	202.81
423.175	209.81
423.398	209.81
423.621	205.81
423.843	219.81
424.066	216.81
424.288	205.81
424.511	216.81
424.733	236.81
424.956	200.81
425.178	207.81
425.401	213.81
425.623	225.81
425.846	203.81
426.068	223.81
426.291	206.81
426.513	193.81
426.735	211.81
426.958	221.81
427.18	210.81
427.402	215.81
427.625	199.81
427.847	184.81
428.069	191.81
428.292	191.81
428.514	201.81
428.736	197.81
428.958	202.81
429.181	214.81
429.403	213.81
429.625	212.81
429.847	194.81
430.069	209.81
430.292	194.81
430.514	214.81
430.736	194.81
430.958	201.81
431.18	205.81
431.402	205.81
431.624	191.81
431.846	179.81
432.068	187.81
432.29	198.81
432.512	194.81
432.734	195.81
432.956	201.81
433.178	215.81
433.4	205.81
433.622	212.81
433.844	217.81
434.066	212.81
434.287	201.81
434.509	187.81
434.731	209.81
434.953	204.81
435.175	193.81
435.397	220.81
435.618	197.81
435.84	195.81
436.062	181.81
436.284	208.81
436.505	193.81
436.727	197.81
436.949	196.81
437.17	194.81
437.392	217.81
437.614	193.81
437.835	198.81
438.057	187.81
438.278	193.81
438.5	209.81
438.721	206.81
438.943	198.81
439.165	200.81
439.386	193.81
439.608	215.81
439.829	209.81
440.05	197.81
440.272	221.81
440.493	211.81
440.715	201.81
440.936	226.81
441.158	214.81
441.379	223.81
441.6	227.81
441.822	236.81
442.043	232.81
442.264	207.81
442.486	206.81
442.707	213.81
442.928	203.81
443.149	224.81
443.371	222.81
443.592	212.81
443.813	235.81
444.034	225.81
444.255	220.81
444.476	233.81
444.698	225.81
444.919	226.81
445.14	496.81
445.361	355.81
445.582	219.81
445.803	222.81
446.024	219.81
446.245	225.81
446.466	229.81
446.687	210.81
446.908	225.81
447.129	221.81
447.35	220.81
447.571	198.81
447.792	205.81
448.013	203.81
448.234	184.81
448.455	197.81
448.675	209.81
448.896	210.81
449.117	204.81
449.338	205.81
449.559	202.81
449.779	208.81
450	195.81
450.221	214.81
450.442	212.81
450.662	195.81
450.883	206.81
451.104	206.81
451.324	194.81
451.545	205.81
451.766	222.81
451.986	205.81
452.207	202.81
452.428	194.81
452.648	208.81
452.869	189.81
453.089	198.81
453.31	200.81
453.53	193.81
453.751	202.81
453.971	187.81
454.192	199.81
454.412	198.81
454.633	192.81
454.853	191.81
455.073	182.81
455.294	193.81
455.514	194.81
455.734	190.81
455.955	189.81
456.175	197.81
456.395	175.81
456.616	189.81
456.836	183.81
457.056	189.81
457.276	183.81
457.497	165.81
457.717	182.81
457.937	174.81
458.157	189.81
458.377	168.81
458.598	191.81
458.818	161.81
459.038	177.81
459.258	176.81
459.478	166.81
459.698	190.81
459.918	192.81
460.138	206.81
460.358	203.81
460.578	207.81
460.798	203.81
461.018	214.81
461.238	204.81
461.458	200.81
461.678	225.81
461.898	207.81
462.118	208.81
462.338	217.81
462.558	222.81
462.777	210.81
462.997	224.81
463.217	217.81
463.437	234.81
463.657	207.81
463.876	222.81
464.096	221.81
464.316	233.81
464.536	234.81
464.755	228.81
464.975	207.81
465.195	221.81
465.414	215.81
465.634	217.81
465.854	231.81
466.073	226.81
466.293	222.81
466.512	240.81
466.732	234.81
466.951	214.81
467.171	238.81
467.391	210.81
467.61	216.81
467.829	223.81
468.049	215.81
468.268	223.81
468.488	209.81
468.707	200.81
468.927	194.81
469.146	189.81
469.365	208.81
469.585	205.81
469.804	210.81
470.023	207.81
470.243	234.81
470.462	208.81
470.681	211.81
470.901	207.81
471.12	207.81
471.339	203.81
471.558	211.81
471.777	217.81
471.997	208.81
472.216	194.81
472.435	189.81
472.654	193.81
472.873	210.81
473.092	200.81
473.311	197.81
473.53	207.81
473.749	237.81
473.968	242.81
474.187	221.81
474.406	207.81
474.625	238.81
474.844	217.81
475.063	216.81
475.282	199.81
475.501	205.81
475.72	218.81
475.939	214.81
476.158	211.81
476.377	208.81
476.596	182.81
476.814	200.81
477.033	196.81
477.252	198.81
477.471	191.81
477.69	206.81
477.908	194.81
478.127	211.81
478.346	225.81
478.564	217.81
478.783	208.81
479.002	224.81
479.22	212.81
479.439	224.81
479.658	207.81
479.876	197.81
480.095	203.81
480.313	197.81
480.532	229.81
480.751	212.81
480.969	193.81
481.188	201.81
481.406	200.81
481.624	209.81
481.843	185.81
482.061	189.81
482.28	193.81
482.498	203.81
482.717	207.81
482.935	198.81
483.153	220.81
483.372	209.81
483.59	224.81
483.808	208.81
484.027	204.81
484.245	219.81
484.463	213.81
484.681	237.81
484.9	222.81
485.118	237.81
485.336	225.81
485.554	209.81
485.772	208.81
485.99	223.81
486.209	230.81
486.427	225.81
486.645	210.81
486.863	203.81
487.081	226.81
487.299	221.81
487.517	227.81
487.735	248.81
487.953	251.81
488.171	247.81
488.389	247.81
488.607	236.81
488.825	239.81
489.043	214.81
489.261	215.81
489.479	210.81
489.696	240.81
489.914	223.81
490.132	233.81
490.35	223.81
490.568	233.81
490.786	225.81
491.003	230.81
491.221	250.81
491.439	247.81
491.657	246.81
491.874	254.81
492.092	255.81
492.31	280.81
492.527	270.81
492.745	255.81
492.963	261.81
493.18	247.81
493.398	257.81
493.615	247.81
493.833	240.81
494.05	236.81
494.268	222.81
494.485	234.81
494.703	236.81
494.92	226.81
495.138	226.81
495.355	240.81
495.573	258.81
495.79	229.81
496.008	233.81
496.225	253.81
496.442	243.81
496.66	254.81
496.877	252.81
497.094	252.81
497.312	238.81
497.529	256.81
497.746	243.81
497.963	222.81
498.181	242.81
498.398	268.81
498.615	255.81
498.832	266.81
499.049	246.81
499.267	272.81
499.484	279.81
499.701	291.81
499.918	325.81
500.135	350.81
500.352	360.81
500.569	331.81
500.786	342.81
501.003	326.81
501.22	314.81
501.437	295.81
501.654	292.81
501.871	266.81
502.088	272.81
502.305	272.81
502.522	240.81
502.739	236.81
502.956	218.81
503.172	245.81
503.389	238.81
503.606	233.81
503.823	231.81
504.04	237.81
