Data from SampC_HRD10591_00001.txt Node
Date: Mon Jan 19 11:37:29 EST 2026
User: Yrep
Spectrometer: HR+D1059
Trigger mode: 0
Integration Time (sec): 3.443000E-1
Scans to average: 1
Electric dark correction enabled: true
Nonlinearity correction enabled: false
Boxcar width: 0
XAxis mode: Wavelengths
Number of Pixels in Spectrum: 2048
>>>>>Begin Spectral Data<<<<<
223.165	-32.81
223.4	-32.81
223.635	-32.81
223.869	-19.81
224.104	-22.81
224.338	-10.81
224.573	-16.81
224.808	-25.81
225.042	-7.81
225.277	6.19
225.511	-10.81
225.746	2.19
225.98	6.19
226.215	21.19
226.449	33.19
226.683	12.19
226.918	34.19
227.152	32.19
227.387	29.19
227.621	35.19
227.856	53.19
228.09	48.19
228.324	57.19
228.559	57.19
228.793	59.19
229.027	101.19
229.262	87.19
229.496	92.19
229.73	102.19
229.964	117.19
230.199	92.19
230.433	108.19
230.667	120.19
230.901	117.19
231.136	104.19
231.37	132.19
231.604	145.19
231.838	135.19
232.072	121.19
232.306	129.19
232.541	117.19
232.775	111.19
233.009	133.19
233.243	126.19
233.477	145.19
233.711	116.19
233.945	122.19
234.179	136.19
234.413	123.19
234.647	117.19
234.881	135.19
235.115	128.19
235.349	127.19
235.583	125.19
235.817	136.19
236.051	133.19
236.285	142.19
236.519	167.19
236.753	176.19
236.987	240.19
237.221	240.19
237.455	255.19
237.689	269.19
237.922	223.19
238.156	179.19
238.39	138.19
238.624	152.19
238.858	143.19
239.091	136.19
239.325	134.19
239.559	121.19
239.793	129.19
240.027	150.19
240.26	130.19
240.494	127.19
240.728	117.19
240.961	128.19
241.195	138.19
241.429	115.19
241.662	135.19
241.896	128.19
242.13	114.19
242.363	142.19
242.597	134.19
242.83	123.19
243.064	125.19
243.298	139.19
243.531	125.19
243.765	131.19
243.998	134.19
244.232	144.19
244.465	139.19
244.699	121.19
244.932	139.19
245.166	135.19
245.399	145.19
245.633	147.19
245.866	152.19
246.099	149.19
246.333	158.19
246.566	143.19
246.8	146.19
247.033	150.19
247.266	132.19
247.5	151.19
247.733	157.19
247.966	151.19
248.2	151.19
248.433	157.19
248.666	142.19
248.899	159.19
249.133	162.19
249.366	178.19
249.599	159.19
249.832	159.19
250.066	168.19
250.299	149.19
250.532	149.19
250.765	147.19
250.998	161.19
251.231	167.19
251.465	167.19
251.698	175.19
251.931	175.19
252.164	170.19
252.397	166.19
252.63	176.19
252.863	160.19
253.096	165.19
253.329	166.19
253.562	162.19
253.795	167.19
254.028	167.19
254.261	164.19
254.494	164.19
254.727	184.19
254.96	162.19
255.193	167.19
255.426	167.19
255.659	177.19
255.892	181.19
256.124	186.19
256.357	193.19
256.59	228.19
256.823	241.19
257.056	284.19
257.289	300.19
257.521	327.19
257.754	340.19
257.987	336.19
258.22	268.19
258.452	235.19
258.685	220.19
258.918	197.19
259.151	192.19
259.383	183.19
259.616	179.19
259.849	201.19
260.081	215.19
260.314	209.19
260.547	209.19
260.779	201.19
261.012	206.19
261.244	199.19
261.477	209.19
261.71	200.19
261.942	187.19
262.175	213.19
262.407	208.19
262.64	231.19
262.872	232.19
263.105	270.19
263.337	311.19
263.57	304.19
263.802	287.19
264.035	260.19
264.267	252.19
264.499	248.19
264.732	249.19
264.964	244.19
265.197	241.19
265.429	289.19
265.661	291.19
265.894	281.19
266.126	303.19
266.358	339.19
266.591	295.19
266.823	244.19
267.055	243.19
267.287	229.19
267.52	204.19
267.752	213.19
267.984	213.19
268.216	222.19
268.448	221.19
268.681	223.19
268.913	219.19
269.145	208.19
269.377	228.19
269.609	200.19
269.841	204.19
270.073	208.19
270.306	197.19
270.538	215.19
270.77	211.19
271.002	198.19
271.234	211.19
271.466	244.19
271.698	210.19
271.93	210.19
272.162	216.19
272.394	217.19
272.626	211.19
272.858	213.19
273.09	223.19
273.322	211.19
273.553	217.19
273.785	214.19
274.017	223.19
274.249	233.19
274.481	228.19
274.713	245.19
274.945	239.19
275.176	237.19
275.408	241.19
275.64	237.19
275.872	240.19
276.104	244.19
276.335	230.19
276.567	239.19
276.799	247.19
277.031	249.19
277.262	256.19
277.494	254.19
277.726	277.19
277.957	291.19
278.189	296.19
278.421	308.19
278.652	311.19
278.884	372.19
279.115	488.19
279.347	672.19
279.579	933.19
279.81	1080.19
280.042	861.19
280.273	784.19
280.505	769.19
280.736	518.19
280.968	385.19
281.199	391.19
281.431	493.19
281.662	656.19
281.894	733.19
282.125	573.19
282.356	453.19
282.588	403.19
282.819	360.19
283.051	343.19
283.282	321.19
283.513	312.19
283.745	307.19
283.976	297.19
284.207	280.19
284.439	271.19
284.67	294.19
284.901	313.19
285.132	345.19
285.364	379.19
285.595	335.19
285.826	286.19
286.057	271.19
286.288	256.19
286.52	265.19
286.751	256.19
286.982	279.19
287.213	283.19
287.444	262.19
287.675	268.19
287.906	292.19
288.138	275.19
288.369	302.19
288.6	280.19
288.831	274.19
289.062	287.19
289.293	286.19
289.524	287.19
289.755	270.19
289.986	258.19
290.217	263.19
290.448	256.19
290.679	304.19
290.91	281.19
291.141	294.19
291.371	296.19
291.602	293.19
291.833	292.19
292.064	289.19
292.295	285.19
292.526	317.19
292.757	325.19
292.987	323.19
293.218	340.19
293.449	327.19
293.68	327.19
293.91	333.19
294.141	342.19
294.372	295.19
294.603	294.19
294.833	272.19
295.064	289.19
295.295	274.19
295.525	283.19
295.756	282.19
295.987	273.19
296.217	261.19
296.448	290.19
296.679	310.19
296.909	291.19
297.14	308.19
297.37	290.19
297.601	297.19
297.831	282.19
298.062	304.19
298.292	284.19
298.523	291.19
298.753	319.19
298.984	299.19
299.214	305.19
299.445	298.19
299.675	292.19
299.905	306.19
300.136	285.19
300.366	292.19
300.597	312.19
300.827	307.19
301.057	321.19
301.288	328.19
301.518	323.19
301.748	319.19
301.979	371.19
302.209	337.19
302.439	328.19
302.669	349.19
302.9	345.19
303.13	375.19
303.36	370.19
303.59	380.19
303.82	387.19
304.051	392.19
304.281	417.19
304.511	432.19
304.741	445.19
304.971	507.19
305.201	604.19
305.431	678.19
305.661	761.19
305.891	801.19
306.121	729.19
306.352	679.19
306.582	717.19
306.812	691.19
307.042	607.19
307.272	596.19
307.502	668.19
307.731	860.19
307.961	1201.19
308.191	1723.19
308.421	1971.19
308.651	1641.19
308.881	1535.19
309.111	1918.19
309.341	2503.19
309.571	2373.19
309.8	1488.19
310.03	1001.19
310.26	744.19
310.49	631.19
310.72	558.19
310.949	510.19
311.179	483.19
311.409	492.19
311.639	455.19
311.868	423.19
312.098	426.19
312.328	401.19
312.557	401.19
312.787	413.19
313.017	406.19
313.246	403.19
313.476	391.19
313.706	372.19
313.935	392.19
314.165	356.19
314.394	371.19
314.624	367.19
314.853	359.19
315.083	355.19
315.312	374.19
315.542	359.19
315.771	351.19
316.001	353.19
316.23	352.19
316.46	342.19
316.689	348.19
316.919	338.19
317.148	348.19
317.377	334.19
317.607	337.19
317.836	336.19
318.065	336.19
318.295	345.19
318.524	339.19
318.753	337.19
318.983	337.19
319.212	345.19
319.441	345.19
319.67	362.19
319.9	345.19
320.129	339.19
320.358	329.19
320.587	343.19
320.816	340.19
321.046	342.19
321.275	339.19
321.504	328.19
321.733	365.19
321.962	340.19
322.191	350.19
322.42	339.19
322.649	348.19
322.878	336.19
323.108	356.19
323.337	353.19
323.566	351.19
323.795	355.19
324.024	356.19
324.253	362.19
324.482	354.19
324.71	354.19
324.939	362.19
325.168	372.19
325.397	351.19
325.626	357.19
325.855	349.19
326.084	359.19
326.313	363.19
326.542	345.19
326.77	350.19
326.999	345.19
327.228	352.19
327.457	358.19
327.686	370.19
327.914	357.19
328.143	369.19
328.372	354.19
328.6	358.19
328.829	355.19
329.058	344.19
329.287	358.19
329.515	375.19
329.744	352.19
329.972	362.19
330.201	380.19
330.43	368.19
330.658	338.19
330.887	384.19
331.115	369.19
331.344	387.19
331.572	382.19
331.801	376.19
332.03	383.19
332.258	411.19
332.486	382.19
332.715	384.19
332.943	410.19
333.172	413.19
333.4	396.19
333.629	436.19
333.857	434.19
334.085	434.19
334.314	422.19
334.542	407.19
334.771	433.19
334.999	429.19
335.227	404.19
335.455	408.19
335.684	420.19
335.912	439.19
336.14	399.19
336.369	385.19
336.597	395.19
336.825	396.19
337.053	403.19
337.281	391.19
337.51	383.19
337.738	392.19
337.966	383.19
338.194	363.19
338.422	369.19
338.65	375.19
338.878	387.19
339.106	400.19
339.334	389.19
339.562	390.19
339.79	371.19
340.018	379.19
340.246	376.19
340.474	351.19
340.702	360.19
340.93	376.19
341.158	370.19
341.386	376.19
341.614	374.19
341.842	360.19
342.07	377.19
342.298	375.19
342.526	376.19
342.754	374.19
342.981	379.19
343.209	367.19
343.437	426.19
343.665	411.19
343.893	450.19
344.12	431.19
344.348	405.19
344.576	412.19
344.804	400.19
345.031	380.19
345.259	408.19
345.487	392.19
345.714	399.19
345.942	360.19
346.17	387.19
346.397	384.19
346.625	372.19
346.853	391.19
347.08	378.19
347.308	368.19
347.535	384.19
347.763	387.19
347.99	386.19
348.218	374.19
348.445	377.19
348.673	374.19
348.9	386.19
349.128	384.19
349.355	381.19
349.583	398.19
349.81	375.19
350.037	400.19
350.265	394.19
350.492	378.19
350.72	387.19
350.947	411.19
351.174	387.19
351.402	388.19
351.629	393.19
351.856	420.19
352.083	392.19
352.311	385.19
352.538	417.19
352.765	418.19
352.992	427.19
353.22	423.19
353.447	437.19
353.674	431.19
353.901	439.19
354.128	450.19
354.355	441.19
354.583	436.19
354.81	474.19
355.037	444.19
355.264	468.19
355.491	483.19
355.718	508.19
355.945	532.19
356.172	513.19
356.399	541.19
356.626	571.19
356.853	603.19
357.08	619.19
357.307	664.19
357.534	697.19
357.761	776.19
357.988	863.19
358.215	1037.19
358.441	1210.19
358.668	1364.19
358.895	1297.19
359.122	1070.19
359.349	872.19
359.576	771.19
359.802	731.19
360.029	657.19
360.256	647.19
360.483	616.19
360.709	589.19
360.936	611.19
361.163	581.19
361.39	553.19
361.616	543.19
361.843	517.19
362.07	525.19
362.296	509.19
362.523	505.19
362.749	477.19
362.976	479.19
363.203	482.19
363.429	463.19
363.656	470.19
363.882	448.19
364.109	459.19
364.335	441.19
364.562	418.19
364.788	445.19
365.015	443.19
365.241	444.19
365.468	425.19
365.694	409.19
365.92	460.19
366.147	421.19
366.373	395.19
366.599	415.19
366.826	429.19
367.052	413.19
367.278	422.19
367.505	413.19
367.731	424.19
367.957	406.19
368.184	428.19
368.41	399.19
368.636	413.19
368.862	423.19
369.089	405.19
369.315	428.19
369.541	428.19
369.767	408.19
369.993	420.19
370.219	424.19
370.445	411.19
370.672	414.19
370.898	433.19
371.124	427.19
371.35	412.19
371.576	465.19
371.802	408.19
372.028	424.19
372.254	445.19
372.48	431.19
372.706	437.19
372.932	417.19
373.158	439.19
373.384	433.19
373.61	458.19
373.835	448.19
374.061	422.19
374.287	440.19
374.513	422.19
374.739	452.19
374.965	447.19
375.191	430.19
375.416	447.19
375.642	443.19
375.868	438.19
376.094	433.19
376.319	417.19
376.545	419.19
376.771	409.19
376.997	423.19
377.222	407.19
377.448	418.19
377.674	424.19
377.899	424.19
378.125	418.19
378.35	422.19
378.576	434.19
378.802	405.19
379.027	416.19
379.253	421.19
379.478	406.19
379.704	411.19
379.929	426.19
380.155	422.19
380.38	424.19
380.606	409.19
380.831	440.19
381.057	447.19
381.282	443.19
381.507	441.19
381.733	460.19
381.958	453.19
382.184	473.19
382.409	454.19
382.634	498.19
382.86	498.19
383.085	554.19
383.31	564.19
383.535	536.19
383.761	567.19
383.986	576.19
384.211	498.19
384.436	494.19
384.662	488.19
384.887	487.19
385.112	476.19
385.337	499.19
385.562	478.19
385.787	494.19
386.013	507.19
386.238	512.19
386.463	494.19
386.688	539.19
386.913	495.19
387.138	503.19
387.363	501.19
387.588	520.19
387.813	506.19
388.038	481.19
388.263	522.19
388.488	493.19
388.713	503.19
388.938	492.19
389.163	507.19
389.387	509.19
389.612	489.19
389.837	518.19
390.062	535.19
390.287	541.19
390.512	530.19
390.736	518.19
390.961	514.19
391.186	531.19
391.411	543.19
391.636	542.19
391.86	562.19
392.085	563.19
392.31	568.19
392.534	589.19
392.759	605.19
392.984	618.19
393.208	657.19
393.433	721.19
393.658	764.19
393.882	971.19
394.107	1503.19
394.331	2683.19
394.556	3644.19
394.78	2439.19
395.005	1404.19
395.229	1113.19
395.454	1125.19
395.678	1404.19
395.903	2289.19
396.127	3989.19
396.352	4747.19
396.576	2860.19
396.801	1600.19
397.025	1186.19
397.249	967.19
397.474	893.19
397.698	813.19
397.922	769.19
398.147	763.19
398.371	742.19
398.595	708.19
398.82	694.19
399.044	673.19
399.268	725.19
399.492	745.19
399.717	750.19
399.941	744.19
400.165	697.19
400.389	644.19
400.613	643.19
400.837	605.19
401.062	625.19
401.286	582.19
401.51	614.19
401.734	599.19
401.958	593.19
402.182	590.19
402.406	595.19
402.63	603.19
402.854	606.19
403.078	610.19
403.302	617.19
403.526	608.19
403.75	597.19
403.974	617.19
404.198	628.19
404.422	605.19
404.645	623.19
404.869	601.19
405.093	605.19
405.317	611.19
405.541	603.19
405.765	596.19
405.988	619.19
406.212	594.19
406.436	611.19
406.66	629.19
406.883	625.19
407.107	625.19
407.331	655.19
407.555	659.19
407.778	643.19
408.002	644.19
408.226	639.19
408.449	601.19
408.673	619.19
408.896	603.19
409.12	615.19
409.344	602.19
409.567	595.19
409.791	603.19
410.014	577.19
410.238	592.19
410.461	589.19
410.685	590.19
410.908	580.19
411.132	591.19
411.355	600.19
411.578	593.19
411.802	593.19
412.025	583.19
412.249	573.19
412.472	588.19
412.695	579.19
412.919	580.19
413.142	562.19
413.365	580.19
413.589	566.19
413.812	576.19
414.035	578.19
414.258	577.19
414.482	554.19
414.705	580.19
414.928	584.19
415.151	580.19
415.374	580.19
415.597	548.19
415.821	598.19
416.044	539.19
416.267	560.19
416.49	567.19
416.713	570.19
416.936	580.19
417.159	580.19
417.382	542.19
417.605	580.19
417.828	568.19
418.051	560.19
418.274	586.19
418.497	588.19
418.72	585.19
418.943	599.19
419.166	598.19
419.389	612.19
419.611	611.19
419.834	576.19
420.057	593.19
420.28	571.19
420.503	563.19
420.726	557.19
420.948	577.19
421.171	581.19
421.394	595.19
421.617	580.19
421.839	584.19
422.062	579.19
422.285	576.19
422.507	576.19
422.73	594.19
422.953	573.19
423.175	544.19
423.398	596.19
423.621	604.19
423.843	576.19
424.066	615.19
424.288	579.19
424.511	576.19
424.733	597.19
424.956	590.19
425.178	588.19
425.401	614.19
425.623	575.19
425.846	583.19
426.068	569.19
426.291	562.19
426.513	552.19
426.735	556.19
426.958	551.19
427.18	540.19
427.402	551.19
427.625	553.19
427.847	515.19
428.069	525.19
428.292	546.19
428.514	529.19
428.736	529.19
428.958	547.19
429.181	543.19
429.403	537.19
429.625	519.19
429.847	531.19
430.069	510.19
430.292	529.19
430.514	534.19
430.736	527.19
430.958	521.19
431.18	531.19
431.402	539.19
431.624	518.19
431.846	516.19
432.068	493.19
432.29	510.19
432.512	515.19
432.734	524.19
432.956	541.19
433.178	573.19
433.4	536.19
433.622	551.19
433.844	538.19
434.066	539.19
434.287	512.19
434.509	508.19
434.731	526.19
434.953	552.19
435.175	556.19
435.397	573.19
435.618	530.19
435.84	531.19
436.062	550.19
436.284	507.19
436.505	548.19
436.727	539.19
436.949	533.19
437.17	545.19
437.392	535.19
437.614	506.19
437.835	488.19
438.057	494.19
438.278	508.19
438.5	538.19
438.721	539.19
438.943	544.19
439.165	554.19
439.386	558.19
439.608	568.19
439.829	560.19
440.05	563.19
440.272	560.19
440.493	572.19
440.715	577.19
440.936	593.19
441.158	587.19
441.379	595.19
441.6	580.19
441.822	598.19
442.043	609.19
442.264	585.19
442.486	578.19
442.707	578.19
442.928	574.19
443.149	595.19
443.371	592.19
443.592	598.19
443.813	620.19
444.034	598.19
444.255	609.19
444.476	620.19
444.698	641.19
444.919	644.19
445.14	828.19
445.361	697.19
445.582	599.19
445.803	574.19
446.024	599.19
446.245	579.19
446.466	590.19
446.687	579.19
446.908	577.19
447.129	563.19
447.35	567.19
447.571	583.19
447.792	575.19
448.013	585.19
448.234	576.19
448.455	563.19
448.675	564.19
448.896	531.19
449.117	535.19
449.338	525.19
449.559	521.19
449.779	509.19
450	538.19
450.221	529.19
450.442	541.19
450.662	549.19
450.883	540.19
451.104	515.19
451.324	529.19
451.545	540.19
451.766	530.19
451.986	533.19
452.207	551.19
452.428	545.19
452.648	513.19
452.869	542.19
453.089	516.19
453.31	511.19
453.53	523.19
453.751	531.19
453.971	500.19
454.192	509.19
454.412	512.19
454.633	499.19
454.853	509.19
455.073	511.19
455.294	509.19
455.514	488.19
455.734	489.19
455.955	495.19
456.175	497.19
456.395	467.19
456.616	470.19
456.836	462.19
457.056	480.19
457.276	459.19
457.497	485.19
457.717	470.19
457.937	463.19
458.157	483.19
458.377	489.19
458.598	456.19
458.818	472.19
459.038	471.19
459.258	498.19
459.478	486.19
459.698	511.19
459.918	516.19
460.138	543.19
460.358	537.19
460.578	561.19
460.798	562.19
461.018	565.19
461.238	570.19
461.458	582.19
461.678	564.19
461.898	575.19
462.118	575.19
462.338	614.19
462.558	629.19
462.777	616.19
462.997	627.19
463.217	659.19
463.437	661.19
463.657	622.19
463.876	629.19
464.096	648.19
464.316	612.19
464.536	643.19
464.755	637.19
464.975	634.19
465.195	589.19
465.414	615.19
465.634	580.19
465.854	591.19
466.073	642.19
466.293	667.19
466.512	745.19
466.732	710.19
466.951	669.19
467.171	637.19
467.391	626.19
467.61	604.19
467.829	608.19
468.049	601.19
468.268	570.19
468.488	566.19
468.707	554.19
468.927	557.19
469.146	579.19
469.365	553.19
469.585	560.19
469.804	554.19
470.023	585.19
470.243	561.19
470.462	577.19
470.681	553.19
470.901	575.19
471.12	559.19
471.339	564.19
471.558	552.19
471.777	566.19
471.997	547.19
472.216	539.19
472.435	534.19
472.654	520.19
472.873	526.19
473.092	529.19
473.311	584.19
473.53	585.19
473.749	631.19
473.968	692.19
474.187	618.19
474.406	615.19
474.625	642.19
474.844	702.19
475.063	645.19
475.282	610.19
475.501	548.19
475.72	559.19
475.939	549.19
476.158	545.19
476.377	556.19
476.596	549.19
476.814	509.19
477.033	523.19
477.252	557.19
477.471	537.19
477.69	588.19
477.908	594.19
478.127	589.19
478.346	565.19
478.564	569.19
478.783	602.19
479.002	593.19
479.22	580.19
479.439	587.19
479.658	588.19
479.876	559.19
480.095	561.19
480.313	574.19
480.532	618.19
480.751	573.19
480.969	559.19
481.188	533.19
481.406	529.19
481.624	525.19
481.843	527.19
482.061	516.19
482.28	549.19
482.498	550.19
482.717	539.19
482.935	548.19
483.153	583.19
483.372	595.19
483.59	600.19
483.808	574.19
484.027	577.19
484.245	594.19
484.463	667.19
484.681	665.19
484.9	637.19
485.118	642.19
485.336	617.19
485.554	606.19
485.772	599.19
485.99	594.19
486.209	619.19
486.427	608.19
486.645	617.19
486.863	670.19
487.081	663.19
487.299	646.19
487.517	664.19
487.735	692.19
487.953	688.19
488.171	681.19
488.389	665.19
488.607	667.19
488.825	619.19
489.043	627.19
489.261	622.19
489.479	631.19
489.696	621.19
489.914	631.19
490.132	636.19
490.35	649.19
490.568	651.19
490.786	677.19
491.003	700.19
491.221	676.19
491.439	677.19
491.657	667.19
491.874	715.19
492.092	742.19
492.31	750.19
492.527	737.19
492.745	701.19
492.963	679.19
493.18	679.19
493.398	693.19
493.615	694.19
493.833	679.19
494.05	670.19
494.268	685.19
494.485	674.19
494.703	656.19
494.92	663.19
495.138	676.19
495.355	668.19
495.573	668.19
495.79	647.19
496.008	645.19
496.225	679.19
496.442	665.19
496.66	682.19
496.877	693.19
497.094	691.19
497.312	681.19
497.529	692.19
497.746	679.19
497.963	696.19
498.181	696.19
498.398	696.19
498.615	725.19
498.832	740.19
499.049	775.19
499.267	824.19
499.484	888.19
499.701	901.19
499.918	999.19
500.135	1073.19
500.352	1096.19
500.569	1123.19
500.786	1103.19
501.003	1085.19
501.22	976.19
501.437	949.19
501.654	852.19
501.871	824.19
502.088	782.19
502.305	751.19
