Data from SampC_HRD10591_00078.txt Node
Date: Mon Jan 19 11:37:56 EST 2026
User: Yrep
Spectrometer: HR+D1059
Trigger mode: 0
Integration Time (sec): 3.443000E-1
Scans to average: 1
Electric dark correction enabled: true
Nonlinearity correction enabled: false
Boxcar width: 0
XAxis mode: Wavelengths
Number of Pixels in Spectrum: 2048
>>>>>Begin Spectral Data<<<<<
223.165	-21.31
223.4	-21.31
223.635	-21.31
223.869	-21.31
224.104	-19.31
224.338	-15.31
224.573	-17.31
224.808	-15.31
225.042	-6.31
225.277	-6.31
225.511	-8.31
225.746	9.69
225.98	18.69
226.215	18.69
226.449	14.69
226.683	18.69
226.918	26.69
227.152	23.69
227.387	32.69
227.621	25.69
227.856	42.69
228.09	43.69
228.324	50.69
228.559	62.69
228.793	72.69
229.027	86.69
229.262	91.69
229.496	90.69
229.73	116.69
229.964	93.69
230.199	111.69
230.433	109.69
230.667	128.69
230.901	111.69
231.136	94.69
231.37	114.69
231.604	121.69
231.838	141.69
232.072	125.69
232.306	128.69
232.541	134.69
232.775	106.69
233.009	129.69
233.243	109.69
233.477	117.69
233.711	129.69
233.945	114.69
234.179	110.69
234.413	125.69
234.647	134.69
234.881	126.69
235.115	127.69
235.349	149.69
235.583	151.69
235.817	118.69
236.051	149.69
236.285	157.69
236.519	155.69
236.753	197.69
236.987	239.69
237.221	289.69
237.455	291.69
237.689	285.69
237.922	221.69
238.156	175.69
238.39	173.69
238.624	139.69
238.858	133.69
239.091	127.69
239.325	125.69
239.559	127.69
239.793	121.69
240.027	141.69
240.26	124.69
240.494	138.69
240.728	114.69
240.961	131.69
241.195	137.69
241.429	121.69
241.662	119.69
241.896	138.69
242.13	134.69
242.363	143.69
242.597	130.69
242.83	128.69
243.064	112.69
243.298	118.69
243.531	110.69
243.765	127.69
243.998	153.69
244.232	159.69
244.465	150.69
244.699	128.69
244.932	132.69
245.166	135.69
245.399	139.69
245.633	133.69
245.866	153.69
246.099	144.69
246.333	159.69
246.566	142.69
246.8	152.69
247.033	156.69
247.266	156.69
247.5	148.69
247.733	146.69
247.966	142.69
248.2	138.69
248.433	161.69
248.666	138.69
248.899	155.69
249.133	167.69
249.366	151.69
249.599	157.69
249.832	148.69
250.066	164.69
250.299	163.69
250.532	150.69
250.765	159.69
250.998	162.69
251.231	154.69
251.465	166.69
251.698	159.69
251.931	165.69
252.164	171.69
252.397	168.69
252.63	167.69
252.863	169.69
253.096	168.69
253.329	170.69
253.562	167.69
253.795	173.69
254.028	171.69
254.261	164.69
254.494	155.69
254.727	187.69
254.96	185.69
255.193	171.69
255.426	166.69
255.659	166.69
255.892	181.69
256.124	200.69
256.357	203.69
256.59	228.69
256.823	271.69
257.056	339.69
257.289	348.69
257.521	356.69
257.754	434.69
257.987	377.69
258.22	279.69
258.452	241.69
258.685	209.69
258.918	214.69
259.151	210.69
259.383	210.69
259.616	194.69
259.849	211.69
260.081	204.69
260.314	214.69
260.547	186.69
260.779	199.69
261.012	206.69
261.244	190.69
261.477	220.69
261.71	198.69
261.942	211.69
262.175	205.69
262.407	200.69
262.64	219.69
262.872	230.69
263.105	261.69
263.337	306.69
263.57	315.69
263.802	299.69
264.035	271.69
264.267	261.69
264.499	245.69
264.732	253.69
264.964	266.69
265.197	274.69
265.429	306.69
265.661	289.69
265.894	312.69
266.126	338.69
266.358	369.69
266.591	295.69
266.823	246.69
267.055	228.69
267.287	238.69
267.52	216.69
267.752	226.69
267.984	215.69
268.216	219.69
268.448	219.69
268.681	225.69
268.913	219.69
269.145	215.69
269.377	230.69
269.609	194.69
269.841	195.69
270.073	197.69
270.306	218.69
270.538	220.69
270.77	187.69
271.002	194.69
271.234	220.69
271.466	237.69
271.698	227.69
271.93	233.69
272.162	211.69
272.394	226.69
272.626	221.69
272.858	221.69
273.09	214.69
273.322	232.69
273.553	221.69
273.785	208.69
274.017	205.69
274.249	243.69
274.481	230.69
274.713	231.69
274.945	231.69
275.176	244.69
275.408	247.69
275.64	239.69
275.872	239.69
276.104	231.69
276.335	238.69
276.567	239.69
276.799	251.69
277.031	265.69
277.262	249.69
277.494	258.69
277.726	285.69
277.957	312.69
278.189	322.69
278.421	316.69
278.652	330.69
278.884	393.69
279.115	506.69
279.347	751.69
279.579	1026.69
279.81	1221.69
280.042	951.69
280.273	906.69
280.505	873.69
280.736	541.69
280.968	428.69
281.199	429.69
281.431	534.69
281.662	686.69
281.894	771.69
282.125	599.69
282.356	472.69
282.588	402.69
282.819	362.69
283.051	332.69
283.282	310.69
283.513	321.69
283.745	288.69
283.976	309.69
284.207	290.69
284.439	295.69
284.67	307.69
284.901	327.69
285.132	377.69
285.364	426.69
285.595	384.69
285.826	287.69
286.057	295.69
286.288	265.69
286.52	269.69
286.751	271.69
286.982	279.69
287.213	270.69
287.444	265.69
287.675	266.69
287.906	277.69
288.138	292.69
288.369	289.69
288.6	281.69
288.831	280.69
289.062	291.69
289.293	281.69
289.524	275.69
289.755	267.69
289.986	257.69
290.217	269.69
290.448	287.69
290.679	272.69
290.91	290.69
291.141	282.69
291.371	292.69
291.602	285.69
291.833	289.69
292.064	286.69
292.295	300.69
292.526	297.69
292.757	340.69
292.987	331.69
293.218	333.69
293.449	331.69
293.68	354.69
293.91	337.69
294.141	313.69
294.372	302.69
294.603	291.69
294.833	307.69
295.064	295.69
295.295	272.69
295.525	262.69
295.756	275.69
295.987	273.69
296.217	295.69
296.448	284.69
296.679	295.69
296.909	292.69
297.14	289.69
297.37	277.69
297.601	298.69
297.831	301.69
298.062	288.69
298.292	317.69
298.523	311.69
298.753	299.69
298.984	322.69
299.214	292.69
299.445	297.69
299.675	291.69
299.905	313.69
300.136	303.69
300.366	281.69
300.597	326.69
300.827	309.69
301.057	311.69
301.288	341.69
301.518	330.69
301.748	322.69
301.979	377.69
302.209	361.69
302.439	365.69
302.669	351.69
302.9	368.69
303.13	373.69
303.36	386.69
303.59	391.69
303.82	390.69
304.051	415.69
304.281	434.69
304.511	438.69
304.741	483.69
304.971	569.69
305.201	688.69
305.431	781.69
305.661	889.69
305.891	957.69
306.121	863.69
306.352	776.69
306.582	798.69
306.812	782.69
307.042	703.69
307.272	639.69
307.502	751.69
307.731	1026.69
307.961	1518.69
308.191	2274.69
308.421	2661.69
308.651	2205.69
308.881	1925.69
309.111	2537.69
309.341	3344.69
309.571	3156.69
309.8	1853.69
310.03	1183.69
310.26	855.69
310.49	735.69
310.72	631.69
310.949	569.69
311.179	530.69
311.409	513.69
311.639	463.69
311.868	488.69
312.098	469.69
312.328	428.69
312.557	438.69
312.787	419.69
313.017	427.69
313.246	408.69
313.476	412.69
313.706	385.69
313.935	373.69
314.165	383.69
314.394	354.69
314.624	379.69
314.853	387.69
315.083	373.69
315.312	374.69
315.542	358.69
315.771	361.69
316.001	363.69
316.23	340.69
316.46	354.69
316.689	343.69
316.919	348.69
317.148	348.69
317.377	365.69
317.607	349.69
317.836	366.69
318.065	356.69
318.295	356.69
318.524	341.69
318.753	342.69
318.983	351.69
319.212	330.69
319.441	353.69
319.67	355.69
319.9	336.69
320.129	325.69
320.358	337.69
320.587	331.69
320.816	327.69
321.046	344.69
321.275	346.69
321.504	342.69
321.733	374.69
321.962	334.69
322.191	347.69
322.42	352.69
322.649	344.69
322.878	370.69
323.108	354.69
323.337	362.69
323.566	337.69
323.795	367.69
324.024	372.69
324.253	377.69
324.482	360.69
324.71	352.69
324.939	370.69
325.168	359.69
325.397	358.69
325.626	362.69
325.855	358.69
326.084	351.69
326.313	361.69
326.542	344.69
326.77	362.69
326.999	390.69
327.228	371.69
327.457	369.69
327.686	365.69
327.914	345.69
328.143	372.69
328.372	362.69
328.6	370.69
328.829	357.69
329.058	360.69
329.287	367.69
329.515	357.69
329.744	376.69
329.972	344.69
330.201	343.69
330.43	345.69
330.658	355.69
330.887	371.69
331.115	380.69
331.344	375.69
331.572	371.69
331.801	396.69
332.03	384.69
332.258	376.69
332.486	394.69
332.715	392.69
332.943	405.69
333.172	434.69
333.4	433.69
333.629	418.69
333.857	426.69
334.085	431.69
334.314	420.69
334.542	416.69
334.771	435.69
334.999	436.69
335.227	409.69
335.455	408.69
335.684	415.69
335.912	419.69
336.14	423.69
336.369	391.69
336.597	419.69
336.825	393.69
337.053	392.69
337.281	404.69
337.51	403.69
337.738	380.69
337.966	371.69
338.194	384.69
338.422	385.69
338.65	391.69
338.878	374.69
339.106	396.69
339.334	389.69
339.562	370.69
339.79	368.69
340.018	381.69
340.246	384.69
340.474	366.69
340.702	370.69
340.93	373.69
341.158	363.69
341.386	358.69
341.614	373.69
341.842	383.69
342.07	361.69
342.298	381.69
342.526	377.69
342.754	375.69
342.981	382.69
343.209	406.69
343.437	427.69
343.665	427.69
343.893	420.69
344.12	439.69
344.348	423.69
344.576	413.69
344.804	391.69
345.031	380.69
345.259	387.69
345.487	384.69
345.714	379.69
345.942	398.69
346.17	391.69
346.397	379.69
346.625	375.69
346.853	379.69
347.08	372.69
347.308	380.69
347.535	386.69
347.763	396.69
347.99	387.69
348.218	379.69
348.445	390.69
348.673	374.69
348.9	397.69
349.128	411.69
349.355	403.69
349.583	401.69
349.81	395.69
350.037	391.69
350.265	374.69
350.492	404.69
350.72	390.69
350.947	401.69
351.174	396.69
351.402	400.69
351.629	400.69
351.856	407.69
352.083	408.69
352.311	415.69
352.538	402.69
352.765	412.69
352.992	424.69
353.22	426.69
353.447	412.69
353.674	448.69
353.901	425.69
354.128	443.69
354.355	469.69
354.583	421.69
354.81	458.69
355.037	483.69
355.264	486.69
355.491	498.69
355.718	482.69
355.945	509.69
356.172	511.69
356.399	538.69
356.626	574.69
356.853	611.69
357.08	637.69
357.307	649.69
357.534	707.69
357.761	768.69
357.988	892.69
358.215	1051.69
358.441	1234.69
358.668	1393.69
358.895	1377.69
359.122	1073.69
359.349	878.69
359.576	773.69
359.802	732.69
360.029	683.69
360.256	641.69
360.483	603.69
360.709	611.69
360.936	606.69
361.163	578.69
361.39	567.69
361.616	556.69
361.843	513.69
362.07	528.69
362.296	499.69
362.523	493.69
362.749	451.69
362.976	475.69
363.203	472.69
363.429	474.69
363.656	459.69
363.882	450.69
364.109	466.69
364.335	455.69
364.562	443.69
364.788	461.69
365.015	440.69
365.241	429.69
365.468	438.69
365.694	417.69
365.92	446.69
366.147	435.69
366.373	431.69
366.599	419.69
366.826	415.69
367.052	440.69
367.278	418.69
367.505	424.69
367.731	434.69
367.957	404.69
368.184	416.69
368.41	423.69
368.636	415.69
368.862	409.69
369.089	420.69
369.315	427.69
369.541	445.69
369.767	431.69
369.993	417.69
370.219	430.69
370.445	402.69
370.672	430.69
370.898	434.69
371.124	411.69
371.35	441.69
371.576	440.69
371.802	436.69
372.028	441.69
372.254	443.69
372.48	434.69
372.706	440.69
372.932	438.69
373.158	430.69
373.384	457.69
373.61	429.69
373.835	435.69
374.061	426.69
374.287	431.69
374.513	443.69
374.739	448.69
374.965	471.69
375.191	450.69
375.416	441.69
375.642	434.69
375.868	428.69
376.094	435.69
376.319	435.69
376.545	409.69
376.771	411.69
376.997	418.69
377.222	428.69
377.448	430.69
377.674	423.69
377.899	422.69
378.125	441.69
378.35	434.69
378.576	413.69
378.802	431.69
379.027	429.69
379.253	392.69
379.478	427.69
379.704	434.69
379.929	428.69
380.155	446.69
380.38	432.69
380.606	446.69
380.831	442.69
381.057	440.69
381.282	454.69
381.507	473.69
381.733	477.69
381.958	454.69
382.184	486.69
382.409	494.69
382.634	517.69
382.86	545.69
383.085	599.69
383.31	607.69
383.535	608.69
383.761	618.69
383.986	630.69
384.211	532.69
384.436	521.69
384.662	497.69
384.887	486.69
385.112	497.69
385.337	507.69
385.562	517.69
385.787	512.69
386.013	529.69
386.238	503.69
386.463	514.69
386.688	538.69
386.913	513.69
387.138	491.69
387.363	495.69
387.588	504.69
387.813	517.69
388.038	520.69
388.263	527.69
388.488	496.69
388.713	515.69
388.938	496.69
389.163	518.69
389.387	503.69
389.612	491.69
389.837	524.69
390.062	514.69
390.287	527.69
390.512	517.69
390.736	533.69
390.961	526.69
391.186	544.69
391.411	558.69
391.636	562.69
391.86	578.69
392.085	575.69
392.31	615.69
392.534	614.69
392.759	612.69
392.984	649.69
393.208	723.69
393.433	824.69
393.658	909.69
393.882	1147.69
394.107	1925.69
394.331	3710.69
394.556	5091.69
394.78	3253.69
395.005	1687.69
395.229	1307.69
395.454	1341.69
395.678	1698.69
395.903	3061.69
396.127	5596.69
396.352	6657.69
396.576	3690.69
396.801	1963.69
397.025	1416.69
397.249	1093.69
397.474	969.69
397.698	853.69
397.922	833.69
398.147	772.69
398.371	745.69
398.595	749.69
398.82	717.69
399.044	701.69
399.268	726.69
399.492	785.69
399.717	761.69
399.941	749.69
400.165	719.69
400.389	684.69
400.613	651.69
400.837	643.69
401.062	613.69
401.286	577.69
401.51	606.69
401.734	589.69
401.958	610.69
402.182	597.69
402.406	557.69
402.63	583.69
402.854	583.69
403.078	595.69
403.302	615.69
403.526	611.69
403.75	621.69
403.974	610.69
404.198	624.69
404.422	609.69
404.645	597.69
404.869	628.69
405.093	608.69
405.317	593.69
405.541	606.69
405.765	577.69
405.988	578.69
406.212	623.69
406.436	618.69
406.66	620.69
406.883	634.69
407.107	625.69
407.331	658.69
407.555	665.69
407.778	618.69
408.002	646.69
408.226	622.69
408.449	611.69
408.673	613.69
408.896	611.69
409.12	624.69
409.344	605.69
409.567	605.69
409.791	603.69
410.014	599.69
410.238	592.69
410.461	587.69
410.685	585.69
410.908	590.69
411.132	613.69
411.355	602.69
411.578	574.69
411.802	593.69
412.025	567.69
412.249	595.69
412.472	570.69
412.695	554.69
412.919	556.69
413.142	557.69
413.365	582.69
413.589	577.69
413.812	545.69
414.035	590.69
414.258	547.69
414.482	564.69
414.705	574.69
414.928	565.69
415.151	554.69
415.374	570.69
415.597	570.69
415.821	545.69
416.044	556.69
416.267	570.69
416.49	593.69
416.713	566.69
416.936	571.69
417.159	553.69
417.382	579.69
417.605	562.69
417.828	567.69
418.051	554.69
418.274	583.69
418.497	573.69
418.72	571.69
418.943	578.69
419.166	595.69
419.389	625.69
419.611	616.69
419.834	599.69
420.057	594.69
420.28	573.69
420.503	567.69
420.726	585.69
420.948	579.69
421.171	571.69
421.394	576.69
421.617	576.69
421.839	560.69
422.062	580.69
422.285	582.69
422.507	606.69
422.73	607.69
422.953	606.69
423.175	563.69
423.398	575.69
423.621	589.69
423.843	579.69
424.066	598.69
424.288	576.69
424.511	599.69
424.733	600.69
424.956	590.69
425.178	574.69
425.401	599.69
425.623	564.69
425.846	562.69
426.068	557.69
426.291	555.69
426.513	573.69
426.735	560.69
426.958	553.69
427.18	547.69
427.402	567.69
427.625	557.69
427.847	521.69
428.069	533.69
428.292	538.69
428.514	538.69
428.736	519.69
428.958	536.69
429.181	541.69
429.403	510.69
429.625	539.69
429.847	523.69
430.069	536.69
430.292	546.69
430.514	524.69
430.736	523.69
430.958	539.69
431.18	526.69
431.402	529.69
431.624	518.69
431.846	521.69
432.068	510.69
432.29	521.69
432.512	529.69
432.734	567.69
432.956	543.69
433.178	556.69
433.4	568.69
433.622	553.69
433.844	543.69
434.066	533.69
434.287	529.69
434.509	522.69
434.731	531.69
434.953	558.69
435.175	559.69
435.397	562.69
435.618	538.69
435.84	536.69
436.062	529.69
436.284	533.69
436.505	554.69
436.727	560.69
436.949	519.69
437.17	539.69
437.392	544.69
437.614	514.69
437.835	513.69
438.057	515.69
438.278	489.69
438.5	539.69
438.721	569.69
438.943	566.69
439.165	542.69
439.386	542.69
439.608	566.69
439.829	573.69
440.05	578.69
440.272	575.69
440.493	571.69
440.715	569.69
440.936	578.69
441.158	587.69
441.379	581.69
441.6	592.69
441.822	615.69
442.043	599.69
442.264	589.69
442.486	565.69
442.707	585.69
442.928	552.69
443.149	552.69
443.371	584.69
443.592	585.69
443.813	590.69
444.034	579.69
444.255	619.69
444.476	638.69
444.698	633.69
444.919	632.69
445.14	806.69
445.361	703.69
445.582	600.69
445.803	597.69
446.024	567.69
446.245	597.69
446.466	610.69
446.687	565.69
446.908	576.69
447.129	557.69
447.35	578.69
447.571	589.69
447.792	575.69
448.013	608.69
448.234	568.69
448.455	573.69
448.675	586.69
448.896	537.69
449.117	551.69
449.338	537.69
449.559	539.69
449.779	546.69
450	550.69
450.221	532.69
450.442	532.69
450.662	546.69
450.883	536.69
451.104	518.69
451.324	510.69
451.545	535.69
451.766	520.69
451.986	531.69
452.207	553.69
452.428	543.69
452.648	544.69
452.869	553.69
453.089	529.69
453.31	539.69
453.53	537.69
453.751	529.69
453.971	545.69
454.192	547.69
454.412	504.69
454.633	529.69
454.853	517.69
455.073	512.69
455.294	508.69
455.514	519.69
455.734	531.69
455.955	493.69
456.175	492.69
456.395	482.69
456.616	493.69
456.836	476.69
457.056	495.69
457.276	463.69
457.497	476.69
457.717	481.69
457.937	499.69
458.157	475.69
458.377	487.69
458.598	480.69
458.818	468.69
459.038	456.69
459.258	472.69
459.478	491.69
459.698	505.69
459.918	520.69
460.138	533.69
460.358	548.69
460.578	545.69
460.798	553.69
461.018	578.69
461.238	577.69
461.458	575.69
461.678	559.69
461.898	586.69
462.118	588.69
462.338	604.69
462.558	626.69
462.777	654.69
462.997	665.69
463.217	667.69
463.437	669.69
463.657	630.69
463.876	648.69
464.096	643.69
464.316	629.69
464.536	625.69
464.755	639.69
464.975	643.69
465.195	606.69
465.414	606.69
465.634	561.69
465.854	590.69
466.073	633.69
466.293	682.69
466.512	759.69
466.732	740.69
466.951	683.69
467.171	637.69
467.391	639.69
467.61	632.69
467.829	605.69
468.049	602.69
468.268	579.69
468.488	547.69
468.707	562.69
468.927	550.69
469.146	555.69
469.365	571.69
469.585	571.69
469.804	614.69
470.023	583.69
470.243	590.69
470.462	591.69
470.681	597.69
470.901	573.69
471.12	602.69
471.339	577.69
471.558	606.69
471.777	577.69
471.997	570.69
472.216	558.69
472.435	563.69
472.654	544.69
472.873	557.69
473.092	567.69
473.311	609.69
473.53	646.69
473.749	685.69
473.968	694.69
474.187	658.69
474.406	675.69
474.625	684.69
474.844	729.69
475.063	706.69
475.282	672.69
475.501	594.69
475.72	579.69
475.939	578.69
476.158	552.69
476.377	569.69
476.596	556.69
476.814	519.69
477.033	540.69
477.252	559.69
477.471	569.69
477.69	591.69
477.908	590.69
478.127	570.69
478.346	607.69
478.564	593.69
478.783	580.69
479.002	599.69
479.22	606.69
479.439	601.69
479.658	570.69
479.876	561.69
480.095	567.69
480.313	574.69
480.532	600.69
480.751	571.69
480.969	563.69
481.188	521.69
481.406	527.69
481.624	548.69
481.843	529.69
482.061	535.69
482.28	542.69
482.498	553.69
482.717	531.69
482.935	561.69
483.153	564.69
483.372	601.69
483.59	587.69
483.808	559.69
484.027	591.69
484.245	621.69
484.463	720.69
484.681	730.69
484.9	676.69
485.118	649.69
485.336	634.69
485.554	629.69
485.772	648.69
485.99	614.69
486.209	607.69
486.427	630.69
486.645	641.69
486.863	674.69
487.081	689.69
487.299	634.69
487.517	684.69
487.735	698.69
487.953	709.69
488.171	687.69
488.389	700.69
488.607	663.69
488.825	630.69
489.043	621.69
489.261	657.69
489.479	640.69
489.696	617.69
489.914	650.69
490.132	648.69
490.35	642.69
490.568	683.69
490.786	679.69
491.003	698.69
491.221	702.69
491.439	659.69
491.657	670.69
491.874	737.69
492.092	732.69
492.31	774.69
492.527	729.69
492.745	705.69
492.963	715.69
493.18	723.69
493.398	703.69
493.615	680.69
493.833	683.69
494.05	684.69
494.268	675.69
494.485	662.69
494.703	677.69
494.92	642.69
495.138	632.69
495.355	670.69
495.573	681.69
495.79	647.69
496.008	702.69
496.225	668.69
496.442	665.69
496.66	679.69
496.877	687.69
497.094	672.69
497.312	673.69
497.529	666.69
497.746	695.69
497.963	684.69
498.181	681.69
498.398	717.69
498.615	734.69
498.832	731.69
499.049	768.69
499.267	816.69
499.484	866.69
499.701	924.69
499.918	986.69
500.135	1036.69
500.352	1084.69
500.569	1100.69
500.786	1099.69
501.003	1051.69
501.22	968.69
501.437	903.69
501.654	869.69
501.871	842.69
502.088	777.69
502.305	771.69
