Data from SampC_HRD10591_00055.txt Node
Date: Mon Jan 19 11:37:48 EST 2026
User: Yrep
Spectrometer: HR+D1059
Trigger mode: 0
Integration Time (sec): 3.443000E-1
Scans to average: 1
Electric dark correction enabled: true
Nonlinearity correction enabled: false
Boxcar width: 0
XAxis mode: Wavelengths
Number of Pixels in Spectrum: 2048
>>>>>Begin Spectral Data<<<<<
223.165	-28.25
223.4	-28.25
223.635	-28.25
223.869	-17.25
224.104	-34.25
224.338	-7.25
224.573	-15.25
224.808	-18.25
225.042	-10.25
225.277	-6.25
225.511	0.75
225.746	14.75
225.98	5.75
226.215	15.75
226.449	15.75
226.683	21.75
226.918	24.75
227.152	37.75
227.387	47.75
227.621	34.75
227.856	35.75
228.09	59.75
228.324	47.75
228.559	73.75
228.793	80.75
229.027	85.75
229.262	84.75
229.496	90.75
229.73	92.75
229.964	94.75
230.199	93.75
230.433	93.75
230.667	104.75
230.901	94.75
231.136	92.75
231.37	112.75
231.604	101.75
231.838	112.75
232.072	129.75
232.306	109.75
232.541	132.75
232.775	103.75
233.009	121.75
233.243	107.75
233.477	109.75
233.711	106.75
233.945	108.75
234.179	105.75
234.413	115.75
234.647	112.75
234.881	119.75
235.115	116.75
235.349	120.75
235.583	120.75
235.817	113.75
236.051	137.75
236.285	124.75
236.519	131.75
236.753	169.75
236.987	205.75
237.221	224.75
237.455	235.75
237.689	236.75
237.922	193.75
238.156	158.75
238.39	135.75
238.624	120.75
238.858	119.75
239.091	114.75
239.325	116.75
239.559	123.75
239.793	122.75
240.027	123.75
240.26	106.75
240.494	122.75
240.728	92.75
240.961	109.75
241.195	105.75
241.429	115.75
241.662	119.75
241.896	108.75
242.13	106.75
242.363	108.75
242.597	123.75
242.83	112.75
243.064	127.75
243.298	130.75
243.531	121.75
243.765	116.75
243.998	124.75
244.232	121.75
244.465	122.75
244.699	118.75
244.932	119.75
245.166	121.75
245.399	125.75
245.633	121.75
245.866	136.75
246.099	131.75
246.333	143.75
246.566	137.75
246.8	137.75
247.033	131.75
247.266	109.75
247.5	136.75
247.733	146.75
247.966	131.75
248.2	128.75
248.433	122.75
248.666	115.75
248.899	145.75
249.133	123.75
249.366	136.75
249.599	145.75
249.832	142.75
250.066	128.75
250.299	128.75
250.532	139.75
250.765	138.75
250.998	126.75
251.231	142.75
251.465	139.75
251.698	150.75
251.931	146.75
252.164	141.75
252.397	147.75
252.63	168.75
252.863	155.75
253.096	142.75
253.329	151.75
253.562	156.75
253.795	151.75
254.028	150.75
254.261	149.75
254.494	157.75
254.727	164.75
254.96	159.75
255.193	146.75
255.426	127.75
255.659	143.75
255.892	177.75
256.124	159.75
256.357	160.75
256.59	194.75
256.823	225.75
257.056	289.75
257.289	299.75
257.521	299.75
257.754	340.75
257.987	327.75
258.22	231.75
258.452	189.75
258.685	185.75
258.918	187.75
259.151	171.75
259.383	164.75
259.616	163.75
259.849	185.75
260.081	187.75
260.314	173.75
260.547	164.75
260.779	160.75
261.012	159.75
261.244	155.75
261.477	165.75
261.71	177.75
261.942	171.75
262.175	168.75
262.407	163.75
262.64	177.75
262.872	194.75
263.105	214.75
263.337	251.75
263.57	234.75
263.802	244.75
264.035	211.75
264.267	188.75
264.499	203.75
264.732	205.75
264.964	212.75
265.197	220.75
265.429	266.75
265.661	271.75
265.894	241.75
266.126	295.75
266.358	317.75
266.591	259.75
266.823	215.75
267.055	203.75
267.287	197.75
267.52	168.75
267.752	171.75
267.984	174.75
268.216	170.75
268.448	193.75
268.681	174.75
268.913	179.75
269.145	184.75
269.377	178.75
269.609	171.75
269.841	170.75
270.073	179.75
270.306	200.75
270.538	171.75
270.77	173.75
271.002	185.75
271.234	185.75
271.466	171.75
271.698	188.75
271.93	180.75
272.162	179.75
272.394	180.75
272.626	175.75
272.858	169.75
273.09	186.75
273.322	208.75
273.553	199.75
273.785	186.75
274.017	183.75
274.249	188.75
274.481	187.75
274.713	188.75
274.945	188.75
275.176	201.75
275.408	199.75
275.64	199.75
275.872	203.75
276.104	205.75
276.335	195.75
276.567	192.75
276.799	202.75
277.031	202.75
277.262	215.75
277.494	204.75
277.726	235.75
277.957	236.75
278.189	266.75
278.421	251.75
278.652	258.75
278.884	287.75
279.115	382.75
279.347	545.75
279.579	746.75
279.81	841.75
280.042	677.75
280.273	629.75
280.505	642.75
280.736	418.75
280.968	313.75
281.199	319.75
281.431	365.75
281.662	482.75
281.894	540.75
282.125	431.75
282.356	325.75
282.588	283.75
282.819	276.75
283.051	268.75
283.282	250.75
283.513	240.75
283.745	242.75
283.976	241.75
284.207	229.75
284.439	249.75
284.67	254.75
284.901	290.75
285.132	323.75
285.364	373.75
285.595	327.75
285.826	255.75
286.057	220.75
286.288	216.75
286.52	209.75
286.751	218.75
286.982	237.75
287.213	201.75
287.444	215.75
287.675	220.75
287.906	236.75
288.138	245.75
288.369	253.75
288.6	218.75
288.831	226.75
289.062	220.75
289.293	202.75
289.524	228.75
289.755	227.75
289.986	225.75
290.217	206.75
290.448	235.75
290.679	233.75
290.91	258.75
291.141	256.75
291.371	241.75
291.602	225.75
291.833	233.75
292.064	245.75
292.295	252.75
292.526	278.75
292.757	265.75
292.987	285.75
293.218	248.75
293.449	257.75
293.68	258.75
293.91	270.75
294.141	253.75
294.372	239.75
294.603	229.75
294.833	227.75
295.064	232.75
295.295	247.75
295.525	222.75
295.756	234.75
295.987	224.75
296.217	217.75
296.448	215.75
296.679	243.75
296.909	244.75
297.14	259.75
297.37	240.75
297.601	229.75
297.831	238.75
298.062	251.75
298.292	246.75
298.523	241.75
298.753	247.75
298.984	243.75
299.214	244.75
299.445	255.75
299.675	245.75
299.905	251.75
300.136	259.75
300.366	249.75
300.597	229.75
300.827	252.75
301.057	257.75
301.288	255.75
301.518	274.75
301.748	247.75
301.979	309.75
302.209	291.75
302.439	266.75
302.669	278.75
302.9	287.75
303.13	323.75
303.36	318.75
303.59	317.75
303.82	327.75
304.051	317.75
304.281	336.75
304.511	362.75
304.741	367.75
304.971	442.75
305.201	537.75
305.431	594.75
305.661	671.75
305.891	739.75
306.121	669.75
306.352	604.75
306.582	633.75
306.812	610.75
307.042	564.75
307.272	533.75
307.502	598.75
307.731	834.75
307.961	1200.75
308.191	1683.75
308.421	1964.75
308.651	1660.75
308.881	1531.75
309.111	1923.75
309.341	2403.75
309.571	2260.75
309.8	1421.75
310.03	898.75
310.26	696.75
310.49	596.75
310.72	503.75
310.949	447.75
311.179	433.75
311.409	370.75
311.639	387.75
311.868	355.75
312.098	344.75
312.328	364.75
312.557	341.75
312.787	340.75
313.017	311.75
313.246	291.75
313.476	317.75
313.706	306.75
313.935	296.75
314.165	316.75
314.394	296.75
314.624	282.75
314.853	290.75
315.083	307.75
315.312	291.75
315.542	284.75
315.771	278.75
316.001	284.75
316.23	305.75
316.46	297.75
316.689	271.75
316.919	288.75
317.148	286.75
317.377	296.75
317.607	297.75
317.836	287.75
318.065	279.75
318.295	298.75
318.524	283.75
318.753	275.75
318.983	273.75
319.212	265.75
319.441	277.75
319.67	264.75
319.9	259.75
320.129	263.75
320.358	277.75
320.587	286.75
320.816	283.75
321.046	265.75
321.275	268.75
321.504	269.75
321.733	268.75
321.962	264.75
322.191	271.75
322.42	274.75
322.649	268.75
322.878	282.75
323.108	281.75
323.337	264.75
323.566	264.75
323.795	278.75
324.024	276.75
324.253	274.75
324.482	291.75
324.71	296.75
324.939	281.75
325.168	281.75
325.397	263.75
325.626	299.75
325.855	271.75
326.084	283.75
326.313	284.75
326.542	282.75
326.77	292.75
326.999	287.75
327.228	282.75
327.457	291.75
327.686	281.75
327.914	281.75
328.143	274.75
328.372	277.75
328.6	272.75
328.829	290.75
329.058	288.75
329.287	276.75
329.515	273.75
329.744	279.75
329.972	272.75
330.201	282.75
330.43	294.75
330.658	277.75
330.887	267.75
331.115	277.75
331.344	275.75
331.572	305.75
331.801	285.75
332.03	304.75
332.258	288.75
332.486	296.75
332.715	290.75
332.943	308.75
333.172	321.75
333.4	302.75
333.629	327.75
333.857	304.75
334.085	323.75
334.314	325.75
334.542	314.75
334.771	310.75
334.999	320.75
335.227	322.75
335.455	292.75
335.684	305.75
335.912	301.75
336.14	307.75
336.369	295.75
336.597	292.75
336.825	290.75
337.053	302.75
337.281	309.75
337.51	294.75
337.738	316.75
337.966	287.75
338.194	288.75
338.422	282.75
338.65	295.75
338.878	297.75
339.106	292.75
339.334	307.75
339.562	309.75
339.79	292.75
340.018	298.75
340.246	291.75
340.474	295.75
340.702	268.75
340.93	285.75
341.158	299.75
341.386	276.75
341.614	267.75
341.842	290.75
342.07	293.75
342.298	288.75
342.526	280.75
342.754	284.75
342.981	297.75
343.209	299.75
343.437	342.75
343.665	292.75
343.893	330.75
344.12	340.75
344.348	317.75
344.576	320.75
344.804	309.75
345.031	298.75
345.259	283.75
345.487	295.75
345.714	296.75
345.942	292.75
346.17	303.75
346.397	294.75
346.625	297.75
346.853	306.75
347.08	286.75
347.308	311.75
347.535	294.75
347.763	305.75
347.99	313.75
348.218	291.75
348.445	296.75
348.673	302.75
348.9	291.75
349.128	303.75
349.355	306.75
349.583	286.75
349.81	299.75
350.037	301.75
350.265	307.75
350.492	313.75
350.72	307.75
350.947	307.75
351.174	305.75
351.402	296.75
351.629	294.75
351.856	305.75
352.083	339.75
352.311	316.75
352.538	305.75
352.765	315.75
352.992	352.75
353.22	322.75
353.447	327.75
353.674	340.75
353.901	346.75
354.128	361.75
354.355	332.75
354.583	345.75
354.81	332.75
355.037	349.75
355.264	363.75
355.491	356.75
355.718	373.75
355.945	377.75
356.172	399.75
356.399	405.75
356.626	418.75
356.853	431.75
357.08	467.75
357.307	483.75
357.534	519.75
357.761	532.75
357.988	621.75
358.215	713.75
358.441	836.75
358.668	901.75
358.895	915.75
359.122	748.75
359.349	629.75
359.576	538.75
359.802	523.75
360.029	520.75
360.256	442.75
360.483	429.75
360.709	438.75
360.936	442.75
361.163	418.75
361.39	410.75
361.616	411.75
361.843	383.75
362.07	409.75
362.296	376.75
362.523	352.75
362.749	362.75
362.976	349.75
363.203	365.75
363.429	359.75
363.656	333.75
363.882	348.75
364.109	324.75
364.335	348.75
364.562	334.75
364.788	334.75
365.015	328.75
365.241	333.75
365.468	345.75
365.694	347.75
365.92	322.75
366.147	345.75
366.373	323.75
366.599	313.75
366.826	315.75
367.052	319.75
367.278	343.75
367.505	323.75
367.731	351.75
367.957	311.75
368.184	318.75
368.41	321.75
368.636	311.75
368.862	336.75
369.089	318.75
369.315	319.75
369.541	329.75
369.767	334.75
369.993	329.75
370.219	318.75
370.445	316.75
370.672	315.75
370.898	313.75
371.124	331.75
371.35	335.75
371.576	313.75
371.802	335.75
372.028	342.75
372.254	330.75
372.48	339.75
372.706	338.75
372.932	333.75
373.158	340.75
373.384	336.75
373.61	375.75
373.835	356.75
374.061	343.75
374.287	325.75
374.513	354.75
374.739	336.75
374.965	341.75
375.191	337.75
375.416	309.75
375.642	320.75
375.868	345.75
376.094	329.75
376.319	346.75
376.545	309.75
376.771	310.75
376.997	327.75
377.222	335.75
377.448	332.75
377.674	318.75
377.899	324.75
378.125	340.75
378.35	346.75
378.576	327.75
378.802	317.75
379.027	335.75
379.253	323.75
379.478	327.75
379.704	341.75
379.929	343.75
380.155	341.75
380.38	328.75
380.606	341.75
380.831	353.75
381.057	357.75
381.282	344.75
381.507	347.75
381.733	363.75
381.958	353.75
382.184	368.75
382.409	375.75
382.634	425.75
382.86	435.75
383.085	500.75
383.31	543.75
383.535	514.75
383.761	540.75
383.986	555.75
384.211	457.75
384.436	394.75
384.662	394.75
384.887	360.75
385.112	379.75
385.337	372.75
385.562	379.75
385.787	401.75
386.013	388.75
386.238	397.75
386.463	388.75
386.688	437.75
386.913	385.75
387.138	399.75
387.363	384.75
387.588	401.75
387.813	392.75
388.038	373.75
388.263	383.75
388.488	378.75
388.713	404.75
388.938	397.75
389.163	395.75
389.387	400.75
389.612	382.75
389.837	416.75
390.062	405.75
390.287	413.75
390.512	410.75
390.736	410.75
390.961	411.75
391.186	420.75
391.411	442.75
391.636	441.75
391.86	447.75
392.085	452.75
392.31	465.75
392.534	463.75
392.759	486.75
392.984	537.75
393.208	616.75
393.433	725.75
393.658	779.75
393.882	917.75
394.107	1599.75
394.331	2869.75
394.556	3832.75
394.78	2533.75
395.005	1399.75
395.229	1070.75
395.454	1127.75
395.678	1406.75
395.903	2497.75
396.127	4300.75
396.352	4851.75
396.576	2923.75
396.801	1634.75
397.025	1158.75
397.249	903.75
397.474	780.75
397.698	675.75
397.922	643.75
398.147	597.75
398.371	603.75
398.595	569.75
398.82	561.75
399.044	572.75
399.268	572.75
399.492	565.75
399.717	570.75
399.941	563.75
400.165	542.75
400.389	536.75
400.613	515.75
400.837	462.75
401.062	477.75
401.286	491.75
401.51	476.75
401.734	463.75
401.958	457.75
402.182	456.75
402.406	440.75
402.63	446.75
402.854	474.75
403.078	478.75
403.302	488.75
403.526	488.75
403.75	492.75
403.974	477.75
404.198	484.75
404.422	465.75
404.645	454.75
404.869	456.75
405.093	460.75
405.317	448.75
405.541	463.75
405.765	460.75
405.988	454.75
406.212	473.75
406.436	458.75
406.66	479.75
406.883	476.75
407.107	480.75
407.331	481.75
407.555	485.75
407.778	482.75
408.002	466.75
408.226	456.75
408.449	467.75
408.673	490.75
408.896	471.75
409.12	481.75
409.344	474.75
409.567	441.75
409.791	483.75
410.014	449.75
410.238	446.75
410.461	445.75
410.685	450.75
410.908	440.75
411.132	467.75
411.355	456.75
411.578	451.75
411.802	461.75
412.025	455.75
412.249	449.75
412.472	447.75
412.695	445.75
412.919	418.75
413.142	431.75
413.365	430.75
413.589	462.75
413.812	455.75
414.035	429.75
414.258	442.75
414.482	436.75
414.705	451.75
414.928	459.75
415.151	447.75
415.374	437.75
415.597	447.75
415.821	438.75
416.044	420.75
416.267	448.75
416.49	427.75
416.713	439.75
416.936	449.75
417.159	422.75
417.382	447.75
417.605	418.75
417.828	439.75
418.051	430.75
418.274	450.75
418.497	419.75
418.72	461.75
418.943	439.75
419.166	498.75
419.389	475.75
419.611	466.75
419.834	464.75
420.057	437.75
420.28	459.75
420.503	427.75
420.726	425.75
420.948	440.75
421.171	439.75
421.394	458.75
421.617	442.75
421.839	442.75
422.062	448.75
422.285	448.75
422.507	463.75
422.73	477.75
422.953	451.75
423.175	462.75
423.398	440.75
423.621	444.75
423.843	452.75
424.066	444.75
424.288	457.75
424.511	469.75
424.733	474.75
424.956	448.75
425.178	461.75
425.401	458.75
425.623	463.75
425.846	439.75
426.068	455.75
426.291	436.75
426.513	428.75
426.735	436.75
426.958	433.75
427.18	435.75
427.402	423.75
427.625	439.75
427.847	448.75
428.069	424.75
428.292	433.75
428.514	464.75
428.736	423.75
428.958	434.75
429.181	429.75
429.403	409.75
429.625	420.75
429.847	417.75
430.069	436.75
430.292	433.75
430.514	425.75
430.736	417.75
430.958	440.75
431.18	416.75
431.402	416.75
431.624	397.75
431.846	395.75
432.068	365.75
432.29	370.75
432.512	412.75
432.734	436.75
432.956	413.75
433.178	452.75
433.4	432.75
433.622	426.75
433.844	433.75
434.066	426.75
434.287	389.75
434.509	386.75
434.731	416.75
434.953	414.75
435.175	427.75
435.397	449.75
435.618	410.75
435.84	413.75
436.062	415.75
436.284	421.75
436.505	427.75
436.727	410.75
436.949	411.75
437.17	421.75
437.392	415.75
437.614	417.75
437.835	384.75
438.057	401.75
438.278	406.75
438.5	416.75
438.721	414.75
438.943	417.75
439.165	431.75
439.386	446.75
439.608	443.75
439.829	442.75
440.05	443.75
440.272	442.75
440.493	430.75
440.715	463.75
440.936	461.75
441.158	479.75
441.379	468.75
441.6	474.75
441.822	472.75
442.043	467.75
442.264	481.75
442.486	469.75
442.707	457.75
442.928	431.75
443.149	460.75
443.371	463.75
443.592	455.75
443.813	467.75
444.034	464.75
444.255	466.75
444.476	485.75
444.698	488.75
444.919	458.75
445.14	668.75
445.361	563.75
445.582	488.75
445.803	469.75
446.024	455.75
446.245	485.75
446.466	477.75
446.687	458.75
446.908	479.75
447.129	480.75
447.35	448.75
447.571	463.75
447.792	431.75
448.013	431.75
448.234	442.75
448.455	450.75
448.675	428.75
448.896	410.75
449.117	402.75
449.338	422.75
449.559	440.75
449.779	410.75
450	417.75
450.221	433.75
450.442	409.75
450.662	412.75
450.883	422.75
451.104	430.75
451.324	434.75
451.545	421.75
451.766	424.75
451.986	430.75
452.207	426.75
452.428	432.75
452.648	431.75
452.869	442.75
453.089	415.75
453.31	426.75
453.53	417.75
453.751	419.75
453.971	415.75
454.192	423.75
454.412	414.75
454.633	407.75
454.853	408.75
455.073	417.75
455.294	395.75
455.514	399.75
455.734	397.75
455.955	364.75
456.175	405.75
456.395	381.75
456.616	382.75
456.836	366.75
457.056	384.75
457.276	358.75
457.497	397.75
457.717	367.75
457.937	367.75
458.157	379.75
458.377	357.75
458.598	381.75
458.818	340.75
459.038	365.75
459.258	391.75
459.478	392.75
459.698	397.75
459.918	356.75
460.138	394.75
460.358	411.75
460.578	424.75
460.798	445.75
461.018	426.75
461.238	425.75
461.458	429.75
461.678	422.75
461.898	432.75
462.118	442.75
462.338	457.75
462.558	477.75
462.777	495.75
462.997	482.75
463.217	491.75
463.437	481.75
463.657	470.75
463.876	464.75
464.096	476.75
464.316	500.75
464.536	485.75
464.755	489.75
464.975	495.75
465.195	473.75
465.414	469.75
465.634	445.75
465.854	464.75
466.073	482.75
466.293	521.75
466.512	535.75
466.732	551.75
466.951	524.75
467.171	491.75
467.391	483.75
467.61	476.75
467.829	460.75
468.049	467.75
468.268	452.75
468.488	419.75
468.707	448.75
468.927	460.75
469.146	436.75
469.365	442.75
469.585	449.75
469.804	436.75
470.023	440.75
470.243	435.75
470.462	457.75
470.681	460.75
470.901	473.75
471.12	451.75
471.339	466.75
471.558	443.75
471.777	439.75
471.997	434.75
472.216	444.75
472.435	428.75
472.654	417.75
472.873	442.75
473.092	453.75
473.311	455.75
473.53	497.75
473.749	550.75
473.968	531.75
474.187	505.75
474.406	503.75
474.625	562.75
474.844	541.75
475.063	539.75
475.282	494.75
475.501	473.75
475.72	452.75
475.939	452.75
476.158	456.75
476.377	450.75
476.596	433.75
476.814	425.75
477.033	414.75
477.252	442.75
477.471	421.75
477.69	451.75
477.908	429.75
478.127	459.75
478.346	457.75
478.564	467.75
478.783	467.75
479.002	473.75
479.22	482.75
479.439	456.75
479.658	464.75
479.876	459.75
480.095	436.75
480.313	450.75
480.532	459.75
480.751	446.75
480.969	419.75
481.188	402.75
481.406	414.75
481.624	407.75
481.843	408.75
482.061	415.75
482.28	415.75
482.498	429.75
482.717	410.75
482.935	414.75
483.153	457.75
483.372	465.75
483.59	442.75
483.808	435.75
484.027	450.75
484.245	484.75
484.463	564.75
484.681	559.75
484.9	535.75
485.118	529.75
485.336	504.75
485.554	504.75
485.772	478.75
485.99	495.75
486.209	496.75
486.427	492.75
486.645	519.75
486.863	545.75
487.081	538.75
487.299	529.75
487.517	538.75
487.735	552.75
487.953	577.75
488.171	555.75
488.389	572.75
488.607	507.75
488.825	504.75
489.043	511.75
489.261	503.75
489.479	513.75
489.696	500.75
489.914	481.75
490.132	501.75
490.35	523.75
490.568	516.75
490.786	527.75
491.003	527.75
491.221	539.75
491.439	546.75
491.657	559.75
491.874	562.75
492.092	587.75
492.31	609.75
492.527	605.75
492.745	586.75
492.963	533.75
493.18	570.75
493.398	570.75
493.615	553.75
493.833	524.75
494.05	534.75
494.268	531.75
494.485	537.75
494.703	524.75
494.92	532.75
495.138	538.75
495.355	537.75
495.573	525.75
495.79	512.75
496.008	537.75
496.225	547.75
496.442	536.75
496.66	536.75
496.877	541.75
497.094	538.75
497.312	549.75
497.529	535.75
497.746	515.75
497.963	505.75
498.181	530.75
498.398	536.75
498.615	544.75
498.832	545.75
499.049	601.75
499.267	601.75
499.484	643.75
499.701	678.75
499.918	716.75
500.135	750.75
500.352	781.75
500.569	795.75
500.786	783.75
501.003	760.75
501.22	717.75
501.437	716.75
501.654	649.75
501.871	637.75
502.088	585.75
502.305	579.75
502.522	561.75
