Data from SampC_HRD10591_00068.txt Node
Date: Mon Jan 19 11:37:52 EST 2026
User: Yrep
Spectrometer: HR+D1059
Trigger mode: 0
Integration Time (sec): 3.443000E-1
Scans to average: 1
Electric dark correction enabled: true
Nonlinearity correction enabled: false
Boxcar width: 0
XAxis mode: Wavelengths
Number of Pixels in Spectrum: 2048
>>>>>Begin Spectral Data<<<<<
223.165	-24.94
223.4	-24.94
223.635	-24.94
223.869	-23.94
224.104	-26.94
224.338	-12.94
224.573	-3.94
224.808	1.06
225.042	0.06
225.277	-11.94
225.511	-10.94
225.746	-6.94
225.98	21.06
226.215	10.06
226.449	13.06
226.683	27.06
226.918	29.06
227.152	21.06
227.387	56.06
227.621	42.06
227.856	46.06
228.09	37.06
228.324	57.06
228.559	66.06
228.793	59.06
229.027	83.06
229.262	100.06
229.496	84.06
229.73	86.06
229.964	83.06
230.199	89.06
230.433	91.06
230.667	108.06
230.901	88.06
231.136	94.06
231.37	112.06
231.604	103.06
231.838	105.06
232.072	116.06
232.306	110.06
232.541	105.06
232.775	99.06
233.009	97.06
233.243	109.06
233.477	102.06
233.711	103.06
233.945	97.06
234.179	99.06
234.413	114.06
234.647	96.06
234.881	101.06
235.115	85.06
235.349	97.06
235.583	93.06
235.817	111.06
236.051	97.06
236.285	111.06
236.519	104.06
236.753	115.06
236.987	126.06
237.221	148.06
237.455	163.06
237.689	150.06
237.922	156.06
238.156	109.06
238.39	106.06
238.624	105.06
238.858	116.06
239.091	111.06
239.325	88.06
239.559	103.06
239.793	104.06
240.027	111.06
240.26	117.06
240.494	107.06
240.728	103.06
240.961	93.06
241.195	104.06
241.429	107.06
241.662	111.06
241.896	99.06
242.13	100.06
242.363	102.06
242.597	102.06
242.83	113.06
243.064	111.06
243.298	91.06
243.531	107.06
243.765	106.06
243.998	109.06
244.232	113.06
244.465	89.06
244.699	114.06
244.932	107.06
245.166	113.06
245.399	115.06
245.633	96.06
245.866	113.06
246.099	121.06
246.333	90.06
246.566	101.06
246.8	104.06
247.033	99.06
247.266	116.06
247.5	109.06
247.733	120.06
247.966	118.06
248.2	107.06
248.433	115.06
248.666	99.06
248.899	103.06
249.133	113.06
249.366	109.06
249.599	112.06
249.832	110.06
250.066	126.06
250.299	112.06
250.532	123.06
250.765	115.06
250.998	105.06
251.231	116.06
251.465	106.06
251.698	109.06
251.931	107.06
252.164	102.06
252.397	105.06
252.63	130.06
252.863	120.06
253.096	114.06
253.329	122.06
253.562	130.06
253.795	129.06
254.028	122.06
254.261	125.06
254.494	130.06
254.727	120.06
254.96	133.06
255.193	118.06
255.426	120.06
255.659	130.06
255.892	125.06
256.124	121.06
256.357	127.06
256.59	148.06
256.823	159.06
257.056	181.06
257.289	194.06
257.521	200.06
257.754	213.06
257.987	199.06
258.22	163.06
258.452	147.06
258.685	146.06
258.918	142.06
259.151	129.06
259.383	137.06
259.616	126.06
259.849	134.06
260.081	127.06
260.314	130.06
260.547	122.06
260.779	123.06
261.012	131.06
261.244	132.06
261.477	141.06
261.71	140.06
261.942	143.06
262.175	136.06
262.407	125.06
262.64	139.06
262.872	130.06
263.105	140.06
263.337	173.06
263.57	153.06
263.802	165.06
264.035	161.06
264.267	149.06
264.499	151.06
264.732	135.06
264.964	154.06
265.197	146.06
265.429	179.06
265.661	189.06
265.894	194.06
266.126	182.06
266.358	216.06
266.591	182.06
266.823	168.06
267.055	136.06
267.287	145.06
267.52	131.06
267.752	125.06
267.984	131.06
268.216	142.06
268.448	142.06
268.681	151.06
268.913	128.06
269.145	128.06
269.377	139.06
269.609	140.06
269.841	128.06
270.073	143.06
270.306	131.06
270.538	139.06
270.77	127.06
271.002	128.06
271.234	146.06
271.466	148.06
271.698	137.06
271.93	135.06
272.162	133.06
272.394	157.06
272.626	135.06
272.858	143.06
273.09	134.06
273.322	141.06
273.553	123.06
273.785	138.06
274.017	138.06
274.249	134.06
274.481	143.06
274.713	146.06
274.945	151.06
275.176	138.06
275.408	145.06
275.64	144.06
275.872	139.06
276.104	136.06
276.335	134.06
276.567	142.06
276.799	151.06
277.031	138.06
277.262	146.06
277.494	157.06
277.726	144.06
277.957	174.06
278.189	170.06
278.421	179.06
278.652	167.06
278.884	191.06
279.115	234.06
279.347	323.06
279.579	391.06
279.81	431.06
280.042	349.06
280.273	338.06
280.505	335.06
280.736	239.06
280.968	190.06
281.199	197.06
281.431	224.06
281.662	260.06
281.894	313.06
282.125	251.06
282.356	220.06
282.588	181.06
282.819	186.06
283.051	175.06
283.282	169.06
283.513	159.06
283.745	177.06
283.976	155.06
284.207	158.06
284.439	163.06
284.67	160.06
284.901	186.06
285.132	202.06
285.364	215.06
285.595	205.06
285.826	169.06
286.057	139.06
286.288	144.06
286.52	163.06
286.751	148.06
286.982	147.06
287.213	167.06
287.444	166.06
287.675	168.06
287.906	159.06
288.138	160.06
288.369	165.06
288.6	166.06
288.831	145.06
289.062	149.06
289.293	155.06
289.524	143.06
289.755	155.06
289.986	157.06
290.217	165.06
290.448	158.06
290.679	160.06
290.91	171.06
291.141	163.06
291.371	176.06
291.602	167.06
291.833	166.06
292.064	167.06
292.295	156.06
292.526	174.06
292.757	175.06
292.987	172.06
293.218	192.06
293.449	191.06
293.68	172.06
293.91	185.06
294.141	170.06
294.372	161.06
294.603	169.06
294.833	158.06
295.064	160.06
295.295	164.06
295.525	159.06
295.756	160.06
295.987	163.06
296.217	156.06
296.448	169.06
296.679	156.06
296.909	181.06
297.14	173.06
297.37	169.06
297.601	157.06
297.831	166.06
298.062	174.06
298.292	171.06
298.523	174.06
298.753	163.06
298.984	171.06
299.214	176.06
299.445	177.06
299.675	171.06
299.905	160.06
300.136	174.06
300.366	177.06
300.597	171.06
300.827	168.06
301.057	178.06
301.288	174.06
301.518	188.06
301.748	194.06
301.979	229.06
302.209	200.06
302.439	192.06
302.669	197.06
302.9	201.06
303.13	206.06
303.36	208.06
303.59	209.06
303.82	210.06
304.051	218.06
304.281	225.06
304.511	234.06
304.741	243.06
304.971	272.06
305.201	330.06
305.431	344.06
305.661	389.06
305.891	405.06
306.121	375.06
306.352	340.06
306.582	354.06
306.812	355.06
307.042	322.06
307.272	330.06
307.502	377.06
307.731	480.06
307.961	642.06
308.191	859.06
308.421	991.06
308.651	837.06
308.881	789.06
309.111	950.06
309.341	1187.06
309.571	1100.06
309.8	747.06
310.03	535.06
310.26	413.06
310.49	353.06
310.72	310.06
310.949	275.06
311.179	251.06
311.409	240.06
311.639	242.06
311.868	244.06
312.098	247.06
312.328	230.06
312.557	250.06
312.787	222.06
313.017	225.06
313.246	221.06
313.476	219.06
313.706	196.06
313.935	207.06
314.165	221.06
314.394	194.06
314.624	179.06
314.853	202.06
315.083	199.06
315.312	187.06
315.542	193.06
315.771	200.06
316.001	202.06
316.23	191.06
316.46	192.06
316.689	183.06
316.919	189.06
317.148	197.06
317.377	186.06
317.607	193.06
317.836	186.06
318.065	193.06
318.295	195.06
318.524	208.06
318.753	196.06
318.983	191.06
319.212	171.06
319.441	181.06
319.67	189.06
319.9	187.06
320.129	171.06
320.358	177.06
320.587	175.06
320.816	179.06
321.046	193.06
321.275	194.06
321.504	181.06
321.733	189.06
321.962	172.06
322.191	187.06
322.42	182.06
322.649	178.06
322.878	193.06
323.108	190.06
323.337	190.06
323.566	198.06
323.795	191.06
324.024	189.06
324.253	170.06
324.482	175.06
324.71	193.06
324.939	197.06
325.168	182.06
325.397	195.06
325.626	197.06
325.855	194.06
326.084	182.06
326.313	195.06
326.542	188.06
326.77	206.06
326.999	188.06
327.228	193.06
327.457	197.06
327.686	193.06
327.914	181.06
328.143	194.06
328.372	187.06
328.6	192.06
328.829	187.06
329.058	180.06
329.287	194.06
329.515	191.06
329.744	194.06
329.972	181.06
330.201	192.06
330.43	194.06
330.658	178.06
330.887	187.06
331.115	191.06
331.344	199.06
331.572	195.06
331.801	186.06
332.03	189.06
332.258	196.06
332.486	184.06
332.715	187.06
332.943	199.06
333.172	207.06
333.4	194.06
333.629	213.06
333.857	216.06
334.085	224.06
334.314	229.06
334.542	203.06
334.771	222.06
334.999	216.06
335.227	201.06
335.455	208.06
335.684	219.06
335.912	209.06
336.14	203.06
336.369	189.06
336.597	193.06
336.825	193.06
337.053	205.06
337.281	219.06
337.51	190.06
337.738	217.06
337.966	179.06
338.194	197.06
338.422	198.06
338.65	191.06
338.878	191.06
339.106	182.06
339.334	200.06
339.562	191.06
339.79	207.06
340.018	189.06
340.246	193.06
340.474	198.06
340.702	197.06
340.93	181.06
341.158	185.06
341.386	178.06
341.614	178.06
341.842	177.06
342.07	203.06
342.298	188.06
342.526	199.06
342.754	177.06
342.981	194.06
343.209	190.06
343.437	216.06
343.665	203.06
343.893	202.06
344.12	230.06
344.348	205.06
344.576	197.06
344.804	182.06
345.031	195.06
345.259	206.06
345.487	195.06
345.714	174.06
345.942	194.06
346.17	203.06
346.397	195.06
346.625	219.06
346.853	184.06
347.08	177.06
347.308	198.06
347.535	195.06
347.763	182.06
347.99	190.06
348.218	208.06
348.445	187.06
348.673	189.06
348.9	197.06
349.128	207.06
349.355	186.06
349.583	186.06
349.81	182.06
350.037	205.06
350.265	194.06
350.492	194.06
350.72	190.06
350.947	199.06
351.174	201.06
351.402	197.06
351.629	206.06
351.856	197.06
352.083	205.06
352.311	202.06
352.538	182.06
352.765	197.06
352.992	219.06
353.22	219.06
353.447	203.06
353.674	207.06
353.901	209.06
354.128	214.06
354.355	203.06
354.583	207.06
354.81	213.06
355.037	219.06
355.264	227.06
355.491	229.06
355.718	227.06
355.945	236.06
356.172	221.06
356.399	236.06
356.626	234.06
356.853	256.06
357.08	263.06
357.307	264.06
357.534	294.06
357.761	299.06
357.988	350.06
358.215	381.06
358.441	436.06
358.668	458.06
358.895	453.06
359.122	381.06
359.349	339.06
359.576	317.06
359.802	285.06
360.029	281.06
360.256	277.06
360.483	252.06
360.709	250.06
360.936	265.06
361.163	263.06
361.39	248.06
361.616	258.06
361.843	234.06
362.07	253.06
362.296	224.06
362.523	232.06
362.749	226.06
362.976	221.06
363.203	232.06
363.429	229.06
363.656	223.06
363.882	226.06
364.109	219.06
364.335	220.06
364.562	217.06
364.788	213.06
365.015	211.06
365.241	216.06
365.468	216.06
365.694	214.06
365.92	212.06
366.147	213.06
366.373	194.06
366.599	192.06
366.826	223.06
367.052	216.06
367.278	200.06
367.505	204.06
367.731	226.06
367.957	224.06
368.184	191.06
368.41	209.06
368.636	209.06
368.862	224.06
369.089	192.06
369.315	184.06
369.541	214.06
369.767	200.06
369.993	222.06
370.219	202.06
370.445	209.06
370.672	199.06
370.898	209.06
371.124	209.06
371.35	210.06
371.576	204.06
371.802	213.06
372.028	222.06
372.254	221.06
372.48	212.06
372.706	214.06
372.932	216.06
373.158	201.06
373.384	209.06
373.61	218.06
373.835	215.06
374.061	218.06
374.287	205.06
374.513	212.06
374.739	203.06
374.965	232.06
375.191	198.06
375.416	201.06
375.642	210.06
375.868	224.06
376.094	205.06
376.319	210.06
376.545	206.06
376.771	202.06
376.997	198.06
377.222	202.06
377.448	199.06
377.674	206.06
377.899	213.06
378.125	212.06
378.35	216.06
378.576	195.06
378.802	207.06
379.027	230.06
379.253	224.06
379.478	214.06
379.704	216.06
379.929	202.06
380.155	175.06
380.38	201.06
380.606	207.06
380.831	209.06
381.057	225.06
381.282	195.06
381.507	223.06
381.733	227.06
381.958	225.06
382.184	227.06
382.409	233.06
382.634	243.06
382.86	256.06
383.085	279.06
383.31	292.06
383.535	297.06
383.761	293.06
383.986	291.06
384.211	249.06
384.436	234.06
384.662	228.06
384.887	229.06
385.112	247.06
385.337	235.06
385.562	229.06
385.787	235.06
386.013	243.06
386.238	258.06
386.463	236.06
386.688	257.06
386.913	230.06
387.138	241.06
387.363	252.06
387.588	234.06
387.813	259.06
388.038	248.06
388.263	260.06
388.488	243.06
388.713	235.06
388.938	252.06
389.163	240.06
389.387	237.06
389.612	241.06
389.837	234.06
390.062	257.06
390.287	270.06
390.512	251.06
390.736	265.06
390.961	242.06
391.186	277.06
391.411	247.06
391.636	262.06
391.86	290.06
392.085	275.06
392.31	283.06
392.534	289.06
392.759	310.06
392.984	315.06
393.208	337.06
393.433	374.06
393.658	447.06
393.882	535.06
394.107	865.06
394.331	1460.06
394.556	1873.06
394.78	1305.06
395.005	756.06
395.229	602.06
395.454	602.06
395.678	787.06
395.903	1277.06
396.127	2073.06
396.352	2371.06
396.576	1481.06
396.801	874.06
397.025	633.06
397.249	522.06
397.474	459.06
397.698	420.06
397.922	358.06
398.147	365.06
398.371	345.06
398.595	328.06
398.82	335.06
399.044	338.06
399.268	319.06
399.492	357.06
399.717	343.06
399.941	331.06
400.165	326.06
400.389	305.06
400.613	297.06
400.837	291.06
401.062	285.06
401.286	291.06
401.51	275.06
401.734	283.06
401.958	282.06
402.182	280.06
402.406	269.06
402.63	274.06
402.854	286.06
403.078	294.06
403.302	272.06
403.526	293.06
403.75	294.06
403.974	274.06
404.198	289.06
404.422	279.06
404.645	288.06
404.869	289.06
405.093	291.06
405.317	271.06
405.541	286.06
405.765	279.06
405.988	269.06
406.212	287.06
406.436	259.06
406.66	276.06
406.883	287.06
407.107	295.06
407.331	285.06
407.555	287.06
407.778	296.06
408.002	287.06
408.226	277.06
408.449	275.06
408.673	259.06
408.896	283.06
409.12	269.06
409.344	282.06
409.567	277.06
409.791	287.06
410.014	274.06
410.238	272.06
410.461	258.06
410.685	272.06
410.908	287.06
411.132	288.06
411.355	266.06
411.578	271.06
411.802	258.06
412.025	269.06
412.249	270.06
412.472	275.06
412.695	291.06
412.919	273.06
413.142	256.06
413.365	266.06
413.589	275.06
413.812	270.06
414.035	264.06
414.258	264.06
414.482	263.06
414.705	244.06
414.928	266.06
415.151	261.06
415.374	258.06
415.597	253.06
415.821	257.06
416.044	245.06
416.267	260.06
416.49	261.06
416.713	251.06
416.936	272.06
417.159	258.06
417.382	258.06
417.605	251.06
417.828	266.06
418.051	266.06
418.274	263.06
418.497	263.06
418.72	265.06
418.943	258.06
419.166	275.06
419.389	279.06
419.611	285.06
419.834	286.06
420.057	277.06
420.28	264.06
420.503	270.06
420.726	266.06
420.948	261.06
421.171	278.06
421.394	275.06
421.617	274.06
421.839	267.06
422.062	271.06
422.285	251.06
422.507	265.06
422.73	274.06
422.953	264.06
423.175	271.06
423.398	267.06
423.621	271.06
423.843	265.06
424.066	274.06
424.288	275.06
424.511	281.06
424.733	269.06
424.956	252.06
425.178	269.06
425.401	264.06
425.623	273.06
425.846	253.06
426.068	270.06
426.291	254.06
426.513	251.06
426.735	258.06
426.958	274.06
427.18	256.06
427.402	265.06
427.625	255.06
427.847	251.06
428.069	242.06
428.292	246.06
428.514	252.06
428.736	255.06
428.958	266.06
429.181	262.06
429.403	255.06
429.625	259.06
429.847	249.06
430.069	248.06
430.292	258.06
430.514	243.06
430.736	249.06
430.958	259.06
431.18	255.06
431.402	251.06
431.624	242.06
431.846	245.06
432.068	243.06
432.29	252.06
432.512	253.06
432.734	269.06
432.956	255.06
433.178	269.06
433.4	276.06
433.622	273.06
433.844	270.06
434.066	263.06
434.287	228.06
434.509	240.06
434.731	249.06
434.953	262.06
435.175	258.06
435.397	263.06
435.618	251.06
435.84	241.06
436.062	237.06
436.284	253.06
436.505	241.06
436.727	257.06
436.949	267.06
437.17	231.06
437.392	249.06
437.614	253.06
437.835	243.06
438.057	259.06
438.278	238.06
438.5	263.06
438.721	250.06
438.943	247.06
439.165	258.06
439.386	279.06
439.608	269.06
439.829	262.06
440.05	263.06
440.272	253.06
440.493	243.06
440.715	281.06
440.936	253.06
441.158	269.06
441.379	269.06
441.6	262.06
441.822	269.06
442.043	275.06
442.264	266.06
442.486	271.06
442.707	275.06
442.928	264.06
443.149	265.06
443.371	270.06
443.592	279.06
443.813	270.06
444.034	275.06
444.255	285.06
444.476	277.06
444.698	296.06
444.919	275.06
445.14	478.06
445.361	361.06
445.582	293.06
445.803	271.06
446.024	277.06
446.245	273.06
446.466	277.06
446.687	270.06
446.908	275.06
447.129	284.06
447.35	271.06
447.571	273.06
447.792	256.06
448.013	256.06
448.234	254.06
448.455	251.06
448.675	265.06
448.896	266.06
449.117	243.06
449.338	242.06
449.559	269.06
449.779	251.06
450	238.06
450.221	273.06
450.442	255.06
450.662	246.06
450.883	257.06
451.104	250.06
451.324	257.06
451.545	263.06
451.766	245.06
451.986	251.06
452.207	254.06
452.428	248.06
452.648	248.06
452.869	248.06
453.089	248.06
453.31	242.06
453.53	230.06
453.751	246.06
453.971	261.06
454.192	244.06
454.412	244.06
454.633	243.06
454.853	264.06
455.073	225.06
455.294	242.06
455.514	229.06
455.734	233.06
455.955	226.06
456.175	226.06
456.395	238.06
456.616	245.06
456.836	226.06
457.056	213.06
457.276	214.06
457.497	224.06
457.717	237.06
457.937	219.06
458.157	240.06
458.377	224.06
458.598	235.06
458.818	226.06
459.038	227.06
459.258	233.06
459.478	233.06
459.698	229.06
459.918	242.06
460.138	255.06
460.358	267.06
460.578	271.06
460.798	261.06
461.018	254.06
461.238	241.06
461.458	277.06
461.678	247.06
461.898	269.06
462.118	253.06
462.338	266.06
462.558	262.06
462.777	292.06
462.997	290.06
463.217	290.06
463.437	302.06
463.657	285.06
463.876	266.06
464.096	281.06
464.316	265.06
464.536	283.06
464.755	286.06
464.975	279.06
465.195	277.06
465.414	272.06
465.634	255.06
465.854	266.06
466.073	292.06
466.293	303.06
466.512	303.06
466.732	305.06
466.951	308.06
467.171	283.06
467.391	289.06
467.61	271.06
467.829	276.06
468.049	282.06
468.268	281.06
468.488	287.06
468.707	270.06
468.927	262.06
469.146	266.06
469.365	281.06
469.585	277.06
469.804	274.06
470.023	272.06
470.243	271.06
470.462	282.06
470.681	283.06
470.901	278.06
471.12	261.06
471.339	277.06
471.558	266.06
471.777	291.06
471.997	279.06
472.216	271.06
472.435	250.06
472.654	257.06
472.873	270.06
473.092	264.06
473.311	283.06
473.53	274.06
473.749	303.06
473.968	321.06
474.187	285.06
474.406	295.06
474.625	320.06
474.844	319.06
475.063	311.06
475.282	303.06
475.501	271.06
475.72	286.06
475.939	279.06
476.158	272.06
476.377	261.06
476.596	249.06
476.814	273.06
477.033	256.06
477.252	263.06
477.471	269.06
477.69	270.06
477.908	295.06
478.127	285.06
478.346	281.06
478.564	275.06
478.783	282.06
479.002	290.06
479.22	277.06
479.439	285.06
479.658	246.06
479.876	261.06
480.095	268.06
480.313	273.06
480.532	278.06
480.751	256.06
480.969	263.06
481.188	248.06
481.406	249.06
481.624	238.06
481.843	241.06
482.061	251.06
482.28	259.06
482.498	262.06
482.717	251.06
482.935	249.06
483.153	267.06
483.372	281.06
483.59	289.06
483.808	263.06
484.027	256.06
484.245	294.06
484.463	318.06
484.681	332.06
484.9	335.06
485.118	321.06
485.336	325.06
485.554	297.06
485.772	309.06
485.99	303.06
486.209	297.06
486.427	295.06
486.645	300.06
486.863	314.06
487.081	317.06
487.299	311.06
487.517	323.06
487.735	313.06
487.953	333.06
488.171	325.06
488.389	329.06
488.607	320.06
488.825	310.06
489.043	316.06
489.261	331.06
489.479	310.06
489.696	312.06
489.914	306.06
490.132	305.06
490.35	320.06
490.568	312.06
490.786	324.06
491.003	316.06
491.221	319.06
491.439	327.06
491.657	319.06
491.874	345.06
492.092	348.06
492.31	356.06
492.527	343.06
492.745	325.06
492.963	324.06
493.18	305.06
493.398	333.06
493.615	298.06
493.833	303.06
494.05	310.06
494.268	315.06
494.485	307.06
494.703	306.06
494.92	313.06
495.138	313.06
495.355	304.06
495.573	314.06
495.79	313.06
496.008	316.06
496.225	303.06
496.442	296.06
496.66	338.06
496.877	312.06
497.094	312.06
497.312	316.06
497.529	318.06
497.746	303.06
497.963	308.06
498.181	299.06
498.398	309.06
498.615	309.06
498.832	314.06
499.049	344.06
499.267	331.06
499.484	369.06
499.701	366.06
499.918	413.06
500.135	417.06
500.352	447.06
500.569	459.06
500.786	458.06
501.003	427.06
501.22	405.06
501.437	393.06
501.654	362.06
501.871	366.06
502.088	344.06
502.305	347.06
502.522	329.06
502.739	329.06
502.956	309.06
