Data from SampC_HRD10591_00072.txt Node
Date: Mon Jan 19 11:37:54 EST 2026
User: Yrep
Spectrometer: HR+D1059
Trigger mode: 0
Integration Time (sec): 3.443000E-1
Scans to average: 1
Electric dark correction enabled: true
Nonlinearity correction enabled: false
Boxcar width: 0
XAxis mode: Wavelengths
Number of Pixels in Spectrum: 2048
>>>>>Begin Spectral Data<<<<<
223.165	-14.81
223.4	-14.81
223.635	-14.81
223.869	-22.81
224.104	-26.81
224.338	-26.81
224.573	-32.81
224.808	-22.81
225.042	-20.81
225.277	3.19
225.511	7.19
225.746	8.19
225.98	-0.81
226.215	22.19
226.449	17.19
226.683	33.19
226.918	31.19
227.152	46.19
227.387	35.19
227.621	44.19
227.856	52.19
228.09	42.19
228.324	51.19
228.559	71.19
228.793	73.19
229.027	78.19
229.262	82.19
229.496	85.19
229.73	91.19
229.964	86.19
230.199	90.19
230.433	94.19
230.667	89.19
230.901	94.19
231.136	88.19
231.37	86.19
231.604	104.19
231.838	88.19
232.072	101.19
232.306	108.19
232.541	84.19
232.775	89.19
233.009	108.19
233.243	96.19
233.477	97.19
233.711	107.19
233.945	100.19
234.179	109.19
234.413	110.19
234.647	111.19
234.881	108.19
235.115	105.19
235.349	102.19
235.583	111.19
235.817	97.19
236.051	105.19
236.285	107.19
236.519	109.19
236.753	124.19
236.987	156.19
237.221	164.19
237.455	166.19
237.689	153.19
237.922	140.19
238.156	130.19
238.39	120.19
238.624	102.19
238.858	109.19
239.091	107.19
239.325	98.19
239.559	92.19
239.793	99.19
240.027	101.19
240.26	101.19
240.494	106.19
240.728	101.19
240.961	103.19
241.195	105.19
241.429	108.19
241.662	93.19
241.896	102.19
242.13	104.19
242.363	98.19
242.597	121.19
242.83	96.19
243.064	93.19
243.298	100.19
243.531	90.19
243.765	87.19
243.998	98.19
244.232	101.19
244.465	103.19
244.699	98.19
244.932	110.19
245.166	99.19
245.399	116.19
245.633	107.19
245.866	127.19
246.099	106.19
246.333	102.19
246.566	111.19
246.8	110.19
247.033	108.19
247.266	90.19
247.5	110.19
247.733	120.19
247.966	106.19
248.2	94.19
248.433	116.19
248.666	100.19
248.899	124.19
249.133	117.19
249.366	123.19
249.599	117.19
249.832	97.19
250.066	128.19
250.299	109.19
250.532	116.19
250.765	97.19
250.998	89.19
251.231	99.19
251.465	124.19
251.698	114.19
251.931	118.19
252.164	130.19
252.397	125.19
252.63	127.19
252.863	115.19
253.096	105.19
253.329	127.19
253.562	114.19
253.795	122.19
254.028	129.19
254.261	106.19
254.494	109.19
254.727	128.19
254.96	132.19
255.193	115.19
255.426	111.19
255.659	123.19
255.892	126.19
256.124	127.19
256.357	125.19
256.59	150.19
256.823	162.19
257.056	207.19
257.289	205.19
257.521	208.19
257.754	215.19
257.987	205.19
258.22	167.19
258.452	145.19
258.685	153.19
258.918	144.19
259.151	129.19
259.383	128.19
259.616	137.19
259.849	135.19
260.081	121.19
260.314	134.19
260.547	119.19
260.779	123.19
261.012	123.19
261.244	117.19
261.477	122.19
261.71	120.19
261.942	98.19
262.175	132.19
262.407	138.19
262.64	131.19
262.872	142.19
263.105	145.19
263.337	197.19
263.57	180.19
263.802	163.19
264.035	151.19
264.267	145.19
264.499	153.19
264.732	157.19
264.964	150.19
265.197	170.19
265.429	187.19
265.661	186.19
265.894	165.19
266.126	204.19
266.358	220.19
266.591	176.19
266.823	172.19
267.055	148.19
267.287	157.19
267.52	147.19
267.752	140.19
267.984	125.19
268.216	137.19
268.448	143.19
268.681	133.19
268.913	126.19
269.145	139.19
269.377	135.19
269.609	131.19
269.841	141.19
270.073	123.19
270.306	127.19
270.538	119.19
270.77	134.19
271.002	133.19
271.234	128.19
271.466	132.19
271.698	137.19
271.93	129.19
272.162	141.19
272.394	134.19
272.626	128.19
272.858	143.19
273.09	145.19
273.322	152.19
273.553	136.19
273.785	131.19
274.017	137.19
274.249	138.19
274.481	133.19
274.713	151.19
274.945	149.19
275.176	132.19
275.408	149.19
275.64	158.19
275.872	141.19
276.104	130.19
276.335	142.19
276.567	135.19
276.799	155.19
277.031	156.19
277.262	145.19
277.494	168.19
277.726	169.19
277.957	168.19
278.189	178.19
278.421	179.19
278.652	178.19
278.884	204.19
279.115	256.19
279.347	312.19
279.579	422.19
279.81	476.19
280.042	413.19
280.273	364.19
280.505	347.19
280.736	253.19
280.968	213.19
281.199	205.19
281.431	238.19
281.662	278.19
281.894	325.19
282.125	273.19
282.356	215.19
282.588	207.19
282.819	198.19
283.051	180.19
283.282	161.19
283.513	179.19
283.745	180.19
283.976	155.19
284.207	147.19
284.439	157.19
284.67	166.19
284.901	195.19
285.132	201.19
285.364	223.19
285.595	209.19
285.826	181.19
286.057	166.19
286.288	156.19
286.52	161.19
286.751	162.19
286.982	160.19
287.213	161.19
287.444	172.19
287.675	161.19
287.906	173.19
288.138	158.19
288.369	170.19
288.6	167.19
288.831	160.19
289.062	168.19
289.293	160.19
289.524	176.19
289.755	162.19
289.986	164.19
290.217	175.19
290.448	147.19
290.679	173.19
290.91	176.19
291.141	164.19
291.371	163.19
291.602	171.19
291.833	172.19
292.064	162.19
292.295	148.19
292.526	175.19
292.757	185.19
292.987	175.19
293.218	181.19
293.449	177.19
293.68	186.19
293.91	193.19
294.141	178.19
294.372	161.19
294.603	185.19
294.833	166.19
295.064	169.19
295.295	174.19
295.525	174.19
295.756	172.19
295.987	166.19
296.217	174.19
296.448	177.19
296.679	165.19
296.909	180.19
297.14	170.19
297.37	159.19
297.601	173.19
297.831	177.19
298.062	164.19
298.292	165.19
298.523	174.19
298.753	180.19
298.984	166.19
299.214	184.19
299.445	180.19
299.675	178.19
299.905	173.19
300.136	157.19
300.366	167.19
300.597	186.19
300.827	175.19
301.057	188.19
301.288	182.19
301.518	178.19
301.748	197.19
301.979	196.19
302.209	197.19
302.439	205.19
302.669	190.19
302.9	202.19
303.13	217.19
303.36	207.19
303.59	213.19
303.82	220.19
304.051	227.19
304.281	225.19
304.511	234.19
304.741	247.19
304.971	278.19
305.201	338.19
305.431	362.19
305.661	398.19
305.891	438.19
306.121	401.19
306.352	342.19
306.582	362.19
306.812	384.19
307.042	343.19
307.272	329.19
307.502	361.19
307.731	469.19
307.961	667.19
308.191	903.19
308.421	1111.19
308.651	901.19
308.881	811.19
309.111	1020.19
309.341	1253.19
309.571	1188.19
309.8	808.19
310.03	539.19
310.26	409.19
310.49	349.19
310.72	312.19
310.949	271.19
311.179	281.19
311.409	249.19
311.639	252.19
311.868	240.19
312.098	238.19
312.328	229.19
312.557	218.19
312.787	210.19
313.017	226.19
313.246	228.19
313.476	220.19
313.706	215.19
313.935	198.19
314.165	209.19
314.394	205.19
314.624	196.19
314.853	207.19
315.083	216.19
315.312	191.19
315.542	185.19
315.771	199.19
316.001	191.19
316.23	190.19
316.46	189.19
316.689	200.19
316.919	189.19
317.148	198.19
317.377	204.19
317.607	213.19
317.836	182.19
318.065	202.19
318.295	187.19
318.524	194.19
318.753	198.19
318.983	182.19
319.212	189.19
319.441	183.19
319.67	180.19
319.9	182.19
320.129	182.19
320.358	198.19
320.587	179.19
320.816	197.19
321.046	175.19
321.275	204.19
321.504	188.19
321.733	188.19
321.962	193.19
322.191	190.19
322.42	195.19
322.649	203.19
322.878	195.19
323.108	194.19
323.337	205.19
323.566	174.19
323.795	186.19
324.024	194.19
324.253	193.19
324.482	199.19
324.71	202.19
324.939	193.19
325.168	201.19
325.397	186.19
325.626	190.19
325.855	195.19
326.084	180.19
326.313	191.19
326.542	185.19
326.77	204.19
326.999	180.19
327.228	210.19
327.457	190.19
327.686	179.19
327.914	218.19
328.143	198.19
328.372	192.19
328.6	193.19
328.829	191.19
329.058	187.19
329.287	186.19
329.515	187.19
329.744	186.19
329.972	186.19
330.201	203.19
330.43	192.19
330.658	185.19
330.887	202.19
331.115	188.19
331.344	202.19
331.572	195.19
331.801	199.19
332.03	185.19
332.258	203.19
332.486	205.19
332.715	192.19
332.943	208.19
333.172	211.19
333.4	188.19
333.629	209.19
333.857	210.19
334.085	209.19
334.314	229.19
334.542	197.19
334.771	212.19
334.999	221.19
335.227	222.19
335.455	211.19
335.684	201.19
335.912	219.19
336.14	219.19
336.369	209.19
336.597	223.19
336.825	199.19
337.053	209.19
337.281	211.19
337.51	202.19
337.738	215.19
337.966	211.19
338.194	200.19
338.422	207.19
338.65	211.19
338.878	192.19
339.106	201.19
339.334	210.19
339.562	193.19
339.79	206.19
340.018	192.19
340.246	201.19
340.474	204.19
340.702	196.19
340.93	201.19
341.158	198.19
341.386	197.19
341.614	213.19
341.842	204.19
342.07	201.19
342.298	204.19
342.526	189.19
342.754	190.19
342.981	214.19
343.209	190.19
343.437	219.19
343.665	212.19
343.893	219.19
344.12	227.19
344.348	211.19
344.576	204.19
344.804	194.19
345.031	192.19
345.259	205.19
345.487	203.19
345.714	201.19
345.942	195.19
346.17	190.19
346.397	179.19
346.625	192.19
346.853	205.19
347.08	195.19
347.308	194.19
347.535	208.19
347.763	201.19
347.99	204.19
348.218	213.19
348.445	193.19
348.673	185.19
348.9	205.19
349.128	203.19
349.355	179.19
349.583	191.19
349.81	187.19
350.037	193.19
350.265	213.19
350.492	198.19
350.72	178.19
350.947	198.19
351.174	203.19
351.402	188.19
351.629	185.19
351.856	205.19
352.083	195.19
352.311	201.19
352.538	209.19
352.765	215.19
352.992	204.19
353.22	207.19
353.447	214.19
353.674	224.19
353.901	226.19
354.128	219.19
354.355	202.19
354.583	210.19
354.81	223.19
355.037	223.19
355.264	232.19
355.491	231.19
355.718	230.19
355.945	233.19
356.172	232.19
356.399	261.19
356.626	261.19
356.853	266.19
357.08	285.19
357.307	289.19
357.534	299.19
357.761	314.19
357.988	358.19
358.215	389.19
358.441	471.19
358.668	528.19
358.895	495.19
359.122	425.19
359.349	374.19
359.576	311.19
359.802	294.19
360.029	296.19
360.256	262.19
360.483	277.19
360.709	258.19
360.936	278.19
361.163	255.19
361.39	237.19
361.616	247.19
361.843	242.19
362.07	250.19
362.296	236.19
362.523	229.19
362.749	228.19
362.976	226.19
363.203	233.19
363.429	208.19
363.656	217.19
363.882	206.19
364.109	215.19
364.335	217.19
364.562	213.19
364.788	214.19
365.015	222.19
365.241	218.19
365.468	236.19
365.694	206.19
365.92	217.19
366.147	205.19
366.373	201.19
366.599	208.19
366.826	213.19
367.052	200.19
367.278	224.19
367.505	201.19
367.731	229.19
367.957	220.19
368.184	206.19
368.41	208.19
368.636	204.19
368.862	202.19
369.089	219.19
369.315	215.19
369.541	220.19
369.767	213.19
369.993	208.19
370.219	218.19
370.445	203.19
370.672	224.19
370.898	206.19
371.124	219.19
371.35	218.19
371.576	204.19
371.802	220.19
372.028	225.19
372.254	220.19
372.48	208.19
372.706	221.19
372.932	212.19
373.158	221.19
373.384	227.19
373.61	227.19
373.835	232.19
374.061	205.19
374.287	239.19
374.513	217.19
374.739	219.19
374.965	222.19
375.191	208.19
375.416	219.19
375.642	211.19
375.868	235.19
376.094	238.19
376.319	229.19
376.545	221.19
376.771	190.19
376.997	225.19
377.222	207.19
377.448	217.19
377.674	194.19
377.899	220.19
378.125	214.19
378.35	214.19
378.576	213.19
378.802	209.19
379.027	219.19
379.253	237.19
379.478	209.19
379.704	213.19
379.929	223.19
380.155	207.19
380.38	226.19
380.606	206.19
380.831	212.19
381.057	235.19
381.282	224.19
381.507	214.19
381.733	239.19
381.958	246.19
382.184	250.19
382.409	239.19
382.634	254.19
382.86	277.19
383.085	287.19
383.31	304.19
383.535	310.19
383.761	300.19
383.986	307.19
384.211	275.19
384.436	258.19
384.662	243.19
384.887	253.19
385.112	247.19
385.337	236.19
385.562	238.19
385.787	246.19
386.013	273.19
386.238	260.19
386.463	256.19
386.688	292.19
386.913	251.19
387.138	247.19
387.363	255.19
387.588	265.19
387.813	252.19
388.038	252.19
388.263	256.19
388.488	244.19
388.713	253.19
388.938	248.19
389.163	239.19
389.387	258.19
389.612	254.19
389.837	275.19
390.062	269.19
390.287	267.19
390.512	253.19
390.736	265.19
390.961	265.19
391.186	267.19
391.411	273.19
391.636	270.19
391.86	271.19
392.085	298.19
392.31	291.19
392.534	281.19
392.759	321.19
392.984	334.19
393.208	351.19
393.433	401.19
393.658	448.19
393.882	546.19
394.107	852.19
394.331	1510.19
394.556	1967.19
394.78	1364.19
395.005	778.19
395.229	626.19
395.454	630.19
395.678	788.19
395.903	1272.19
396.127	2132.19
396.352	2475.19
396.576	1575.19
396.801	881.19
397.025	643.19
397.249	535.19
397.474	450.19
397.698	422.19
397.922	384.19
398.147	367.19
398.371	350.19
398.595	349.19
398.82	323.19
399.044	354.19
399.268	355.19
399.492	354.19
399.717	365.19
399.941	330.19
400.165	348.19
400.389	334.19
400.613	295.19
400.837	310.19
401.062	301.19
401.286	291.19
401.51	299.19
401.734	269.19
401.958	278.19
402.182	275.19
402.406	277.19
402.63	274.19
402.854	290.19
403.078	303.19
403.302	306.19
403.526	294.19
403.75	296.19
403.974	280.19
404.198	281.19
404.422	286.19
404.645	270.19
404.869	289.19
405.093	289.19
405.317	282.19
405.541	285.19
405.765	299.19
405.988	295.19
406.212	291.19
406.436	278.19
406.66	294.19
406.883	286.19
407.107	294.19
407.331	324.19
407.555	307.19
407.778	304.19
408.002	284.19
408.226	292.19
408.449	306.19
408.673	275.19
408.896	286.19
409.12	293.19
409.344	299.19
409.567	285.19
409.791	282.19
410.014	292.19
410.238	280.19
410.461	286.19
410.685	274.19
410.908	286.19
411.132	293.19
411.355	279.19
411.578	286.19
411.802	265.19
412.025	286.19
412.249	293.19
412.472	262.19
412.695	264.19
412.919	260.19
413.142	277.19
413.365	287.19
413.589	288.19
413.812	273.19
414.035	293.19
414.258	274.19
414.482	270.19
414.705	274.19
414.928	283.19
415.151	269.19
415.374	272.19
415.597	287.19
415.821	271.19
416.044	274.19
416.267	269.19
416.49	277.19
416.713	263.19
416.936	274.19
417.159	283.19
417.382	262.19
417.605	281.19
417.828	273.19
418.051	291.19
418.274	287.19
418.497	263.19
418.72	281.19
418.943	287.19
419.166	276.19
419.389	295.19
419.611	288.19
419.834	296.19
420.057	279.19
420.28	299.19
420.503	258.19
420.726	256.19
420.948	285.19
421.171	279.19
421.394	266.19
421.617	285.19
421.839	283.19
422.062	275.19
422.285	271.19
422.507	283.19
422.73	298.19
422.953	278.19
423.175	254.19
423.398	283.19
423.621	293.19
423.843	276.19
424.066	288.19
424.288	291.19
424.511	273.19
424.733	283.19
424.956	280.19
425.178	275.19
425.401	295.19
425.623	277.19
425.846	261.19
426.068	275.19
426.291	271.19
426.513	280.19
426.735	278.19
426.958	279.19
427.18	285.19
427.402	279.19
427.625	259.19
427.847	261.19
428.069	277.19
428.292	267.19
428.514	267.19
428.736	255.19
428.958	253.19
429.181	265.19
429.403	258.19
429.625	267.19
429.847	250.19
430.069	260.19
430.292	252.19
430.514	279.19
430.736	255.19
430.958	258.19
431.18	259.19
431.402	267.19
431.624	263.19
431.846	253.19
432.068	236.19
432.29	254.19
432.512	267.19
432.734	265.19
432.956	254.19
433.178	267.19
433.4	263.19
433.622	281.19
433.844	275.19
434.066	279.19
434.287	258.19
434.509	250.19
434.731	260.19
434.953	277.19
435.175	276.19
435.397	277.19
435.618	265.19
435.84	262.19
436.062	259.19
436.284	260.19
436.505	270.19
436.727	273.19
436.949	276.19
437.17	249.19
437.392	249.19
437.614	258.19
437.835	249.19
438.057	245.19
438.278	247.19
438.5	254.19
438.721	271.19
438.943	294.19
439.165	252.19
439.386	269.19
439.608	272.19
439.829	279.19
440.05	287.19
440.272	273.19
440.493	273.19
440.715	276.19
440.936	293.19
441.158	287.19
441.379	290.19
441.6	305.19
441.822	283.19
442.043	284.19
442.264	289.19
442.486	291.19
442.707	294.19
442.928	283.19
443.149	296.19
443.371	287.19
443.592	282.19
443.813	285.19
444.034	289.19
444.255	305.19
444.476	302.19
444.698	296.19
444.919	310.19
445.14	496.19
445.361	362.19
445.582	316.19
445.803	282.19
446.024	274.19
446.245	286.19
446.466	283.19
446.687	285.19
446.908	306.19
447.129	279.19
447.35	276.19
447.571	275.19
447.792	276.19
448.013	269.19
448.234	294.19
448.455	263.19
448.675	275.19
448.896	277.19
449.117	257.19
449.338	267.19
449.559	281.19
449.779	262.19
450	264.19
450.221	266.19
450.442	257.19
450.662	269.19
450.883	253.19
451.104	280.19
451.324	265.19
451.545	259.19
451.766	263.19
451.986	272.19
452.207	269.19
452.428	259.19
452.648	283.19
452.869	260.19
453.089	263.19
453.31	253.19
453.53	263.19
453.751	260.19
453.971	267.19
454.192	267.19
454.412	246.19
454.633	260.19
454.853	270.19
455.073	275.19
455.294	257.19
455.514	244.19
455.734	234.19
455.955	231.19
456.175	238.19
456.395	262.19
456.616	250.19
456.836	268.19
457.056	243.19
457.276	210.19
457.497	220.19
457.717	250.19
457.937	259.19
458.157	246.19
458.377	234.19
458.598	209.19
458.818	233.19
459.038	227.19
459.258	242.19
459.478	257.19
459.698	246.19
459.918	275.19
460.138	257.19
460.358	277.19
460.578	271.19
460.798	285.19
461.018	272.19
461.238	273.19
461.458	262.19
461.678	277.19
461.898	285.19
462.118	282.19
462.338	299.19
462.558	288.19
462.777	275.19
462.997	316.19
463.217	316.19
463.437	315.19
463.657	283.19
463.876	291.19
464.096	310.19
464.316	301.19
464.536	291.19
464.755	294.19
464.975	292.19
465.195	295.19
465.414	283.19
465.634	275.19
465.854	280.19
466.073	295.19
466.293	290.19
466.512	317.19
466.732	324.19
466.951	330.19
467.171	305.19
467.391	310.19
467.61	300.19
467.829	293.19
468.049	275.19
468.268	264.19
468.488	275.19
468.707	285.19
468.927	262.19
469.146	277.19
469.365	287.19
469.585	276.19
469.804	284.19
470.023	283.19
470.243	282.19
470.462	265.19
470.681	287.19
470.901	275.19
471.12	285.19
471.339	271.19
471.558	280.19
471.777	292.19
471.997	267.19
472.216	277.19
472.435	284.19
472.654	254.19
472.873	283.19
473.092	273.19
473.311	291.19
473.53	300.19
473.749	319.19
473.968	323.19
474.187	305.19
474.406	309.19
474.625	308.19
474.844	344.19
475.063	303.19
475.282	304.19
475.501	275.19
475.72	296.19
475.939	292.19
476.158	265.19
476.377	279.19
476.596	294.19
476.814	266.19
477.033	248.19
477.252	279.19
477.471	266.19
477.69	276.19
477.908	299.19
478.127	281.19
478.346	286.19
478.564	287.19
478.783	296.19
479.002	313.19
479.22	304.19
479.439	283.19
479.658	281.19
479.876	286.19
480.095	272.19
480.313	295.19
480.532	296.19
480.751	285.19
480.969	270.19
481.188	275.19
481.406	251.19
481.624	244.19
481.843	262.19
482.061	250.19
482.28	262.19
482.498	248.19
482.717	265.19
482.935	255.19
483.153	287.19
483.372	277.19
483.59	289.19
483.808	269.19
484.027	289.19
484.245	309.19
484.463	342.19
484.681	352.19
484.9	335.19
485.118	320.19
485.336	313.19
485.554	302.19
485.772	307.19
485.99	306.19
486.209	299.19
486.427	307.19
486.645	321.19
486.863	323.19
487.081	316.19
487.299	329.19
487.517	340.19
487.735	335.19
487.953	346.19
488.171	329.19
488.389	341.19
488.607	322.19
488.825	311.19
489.043	312.19
489.261	305.19
489.479	313.19
489.696	327.19
489.914	311.19
490.132	305.19
490.35	318.19
490.568	317.19
490.786	303.19
491.003	334.19
491.221	350.19
491.439	349.19
491.657	331.19
491.874	344.19
492.092	351.19
492.31	378.19
492.527	338.19
492.745	335.19
492.963	335.19
493.18	314.19
493.398	338.19
493.615	327.19
493.833	335.19
494.05	314.19
494.268	319.19
494.485	303.19
494.703	335.19
494.92	324.19
495.138	304.19
495.355	321.19
495.573	323.19
495.79	313.19
496.008	320.19
496.225	312.19
496.442	316.19
496.66	323.19
496.877	316.19
497.094	345.19
497.312	329.19
497.529	315.19
497.746	340.19
497.963	321.19
498.181	303.19
498.398	325.19
498.615	340.19
498.832	359.19
499.049	370.19
499.267	362.19
499.484	377.19
499.701	421.19
499.918	437.19
500.135	460.19
500.352	476.19
500.569	494.19
500.786	490.19
501.003	446.19
501.22	424.19
501.437	397.19
501.654	385.19
501.871	363.19
502.088	340.19
502.305	348.19
502.522	351.19
502.739	341.19
502.956	315.19
