Data from SampC_HRD10591_00009.txt Node
Date: Mon Jan 19 11:37:32 EST 2026
User: Yrep
Spectrometer: HR+D1059
Trigger mode: 0
Integration Time (sec): 3.443000E-1
Scans to average: 1
Electric dark correction enabled: true
Nonlinearity correction enabled: false
Boxcar width: 0
XAxis mode: Wavelengths
Number of Pixels in Spectrum: 2048
>>>>>Begin Spectral Data<<<<<
223.165	-24.56
223.4	-24.56
223.635	-24.56
223.869	-26.56
224.104	-28.56
224.338	-16.56
224.573	-12.56
224.808	-14.56
225.042	-0.56
225.277	11.44
225.511	2.44
225.746	0.44
225.98	16.44
226.215	1.44
226.449	7.44
226.683	26.44
226.918	31.44
227.152	26.44
227.387	42.44
227.621	24.44
227.856	38.44
228.09	43.44
228.324	49.44
228.559	58.44
228.793	74.44
229.027	94.44
229.262	95.44
229.496	109.44
229.73	96.44
229.964	96.44
230.199	90.44
230.433	115.44
230.667	110.44
230.901	106.44
231.136	106.44
231.37	106.44
231.604	108.44
231.838	125.44
232.072	128.44
232.306	140.44
232.541	135.44
232.775	121.44
233.009	121.44
233.243	109.44
233.477	120.44
233.711	124.44
233.945	120.44
234.179	108.44
234.413	124.44
234.647	135.44
234.881	107.44
235.115	120.44
235.349	138.44
235.583	131.44
235.817	123.44
236.051	133.44
236.285	144.44
236.519	162.44
236.753	164.44
236.987	219.44
237.221	256.44
237.455	265.44
237.689	240.44
237.922	206.44
238.156	176.44
238.39	148.44
238.624	153.44
238.858	131.44
239.091	123.44
239.325	119.44
239.559	115.44
239.793	130.44
240.027	137.44
240.26	128.44
240.494	126.44
240.728	113.44
240.961	127.44
241.195	128.44
241.429	122.44
241.662	125.44
241.896	131.44
242.13	112.44
242.363	120.44
242.597	123.44
242.83	131.44
243.064	120.44
243.298	130.44
243.531	140.44
243.765	148.44
243.998	150.44
244.232	143.44
244.465	147.44
244.699	141.44
244.932	122.44
245.166	155.44
245.399	142.44
245.633	131.44
245.866	140.44
246.099	161.44
246.333	136.44
246.566	151.44
246.8	143.44
247.033	151.44
247.266	151.44
247.5	140.44
247.733	139.44
247.966	138.44
248.2	132.44
248.433	140.44
248.666	147.44
248.899	157.44
249.133	140.44
249.366	152.44
249.599	146.44
249.832	143.44
250.066	152.44
250.299	151.44
250.532	159.44
250.765	163.44
250.998	158.44
251.231	149.44
251.465	164.44
251.698	160.44
251.931	169.44
252.164	161.44
252.397	161.44
252.63	164.44
252.863	161.44
253.096	169.44
253.329	151.44
253.562	173.44
253.795	180.44
254.028	165.44
254.261	172.44
254.494	143.44
254.727	171.44
254.96	176.44
255.193	174.44
255.426	185.44
255.659	164.44
255.892	195.44
256.124	174.44
256.357	197.44
256.59	212.44
256.823	263.44
257.056	295.44
257.289	301.44
257.521	308.44
257.754	352.44
257.987	324.44
258.22	263.44
258.452	223.44
258.685	209.44
258.918	209.44
259.151	193.44
259.383	192.44
259.616	203.44
259.849	184.44
260.081	194.44
260.314	183.44
260.547	193.44
260.779	190.44
261.012	187.44
261.244	180.44
261.477	201.44
261.71	187.44
261.942	210.44
262.175	208.44
262.407	195.44
262.64	227.44
262.872	239.44
263.105	273.44
263.337	305.44
263.57	312.44
263.802	285.44
264.035	268.44
264.267	249.44
264.499	241.44
264.732	243.44
264.964	234.44
265.197	253.44
265.429	294.44
265.661	280.44
265.894	272.44
266.126	303.44
266.358	328.44
266.591	282.44
266.823	255.44
267.055	232.44
267.287	218.44
267.52	211.44
267.752	230.44
267.984	215.44
268.216	213.44
268.448	230.44
268.681	232.44
268.913	220.44
269.145	208.44
269.377	215.44
269.609	205.44
269.841	219.44
270.073	214.44
270.306	204.44
270.538	209.44
270.77	190.44
271.002	204.44
271.234	201.44
271.466	212.44
271.698	212.44
271.93	233.44
272.162	217.44
272.394	216.44
272.626	202.44
272.858	215.44
273.09	210.44
273.322	217.44
273.553	225.44
273.785	226.44
274.017	237.44
274.249	235.44
274.481	232.44
274.713	238.44
274.945	239.44
275.176	234.44
275.408	225.44
275.64	231.44
275.872	235.44
276.104	239.44
276.335	233.44
276.567	253.44
276.799	242.44
277.031	242.44
277.262	240.44
277.494	248.44
277.726	273.44
277.957	285.44
278.189	306.44
278.421	306.44
278.652	304.44
278.884	361.44
279.115	466.44
279.347	674.44
279.579	941.44
279.81	1065.44
280.042	850.44
280.273	785.44
280.505	769.44
280.736	527.44
280.968	391.44
281.199	397.44
281.431	491.44
281.662	643.44
281.894	740.44
282.125	577.44
282.356	460.44
282.588	391.44
282.819	343.44
283.051	336.44
283.282	301.44
283.513	310.44
283.745	303.44
283.976	288.44
284.207	281.44
284.439	292.44
284.67	269.44
284.901	297.44
285.132	356.44
285.364	393.44
285.595	339.44
285.826	303.44
286.057	271.44
286.288	278.44
286.52	261.44
286.751	267.44
286.982	269.44
287.213	250.44
287.444	256.44
287.675	266.44
287.906	279.44
288.138	272.44
288.369	283.44
288.6	271.44
288.831	249.44
289.062	265.44
289.293	293.44
289.524	271.44
289.755	274.44
289.986	277.44
290.217	287.44
290.448	278.44
290.679	291.44
290.91	289.44
291.141	279.44
291.371	279.44
291.602	286.44
291.833	304.44
292.064	280.44
292.295	298.44
292.526	323.44
292.757	304.44
292.987	298.44
293.218	318.44
293.449	325.44
293.68	334.44
293.91	327.44
294.141	312.44
294.372	315.44
294.603	280.44
294.833	296.44
295.064	286.44
295.295	282.44
295.525	269.44
295.756	291.44
295.987	292.44
296.217	271.44
296.448	284.44
296.679	316.44
296.909	292.44
297.14	282.44
297.37	311.44
297.601	279.44
297.831	280.44
298.062	293.44
298.292	277.44
298.523	297.44
298.753	301.44
298.984	291.44
299.214	286.44
299.445	285.44
299.675	299.44
299.905	318.44
300.136	300.44
300.366	303.44
300.597	303.44
300.827	312.44
301.057	287.44
301.288	323.44
301.518	317.44
301.748	316.44
301.979	383.44
302.209	338.44
302.439	352.44
302.669	338.44
302.9	355.44
303.13	360.44
303.36	385.44
303.59	362.44
303.82	384.44
304.051	383.44
304.281	428.44
304.511	433.44
304.741	458.44
304.971	517.44
305.201	604.44
305.431	681.44
305.661	772.44
305.891	822.44
306.121	777.44
306.352	691.44
306.582	701.44
306.812	711.44
307.042	618.44
307.272	595.44
307.502	661.44
307.731	889.44
307.961	1219.44
308.191	1764.44
308.421	2046.44
308.651	1687.44
308.881	1559.44
309.111	1961.44
309.341	2535.44
309.571	2413.44
309.8	1479.44
310.03	992.44
310.26	773.44
310.49	665.44
310.72	547.44
310.949	515.44
311.179	510.44
311.409	447.44
311.639	447.44
311.868	420.44
312.098	445.44
312.328	417.44
312.557	417.44
312.787	393.44
313.017	400.44
313.246	398.44
313.476	375.44
313.706	384.44
313.935	362.44
314.165	367.44
314.394	368.44
314.624	352.44
314.853	352.44
315.083	336.44
315.312	354.44
315.542	351.44
315.771	349.44
316.001	353.44
316.23	355.44
316.46	334.44
316.689	331.44
316.919	343.44
317.148	333.44
317.377	368.44
317.607	340.44
317.836	355.44
318.065	327.44
318.295	339.44
318.524	347.44
318.753	353.44
318.983	342.44
319.212	354.44
319.441	339.44
319.67	315.44
319.9	331.44
320.129	346.44
320.358	345.44
320.587	340.44
320.816	329.44
321.046	352.44
321.275	336.44
321.504	338.44
321.733	320.44
321.962	333.44
322.191	355.44
322.42	347.44
322.649	348.44
322.878	350.44
323.108	352.44
323.337	338.44
323.566	363.44
323.795	358.44
324.024	369.44
324.253	366.44
324.482	351.44
324.71	339.44
324.939	349.44
325.168	378.44
325.397	339.44
325.626	364.44
325.855	347.44
326.084	356.44
326.313	372.44
326.542	368.44
326.77	356.44
326.999	340.44
327.228	351.44
327.457	341.44
327.686	362.44
327.914	355.44
328.143	376.44
328.372	351.44
328.6	372.44
328.829	353.44
329.058	355.44
329.287	353.44
329.515	343.44
329.744	354.44
329.972	367.44
330.201	331.44
330.43	354.44
330.658	363.44
330.887	375.44
331.115	354.44
331.344	366.44
331.572	364.44
331.801	376.44
332.03	382.44
332.258	384.44
332.486	391.44
332.715	389.44
332.943	386.44
333.172	406.44
333.4	396.44
333.629	408.44
333.857	422.44
334.085	428.44
334.314	412.44
334.542	403.44
334.771	394.44
334.999	416.44
335.227	411.44
335.455	410.44
335.684	421.44
335.912	404.44
336.14	417.44
336.369	392.44
336.597	384.44
336.825	397.44
337.053	405.44
337.281	384.44
337.51	378.44
337.738	381.44
337.966	382.44
338.194	373.44
338.422	386.44
338.65	377.44
338.878	367.44
339.106	384.44
339.334	376.44
339.562	394.44
339.79	357.44
340.018	381.44
340.246	392.44
340.474	358.44
340.702	382.44
340.93	375.44
341.158	353.44
341.386	373.44
341.614	359.44
341.842	360.44
342.07	368.44
342.298	363.44
342.526	365.44
342.754	385.44
342.981	384.44
343.209	378.44
343.437	410.44
343.665	412.44
343.893	415.44
344.12	426.44
344.348	422.44
344.576	388.44
344.804	393.44
345.031	382.44
345.259	398.44
345.487	369.44
345.714	356.44
345.942	376.44
346.17	384.44
346.397	380.44
346.625	373.44
346.853	381.44
347.08	371.44
347.308	378.44
347.535	392.44
347.763	394.44
347.99	382.44
348.218	377.44
348.445	367.44
348.673	392.44
348.9	393.44
349.128	375.44
349.355	401.44
349.583	376.44
349.81	369.44
350.037	368.44
350.265	386.44
350.492	401.44
350.72	417.44
350.947	401.44
351.174	386.44
351.402	400.44
351.629	402.44
351.856	408.44
352.083	422.44
352.311	415.44
352.538	416.44
352.765	412.44
352.992	446.44
353.22	420.44
353.447	422.44
353.674	433.44
353.901	449.44
354.128	422.44
354.355	433.44
354.583	435.44
354.81	476.44
355.037	498.44
355.264	483.44
355.491	468.44
355.718	479.44
355.945	499.44
356.172	538.44
356.399	535.44
356.626	562.44
356.853	587.44
357.08	635.44
357.307	690.44
357.534	699.44
357.761	784.44
357.988	885.44
358.215	1048.44
358.441	1216.44
358.668	1361.44
358.895	1313.44
359.122	1074.44
359.349	862.44
359.576	778.44
359.802	720.44
360.029	671.44
360.256	648.44
360.483	612.44
360.709	603.44
360.936	589.44
361.163	585.44
361.39	563.44
361.616	545.44
361.843	516.44
362.07	535.44
362.296	515.44
362.523	493.44
362.749	475.44
362.976	463.44
363.203	482.44
363.429	447.44
363.656	464.44
363.882	441.44
364.109	440.44
364.335	457.44
364.562	451.44
364.788	416.44
365.015	453.44
365.241	435.44
365.468	428.44
365.694	431.44
365.92	421.44
366.147	401.44
366.373	432.44
366.599	411.44
366.826	421.44
367.052	414.44
367.278	430.44
367.505	427.44
367.731	429.44
367.957	395.44
368.184	416.44
368.41	423.44
368.636	429.44
368.862	418.44
369.089	416.44
369.315	408.44
369.541	406.44
369.767	426.44
369.993	403.44
370.219	423.44
370.445	395.44
370.672	428.44
370.898	414.44
371.124	415.44
371.35	425.44
371.576	421.44
371.802	399.44
372.028	438.44
372.254	419.44
372.48	441.44
372.706	434.44
372.932	431.44
373.158	430.44
373.384	446.44
373.61	420.44
373.835	427.44
374.061	422.44
374.287	428.44
374.513	438.44
374.739	461.44
374.965	465.44
375.191	449.44
375.416	458.44
375.642	444.44
375.868	465.44
376.094	428.44
376.319	429.44
376.545	430.44
376.771	423.44
376.997	408.44
377.222	402.44
377.448	412.44
377.674	418.44
377.899	422.44
378.125	414.44
378.35	406.44
378.576	421.44
378.802	404.44
379.027	415.44
379.253	423.44
379.478	411.44
379.704	421.44
379.929	418.44
380.155	448.44
380.38	428.44
380.606	440.44
380.831	445.44
381.057	433.44
381.282	434.44
381.507	458.44
381.733	449.44
381.958	468.44
382.184	456.44
382.409	483.44
382.634	498.44
382.86	502.44
383.085	544.44
383.31	555.44
383.535	557.44
383.761	577.44
383.986	579.44
384.211	512.44
384.436	483.44
384.662	492.44
384.887	490.44
385.112	482.44
385.337	497.44
385.562	495.44
385.787	484.44
386.013	494.44
386.238	498.44
386.463	509.44
386.688	539.44
386.913	494.44
387.138	501.44
387.363	497.44
387.588	484.44
387.813	492.44
388.038	483.44
388.263	503.44
388.488	479.44
388.713	489.44
388.938	507.44
389.163	497.44
389.387	527.44
389.612	499.44
389.837	497.44
390.062	520.44
390.287	538.44
390.512	519.44
390.736	509.44
390.961	516.44
391.186	541.44
391.411	530.44
391.636	550.44
391.86	561.44
392.085	578.44
392.31	573.44
392.534	567.44
392.759	598.44
392.984	619.44
393.208	667.44
393.433	695.44
393.658	789.44
393.882	959.44
394.107	1545.44
394.331	2796.44
394.556	3702.44
394.78	2495.44
395.005	1450.44
395.229	1124.44
395.454	1165.44
395.678	1396.44
395.903	2355.44
396.127	4084.44
396.352	4919.44
396.576	2890.44
396.801	1677.44
397.025	1201.44
397.249	987.44
397.474	891.44
397.698	800.44
397.922	775.44
398.147	751.44
398.371	709.44
398.595	705.44
398.82	701.44
399.044	708.44
399.268	712.44
399.492	751.44
399.717	759.44
399.941	751.44
400.165	715.44
400.389	657.44
400.613	648.44
400.837	638.44
401.062	611.44
401.286	575.44
401.51	594.44
401.734	603.44
401.958	595.44
402.182	603.44
402.406	596.44
402.63	601.44
402.854	606.44
403.078	594.44
403.302	606.44
403.526	616.44
403.75	609.44
403.974	609.44
404.198	597.44
404.422	616.44
404.645	578.44
404.869	602.44
405.093	601.44
405.317	620.44
405.541	591.44
405.765	589.44
405.988	594.44
406.212	613.44
406.436	617.44
406.66	626.44
406.883	601.44
407.107	603.44
407.331	643.44
407.555	648.44
407.778	671.44
408.002	655.44
408.226	631.44
408.449	613.44
408.673	622.44
408.896	613.44
409.12	588.44
409.344	615.44
409.567	578.44
409.791	608.44
410.014	598.44
410.238	579.44
410.461	587.44
410.685	600.44
410.908	586.44
411.132	590.44
411.355	588.44
411.578	577.44
411.802	579.44
412.025	576.44
412.249	603.44
412.472	589.44
412.695	587.44
412.919	578.44
413.142	567.44
413.365	572.44
413.589	571.44
413.812	567.44
414.035	555.44
414.258	560.44
414.482	563.44
414.705	567.44
414.928	564.44
415.151	577.44
415.374	574.44
415.597	565.44
415.821	567.44
416.044	546.44
416.267	547.44
416.49	576.44
416.713	577.44
416.936	574.44
417.159	568.44
417.382	573.44
417.605	552.44
417.828	579.44
418.051	588.44
418.274	572.44
418.497	562.44
418.72	587.44
418.943	574.44
419.166	580.44
419.389	615.44
419.611	633.44
419.834	592.44
420.057	584.44
420.28	572.44
420.503	592.44
420.726	563.44
420.948	567.44
421.171	575.44
421.394	580.44
421.617	577.44
421.839	579.44
422.062	589.44
422.285	587.44
422.507	600.44
422.73	580.44
422.953	559.44
423.175	546.44
423.398	564.44
423.621	593.44
423.843	599.44
424.066	610.44
424.288	590.44
424.511	593.44
424.733	565.44
424.956	588.44
425.178	593.44
425.401	559.44
425.623	565.44
425.846	560.44
426.068	563.44
426.291	560.44
426.513	559.44
426.735	567.44
426.958	559.44
427.18	553.44
427.402	554.44
427.625	538.44
427.847	511.44
428.069	549.44
428.292	555.44
428.514	534.44
428.736	519.44
428.958	535.44
429.181	544.44
429.403	511.44
429.625	547.44
429.847	527.44
430.069	524.44
430.292	554.44
430.514	536.44
430.736	546.44
430.958	531.44
431.18	539.44
431.402	550.44
431.624	522.44
431.846	524.44
432.068	490.44
432.29	484.44
432.512	504.44
432.734	530.44
432.956	541.44
433.178	570.44
433.4	552.44
433.622	565.44
433.844	544.44
434.066	535.44
434.287	502.44
434.509	519.44
434.731	536.44
434.953	564.44
435.175	560.44
435.397	565.44
435.618	539.44
435.84	523.44
436.062	528.44
436.284	555.44
436.505	545.44
436.727	531.44
436.949	569.44
437.17	543.44
437.392	528.44
437.614	509.44
437.835	494.44
438.057	498.44
438.278	503.44
438.5	527.44
438.721	548.44
438.943	559.44
439.165	543.44
439.386	565.44
439.608	557.44
439.829	545.44
440.05	564.44
440.272	567.44
440.493	579.44
440.715	569.44
440.936	562.44
441.158	613.44
441.379	609.44
441.6	612.44
441.822	612.44
442.043	597.44
442.264	597.44
442.486	576.44
442.707	587.44
442.928	580.44
443.149	588.44
443.371	568.44
443.592	587.44
443.813	587.44
444.034	595.44
444.255	597.44
444.476	622.44
444.698	636.44
444.919	642.44
445.14	818.44
445.361	673.44
445.582	588.44
445.803	599.44
446.024	589.44
446.245	599.44
446.466	578.44
446.687	559.44
446.908	573.44
447.129	573.44
447.35	571.44
447.571	576.44
447.792	548.44
448.013	563.44
448.234	561.44
448.455	584.44
448.675	573.44
448.896	532.44
449.117	526.44
449.338	537.44
449.559	539.44
449.779	502.44
450	543.44
450.221	521.44
450.442	547.44
450.662	530.44
450.883	516.44
451.104	545.44
451.324	507.44
451.545	513.44
451.766	534.44
451.986	557.44
452.207	535.44
452.428	507.44
452.648	555.44
452.869	501.44
453.089	510.44
453.31	523.44
453.53	531.44
453.751	515.44
453.971	520.44
454.192	535.44
454.412	495.44
454.633	524.44
454.853	503.44
455.073	509.44
455.294	492.44
455.514	502.44
455.734	486.44
455.955	473.44
456.175	476.44
456.395	467.44
456.616	487.44
456.836	469.44
457.056	464.44
457.276	457.44
457.497	472.44
457.717	448.44
457.937	476.44
458.157	481.44
458.377	459.44
458.598	472.44
458.818	466.44
459.038	481.44
459.258	466.44
459.478	483.44
459.698	505.44
459.918	540.44
460.138	526.44
460.358	543.44
460.578	579.44
460.798	571.44
461.018	557.44
461.238	575.44
461.458	567.44
461.678	564.44
461.898	555.44
462.118	571.44
462.338	617.44
462.558	601.44
462.777	617.44
462.997	666.44
463.217	658.44
463.437	644.44
463.657	637.44
463.876	624.44
464.096	616.44
464.316	611.44
464.536	642.44
464.755	630.44
464.975	625.44
465.195	600.44
465.414	606.44
465.634	586.44
465.854	601.44
466.073	626.44
466.293	657.44
466.512	731.44
466.732	700.44
466.951	687.44
467.171	629.44
467.391	609.44
467.61	604.44
467.829	599.44
468.049	572.44
468.268	557.44
468.488	553.44
468.707	561.44
468.927	578.44
469.146	533.44
469.365	563.44
469.585	548.44
469.804	563.44
470.023	564.44
470.243	577.44
470.462	556.44
470.681	575.44
470.901	569.44
471.12	554.44
471.339	561.44
471.558	554.44
471.777	558.44
471.997	533.44
472.216	533.44
472.435	544.44
472.654	533.44
472.873	533.44
473.092	534.44
473.311	565.44
473.53	629.44
473.749	626.44
473.968	639.44
474.187	628.44
474.406	596.44
474.625	676.44
474.844	681.44
475.063	653.44
475.282	608.44
475.501	577.44
475.72	570.44
475.939	554.44
476.158	562.44
476.377	548.44
476.596	547.44
476.814	543.44
477.033	529.44
477.252	532.44
477.471	547.44
477.69	584.44
477.908	591.44
478.127	589.44
478.346	571.44
478.564	586.44
478.783	597.44
479.002	597.44
479.22	609.44
479.439	599.44
479.658	591.44
479.876	581.44
480.095	583.44
480.313	593.44
480.532	592.44
480.751	579.44
480.969	563.44
481.188	538.44
481.406	524.44
481.624	537.44
481.843	552.44
482.061	521.44
482.28	549.44
482.498	539.44
482.717	532.44
482.935	531.44
483.153	574.44
483.372	587.44
483.59	586.44
483.808	562.44
484.027	579.44
484.245	610.44
484.463	669.44
484.681	669.44
484.9	620.44
485.118	636.44
485.336	609.44
485.554	588.44
485.772	597.44
485.99	620.44
486.209	601.44
486.427	629.44
486.645	608.44
486.863	653.44
487.081	641.44
487.299	631.44
487.517	650.44
487.735	686.44
487.953	719.44
488.171	700.44
488.389	677.44
488.607	624.44
488.825	605.44
489.043	611.44
489.261	619.44
489.479	625.44
489.696	623.44
489.914	618.44
490.132	615.44
490.35	664.44
490.568	659.44
490.786	667.44
491.003	689.44
491.221	685.44
491.439	686.44
491.657	666.44
491.874	708.44
492.092	741.44
492.31	742.44
492.527	705.44
492.745	687.44
492.963	696.44
493.18	681.44
493.398	674.44
493.615	680.44
493.833	670.44
494.05	657.44
494.268	676.44
494.485	681.44
494.703	655.44
494.92	671.44
495.138	658.44
495.355	679.44
495.573	661.44
495.79	674.44
496.008	673.44
496.225	659.44
496.442	697.44
496.66	700.44
496.877	721.44
497.094	658.44
497.312	672.44
497.529	685.44
497.746	708.44
497.963	681.44
498.181	684.44
498.398	716.44
498.615	741.44
498.832	755.44
499.049	808.44
499.267	798.44
499.484	867.44
499.701	913.44
499.918	946.44
500.135	1060.44
500.352	1075.44
500.569	1091.44
500.786	1120.44
501.003	1055.44
501.22	991.44
501.437	923.44
501.654	871.44
501.871	829.44
502.088	791.44
502.305	781.44
