Data from SampC_HRD10591_00040.txt Node
Date: Mon Jan 19 11:37:43 EST 2026
User: Yrep
Spectrometer: HR+D1059
Trigger mode: 0
Integration Time (sec): 3.443000E-1
Scans to average: 1
Electric dark correction enabled: true
Nonlinearity correction enabled: false
Boxcar width: 0
XAxis mode: Wavelengths
Number of Pixels in Spectrum: 2048
>>>>>Begin Spectral Data<<<<<
223.165	-18.5
223.4	-18.5
223.635	-18.5
223.869	-21.5
224.104	-25.5
224.338	-5.5
224.573	-17.5
224.808	-15.5
225.042	-3.5
225.277	-15.5
225.511	5.5
225.746	9.5
225.98	-0.5
226.215	18.5
226.449	19.5
226.683	8.5
226.918	22.5
227.152	39.5
227.387	38.5
227.621	31.5
227.856	64.5
228.09	57.5
228.324	56.5
228.559	59.5
228.793	68.5
229.027	82.5
229.262	85.5
229.496	71.5
229.73	78.5
229.964	94.5
230.199	99.5
230.433	82.5
230.667	92.5
230.901	93.5
231.136	94.5
231.37	79.5
231.604	85.5
231.838	104.5
232.072	111.5
232.306	97.5
232.541	100.5
232.775	91.5
233.009	96.5
233.243	97.5
233.477	96.5
233.711	99.5
233.945	88.5
234.179	109.5
234.413	108.5
234.647	83.5
234.881	102.5
235.115	97.5
235.349	94.5
235.583	98.5
235.817	96.5
236.051	98.5
236.285	92.5
236.519	101.5
236.753	110.5
236.987	119.5
237.221	123.5
237.455	126.5
237.689	132.5
237.922	130.5
238.156	96.5
238.39	103.5
238.624	102.5
238.858	83.5
239.091	98.5
239.325	111.5
239.559	97.5
239.793	104.5
240.027	107.5
240.26	111.5
240.494	112.5
240.728	92.5
240.961	105.5
241.195	94.5
241.429	82.5
241.662	93.5
241.896	99.5
242.13	91.5
242.363	97.5
242.597	110.5
242.83	108.5
243.064	99.5
243.298	104.5
243.531	84.5
243.765	98.5
243.998	95.5
244.232	105.5
244.465	112.5
244.699	97.5
244.932	111.5
245.166	77.5
245.399	98.5
245.633	92.5
245.866	109.5
246.099	100.5
246.333	98.5
246.566	97.5
246.8	103.5
247.033	91.5
247.266	97.5
247.5	103.5
247.733	104.5
247.966	105.5
248.2	81.5
248.433	105.5
248.666	97.5
248.899	98.5
249.133	116.5
249.366	116.5
249.599	109.5
249.832	105.5
250.066	128.5
250.299	104.5
250.532	124.5
250.765	109.5
250.998	103.5
251.231	103.5
251.465	95.5
251.698	108.5
251.931	115.5
252.164	114.5
252.397	113.5
252.63	109.5
252.863	99.5
253.096	103.5
253.329	104.5
253.562	105.5
253.795	109.5
254.028	124.5
254.261	112.5
254.494	109.5
254.727	122.5
254.96	111.5
255.193	112.5
255.426	100.5
255.659	112.5
255.892	121.5
256.124	114.5
256.357	121.5
256.59	121.5
256.823	128.5
257.056	143.5
257.289	174.5
257.521	155.5
257.754	176.5
257.987	163.5
258.22	125.5
258.452	140.5
258.685	131.5
258.918	129.5
259.151	130.5
259.383	118.5
259.616	122.5
259.849	119.5
260.081	121.5
260.314	112.5
260.547	108.5
260.779	111.5
261.012	120.5
261.244	116.5
261.477	117.5
261.71	121.5
261.942	115.5
262.175	126.5
262.407	123.5
262.64	117.5
262.872	113.5
263.105	143.5
263.337	143.5
263.57	141.5
263.802	137.5
264.035	129.5
264.267	117.5
264.499	126.5
264.732	130.5
264.964	124.5
265.197	123.5
265.429	137.5
265.661	147.5
265.894	135.5
266.126	158.5
266.358	165.5
266.591	145.5
266.823	134.5
267.055	132.5
267.287	127.5
267.52	127.5
267.752	102.5
267.984	114.5
268.216	102.5
268.448	116.5
268.681	126.5
268.913	125.5
269.145	127.5
269.377	126.5
269.609	109.5
269.841	122.5
270.073	126.5
270.306	115.5
270.538	115.5
270.77	108.5
271.002	126.5
271.234	121.5
271.466	127.5
271.698	105.5
271.93	123.5
272.162	126.5
272.394	122.5
272.626	118.5
272.858	112.5
273.09	134.5
273.322	122.5
273.553	120.5
273.785	123.5
274.017	126.5
274.249	115.5
274.481	136.5
274.713	114.5
274.945	136.5
275.176	142.5
275.408	134.5
275.64	138.5
275.872	128.5
276.104	143.5
276.335	122.5
276.567	125.5
276.799	122.5
277.031	142.5
277.262	133.5
277.494	137.5
277.726	154.5
277.957	143.5
278.189	144.5
278.421	154.5
278.652	171.5
278.884	182.5
279.115	218.5
279.347	290.5
279.579	374.5
279.81	419.5
280.042	320.5
280.273	304.5
280.505	297.5
280.736	222.5
280.968	167.5
281.199	173.5
281.431	197.5
281.662	229.5
281.894	217.5
282.125	220.5
282.356	182.5
282.588	174.5
282.819	150.5
283.051	136.5
283.282	130.5
283.513	155.5
283.745	149.5
283.976	154.5
284.207	143.5
284.439	131.5
284.67	149.5
284.901	167.5
285.132	162.5
285.364	199.5
285.595	169.5
285.826	155.5
286.057	132.5
286.288	143.5
286.52	127.5
286.751	131.5
286.982	141.5
287.213	136.5
287.444	129.5
287.675	139.5
287.906	154.5
288.138	135.5
288.369	149.5
288.6	143.5
288.831	143.5
289.062	150.5
289.293	134.5
289.524	142.5
289.755	129.5
289.986	129.5
290.217	134.5
290.448	133.5
290.679	140.5
290.91	135.5
291.141	125.5
291.371	125.5
291.602	142.5
291.833	140.5
292.064	136.5
292.295	137.5
292.526	152.5
292.757	154.5
292.987	164.5
293.218	169.5
293.449	149.5
293.68	164.5
293.91	160.5
294.141	151.5
294.372	123.5
294.603	149.5
294.833	139.5
295.064	148.5
295.295	141.5
295.525	143.5
295.756	142.5
295.987	125.5
296.217	137.5
296.448	141.5
296.679	149.5
296.909	140.5
297.14	141.5
297.37	155.5
297.601	143.5
297.831	145.5
298.062	143.5
298.292	140.5
298.523	133.5
298.753	153.5
298.984	139.5
299.214	143.5
299.445	144.5
299.675	133.5
299.905	145.5
300.136	135.5
300.366	141.5
300.597	153.5
300.827	158.5
301.057	153.5
301.288	157.5
301.518	127.5
301.748	144.5
301.979	201.5
302.209	156.5
302.439	151.5
302.669	142.5
302.9	156.5
303.13	180.5
303.36	175.5
303.59	161.5
303.82	185.5
304.051	180.5
304.281	175.5
304.511	179.5
304.741	181.5
304.971	201.5
305.201	252.5
305.431	259.5
305.661	275.5
305.891	287.5
306.121	277.5
306.352	262.5
306.582	261.5
306.812	257.5
307.042	248.5
307.272	228.5
307.502	257.5
307.731	312.5
307.961	429.5
308.191	549.5
308.421	641.5
308.651	535.5
308.881	503.5
309.111	601.5
309.341	782.5
309.571	717.5
309.8	510.5
310.03	371.5
310.26	297.5
310.49	255.5
310.72	246.5
310.949	216.5
311.179	211.5
311.409	210.5
311.639	198.5
311.868	183.5
312.098	187.5
312.328	191.5
312.557	189.5
312.787	182.5
313.017	166.5
313.246	170.5
313.476	168.5
313.706	163.5
313.935	166.5
314.165	169.5
314.394	173.5
314.624	168.5
314.853	175.5
315.083	166.5
315.312	151.5
315.542	153.5
315.771	162.5
316.001	155.5
316.23	155.5
316.46	161.5
316.689	154.5
316.919	159.5
317.148	173.5
317.377	175.5
317.607	145.5
317.836	155.5
318.065	160.5
318.295	154.5
318.524	159.5
318.753	165.5
318.983	151.5
319.212	172.5
319.441	174.5
319.67	141.5
319.9	170.5
320.129	133.5
320.358	171.5
320.587	143.5
320.816	174.5
321.046	154.5
321.275	166.5
321.504	157.5
321.733	163.5
321.962	147.5
322.191	163.5
322.42	133.5
322.649	157.5
322.878	149.5
323.108	156.5
323.337	170.5
323.566	149.5
323.795	147.5
324.024	179.5
324.253	163.5
324.482	175.5
324.71	169.5
324.939	150.5
325.168	177.5
325.397	163.5
325.626	157.5
325.855	164.5
326.084	163.5
326.313	155.5
326.542	161.5
326.77	165.5
326.999	153.5
327.228	155.5
327.457	157.5
327.686	161.5
327.914	141.5
328.143	171.5
328.372	174.5
328.6	157.5
328.829	157.5
329.058	159.5
329.287	137.5
329.515	150.5
329.744	173.5
329.972	171.5
330.201	167.5
330.43	152.5
330.658	143.5
330.887	161.5
331.115	146.5
331.344	163.5
331.572	172.5
331.801	173.5
332.03	161.5
332.258	175.5
332.486	168.5
332.715	168.5
332.943	159.5
333.172	170.5
333.4	168.5
333.629	180.5
333.857	164.5
334.085	183.5
334.314	171.5
334.542	175.5
334.771	164.5
334.999	160.5
335.227	167.5
335.455	169.5
335.684	177.5
335.912	175.5
336.14	168.5
336.369	165.5
336.597	152.5
336.825	166.5
337.053	154.5
337.281	171.5
337.51	173.5
337.738	155.5
337.966	143.5
338.194	171.5
338.422	160.5
338.65	173.5
338.878	175.5
339.106	169.5
339.334	180.5
339.562	148.5
339.79	169.5
340.018	167.5
340.246	161.5
340.474	157.5
340.702	159.5
340.93	164.5
341.158	168.5
341.386	159.5
341.614	174.5
341.842	168.5
342.07	158.5
342.298	165.5
342.526	156.5
342.754	162.5
342.981	164.5
343.209	172.5
343.437	197.5
343.665	176.5
343.893	176.5
344.12	192.5
344.348	167.5
344.576	163.5
344.804	173.5
345.031	172.5
345.259	158.5
345.487	162.5
345.714	141.5
345.942	161.5
346.17	172.5
346.397	166.5
346.625	164.5
346.853	157.5
347.08	164.5
347.308	156.5
347.535	164.5
347.763	160.5
347.99	160.5
348.218	159.5
348.445	167.5
348.673	161.5
348.9	160.5
349.128	166.5
349.355	178.5
349.583	165.5
349.81	175.5
350.037	157.5
350.265	171.5
350.492	173.5
350.72	153.5
350.947	164.5
351.174	165.5
351.402	170.5
351.629	155.5
351.856	160.5
352.083	167.5
352.311	169.5
352.538	149.5
352.765	152.5
352.992	178.5
353.22	176.5
353.447	190.5
353.674	161.5
353.901	189.5
354.128	179.5
354.355	175.5
354.583	187.5
354.81	176.5
355.037	198.5
355.264	183.5
355.491	188.5
355.718	195.5
355.945	207.5
356.172	206.5
356.399	203.5
356.626	198.5
356.853	224.5
357.08	203.5
357.307	238.5
357.534	221.5
357.761	268.5
357.988	269.5
358.215	274.5
358.441	339.5
358.668	350.5
358.895	326.5
359.122	292.5
359.349	279.5
359.576	257.5
359.802	227.5
360.029	233.5
360.256	228.5
360.483	208.5
360.709	217.5
360.936	228.5
361.163	219.5
361.39	195.5
361.616	187.5
361.843	189.5
362.07	211.5
362.296	182.5
362.523	180.5
362.749	189.5
362.976	183.5
363.203	193.5
363.429	168.5
363.656	173.5
363.882	186.5
364.109	175.5
364.335	183.5
364.562	178.5
364.788	172.5
365.015	163.5
365.241	182.5
365.468	166.5
365.694	178.5
365.92	180.5
366.147	163.5
366.373	165.5
366.599	167.5
366.826	174.5
367.052	164.5
367.278	161.5
367.505	175.5
367.731	187.5
367.957	177.5
368.184	168.5
368.41	177.5
368.636	169.5
368.862	169.5
369.089	168.5
369.315	178.5
369.541	178.5
369.767	184.5
369.993	159.5
370.219	171.5
370.445	176.5
370.672	175.5
370.898	165.5
371.124	173.5
371.35	177.5
371.576	180.5
371.802	164.5
372.028	174.5
372.254	179.5
372.48	185.5
372.706	175.5
372.932	184.5
373.158	190.5
373.384	181.5
373.61	196.5
373.835	199.5
374.061	201.5
374.287	184.5
374.513	182.5
374.739	175.5
374.965	188.5
375.191	191.5
375.416	177.5
375.642	172.5
375.868	189.5
376.094	179.5
376.319	179.5
376.545	172.5
376.771	149.5
376.997	175.5
377.222	177.5
377.448	184.5
377.674	163.5
377.899	186.5
378.125	183.5
378.35	189.5
378.576	184.5
378.802	173.5
379.027	156.5
379.253	174.5
379.478	189.5
379.704	177.5
379.929	166.5
380.155	172.5
380.38	173.5
380.606	181.5
380.831	187.5
381.057	183.5
381.282	174.5
381.507	167.5
381.733	184.5
381.958	185.5
382.184	188.5
382.409	203.5
382.634	212.5
382.86	240.5
383.085	237.5
383.31	248.5
383.535	243.5
383.761	252.5
383.986	243.5
384.211	200.5
384.436	207.5
384.662	196.5
384.887	187.5
385.112	183.5
385.337	187.5
385.562	204.5
385.787	207.5
386.013	210.5
386.238	201.5
386.463	199.5
386.688	234.5
386.913	197.5
387.138	192.5
387.363	199.5
387.588	212.5
387.813	212.5
388.038	205.5
388.263	201.5
388.488	209.5
388.713	220.5
388.938	184.5
389.163	190.5
389.387	196.5
389.612	193.5
389.837	187.5
390.062	216.5
390.287	213.5
390.512	206.5
390.736	212.5
390.961	208.5
391.186	220.5
391.411	207.5
391.636	207.5
391.86	223.5
392.085	227.5
392.31	223.5
392.534	230.5
392.759	249.5
392.984	265.5
393.208	318.5
393.433	387.5
393.658	367.5
393.882	357.5
394.107	541.5
394.331	879.5
394.556	1160.5
394.78	816.5
395.005	508.5
395.229	422.5
395.454	395.5
395.678	492.5
395.903	791.5
396.127	1234.5
396.352	1440.5
396.576	925.5
396.801	591.5
397.025	463.5
397.249	373.5
397.474	324.5
397.698	303.5
397.922	283.5
398.147	261.5
398.371	271.5
398.595	285.5
398.82	278.5
399.044	269.5
399.268	256.5
399.492	277.5
399.717	261.5
399.941	275.5
400.165	253.5
400.389	233.5
400.613	236.5
400.837	237.5
401.062	231.5
401.286	226.5
401.51	232.5
401.734	217.5
401.958	226.5
402.182	235.5
402.406	229.5
402.63	221.5
402.854	219.5
403.078	229.5
403.302	236.5
403.526	245.5
403.75	229.5
403.974	237.5
404.198	232.5
404.422	234.5
404.645	209.5
404.869	229.5
405.093	236.5
405.317	224.5
405.541	230.5
405.765	240.5
405.988	237.5
406.212	227.5
406.436	228.5
406.66	245.5
406.883	242.5
407.107	238.5
407.331	230.5
407.555	234.5
407.778	224.5
408.002	254.5
408.226	242.5
408.449	237.5
408.673	234.5
408.896	219.5
409.12	242.5
409.344	237.5
409.567	214.5
409.791	227.5
410.014	228.5
410.238	200.5
410.461	208.5
410.685	226.5
410.908	227.5
411.132	233.5
411.355	210.5
411.578	212.5
411.802	225.5
412.025	233.5
412.249	222.5
412.472	215.5
412.695	237.5
412.919	207.5
413.142	236.5
413.365	227.5
413.589	227.5
413.812	228.5
414.035	209.5
414.258	205.5
414.482	220.5
414.705	231.5
414.928	244.5
415.151	230.5
415.374	239.5
415.597	212.5
415.821	216.5
416.044	199.5
416.267	219.5
416.49	228.5
416.713	212.5
416.936	237.5
417.159	216.5
417.382	215.5
417.605	225.5
417.828	227.5
418.051	230.5
418.274	214.5
418.497	215.5
418.72	235.5
418.943	232.5
419.166	246.5
419.389	215.5
419.611	243.5
419.834	240.5
420.057	206.5
420.28	208.5
420.503	219.5
420.726	223.5
420.948	232.5
421.171	222.5
421.394	233.5
421.617	227.5
421.839	232.5
422.062	225.5
422.285	225.5
422.507	241.5
422.73	230.5
422.953	240.5
423.175	222.5
423.398	238.5
423.621	230.5
423.843	231.5
424.066	218.5
424.288	209.5
424.511	253.5
424.733	246.5
424.956	219.5
425.178	225.5
425.401	227.5
425.623	221.5
425.846	221.5
426.068	210.5
426.291	228.5
426.513	223.5
426.735	219.5
426.958	232.5
427.18	226.5
427.402	233.5
427.625	220.5
427.847	213.5
428.069	213.5
428.292	205.5
428.514	213.5
428.736	219.5
428.958	208.5
429.181	209.5
429.403	217.5
429.625	223.5
429.847	211.5
430.069	207.5
430.292	220.5
430.514	201.5
430.736	206.5
430.958	211.5
431.18	211.5
431.402	200.5
431.624	208.5
431.846	190.5
432.068	201.5
432.29	204.5
432.512	212.5
432.734	206.5
432.956	231.5
433.178	233.5
433.4	214.5
433.622	221.5
433.844	217.5
434.066	210.5
434.287	191.5
434.509	199.5
434.731	210.5
434.953	213.5
435.175	207.5
435.397	217.5
435.618	213.5
435.84	212.5
436.062	207.5
436.284	203.5
436.505	214.5
436.727	215.5
436.949	235.5
437.17	203.5
437.392	225.5
437.614	199.5
437.835	191.5
438.057	197.5
438.278	208.5
438.5	222.5
438.721	213.5
438.943	226.5
439.165	230.5
439.386	231.5
439.608	242.5
439.829	219.5
440.05	225.5
440.272	231.5
440.493	238.5
440.715	218.5
440.936	227.5
441.158	251.5
441.379	232.5
441.6	227.5
441.822	230.5
442.043	237.5
442.264	236.5
442.486	225.5
442.707	221.5
442.928	226.5
443.149	223.5
443.371	231.5
443.592	222.5
443.813	221.5
444.034	219.5
444.255	247.5
444.476	238.5
444.698	237.5
444.919	233.5
445.14	484.5
445.361	341.5
445.582	259.5
445.803	214.5
446.024	229.5
446.245	231.5
446.466	228.5
446.687	234.5
446.908	235.5
447.129	228.5
447.35	214.5
447.571	243.5
447.792	215.5
448.013	226.5
448.234	234.5
448.455	224.5
448.675	217.5
448.896	220.5
449.117	222.5
449.338	209.5
449.559	229.5
449.779	213.5
450	199.5
450.221	217.5
450.442	209.5
450.662	210.5
450.883	217.5
451.104	210.5
451.324	206.5
451.545	212.5
451.766	220.5
451.986	208.5
452.207	223.5
452.428	214.5
452.648	217.5
452.869	227.5
453.089	221.5
453.31	184.5
453.53	200.5
453.751	209.5
453.971	192.5
454.192	201.5
454.412	209.5
454.633	191.5
454.853	199.5
455.073	206.5
455.294	207.5
455.514	230.5
455.734	206.5
455.955	194.5
456.175	183.5
456.395	209.5
456.616	189.5
456.836	194.5
457.056	195.5
457.276	206.5
457.497	185.5
457.717	187.5
457.937	201.5
458.157	202.5
458.377	187.5
458.598	190.5
458.818	199.5
459.038	190.5
459.258	187.5
459.478	196.5
459.698	199.5
459.918	203.5
460.138	199.5
460.358	226.5
460.578	215.5
460.798	212.5
461.018	199.5
461.238	221.5
461.458	209.5
461.678	235.5
461.898	235.5
462.118	220.5
462.338	231.5
462.558	235.5
462.777	227.5
462.997	245.5
463.217	225.5
463.437	239.5
463.657	241.5
463.876	232.5
464.096	244.5
464.316	244.5
464.536	247.5
464.755	216.5
464.975	233.5
465.195	227.5
465.414	225.5
465.634	227.5
465.854	235.5
466.073	225.5
466.293	242.5
466.512	243.5
466.732	232.5
466.951	236.5
467.171	230.5
467.391	230.5
467.61	237.5
467.829	222.5
468.049	211.5
468.268	219.5
468.488	215.5
468.707	217.5
468.927	209.5
469.146	225.5
469.365	214.5
469.585	233.5
469.804	220.5
470.023	226.5
470.243	224.5
470.462	235.5
470.681	216.5
470.901	214.5
471.12	228.5
471.339	214.5
471.558	203.5
471.777	205.5
471.997	225.5
472.216	202.5
472.435	205.5
472.654	220.5
472.873	224.5
473.092	206.5
473.311	233.5
473.53	239.5
473.749	243.5
473.968	242.5
474.187	247.5
474.406	240.5
474.625	251.5
474.844	267.5
475.063	243.5
475.282	241.5
475.501	232.5
475.72	227.5
475.939	237.5
476.158	211.5
476.377	219.5
476.596	217.5
476.814	220.5
477.033	202.5
477.252	208.5
477.471	221.5
477.69	212.5
477.908	229.5
478.127	246.5
478.346	248.5
478.564	223.5
478.783	224.5
479.002	230.5
479.22	228.5
479.439	221.5
479.658	219.5
479.876	212.5
480.095	222.5
480.313	242.5
480.532	213.5
480.751	219.5
480.969	197.5
481.188	219.5
481.406	192.5
481.624	201.5
481.843	211.5
482.061	197.5
482.28	209.5
482.498	213.5
482.717	229.5
482.935	211.5
483.153	228.5
483.372	224.5
483.59	234.5
483.808	226.5
484.027	228.5
484.245	227.5
484.463	245.5
484.681	260.5
484.9	242.5
485.118	250.5
485.336	240.5
485.554	245.5
485.772	223.5
485.99	230.5
486.209	221.5
486.427	222.5
486.645	233.5
486.863	240.5
487.081	259.5
487.299	240.5
487.517	255.5
487.735	248.5
487.953	269.5
488.171	258.5
488.389	246.5
488.607	242.5
488.825	238.5
489.043	240.5
489.261	231.5
489.479	246.5
489.696	248.5
489.914	230.5
490.132	254.5
490.35	230.5
490.568	241.5
490.786	250.5
491.003	271.5
491.221	267.5
491.439	269.5
491.657	262.5
491.874	271.5
492.092	265.5
492.31	297.5
492.527	276.5
492.745	255.5
492.963	265.5
493.18	247.5
493.398	260.5
493.615	260.5
493.833	247.5
494.05	258.5
494.268	253.5
494.485	261.5
494.703	258.5
494.92	253.5
495.138	243.5
495.355	258.5
495.573	273.5
495.79	253.5
496.008	245.5
496.225	244.5
496.442	244.5
496.66	276.5
496.877	262.5
497.094	267.5
497.312	257.5
497.529	261.5
497.746	259.5
497.963	247.5
498.181	243.5
498.398	246.5
498.615	251.5
498.832	260.5
499.049	277.5
499.267	279.5
499.484	307.5
499.701	305.5
499.918	316.5
500.135	340.5
500.352	350.5
500.569	345.5
500.786	353.5
501.003	352.5
501.22	328.5
501.437	296.5
501.654	291.5
501.871	296.5
502.088	298.5
502.305	278.5
502.522	272.5
502.739	248.5
502.956	273.5
503.172	252.5
503.389	225.5
503.606	242.5
503.823	230.5
504.04	252.5
504.256	265.5
504.473	260.5
504.69	249.5
504.907	243.5
505.123	222.5
505.34	230.5
505.557	230.5
505.773	220.5
505.99	235.5
506.207	219.5
506.423	213.5
506.64	222.5
506.856	217.5
507.073	206.5
507.289	229.5
507.506	214.5
507.722	214.5
507.939	209.5
508.155	211.5
508.372	219.5
508.588	202.5
508.805	207.5
509.021	205.5
509.238	198.5
509.454	204.5
509.67	205.5
509.887	210.5
510.103	191.5
510.319	201.5
510.536	205.5
510.752	207.5
510.968	198.5
511.184	205.5
511.401	203.5
511.617	198.5
511.833	203.5
512.049	209.5
512.265	214.5
512.481	216.5
512.698	206.5
512.914	201.5
513.13	195.5
513.346	209.5
513.562	201.5
513.778	239.5
513.994	215.5
514.21	220.5
514.426	227.5
514.642	225.5
514.858	207.5
515.074	216.5
515.29	257.5
515.506	231.5
515.721	221.5
515.937	219.5
516.153	223.5
516.369	220.5
516.585	225.5
516.801	226.5
517.016	237.5
517.232	241.5
517.448	261.5
517.664	251.5
517.879	225.5
518.095	233.5
518.311	246.5
518.527	279.5
518.742	254.5
518.958	220.5
519.173	223.5
519.389	230.5
519.605	223.5
519.82	221.5
520.036	207.5
520.251	199.5
520.467	203.5
520.682	190.5
520.898	195.5
521.113	197.5
521.329	204.5
521.544	191.5
