Data from SampC_HRD10591_00018.txt Node
Date: Mon Jan 19 11:37:35 EST 2026
User: Yrep
Spectrometer: HR+D1059
Trigger mode: 0
Integration Time (sec): 3.443000E-1
Scans to average: 1
Electric dark correction enabled: true
Nonlinearity correction enabled: false
Boxcar width: 0
XAxis mode: Wavelengths
Number of Pixels in Spectrum: 2048
>>>>>Begin Spectral Data<<<<<
223.165	-32.88
223.4	-32.88
223.635	-32.88
223.869	-18.88
224.104	-20.88
224.338	2.12
224.573	-17.88
224.808	-14.88
225.042	-4.88
225.277	-6.88
225.511	-2.88
225.746	13.12
225.98	6.12
226.215	8.12
226.449	21.12
226.683	4.12
226.918	28.12
227.152	37.12
227.387	35.12
227.621	46.12
227.856	52.12
228.09	53.12
228.324	55.12
228.559	70.12
228.793	69.12
229.027	79.12
229.262	76.12
229.496	86.12
229.73	83.12
229.964	88.12
230.199	78.12
230.433	85.12
230.667	90.12
230.901	89.12
231.136	85.12
231.37	87.12
231.604	94.12
231.838	112.12
232.072	93.12
232.306	92.12
232.541	104.12
232.775	99.12
233.009	105.12
233.243	85.12
233.477	95.12
233.711	102.12
233.945	96.12
234.179	105.12
234.413	84.12
234.647	96.12
234.881	99.12
235.115	93.12
235.349	103.12
235.583	100.12
235.817	93.12
236.051	110.12
236.285	117.12
236.519	102.12
236.753	135.12
236.987	130.12
237.221	141.12
237.455	148.12
237.689	152.12
237.922	138.12
238.156	115.12
238.39	92.12
238.624	99.12
238.858	88.12
239.091	96.12
239.325	89.12
239.559	95.12
239.793	103.12
240.027	100.12
240.26	99.12
240.494	101.12
240.728	94.12
240.961	107.12
241.195	104.12
241.429	112.12
241.662	90.12
241.896	84.12
242.13	98.12
242.363	99.12
242.597	99.12
242.83	104.12
243.064	80.12
243.298	98.12
243.531	105.12
243.765	99.12
243.998	109.12
244.232	112.12
244.465	97.12
244.699	93.12
244.932	101.12
245.166	112.12
245.399	97.12
245.633	103.12
245.866	107.12
246.099	115.12
246.333	106.12
246.566	109.12
246.8	102.12
247.033	101.12
247.266	92.12
247.5	122.12
247.733	96.12
247.966	115.12
248.2	101.12
248.433	106.12
248.666	105.12
248.899	96.12
249.133	110.12
249.366	115.12
249.599	106.12
249.832	113.12
250.066	107.12
250.299	106.12
250.532	121.12
250.765	124.12
250.998	113.12
251.231	113.12
251.465	118.12
251.698	109.12
251.931	107.12
252.164	122.12
252.397	100.12
252.63	127.12
252.863	116.12
253.096	101.12
253.329	112.12
253.562	118.12
253.795	124.12
254.028	116.12
254.261	120.12
254.494	113.12
254.727	124.12
254.96	127.12
255.193	127.12
255.426	116.12
255.659	122.12
255.892	128.12
256.124	119.12
256.357	118.12
256.59	128.12
256.823	153.12
257.056	152.12
257.289	165.12
257.521	184.12
257.754	200.12
257.987	178.12
258.22	160.12
258.452	149.12
258.685	142.12
258.918	135.12
259.151	136.12
259.383	136.12
259.616	145.12
259.849	121.12
260.081	127.12
260.314	120.12
260.547	105.12
260.779	127.12
261.012	143.12
261.244	126.12
261.477	138.12
261.71	126.12
261.942	131.12
262.175	127.12
262.407	124.12
262.64	131.12
262.872	134.12
263.105	161.12
263.337	202.12
263.57	175.12
263.802	181.12
264.035	160.12
264.267	131.12
264.499	133.12
264.732	160.12
264.964	152.12
265.197	160.12
265.429	166.12
265.661	169.12
265.894	170.12
266.126	166.12
266.358	182.12
266.591	179.12
266.823	151.12
267.055	154.12
267.287	135.12
267.52	144.12
267.752	143.12
267.984	146.12
268.216	126.12
268.448	142.12
268.681	136.12
268.913	135.12
269.145	127.12
269.377	137.12
269.609	133.12
269.841	156.12
270.073	145.12
270.306	140.12
270.538	132.12
270.77	145.12
271.002	141.12
271.234	142.12
271.466	138.12
271.698	127.12
271.93	135.12
272.162	141.12
272.394	165.12
272.626	141.12
272.858	142.12
273.09	134.12
273.322	151.12
273.553	136.12
273.785	146.12
274.017	133.12
274.249	153.12
274.481	151.12
274.713	144.12
274.945	144.12
275.176	149.12
275.408	155.12
275.64	142.12
275.872	142.12
276.104	160.12
276.335	156.12
276.567	160.12
276.799	147.12
277.031	146.12
277.262	155.12
277.494	164.12
277.726	173.12
277.957	175.12
278.189	168.12
278.421	175.12
278.652	176.12
278.884	200.12
279.115	244.12
279.347	320.12
279.579	437.12
279.81	470.12
280.042	389.12
280.273	363.12
280.505	363.12
280.736	266.12
280.968	216.12
281.199	208.12
281.431	234.12
281.662	313.12
281.894	338.12
282.125	280.12
282.356	235.12
282.588	215.12
282.819	184.12
283.051	188.12
283.282	168.12
283.513	190.12
283.745	174.12
283.976	157.12
284.207	182.12
284.439	166.12
284.67	165.12
284.901	189.12
285.132	199.12
285.364	234.12
285.595	221.12
285.826	142.12
286.057	157.12
286.288	141.12
286.52	158.12
286.751	161.12
286.982	159.12
287.213	150.12
287.444	176.12
287.675	173.12
287.906	168.12
288.138	156.12
288.369	164.12
288.6	158.12
288.831	166.12
289.062	165.12
289.293	155.12
289.524	157.12
289.755	173.12
289.986	162.12
290.217	173.12
290.448	164.12
290.679	157.12
290.91	162.12
291.141	175.12
291.371	177.12
291.602	174.12
291.833	163.12
292.064	181.12
292.295	163.12
292.526	187.12
292.757	171.12
292.987	187.12
293.218	188.12
293.449	191.12
293.68	192.12
293.91	188.12
294.141	182.12
294.372	168.12
294.603	165.12
294.833	165.12
295.064	165.12
295.295	171.12
295.525	165.12
295.756	166.12
295.987	171.12
296.217	172.12
296.448	153.12
296.679	171.12
296.909	186.12
297.14	188.12
297.37	175.12
297.601	164.12
297.831	177.12
298.062	158.12
298.292	168.12
298.523	192.12
298.753	174.12
298.984	182.12
299.214	169.12
299.445	174.12
299.675	165.12
299.905	176.12
300.136	169.12
300.366	162.12
300.597	173.12
300.827	170.12
301.057	185.12
301.288	176.12
301.518	195.12
301.748	165.12
301.979	232.12
302.209	191.12
302.439	187.12
302.669	201.12
302.9	192.12
303.13	193.12
303.36	198.12
303.59	208.12
303.82	207.12
304.051	207.12
304.281	208.12
304.511	230.12
304.741	223.12
304.971	266.12
305.201	300.12
305.431	306.12
305.661	339.12
305.891	393.12
306.121	342.12
306.352	322.12
306.582	319.12
306.812	320.12
307.042	310.12
307.272	301.12
307.502	324.12
307.731	401.12
307.961	502.12
308.191	702.12
308.421	790.12
308.651	672.12
308.881	640.12
309.111	758.12
309.341	953.12
309.571	936.12
309.8	616.12
310.03	431.12
310.26	342.12
310.49	313.12
310.72	270.12
310.949	271.12
311.179	252.12
311.409	260.12
311.639	244.12
311.868	227.12
312.098	237.12
312.328	226.12
312.557	226.12
312.787	211.12
313.017	197.12
313.246	215.12
313.476	214.12
313.706	195.12
313.935	204.12
314.165	218.12
314.394	205.12
314.624	212.12
314.853	194.12
315.083	210.12
315.312	218.12
315.542	198.12
315.771	186.12
316.001	191.12
316.23	204.12
316.46	200.12
316.689	190.12
316.919	176.12
317.148	205.12
317.377	184.12
317.607	183.12
317.836	189.12
318.065	196.12
318.295	200.12
318.524	194.12
318.753	194.12
318.983	192.12
319.212	198.12
319.441	194.12
319.67	188.12
319.9	192.12
320.129	189.12
320.358	169.12
320.587	185.12
320.816	176.12
321.046	181.12
321.275	183.12
321.504	162.12
321.733	180.12
321.962	193.12
322.191	200.12
322.42	199.12
322.649	193.12
322.878	199.12
323.108	191.12
323.337	199.12
323.566	168.12
323.795	201.12
324.024	212.12
324.253	197.12
324.482	188.12
324.71	187.12
324.939	195.12
325.168	203.12
325.397	194.12
325.626	202.12
325.855	192.12
326.084	209.12
326.313	204.12
326.542	184.12
326.77	193.12
326.999	189.12
327.228	195.12
327.457	185.12
327.686	193.12
327.914	184.12
328.143	204.12
328.372	201.12
328.6	194.12
328.829	193.12
329.058	180.12
329.287	180.12
329.515	188.12
329.744	192.12
329.972	184.12
330.201	194.12
330.43	211.12
330.658	201.12
330.887	188.12
331.115	188.12
331.344	185.12
331.572	207.12
331.801	197.12
332.03	212.12
332.258	214.12
332.486	211.12
332.715	197.12
332.943	214.12
333.172	208.12
333.4	221.12
333.629	222.12
333.857	223.12
334.085	228.12
334.314	228.12
334.542	220.12
334.771	224.12
334.999	206.12
335.227	206.12
335.455	200.12
335.684	215.12
335.912	217.12
336.14	226.12
336.369	207.12
336.597	206.12
336.825	213.12
337.053	218.12
337.281	213.12
337.51	206.12
337.738	212.12
337.966	192.12
338.194	208.12
338.422	203.12
338.65	219.12
338.878	215.12
339.106	213.12
339.334	218.12
339.562	190.12
339.79	201.12
340.018	199.12
340.246	198.12
340.474	212.12
340.702	213.12
340.93	190.12
341.158	200.12
341.386	208.12
341.614	190.12
341.842	188.12
342.07	198.12
342.298	204.12
342.526	225.12
342.754	202.12
342.981	195.12
343.209	214.12
343.437	240.12
343.665	220.12
343.893	201.12
344.12	234.12
344.348	217.12
344.576	214.12
344.804	210.12
345.031	205.12
345.259	213.12
345.487	217.12
345.714	215.12
345.942	217.12
346.17	213.12
346.397	201.12
346.625	201.12
346.853	210.12
347.08	212.12
347.308	212.12
347.535	191.12
347.763	192.12
347.99	213.12
348.218	209.12
348.445	204.12
348.673	206.12
348.9	239.12
349.128	213.12
349.355	180.12
349.583	197.12
349.81	190.12
350.037	195.12
350.265	211.12
350.492	220.12
350.72	208.12
350.947	215.12
351.174	193.12
351.402	229.12
351.629	218.12
351.856	211.12
352.083	212.12
352.311	216.12
352.538	217.12
352.765	218.12
352.992	226.12
353.22	217.12
353.447	230.12
353.674	232.12
353.901	222.12
354.128	233.12
354.355	226.12
354.583	240.12
354.81	250.12
355.037	251.12
355.264	265.12
355.491	250.12
355.718	266.12
355.945	264.12
356.172	273.12
356.399	265.12
356.626	294.12
356.853	278.12
357.08	309.12
357.307	323.12
357.534	324.12
357.761	381.12
357.988	399.12
358.215	446.12
358.441	522.12
358.668	527.12
358.895	540.12
359.122	449.12
359.349	386.12
359.576	349.12
359.802	341.12
360.029	317.12
360.256	298.12
360.483	293.12
360.709	293.12
360.936	298.12
361.163	270.12
361.39	270.12
361.616	276.12
361.843	260.12
362.07	263.12
362.296	259.12
362.523	228.12
362.749	238.12
362.976	252.12
363.203	241.12
363.429	224.12
363.656	228.12
363.882	216.12
364.109	252.12
364.335	230.12
364.562	219.12
364.788	230.12
365.015	233.12
365.241	215.12
365.468	227.12
365.694	237.12
365.92	230.12
366.147	213.12
366.373	209.12
366.599	226.12
366.826	208.12
367.052	210.12
367.278	214.12
367.505	215.12
367.731	240.12
367.957	207.12
368.184	222.12
368.41	236.12
368.636	226.12
368.862	212.12
369.089	213.12
369.315	221.12
369.541	227.12
369.767	235.12
369.993	216.12
370.219	210.12
370.445	213.12
370.672	212.12
370.898	201.12
371.124	216.12
371.35	209.12
371.576	232.12
371.802	216.12
372.028	245.12
372.254	230.12
372.48	232.12
372.706	217.12
372.932	213.12
373.158	225.12
373.384	227.12
373.61	224.12
373.835	222.12
374.061	238.12
374.287	238.12
374.513	244.12
374.739	227.12
374.965	218.12
375.191	224.12
375.416	225.12
375.642	235.12
375.868	221.12
376.094	232.12
376.319	211.12
376.545	236.12
376.771	222.12
376.997	225.12
377.222	213.12
377.448	216.12
377.674	218.12
377.899	216.12
378.125	233.12
378.35	208.12
378.576	238.12
378.802	228.12
379.027	213.12
379.253	224.12
379.478	220.12
379.704	246.12
379.929	223.12
380.155	228.12
380.38	222.12
380.606	234.12
380.831	212.12
381.057	222.12
381.282	228.12
381.507	234.12
381.733	230.12
381.958	247.12
382.184	250.12
382.409	260.12
382.634	246.12
382.86	254.12
383.085	288.12
383.31	285.12
383.535	286.12
383.761	293.12
383.986	314.12
384.211	273.12
384.436	245.12
384.662	235.12
384.887	248.12
385.112	243.12
385.337	240.12
385.562	239.12
385.787	243.12
386.013	271.12
386.238	263.12
386.463	256.12
386.688	280.12
386.913	251.12
387.138	261.12
387.363	232.12
387.588	238.12
387.813	270.12
388.038	265.12
388.263	262.12
388.488	244.12
388.713	260.12
388.938	257.12
389.163	239.12
389.387	268.12
389.612	248.12
389.837	242.12
390.062	279.12
390.287	282.12
390.512	256.12
390.736	253.12
390.961	252.12
391.186	270.12
391.411	247.12
391.636	251.12
391.86	280.12
392.085	268.12
392.31	284.12
392.534	290.12
392.759	298.12
392.984	279.12
393.208	320.12
393.433	358.12
393.658	385.12
393.882	442.12
394.107	654.12
394.331	1051.12
394.556	1362.12
394.78	1001.12
395.005	633.12
395.229	506.12
395.454	512.12
395.678	614.12
395.903	932.12
396.127	1474.12
396.352	1754.12
396.576	1123.12
396.801	716.12
397.025	540.12
397.249	438.12
397.474	412.12
397.698	373.12
397.922	374.12
398.147	343.12
398.371	342.12
398.595	329.12
398.82	316.12
399.044	332.12
399.268	352.12
399.492	367.12
399.717	365.12
399.941	334.12
400.165	321.12
400.389	320.12
400.613	299.12
400.837	303.12
401.062	295.12
401.286	287.12
401.51	280.12
401.734	284.12
401.958	307.12
402.182	270.12
402.406	310.12
402.63	281.12
402.854	294.12
403.078	278.12
403.302	281.12
403.526	298.12
403.75	291.12
403.974	284.12
404.198	288.12
404.422	311.12
404.645	294.12
404.869	289.12
405.093	305.12
405.317	286.12
405.541	276.12
405.765	283.12
405.988	284.12
406.212	301.12
406.436	283.12
406.66	308.12
406.883	300.12
407.107	298.12
407.331	317.12
407.555	330.12
407.778	327.12
408.002	295.12
408.226	290.12
408.449	305.12
408.673	304.12
408.896	308.12
409.12	280.12
409.344	294.12
409.567	303.12
409.791	298.12
410.014	300.12
410.238	298.12
410.461	297.12
410.685	277.12
410.908	280.12
411.132	302.12
411.355	295.12
411.578	286.12
411.802	261.12
412.025	298.12
412.249	277.12
412.472	292.12
412.695	291.12
412.919	284.12
413.142	274.12
413.365	273.12
413.589	285.12
413.812	263.12
414.035	294.12
414.258	270.12
414.482	280.12
414.705	286.12
414.928	291.12
415.151	288.12
415.374	277.12
415.597	274.12
415.821	288.12
416.044	272.12
416.267	276.12
416.49	268.12
416.713	272.12
416.936	282.12
417.159	300.12
417.382	285.12
417.605	278.12
417.828	282.12
418.051	278.12
418.274	287.12
418.497	278.12
418.72	273.12
418.943	300.12
419.166	305.12
419.389	293.12
419.611	301.12
419.834	277.12
420.057	295.12
420.28	265.12
420.503	284.12
420.726	290.12
420.948	279.12
421.171	280.12
421.394	281.12
421.617	289.12
421.839	291.12
422.062	291.12
422.285	290.12
422.507	299.12
422.73	306.12
422.953	304.12
423.175	277.12
423.398	272.12
423.621	282.12
423.843	289.12
424.066	290.12
424.288	290.12
424.511	296.12
424.733	290.12
424.956	289.12
425.178	296.12
425.401	301.12
425.623	306.12
425.846	274.12
426.068	278.12
426.291	279.12
426.513	272.12
426.735	280.12
426.958	285.12
427.18	254.12
427.402	274.12
427.625	274.12
427.847	288.12
428.069	280.12
428.292	289.12
428.514	271.12
428.736	260.12
428.958	252.12
429.181	270.12
429.403	258.12
429.625	262.12
429.847	264.12
430.069	254.12
430.292	274.12
430.514	284.12
430.736	264.12
430.958	266.12
431.18	270.12
431.402	270.12
431.624	261.12
431.846	255.12
432.068	246.12
432.29	252.12
432.512	247.12
432.734	272.12
432.956	265.12
433.178	276.12
433.4	284.12
433.622	277.12
433.844	276.12
434.066	259.12
434.287	266.12
434.509	265.12
434.731	258.12
434.953	269.12
435.175	283.12
435.397	285.12
435.618	274.12
435.84	276.12
436.062	270.12
436.284	263.12
436.505	260.12
436.727	263.12
436.949	259.12
437.17	277.12
437.392	253.12
437.614	268.12
437.835	251.12
438.057	234.12
438.278	265.12
438.5	274.12
438.721	257.12
438.943	265.12
439.165	271.12
439.386	268.12
439.608	276.12
439.829	274.12
440.05	281.12
440.272	272.12
440.493	277.12
440.715	278.12
440.936	299.12
441.158	310.12
441.379	295.12
441.6	293.12
441.822	287.12
442.043	289.12
442.264	293.12
442.486	289.12
442.707	295.12
442.928	295.12
443.149	290.12
443.371	279.12
443.592	296.12
443.813	283.12
444.034	302.12
444.255	290.12
444.476	307.12
444.698	298.12
444.919	320.12
445.14	554.12
445.361	413.12
445.582	313.12
445.803	293.12
446.024	292.12
446.245	301.12
446.466	288.12
446.687	274.12
446.908	290.12
447.129	288.12
447.35	292.12
447.571	286.12
447.792	274.12
448.013	284.12
448.234	282.12
448.455	263.12
448.675	278.12
448.896	262.12
449.117	263.12
449.338	268.12
449.559	286.12
449.779	265.12
450	273.12
450.221	263.12
450.442	272.12
450.662	259.12
450.883	271.12
451.104	257.12
451.324	262.12
451.545	270.12
451.766	280.12
451.986	245.12
452.207	252.12
452.428	269.12
452.648	288.12
452.869	285.12
453.089	253.12
453.31	260.12
453.53	252.12
453.751	258.12
453.971	271.12
454.192	255.12
454.412	242.12
454.633	243.12
454.853	239.12
455.073	244.12
455.294	271.12
455.514	272.12
455.734	253.12
455.955	242.12
456.175	239.12
456.395	238.12
456.616	240.12
456.836	234.12
457.056	270.12
457.276	246.12
457.497	241.12
457.717	244.12
457.937	237.12
458.157	232.12
458.377	214.12
458.598	241.12
458.818	254.12
459.038	223.12
459.258	251.12
459.478	248.12
459.698	247.12
459.918	257.12
460.138	262.12
460.358	278.12
460.578	279.12
460.798	269.12
461.018	264.12
461.238	286.12
461.458	280.12
461.678	296.12
461.898	281.12
462.118	287.12
462.338	310.12
462.558	311.12
462.777	319.12
462.997	287.12
463.217	313.12
463.437	326.12
463.657	304.12
463.876	293.12
464.096	286.12
464.316	296.12
464.536	323.12
464.755	294.12
464.975	284.12
465.195	287.12
465.414	288.12
465.634	275.12
465.854	290.12
466.073	298.12
466.293	304.12
466.512	336.12
466.732	323.12
466.951	318.12
467.171	297.12
467.391	313.12
467.61	285.12
467.829	279.12
468.049	288.12
468.268	279.12
468.488	279.12
468.707	284.12
468.927	286.12
469.146	258.12
469.365	280.12
469.585	282.12
469.804	260.12
470.023	276.12
470.243	285.12
470.462	281.12
470.681	288.12
470.901	279.12
471.12	280.12
471.339	276.12
471.558	269.12
471.777	286.12
471.997	286.12
472.216	284.12
472.435	268.12
472.654	262.12
472.873	278.12
473.092	290.12
473.311	282.12
473.53	287.12
473.749	294.12
473.968	303.12
474.187	306.12
474.406	299.12
474.625	329.12
474.844	325.12
475.063	295.12
475.282	313.12
475.501	268.12
475.72	279.12
475.939	261.12
476.158	268.12
476.377	276.12
476.596	284.12
476.814	272.12
477.033	268.12
477.252	255.12
477.471	249.12
477.69	277.12
477.908	288.12
478.127	295.12
478.346	296.12
478.564	305.12
478.783	287.12
479.002	293.12
479.22	289.12
479.439	291.12
479.658	276.12
479.876	277.12
480.095	274.12
480.313	271.12
480.532	274.12
480.751	287.12
480.969	262.12
481.188	264.12
481.406	272.12
481.624	263.12
481.843	256.12
482.061	263.12
482.28	289.12
482.498	272.12
482.717	258.12
482.935	282.12
483.153	288.12
483.372	282.12
483.59	285.12
483.808	273.12
484.027	284.12
484.245	285.12
484.463	305.12
484.681	320.12
484.9	304.12
485.118	306.12
485.336	315.12
485.554	305.12
485.772	295.12
485.99	309.12
486.209	291.12
486.427	286.12
486.645	287.12
486.863	318.12
487.081	311.12
487.299	291.12
487.517	304.12
487.735	328.12
487.953	335.12
488.171	350.12
488.389	314.12
488.607	296.12
488.825	297.12
489.043	282.12
489.261	304.12
489.479	301.12
489.696	310.12
489.914	287.12
490.132	314.12
490.35	314.12
490.568	302.12
490.786	316.12
491.003	327.12
491.221	325.12
491.439	341.12
491.657	340.12
491.874	346.12
492.092	351.12
492.31	347.12
492.527	338.12
492.745	342.12
492.963	343.12
493.18	340.12
493.398	325.12
493.615	313.12
493.833	312.12
494.05	321.12
494.268	332.12
494.485	322.12
494.703	319.12
494.92	334.12
495.138	332.12
495.355	323.12
495.573	332.12
495.79	331.12
496.008	329.12
496.225	324.12
496.442	318.12
496.66	351.12
496.877	323.12
497.094	350.12
497.312	329.12
497.529	348.12
497.746	343.12
497.963	319.12
498.181	334.12
498.398	327.12
498.615	343.12
498.832	352.12
499.049	375.12
499.267	403.12
499.484	378.12
499.701	402.12
499.918	435.12
500.135	476.12
500.352	494.12
500.569	496.12
500.786	490.12
501.003	455.12
501.22	447.12
501.437	406.12
501.654	393.12
501.871	387.12
502.088	354.12
502.305	342.12
502.522	358.12
502.739	345.12
502.956	333.12
503.172	338.12
503.389	326.12
