Data from SampC_HRD10591_00026.txt Node
Date: Mon Jan 19 11:37:38 EST 2026
User: Yrep
Spectrometer: HR+D1059
Trigger mode: 0
Integration Time (sec): 3.443000E-1
Scans to average: 1
Electric dark correction enabled: true
Nonlinearity correction enabled: false
Boxcar width: 0
XAxis mode: Wavelengths
Number of Pixels in Spectrum: 2048
>>>>>Begin Spectral Data<<<<<
223.165	-36.06
223.4	-36.06
223.635	-36.06
223.869	-13.06
224.104	-18.06
224.338	-6.06
224.573	-14.06
224.808	-8.06
225.042	-8.06
225.277	-9.06
225.511	-6.06
225.746	2.94
225.98	3.94
226.215	19.94
226.449	13.94
226.683	31.94
226.918	18.94
227.152	26.94
227.387	33.94
227.621	37.94
227.856	44.94
228.09	47.94
228.324	41.94
228.559	69.94
228.793	70.94
229.027	75.94
229.262	88.94
229.496	93.94
229.73	93.94
229.964	97.94
230.199	79.94
230.433	95.94
230.667	94.94
230.901	90.94
231.136	95.94
231.37	108.94
231.604	115.94
231.838	105.94
232.072	117.94
232.306	112.94
232.541	120.94
232.775	108.94
233.009	103.94
233.243	106.94
233.477	100.94
233.711	96.94
233.945	100.94
234.179	108.94
234.413	111.94
234.647	112.94
234.881	112.94
235.115	116.94
235.349	100.94
235.583	112.94
235.817	113.94
236.051	116.94
236.285	108.94
236.519	140.94
236.753	142.94
236.987	153.94
237.221	178.94
237.455	190.94
237.689	194.94
237.922	141.94
238.156	139.94
238.39	136.94
238.624	127.94
238.858	109.94
239.091	113.94
239.325	99.94
239.559	98.94
239.793	105.94
240.027	110.94
240.26	108.94
240.494	109.94
240.728	119.94
240.961	107.94
241.195	116.94
241.429	106.94
241.662	110.94
241.896	115.94
242.13	100.94
242.363	102.94
242.597	98.94
242.83	104.94
243.064	119.94
243.298	113.94
243.531	115.94
243.765	110.94
243.998	107.94
244.232	107.94
244.465	115.94
244.699	107.94
244.932	105.94
245.166	107.94
245.399	119.94
245.633	111.94
245.866	122.94
246.099	126.94
246.333	132.94
246.566	119.94
246.8	116.94
247.033	110.94
247.266	111.94
247.5	115.94
247.733	119.94
247.966	127.94
248.2	121.94
248.433	114.94
248.666	118.94
248.899	131.94
249.133	128.94
249.366	146.94
249.599	120.94
249.832	123.94
250.066	137.94
250.299	119.94
250.532	119.94
250.765	124.94
250.998	111.94
251.231	129.94
251.465	137.94
251.698	131.94
251.931	126.94
252.164	122.94
252.397	139.94
252.63	135.94
252.863	116.94
253.096	132.94
253.329	129.94
253.562	121.94
253.795	126.94
254.028	145.94
254.261	141.94
254.494	135.94
254.727	126.94
254.96	128.94
255.193	145.94
255.426	139.94
255.659	132.94
255.892	137.94
256.124	141.94
256.357	148.94
256.59	179.94
256.823	199.94
257.056	236.94
257.289	227.94
257.521	233.94
257.754	265.94
257.987	251.94
258.22	203.94
258.452	179.94
258.685	183.94
258.918	150.94
259.151	154.94
259.383	168.94
259.616	137.94
259.849	158.94
260.081	150.94
260.314	156.94
260.547	139.94
260.779	149.94
261.012	160.94
261.244	153.94
261.477	151.94
261.71	174.94
261.942	144.94
262.175	172.94
262.407	169.94
262.64	176.94
262.872	171.94
263.105	180.94
263.337	216.94
263.57	207.94
263.802	191.94
264.035	178.94
264.267	169.94
264.499	175.94
264.732	189.94
264.964	188.94
265.197	201.94
265.429	218.94
265.661	213.94
265.894	205.94
266.126	243.94
266.358	244.94
266.591	195.94
266.823	199.94
267.055	166.94
267.287	176.94
267.52	159.94
267.752	165.94
267.984	166.94
268.216	161.94
268.448	160.94
268.681	157.94
268.913	182.94
269.145	147.94
269.377	156.94
269.609	151.94
269.841	172.94
270.073	165.94
270.306	157.94
270.538	160.94
270.77	170.94
271.002	156.94
271.234	172.94
271.466	165.94
271.698	154.94
271.93	164.94
272.162	165.94
272.394	164.94
272.626	155.94
272.858	165.94
273.09	161.94
273.322	173.94
273.553	171.94
273.785	175.94
274.017	157.94
274.249	169.94
274.481	168.94
274.713	165.94
274.945	177.94
275.176	160.94
275.408	175.94
275.64	169.94
275.872	187.94
276.104	175.94
276.335	177.94
276.567	178.94
276.799	171.94
277.031	189.94
277.262	176.94
277.494	205.94
277.726	211.94
277.957	206.94
278.189	238.94
278.421	211.94
278.652	225.94
278.884	270.94
279.115	352.94
279.347	491.94
279.579	665.94
279.81	715.94
280.042	585.94
280.273	531.94
280.505	559.94
280.736	372.94
280.968	269.94
281.199	278.94
281.431	329.94
281.662	393.94
281.894	415.94
282.125	357.94
282.356	276.94
282.588	260.94
282.819	235.94
283.051	212.94
283.282	215.94
283.513	232.94
283.745	228.94
283.976	230.94
284.207	211.94
284.439	208.94
284.67	228.94
284.901	222.94
285.132	253.94
285.364	284.94
285.595	272.94
285.826	206.94
286.057	210.94
286.288	194.94
286.52	200.94
286.751	189.94
286.982	207.94
287.213	199.94
287.444	185.94
287.675	195.94
287.906	201.94
288.138	201.94
288.369	211.94
288.6	201.94
288.831	184.94
289.062	206.94
289.293	210.94
289.524	212.94
289.755	189.94
289.986	213.94
290.217	201.94
290.448	201.94
290.679	206.94
290.91	209.94
291.141	197.94
291.371	199.94
291.602	201.94
291.833	202.94
292.064	213.94
292.295	213.94
292.526	242.94
292.757	229.94
292.987	216.94
293.218	222.94
293.449	237.94
293.68	243.94
293.91	236.94
294.141	233.94
294.372	212.94
294.603	209.94
294.833	221.94
295.064	194.94
295.295	213.94
295.525	201.94
295.756	224.94
295.987	187.94
296.217	203.94
296.448	207.94
296.679	201.94
296.909	219.94
297.14	208.94
297.37	219.94
297.601	213.94
297.831	204.94
298.062	199.94
298.292	206.94
298.523	188.94
298.753	232.94
298.984	200.94
299.214	210.94
299.445	216.94
299.675	209.94
299.905	224.94
300.136	215.94
300.366	217.94
300.597	227.94
300.827	208.94
301.057	237.94
301.288	220.94
301.518	236.94
301.748	244.94
301.979	268.94
302.209	227.94
302.439	251.94
302.669	256.94
302.9	245.94
303.13	239.94
303.36	268.94
303.59	271.94
303.82	265.94
304.051	268.94
304.281	295.94
304.511	294.94
304.741	301.94
304.971	373.94
305.201	429.94
305.431	453.94
305.661	527.94
305.891	543.94
306.121	507.94
306.352	477.94
306.582	482.94
306.812	472.94
307.042	452.94
307.272	409.94
307.502	438.94
307.731	590.94
307.961	863.94
308.191	1167.94
308.421	1360.94
308.651	1133.94
308.881	1051.94
309.111	1291.94
309.341	1645.94
309.571	1585.94
309.8	1021.94
310.03	674.94
310.26	533.94
310.49	442.94
310.72	408.94
310.949	374.94
311.179	363.94
311.409	334.94
311.639	333.94
311.868	307.94
312.098	312.94
312.328	264.94
312.557	294.94
312.787	272.94
313.017	290.94
313.246	301.94
313.476	269.94
313.706	269.94
313.935	256.94
314.165	266.94
314.394	258.94
314.624	247.94
314.853	263.94
315.083	259.94
315.312	267.94
315.542	256.94
315.771	249.94
316.001	253.94
316.23	258.94
316.46	250.94
316.689	237.94
316.919	235.94
317.148	237.94
317.377	241.94
317.607	241.94
317.836	215.94
318.065	244.94
318.295	247.94
318.524	248.94
318.753	243.94
318.983	247.94
319.212	239.94
319.441	236.94
319.67	235.94
319.9	219.94
320.129	233.94
320.358	237.94
320.587	250.94
320.816	236.94
321.046	235.94
321.275	250.94
321.504	244.94
321.733	234.94
321.962	248.94
322.191	228.94
322.42	243.94
322.649	244.94
322.878	247.94
323.108	227.94
323.337	231.94
323.566	226.94
323.795	247.94
324.024	257.94
324.253	253.94
324.482	254.94
324.71	253.94
324.939	256.94
325.168	231.94
325.397	238.94
325.626	257.94
325.855	252.94
326.084	251.94
326.313	242.94
326.542	244.94
326.77	239.94
326.999	235.94
327.228	237.94
327.457	258.94
327.686	260.94
327.914	253.94
328.143	243.94
328.372	247.94
328.6	241.94
328.829	229.94
329.058	238.94
329.287	250.94
329.515	255.94
329.744	260.94
329.972	251.94
330.201	225.94
330.43	220.94
330.658	235.94
330.887	243.94
331.115	254.94
331.344	247.94
331.572	260.94
331.801	263.94
332.03	248.94
332.258	258.94
332.486	259.94
332.715	260.94
332.943	258.94
333.172	278.94
333.4	293.94
333.629	303.94
333.857	271.94
334.085	276.94
334.314	260.94
334.542	259.94
334.771	273.94
334.999	279.94
335.227	280.94
335.455	280.94
335.684	274.94
335.912	279.94
336.14	266.94
336.369	270.94
336.597	252.94
336.825	270.94
337.053	255.94
337.281	283.94
337.51	264.94
337.738	259.94
337.966	258.94
338.194	250.94
338.422	259.94
338.65	254.94
338.878	264.94
339.106	255.94
339.334	273.94
339.562	264.94
339.79	255.94
340.018	248.94
340.246	242.94
340.474	272.94
340.702	259.94
340.93	246.94
341.158	251.94
341.386	252.94
341.614	230.94
341.842	261.94
342.07	270.94
342.298	244.94
342.526	241.94
342.754	243.94
342.981	250.94
343.209	258.94
343.437	284.94
343.665	258.94
343.893	285.94
344.12	287.94
344.348	273.94
344.576	267.94
344.804	245.94
345.031	268.94
345.259	260.94
345.487	258.94
345.714	254.94
345.942	250.94
346.17	256.94
346.397	251.94
346.625	247.94
346.853	244.94
347.08	260.94
347.308	279.94
347.535	260.94
347.763	263.94
347.99	271.94
348.218	266.94
348.445	251.94
348.673	250.94
348.9	260.94
349.128	255.94
349.355	265.94
349.583	266.94
349.81	260.94
350.037	247.94
350.265	258.94
350.492	255.94
350.72	270.94
350.947	267.94
351.174	265.94
351.402	268.94
351.629	271.94
351.856	291.94
352.083	267.94
352.311	263.94
352.538	266.94
352.765	279.94
352.992	299.94
353.22	281.94
353.447	271.94
353.674	284.94
353.901	277.94
354.128	304.94
354.355	282.94
354.583	297.94
354.81	304.94
355.037	305.94
355.264	313.94
355.491	328.94
355.718	313.94
355.945	322.94
356.172	335.94
356.399	340.94
356.626	363.94
356.853	382.94
357.08	410.94
357.307	411.94
357.534	426.94
357.761	450.94
357.988	531.94
358.215	589.94
358.441	693.94
358.668	744.94
358.895	736.94
359.122	603.94
359.349	524.94
359.576	455.94
359.802	427.94
360.029	409.94
360.256	409.94
360.483	388.94
360.709	376.94
360.936	380.94
361.163	358.94
361.39	335.94
361.616	342.94
361.843	340.94
362.07	345.94
362.296	343.94
362.523	315.94
362.749	311.94
362.976	312.94
363.203	325.94
363.429	290.94
363.656	285.94
363.882	301.94
364.109	313.94
364.335	304.94
364.562	302.94
364.788	289.94
365.015	302.94
365.241	283.94
365.468	286.94
365.694	301.94
365.92	293.94
366.147	295.94
366.373	280.94
366.599	285.94
366.826	278.94
367.052	268.94
367.278	285.94
367.505	275.94
367.731	285.94
367.957	271.94
368.184	267.94
368.41	277.94
368.636	270.94
368.862	276.94
369.089	280.94
369.315	297.94
369.541	302.94
369.767	295.94
369.993	282.94
370.219	273.94
370.445	283.94
370.672	283.94
370.898	288.94
371.124	306.94
371.35	284.94
371.576	290.94
371.802	270.94
372.028	273.94
372.254	286.94
372.48	288.94
372.706	285.94
372.932	291.94
373.158	288.94
373.384	293.94
373.61	309.94
373.835	298.94
374.061	301.94
374.287	283.94
374.513	278.94
374.739	297.94
374.965	279.94
375.191	290.94
375.416	286.94
375.642	300.94
375.868	301.94
376.094	300.94
376.319	300.94
376.545	282.94
376.771	287.94
376.997	292.94
377.222	287.94
377.448	279.94
377.674	274.94
377.899	281.94
378.125	284.94
378.35	272.94
378.576	275.94
378.802	286.94
379.027	288.94
379.253	279.94
379.478	259.94
379.704	281.94
379.929	290.94
380.155	296.94
380.38	287.94
380.606	279.94
380.831	307.94
381.057	316.94
381.282	287.94
381.507	302.94
381.733	308.94
381.958	306.94
382.184	317.94
382.409	347.94
382.634	344.94
382.86	351.94
383.085	373.94
383.31	392.94
383.535	402.94
383.761	407.94
383.986	417.94
384.211	365.94
384.436	327.94
384.662	314.94
384.887	346.94
385.112	327.94
385.337	331.94
385.562	347.94
385.787	344.94
386.013	355.94
386.238	362.94
386.463	343.94
386.688	359.94
386.913	330.94
387.138	342.94
387.363	350.94
387.588	344.94
387.813	333.94
388.038	346.94
388.263	331.94
388.488	357.94
388.713	333.94
388.938	331.94
389.163	339.94
389.387	341.94
389.612	332.94
389.837	344.94
390.062	361.94
390.287	362.94
390.512	366.94
390.736	346.94
390.961	357.94
391.186	363.94
391.411	350.94
391.636	375.94
391.86	361.94
392.085	396.94
392.31	413.94
392.534	417.94
392.759	412.94
392.984	448.94
393.208	486.94
393.433	576.94
393.658	600.94
393.882	690.94
394.107	1072.94
394.331	1821.94
394.556	2352.94
394.78	1658.94
395.005	963.94
395.229	803.94
395.454	805.94
395.678	960.94
395.903	1558.94
396.127	2659.94
396.352	3056.94
396.576	1919.94
396.801	1159.94
397.025	843.94
397.249	708.94
397.474	617.94
397.698	553.94
397.922	555.94
398.147	503.94
398.371	490.94
398.595	493.94
398.82	475.94
399.044	455.94
399.268	471.94
399.492	521.94
399.717	509.94
399.941	478.94
400.165	476.94
400.389	427.94
400.613	408.94
400.837	405.94
401.062	425.94
401.286	417.94
401.51	396.94
401.734	422.94
401.958	401.94
402.182	409.94
402.406	380.94
402.63	379.94
402.854	404.94
403.078	416.94
403.302	410.94
403.526	403.94
403.75	419.94
403.974	396.94
404.198	421.94
404.422	404.94
404.645	397.94
404.869	394.94
405.093	421.94
405.317	393.94
405.541	408.94
405.765	409.94
405.988	415.94
406.212	392.94
406.436	387.94
406.66	399.94
406.883	407.94
407.107	434.94
407.331	435.94
407.555	458.94
407.778	419.94
408.002	426.94
408.226	414.94
408.449	425.94
408.673	396.94
408.896	421.94
409.12	394.94
409.344	399.94
409.567	396.94
409.791	392.94
410.014	400.94
410.238	411.94
410.461	398.94
410.685	385.94
410.908	400.94
411.132	402.94
411.355	386.94
411.578	395.94
411.802	386.94
412.025	386.94
412.249	386.94
412.472	370.94
412.695	384.94
412.919	372.94
413.142	393.94
413.365	396.94
413.589	371.94
413.812	375.94
414.035	388.94
414.258	375.94
414.482	374.94
414.705	393.94
414.928	384.94
415.151	386.94
415.374	386.94
415.597	361.94
415.821	374.94
416.044	379.94
416.267	382.94
416.49	365.94
416.713	386.94
416.936	393.94
417.159	376.94
417.382	402.94
417.605	383.94
417.828	370.94
418.051	383.94
418.274	379.94
418.497	364.94
418.72	395.94
418.943	388.94
419.166	414.94
419.389	422.94
419.611	395.94
419.834	413.94
420.057	389.94
420.28	414.94
420.503	383.94
420.726	384.94
420.948	391.94
421.171	377.94
421.394	387.94
421.617	400.94
421.839	417.94
422.062	414.94
422.285	386.94
422.507	395.94
422.73	384.94
422.953	411.94
423.175	397.94
423.398	391.94
423.621	391.94
423.843	400.94
424.066	387.94
424.288	408.94
424.511	405.94
424.733	394.94
424.956	410.94
425.178	406.94
425.401	385.94
425.623	393.94
425.846	387.94
426.068	381.94
426.291	384.94
426.513	405.94
426.735	364.94
426.958	383.94
427.18	379.94
427.402	387.94
427.625	367.94
427.847	358.94
428.069	368.94
428.292	370.94
428.514	384.94
428.736	379.94
428.958	369.94
429.181	359.94
429.403	330.94
429.625	381.94
429.847	360.94
430.069	360.94
430.292	370.94
430.514	354.94
430.736	362.94
430.958	393.94
431.18	363.94
431.402	388.94
431.624	349.94
431.846	345.94
432.068	320.94
432.29	356.94
432.512	375.94
432.734	377.94
432.956	372.94
433.178	382.94
433.4	374.94
433.622	365.94
433.844	385.94
434.066	367.94
434.287	355.94
434.509	333.94
434.731	359.94
434.953	351.94
435.175	358.94
435.397	398.94
435.618	369.94
435.84	352.94
436.062	359.94
436.284	364.94
436.505	362.94
436.727	375.94
436.949	375.94
437.17	373.94
437.392	371.94
437.614	344.94
437.835	345.94
438.057	335.94
438.278	359.94
438.5	362.94
438.721	370.94
438.943	393.94
439.165	362.94
439.386	365.94
439.608	375.94
439.829	377.94
440.05	392.94
440.272	382.94
440.493	394.94
440.715	393.94
440.936	390.94
441.158	394.94
441.379	415.94
441.6	405.94
441.822	422.94
442.043	416.94
442.264	407.94
442.486	392.94
442.707	395.94
442.928	398.94
443.149	398.94
443.371	402.94
443.592	406.94
443.813	415.94
444.034	430.94
444.255	418.94
444.476	426.94
444.698	421.94
444.919	427.94
445.14	666.94
445.361	549.94
445.582	420.94
445.803	401.94
446.024	403.94
446.245	420.94
446.466	409.94
446.687	392.94
446.908	407.94
447.129	405.94
447.35	405.94
447.571	379.94
447.792	388.94
448.013	393.94
448.234	413.94
448.455	380.94
448.675	376.94
448.896	388.94
449.117	363.94
449.338	385.94
449.559	377.94
449.779	364.94
450	354.94
450.221	356.94
450.442	351.94
450.662	356.94
450.883	373.94
451.104	373.94
451.324	343.94
451.545	345.94
451.766	378.94
451.986	367.94
452.207	370.94
452.428	375.94
452.648	363.94
452.869	377.94
453.089	336.94
453.31	344.94
453.53	346.94
453.751	345.94
453.971	340.94
454.192	347.94
454.412	352.94
454.633	335.94
454.853	338.94
455.073	335.94
455.294	340.94
455.514	341.94
455.734	329.94
455.955	331.94
456.175	308.94
456.395	316.94
456.616	311.94
456.836	329.94
457.056	329.94
457.276	329.94
457.497	317.94
457.717	312.94
457.937	313.94
458.157	324.94
458.377	324.94
458.598	310.94
458.818	317.94
459.038	313.94
459.258	325.94
459.478	345.94
459.698	324.94
459.918	325.94
460.138	346.94
460.358	372.94
460.578	392.94
460.798	374.94
461.018	378.94
461.238	393.94
461.458	379.94
461.678	364.94
461.898	404.94
462.118	391.94
462.338	387.94
462.558	411.94
462.777	392.94
462.997	424.94
463.217	423.94
463.437	435.94
463.657	425.94
463.876	417.94
464.096	422.94
464.316	404.94
464.536	403.94
464.755	418.94
464.975	398.94
465.195	391.94
465.414	380.94
465.634	400.94
465.854	380.94
466.073	407.94
466.293	444.94
466.512	459.94
466.732	475.94
466.951	402.94
467.171	425.94
467.391	402.94
467.61	411.94
467.829	404.94
468.049	399.94
468.268	389.94
468.488	386.94
468.707	385.94
468.927	385.94
469.146	379.94
469.365	399.94
469.585	387.94
469.804	387.94
470.023	387.94
470.243	392.94
470.462	378.94
470.681	393.94
470.901	375.94
471.12	369.94
471.339	375.94
471.558	375.94
471.777	370.94
471.997	371.94
472.216	372.94
472.435	355.94
472.654	346.94
472.873	367.94
473.092	353.94
473.311	390.94
473.53	407.94
473.749	445.94
473.968	443.94
474.187	440.94
474.406	424.94
474.625	441.94
474.844	472.94
475.063	427.94
475.282	411.94
475.501	389.94
475.72	371.94
475.939	369.94
476.158	381.94
476.377	371.94
476.596	349.94
476.814	374.94
477.033	380.94
477.252	364.94
477.471	367.94
477.69	404.94
477.908	393.94
478.127	397.94
478.346	392.94
478.564	380.94
478.783	389.94
479.002	406.94
479.22	405.94
479.439	410.94
479.658	388.94
479.876	370.94
480.095	385.94
480.313	391.94
480.532	414.94
480.751	399.94
480.969	364.94
481.188	352.94
481.406	345.94
481.624	353.94
481.843	343.94
482.061	327.94
482.28	361.94
482.498	377.94
482.717	370.94
482.935	380.94
483.153	384.94
483.372	412.94
483.59	396.94
483.808	375.94
484.027	404.94
484.245	409.94
484.463	435.94
484.681	450.94
484.9	431.94
485.118	449.94
485.336	401.94
485.554	383.94
485.772	409.94
485.99	394.94
486.209	386.94
486.427	391.94
486.645	398.94
486.863	445.94
487.081	423.94
487.299	417.94
487.517	448.94
487.735	451.94
487.953	486.94
488.171	442.94
488.389	451.94
488.607	420.94
488.825	411.94
489.043	411.94
489.261	426.94
489.479	421.94
489.696	439.94
489.914	427.94
490.132	429.94
490.35	441.94
490.568	464.94
490.786	447.94
491.003	471.94
491.221	467.94
491.439	479.94
491.657	474.94
491.874	498.94
492.092	491.94
492.31	511.94
492.527	499.94
492.745	496.94
492.963	471.94
493.18	461.94
493.398	464.94
493.615	455.94
493.833	441.94
494.05	459.94
494.268	447.94
494.485	463.94
494.703	464.94
494.92	445.94
495.138	449.94
495.355	458.94
495.573	452.94
495.79	463.94
496.008	449.94
496.225	433.94
496.442	470.94
496.66	473.94
496.877	464.94
497.094	444.94
497.312	473.94
497.529	463.94
497.746	467.94
497.963	451.94
498.181	458.94
498.398	449.94
498.615	469.94
498.832	465.94
499.049	503.94
499.267	513.94
499.484	552.94
499.701	580.94
499.918	651.94
500.135	672.94
500.352	687.94
500.569	692.94
500.786	714.94
501.003	680.94
501.22	628.94
501.437	577.94
501.654	559.94
501.871	532.94
502.088	511.94
502.305	500.94
502.522	491.94
502.739	510.94
