Data from SampC_HRD10591_00046.txt Node
Date: Mon Jan 19 11:37:45 EST 2026
User: Yrep
Spectrometer: HR+D1059
Trigger mode: 0
Integration Time (sec): 3.443000E-1
Scans to average: 1
Electric dark correction enabled: true
Nonlinearity correction enabled: false
Boxcar width: 0
XAxis mode: Wavelengths
Number of Pixels in Spectrum: 2048
>>>>>Begin Spectral Data<<<<<
223.165	-15
223.4	-15
223.635	-15
223.869	-40
224.104	-17
224.338	-5
224.573	-20
224.808	-10
225.042	1
225.277	9
225.511	-5
225.746	3
225.98	1
226.215	6
226.449	24
226.683	12
226.918	22
227.152	34
227.387	38
227.621	54
227.856	47
228.09	49
228.324	37
228.559	81
228.793	79
229.027	94
229.262	81
229.496	81
229.73	83
229.964	85
230.199	91
230.433	88
230.667	91
230.901	98
231.136	106
231.37	102
231.604	115
231.838	100
232.072	121
232.306	115
232.541	109
232.775	99
233.009	110
233.243	106
233.477	112
233.711	113
233.945	107
234.179	108
234.413	110
234.647	124
234.881	106
235.115	115
235.349	121
235.583	120
235.817	111
236.051	126
236.285	126
236.519	124
236.753	156
236.987	152
237.221	201
237.455	210
237.689	191
237.922	176
238.156	131
238.39	131
238.624	116
238.858	113
239.091	110
239.325	112
239.559	104
239.793	111
240.027	120
240.26	107
240.494	114
240.728	115
240.961	120
241.195	122
241.429	118
241.662	98
241.896	118
242.13	110
242.363	100
242.597	106
242.83	101
243.064	113
243.298	111
243.531	105
243.765	114
243.998	121
244.232	116
244.465	113
244.699	137
244.932	120
245.166	126
245.399	127
245.633	121
245.866	118
246.099	114
246.333	123
246.566	101
246.8	126
247.033	127
247.266	113
247.5	113
247.733	113
247.966	117
248.2	132
248.433	126
248.666	120
248.899	118
249.133	126
249.366	122
249.599	121
249.832	124
250.066	133
250.299	100
250.532	116
250.765	119
250.998	117
251.231	125
251.465	133
251.698	127
251.931	153
252.164	121
252.397	105
252.63	136
252.863	115
253.096	124
253.329	137
253.562	131
253.795	132
254.028	147
254.261	140
254.494	152
254.727	145
254.96	129
255.193	145
255.426	136
255.659	138
255.892	137
256.124	144
256.357	147
256.59	174
256.823	191
257.056	233
257.289	243
257.521	253
257.754	267
257.987	268
258.22	203
258.452	163
258.685	173
258.918	166
259.151	126
259.383	157
259.616	142
259.849	147
260.081	148
260.314	149
260.547	142
260.779	145
261.012	166
261.244	134
261.477	163
261.71	156
261.942	164
262.175	159
262.407	166
262.64	174
262.872	177
263.105	178
263.337	211
263.57	213
263.802	189
264.035	180
264.267	165
264.499	170
264.732	192
264.964	168
265.197	177
265.429	203
265.661	209
265.894	210
266.126	220
266.358	236
266.591	209
266.823	190
267.055	176
267.287	180
267.52	161
267.752	144
267.984	156
268.216	170
268.448	160
268.681	158
268.913	163
269.145	145
269.377	177
269.609	158
269.841	157
270.073	157
270.306	169
270.538	164
270.77	156
271.002	153
271.234	171
271.466	161
271.698	175
271.93	164
272.162	178
272.394	188
272.626	146
272.858	136
273.09	183
273.322	181
273.553	147
273.785	164
274.017	161
274.249	175
274.481	182
274.713	171
274.945	179
275.176	180
275.408	175
275.64	173
275.872	171
276.104	184
276.335	176
276.567	190
276.799	172
277.031	176
277.262	192
277.494	193
277.726	206
277.957	216
278.189	212
278.421	233
278.652	229
278.884	251
279.115	328
279.347	416
279.579	569
279.81	633
280.042	513
280.273	500
280.505	487
280.736	330
280.968	259
281.199	257
281.431	315
281.662	395
281.894	444
282.125	364
282.356	306
282.588	260
282.819	236
283.051	236
283.282	216
283.513	223
283.745	209
283.976	219
284.207	208
284.439	197
284.67	197
284.901	222
285.132	253
285.364	272
285.595	258
285.826	209
286.057	217
286.288	203
286.52	193
286.751	188
286.982	188
287.213	195
287.444	188
287.675	194
287.906	197
288.138	204
288.369	197
288.6	204
288.831	185
289.062	193
289.293	206
289.524	215
289.755	204
289.986	189
290.217	208
290.448	198
290.679	213
290.91	205
291.141	217
291.371	213
291.602	191
291.833	203
292.064	229
292.295	205
292.526	216
292.757	230
292.987	227
293.218	223
293.449	205
293.68	238
293.91	204
294.141	230
294.372	213
294.603	212
294.833	191
295.064	199
295.295	197
295.525	200
295.756	198
295.987	203
296.217	212
296.448	213
296.679	190
296.909	197
297.14	223
297.37	229
297.601	209
297.831	198
298.062	212
298.292	194
298.523	219
298.753	206
298.984	215
299.214	211
299.445	212
299.675	217
299.905	221
300.136	211
300.366	218
300.597	238
300.827	218
301.057	219
301.288	209
301.518	250
301.748	214
301.979	257
302.209	263
302.439	248
302.669	246
302.9	253
303.13	250
303.36	261
303.59	251
303.82	258
304.051	291
304.281	289
304.511	315
304.741	307
304.971	337
305.201	402
305.431	428
305.661	500
305.891	547
306.121	511
306.352	458
306.582	465
306.812	462
307.042	433
307.272	416
307.502	445
307.731	584
307.961	795
308.191	1128
308.421	1324
308.651	1102
308.881	1043
309.111	1253
309.341	1574
309.571	1496
309.8	1000
310.03	662
310.26	513
310.49	455
310.72	395
310.949	376
311.179	335
311.409	328
311.639	334
311.868	306
312.098	286
312.328	276
312.557	283
312.787	282
313.017	293
313.246	264
313.476	263
313.706	261
313.935	248
314.165	266
314.394	270
314.624	266
314.853	273
315.083	243
315.312	243
315.542	248
315.771	254
316.001	253
316.23	263
316.46	241
316.689	242
316.919	240
317.148	250
317.377	241
317.607	235
317.836	236
318.065	237
318.295	229
318.524	250
318.753	252
318.983	230
319.212	252
319.441	253
319.67	236
319.9	210
320.129	241
320.358	227
320.587	249
320.816	223
321.046	229
321.275	234
321.504	236
321.733	250
321.962	247
322.191	249
322.42	226
322.649	240
322.878	237
323.108	256
323.337	222
323.566	252
323.795	244
324.024	222
324.253	247
324.482	257
324.71	256
324.939	246
325.168	248
325.397	249
325.626	222
325.855	226
326.084	252
326.313	237
326.542	248
326.77	253
326.999	246
327.228	257
327.457	257
327.686	238
327.914	230
328.143	243
328.372	236
328.6	227
328.829	234
329.058	246
329.287	237
329.515	241
329.744	233
329.972	245
330.201	241
330.43	252
330.658	248
330.887	235
331.115	232
331.344	248
331.572	240
331.801	266
332.03	252
332.258	258
332.486	250
332.715	260
332.943	277
333.172	274
333.4	261
333.629	288
333.857	267
334.085	276
334.314	277
334.542	272
334.771	280
334.999	274
335.227	282
335.455	276
335.684	277
335.912	285
336.14	261
336.369	262
336.597	270
336.825	258
337.053	259
337.281	266
337.51	265
337.738	256
337.966	268
338.194	251
338.422	256
338.65	261
338.878	250
339.106	252
339.334	282
339.562	268
339.79	257
340.018	264
340.246	236
340.474	241
340.702	254
340.93	244
341.158	244
341.386	239
341.614	249
341.842	261
342.07	248
342.298	241
342.526	252
342.754	248
342.981	246
343.209	253
343.437	293
343.665	296
343.893	276
344.12	272
344.348	273
344.576	272
344.804	254
345.031	253
345.259	260
345.487	260
345.714	251
345.942	244
346.17	266
346.397	270
346.625	250
346.853	248
347.08	257
347.308	271
347.535	270
347.763	246
347.99	266
348.218	252
348.445	274
348.673	245
348.9	279
349.128	280
349.355	266
349.583	257
349.81	241
350.037	248
350.265	260
350.492	244
350.72	262
350.947	246
351.174	267
351.402	253
351.629	283
351.856	255
352.083	262
352.311	265
352.538	268
352.765	286
352.992	309
353.22	291
353.447	281
353.674	278
353.901	293
354.128	288
354.355	276
354.583	297
354.81	291
355.037	290
355.264	321
355.491	300
355.718	315
355.945	320
356.172	329
356.399	362
356.626	378
356.853	358
357.08	389
357.307	410
357.534	412
357.761	451
357.988	510
358.215	559
358.441	658
358.668	705
358.895	698
359.122	598
359.349	504
359.576	473
359.802	433
360.029	424
360.256	397
360.483	392
360.709	371
360.936	379
361.163	348
361.39	351
361.616	334
361.843	331
362.07	335
362.296	314
362.523	328
362.749	315
362.976	300
363.203	319
363.429	309
363.656	293
363.882	274
364.109	286
364.335	297
364.562	279
364.788	281
365.015	275
365.241	282
365.468	287
365.694	277
365.92	283
366.147	290
366.373	255
366.599	285
366.826	280
367.052	253
367.278	292
367.505	261
367.731	293
367.957	282
368.184	281
368.41	267
368.636	269
368.862	291
369.089	279
369.315	270
369.541	295
369.767	260
369.993	261
370.219	261
370.445	275
370.672	266
370.898	283
371.124	299
371.35	270
371.576	272
371.802	283
372.028	270
372.254	302
372.48	284
372.706	293
372.932	296
373.158	289
373.384	271
373.61	309
373.835	301
374.061	285
374.287	306
374.513	302
374.739	283
374.965	287
375.191	293
375.416	281
375.642	288
375.868	292
376.094	301
376.319	292
376.545	280
376.771	281
376.997	294
377.222	282
377.448	275
377.674	262
377.899	257
378.125	288
378.35	274
378.576	286
378.802	286
379.027	286
379.253	303
379.478	276
379.704	274
379.929	269
380.155	280
380.38	278
380.606	296
380.831	288
381.057	302
381.282	306
381.507	286
381.733	314
381.958	304
382.184	306
382.409	308
382.634	338
382.86	341
383.085	363
383.31	381
383.535	368
383.761	376
383.986	377
384.211	334
384.436	317
384.662	314
384.887	313
385.112	317
385.337	328
385.562	314
385.787	327
386.013	339
386.238	330
386.463	347
386.688	358
386.913	353
387.138	336
387.363	326
387.588	335
387.813	333
388.038	341
388.263	344
388.488	356
388.713	353
388.938	314
389.163	325
389.387	337
389.612	345
389.837	330
390.062	345
390.287	354
390.512	337
390.736	351
390.961	358
391.186	346
391.411	361
391.636	357
391.86	357
392.085	380
392.31	379
392.534	390
392.759	398
392.984	409
393.208	458
393.433	483
393.658	524
393.882	663
394.107	1000
394.331	1738
394.556	2276
394.78	1555
395.005	949
395.229	750
395.454	760
395.678	932
395.903	1496
396.127	2456
396.352	2946
396.576	1816
396.801	1062
397.025	788
397.249	670
397.474	608
397.698	547
397.922	505
398.147	493
398.371	473
398.595	482
398.82	454
399.044	472
399.268	456
399.492	475
399.717	501
399.941	477
400.165	459
400.389	433
400.613	418
400.837	414
401.062	415
401.286	406
401.51	390
401.734	398
401.958	390
402.182	392
402.406	381
402.63	399
402.854	415
403.078	425
403.302	397
403.526	403
403.75	413
403.974	412
404.198	391
404.422	389
404.645	419
404.869	404
405.093	401
405.317	385
405.541	372
405.765	397
405.988	393
406.212	412
406.436	421
406.66	413
406.883	392
407.107	420
407.331	415
407.555	421
407.778	424
408.002	415
408.226	415
408.449	420
408.673	389
408.896	408
409.12	416
409.344	423
409.567	378
409.791	410
410.014	398
410.238	410
410.461	386
410.685	381
410.908	379
411.132	401
411.355	356
411.578	388
411.802	385
412.025	378
412.249	383
412.472	385
412.695	377
412.919	389
413.142	389
413.365	385
413.589	395
413.812	385
414.035	390
414.258	404
414.482	358
414.705	374
414.928	398
415.151	352
415.374	383
415.597	379
415.821	378
416.044	363
416.267	395
416.49	381
416.713	410
416.936	361
417.159	387
417.382	373
417.605	375
417.828	396
418.051	356
418.274	374
418.497	377
418.72	374
418.943	369
419.166	387
419.389	399
419.611	417
419.834	396
420.057	377
420.28	389
420.503	395
420.726	381
420.948	360
421.171	387
421.394	393
421.617	405
421.839	384
422.062	396
422.285	371
422.507	387
422.73	401
422.953	376
423.175	388
423.398	398
423.621	402
423.843	389
424.066	408
424.288	417
424.511	406
424.733	412
424.956	376
425.178	403
425.401	396
425.623	395
425.846	372
426.068	377
426.291	373
426.513	375
426.735	394
426.958	374
427.18	345
427.402	378
427.625	380
427.847	351
428.069	345
428.292	382
428.514	384
428.736	362
428.958	386
429.181	374
429.403	370
429.625	348
429.847	357
430.069	355
430.292	353
430.514	345
430.736	351
430.958	376
431.18	346
431.402	340
431.624	354
431.846	317
432.068	323
432.29	328
432.512	331
432.734	360
432.956	366
433.178	386
433.4	367
433.622	385
433.844	373
434.066	373
434.287	329
434.509	331
434.731	345
434.953	353
435.175	380
435.397	377
435.618	342
435.84	321
436.062	352
436.284	357
436.505	367
436.727	381
436.949	337
437.17	368
437.392	351
437.614	334
437.835	320
438.057	349
438.278	362
438.5	350
438.721	361
438.943	380
439.165	382
439.386	381
439.608	384
439.829	388
440.05	384
440.272	388
440.493	392
440.715	396
440.936	386
441.158	385
441.379	411
441.6	406
441.822	435
442.043	403
442.264	417
442.486	397
442.707	409
442.928	378
443.149	389
443.371	404
443.592	394
443.813	393
444.034	390
444.255	424
444.476	426
444.698	426
444.919	427
445.14	670
445.361	532
445.582	417
445.803	397
446.024	383
446.245	405
446.466	405
446.687	392
446.908	388
447.129	370
447.35	390
447.571	400
447.792	382
448.013	366
448.234	405
448.455	396
448.675	388
448.896	373
449.117	356
449.338	358
449.559	364
449.779	362
450	354
450.221	369
450.442	382
450.662	357
450.883	342
451.104	350
451.324	358
451.545	358
451.766	366
451.986	338
452.207	347
452.428	356
452.648	375
452.869	353
453.089	354
453.31	347
453.53	338
453.751	342
453.971	356
454.192	354
454.412	339
454.633	327
454.853	356
455.073	353
455.294	338
455.514	346
455.734	337
455.955	332
456.175	325
456.395	323
456.616	320
456.836	319
457.056	316
457.276	305
457.497	324
457.717	302
457.937	314
458.157	321
458.377	313
458.598	315
458.818	328
459.038	314
459.258	322
459.478	328
459.698	330
459.918	351
460.138	347
460.358	362
460.578	368
460.798	367
461.018	374
461.238	373
461.458	373
461.678	369
461.898	363
462.118	397
462.338	386
462.558	392
462.777	419
462.997	423
463.217	443
463.437	433
463.657	392
463.876	391
464.096	411
464.316	407
464.536	404
464.755	402
464.975	381
465.195	394
465.414	383
465.634	379
465.854	385
466.073	426
466.293	433
466.512	451
466.732	443
466.951	416
467.171	426
467.391	414
467.61	390
467.829	396
468.049	398
468.268	376
468.488	394
468.707	366
468.927	358
469.146	380
469.365	373
469.585	386
469.804	376
470.023	387
470.243	371
470.462	377
470.681	394
470.901	362
471.12	383
471.339	388
471.558	382
471.777	387
471.997	356
472.216	363
472.435	340
472.654	349
472.873	360
473.092	365
473.311	381
473.53	397
473.749	432
473.968	427
474.187	425
474.406	421
474.625	438
474.844	454
475.063	423
475.282	403
475.501	380
475.72	388
475.939	356
476.158	373
476.377	380
476.596	372
476.814	364
477.033	350
477.252	352
477.471	342
477.69	393
477.908	398
478.127	410
478.346	405
478.564	402
478.783	394
479.002	395
479.22	397
479.439	396
479.658	383
479.876	368
480.095	357
480.313	392
480.532	406
480.751	371
480.969	350
481.188	348
481.406	369
481.624	340
481.843	331
482.061	347
482.28	347
482.498	377
482.717	338
482.935	369
483.153	366
483.372	397
483.59	408
483.808	373
484.027	382
484.245	388
484.463	434
484.681	428
484.9	421
485.118	410
485.336	395
485.554	377
485.772	382
485.99	363
486.209	381
486.427	372
486.645	387
486.863	423
487.081	425
487.299	416
487.517	426
487.735	436
487.953	457
488.171	483
488.389	452
488.607	418
488.825	410
489.043	378
489.261	403
489.479	405
489.696	426
489.914	411
490.132	411
490.35	409
490.568	431
490.786	445
491.003	421
491.221	447
491.439	474
491.657	482
491.874	477
492.092	499
492.31	547
492.527	501
492.745	480
492.963	466
493.18	441
493.398	476
493.615	458
493.833	450
494.05	439
494.268	465
494.485	447
494.703	439
494.92	476
495.138	438
495.355	454
495.573	478
495.79	449
496.008	443
496.225	463
496.442	441
496.66	467
496.877	476
497.094	473
497.312	464
497.529	448
497.746	461
497.963	464
498.181	453
498.398	458
498.615	474
498.832	474
499.049	497
499.267	518
499.484	521
499.701	588
499.918	608
500.135	644
500.352	690
500.569	675
500.786	686
501.003	646
501.22	598
501.437	592
501.654	551
501.871	520
502.088	490
502.305	490
502.522	444
502.739	464
502.956	453
503.172	430
503.389	422
503.606	429
503.823	442
504.04	428
504.256	424
504.473	432
504.69	454
504.907	411
505.123	386
505.34	372
505.557	398
505.773	394
505.99	380
506.207	383
506.423	382
506.64	362
506.856	357
507.073	350
507.289	370
507.506	356
507.722	356
507.939	345
508.155	369
508.372	358
508.588	361
508.805	320
509.021	330
509.238	334
509.454	340
509.67	337
509.887	337
510.103	344
510.319	325
510.536	342
510.752	329
510.968	330
511.184	330
511.401	334
511.617	323
511.833	338
512.049	338
512.265	331
512.481	332
512.698	354
512.914	334
513.13	336
513.346	329
513.562	334
513.778	374
513.994	376
514.21	354
514.426	352
514.642	325
514.858	357
515.074	366
515.29	428
515.506	392
515.721	392
515.937	379
516.153	366
516.369	347
516.585	353
516.801	388
517.016	398
517.232	408
517.448	438
517.664	415
517.879	389
518.095	402
518.311	377
518.527	442
518.742	410
518.958	370
519.173	373
519.389	353
519.605	354
519.82	346
520.036	353
520.251	346
520.467	351
520.682	337
520.898	320
521.113	338
521.329	327
521.544	319
521.76	324
521.975	339
522.19	314
522.406	320
522.621	332
522.836	310
523.052	324
523.267	314
523.482	305
523.698	323
523.913	339
524.128	335
524.343	325
524.559	312
524.774	318
524.989	343
525.204	339
525.419	328
525.634	329
525.849	324
526.064	310
526.28	330
526.495	324
526.71	308
526.925	322
527.14	310
527.355	305
527.57	300
527.785	305
527.999	304
528.214	307
528.429	313
528.644	322
528.859	350
529.074	357
529.289	349
529.503	335
529.718	329
529.933	310
530.148	301
530.363	297
530.577	294
530.792	305
531.007	308
531.221	291
531.436	292
531.651	305
531.865	310
532.08	311
532.295	328
532.509	320
532.724	304
532.938	297
533.153	308
533.367	318
533.582	316
533.796	315
534.011	313
534.225	299
534.44	287
534.654	292
534.868	277
535.083	313
535.297	298
535.511	282
535.726	309
535.94	299
536.154	298
536.369	279
536.583	277
536.797	277
537.011	278
537.225	304
537.44	296
537.654	284
537.868	288
538.082	278
538.296	280
538.51	280
538.724	294
538.938	318
539.153	321
539.367	310
539.581	290
539.795	282
540.009	289
540.222	276
540.436	278
540.65	295
540.864	320
541.078	314
541.292	323
541.506	340
541.72	372
541.934	365
542.147	377
542.361	363
542.575	348
542.789	331
543.002	316
543.216	307
543.43	302
543.644	315
543.857	330
544.071	337
544.285	356
544.498	344
544.712	358
544.925	352
545.139	358
545.352	361
545.566	350
545.779	353
545.993	369
546.206	355
546.42	345
546.633	377
546.847	371
547.06	364
547.274	368
547.487	364
547.7	356
547.914	352
548.127	342
548.34	355
548.554	346
548.767	348
548.98	344
549.193	350
549.407	338
549.62	364
549.833	358
550.046	340
550.259	348
550.473	354
550.686	343
550.899	343
551.112	341
551.325	334
551.538	332
551.751	306
551.964	284
552.177	308
552.39	306
552.603	350
552.816	342
553.029	347
553.242	352
553.455	362
553.667	369
553.88	364
554.093	358
554.306	339
554.519	321
554.732	320
554.944	331
555.157	324
555.37	332
555.583	329
555.795	322
556.008	304
556.221	304
556.433	321
556.646	313
556.859	309
557.071	307
557.284	300
557.496	321
557.709	322
557.921	323
558.134	326
558.346	305
558.559	318
558.771	336
558.984	337
559.196	363
559.409	408
559.621	352
559.833	326
560.046	316
560.258	324
560.47	333
560.683	352
560.895	352
561.107	329
561.32	301
561.532	298
561.744	295
561.956	316
562.168	309
562.381	276
562.593	286
562.805	318
563.017	291
563.229	301
563.441	315
563.653	303
563.865	301
564.077	302
564.289	311
564.501	304
