Data from SampC_HRD10591_00012.txt Node
Date: Mon Jan 19 11:37:33 EST 2026
User: Yrep
Spectrometer: HR+D1059
Trigger mode: 0
Integration Time (sec): 3.443000E-1
Scans to average: 1
Electric dark correction enabled: true
Nonlinearity correction enabled: false
Boxcar width: 0
XAxis mode: Wavelengths
Number of Pixels in Spectrum: 2048
>>>>>Begin Spectral Data<<<<<
223.165	-14.75
223.4	-14.75
223.635	-14.75
223.869	-26.75
224.104	-26.75
224.338	-17.75
224.573	-14.75
224.808	-11.75
225.042	-12.75
225.277	1.25
225.511	6.25
225.746	-1.75
225.98	17.25
226.215	-6.75
226.449	27.25
226.683	19.25
226.918	22.25
227.152	40.25
227.387	30.25
227.621	25.25
227.856	40.25
228.09	43.25
228.324	32.25
228.559	59.25
228.793	59.25
229.027	89.25
229.262	99.25
229.496	90.25
229.73	91.25
229.964	90.25
230.199	110.25
230.433	102.25
230.667	119.25
230.901	109.25
231.136	117.25
231.37	110.25
231.604	134.25
231.838	131.25
232.072	133.25
232.306	125.25
232.541	107.25
232.775	122.25
233.009	117.25
233.243	113.25
233.477	117.25
233.711	120.25
233.945	121.25
234.179	112.25
234.413	117.25
234.647	121.25
234.881	126.25
235.115	129.25
235.349	124.25
235.583	133.25
235.817	127.25
236.051	125.25
236.285	144.25
236.519	157.25
236.753	164.25
236.987	229.25
237.221	267.25
237.455	265.25
237.689	260.25
237.922	212.25
238.156	152.25
238.39	143.25
238.624	146.25
238.858	128.25
239.091	134.25
239.325	120.25
239.559	122.25
239.793	125.25
240.027	126.25
240.26	118.25
240.494	133.25
240.728	140.25
240.961	119.25
241.195	127.25
241.429	135.25
241.662	116.25
241.896	137.25
242.13	124.25
242.363	122.25
242.597	113.25
242.83	138.25
243.064	121.25
243.298	135.25
243.531	129.25
243.765	135.25
243.998	115.25
244.232	141.25
244.465	119.25
244.699	125.25
244.932	129.25
245.166	133.25
245.399	138.25
245.633	139.25
245.866	133.25
246.099	148.25
246.333	161.25
246.566	161.25
246.8	142.25
247.033	150.25
247.266	151.25
247.5	135.25
247.733	149.25
247.966	138.25
248.2	138.25
248.433	146.25
248.666	148.25
248.899	152.25
249.133	159.25
249.366	159.25
249.599	149.25
249.832	116.25
250.066	150.25
250.299	134.25
250.532	160.25
250.765	148.25
250.998	136.25
251.231	147.25
251.465	149.25
251.698	161.25
251.931	152.25
252.164	172.25
252.397	170.25
252.63	165.25
252.863	173.25
253.096	169.25
253.329	167.25
253.562	166.25
253.795	169.25
254.028	175.25
254.261	172.25
254.494	150.25
254.727	170.25
254.96	162.25
255.193	162.25
255.426	162.25
255.659	159.25
255.892	186.25
256.124	181.25
256.357	187.25
256.59	206.25
256.823	233.25
257.056	300.25
257.289	302.25
257.521	320.25
257.754	373.25
257.987	367.25
258.22	260.25
258.452	229.25
258.685	224.25
258.918	196.25
259.151	207.25
259.383	209.25
259.616	190.25
259.849	186.25
260.081	193.25
260.314	200.25
260.547	188.25
260.779	173.25
261.012	164.25
261.244	188.25
261.477	191.25
261.71	207.25
261.942	203.25
262.175	216.25
262.407	212.25
262.64	222.25
262.872	218.25
263.105	257.25
263.337	312.25
263.57	319.25
263.802	293.25
264.035	268.25
264.267	263.25
264.499	245.25
264.732	243.25
264.964	230.25
265.197	250.25
265.429	281.25
265.661	293.25
265.894	273.25
266.126	321.25
266.358	334.25
266.591	293.25
266.823	246.25
267.055	223.25
267.287	241.25
267.52	221.25
267.752	212.25
267.984	212.25
268.216	203.25
268.448	214.25
268.681	211.25
268.913	214.25
269.145	205.25
269.377	205.25
269.609	198.25
269.841	204.25
270.073	200.25
270.306	207.25
270.538	210.25
270.77	214.25
271.002	202.25
271.234	215.25
271.466	225.25
271.698	213.25
271.93	203.25
272.162	202.25
272.394	218.25
272.626	216.25
272.858	230.25
273.09	227.25
273.322	222.25
273.553	224.25
273.785	225.25
274.017	235.25
274.249	212.25
274.481	234.25
274.713	231.25
274.945	241.25
275.176	227.25
275.408	237.25
275.64	246.25
275.872	225.25
276.104	228.25
276.335	237.25
276.567	241.25
276.799	236.25
277.031	245.25
277.262	218.25
277.494	257.25
277.726	265.25
277.957	276.25
278.189	291.25
278.421	306.25
278.652	316.25
278.884	365.25
279.115	470.25
279.347	721.25
279.579	980.25
279.81	1146.25
280.042	889.25
280.273	849.25
280.505	812.25
280.736	547.25
280.968	411.25
281.199	407.25
281.431	503.25
281.662	648.25
281.894	736.25
282.125	585.25
282.356	443.25
282.588	393.25
282.819	347.25
283.051	329.25
283.282	311.25
283.513	303.25
283.745	297.25
283.976	270.25
284.207	300.25
284.439	282.25
284.67	293.25
284.901	318.25
285.132	358.25
285.364	399.25
285.595	353.25
285.826	287.25
286.057	281.25
286.288	286.25
286.52	277.25
286.751	266.25
286.982	268.25
287.213	268.25
287.444	250.25
287.675	268.25
287.906	274.25
288.138	288.25
288.369	288.25
288.6	279.25
288.831	269.25
289.062	274.25
289.293	265.25
289.524	245.25
289.755	252.25
289.986	264.25
290.217	260.25
290.448	272.25
290.679	283.25
290.91	269.25
291.141	276.25
291.371	282.25
291.602	293.25
291.833	271.25
292.064	294.25
292.295	310.25
292.526	308.25
292.757	310.25
292.987	341.25
293.218	328.25
293.449	321.25
293.68	335.25
293.91	309.25
294.141	319.25
294.372	277.25
294.603	302.25
294.833	290.25
295.064	286.25
295.295	293.25
295.525	281.25
295.756	313.25
295.987	264.25
296.217	265.25
296.448	278.25
296.679	280.25
296.909	288.25
297.14	286.25
297.37	299.25
297.601	287.25
297.831	293.25
298.062	286.25
298.292	294.25
298.523	300.25
298.753	295.25
298.984	281.25
299.214	294.25
299.445	290.25
299.675	284.25
299.905	291.25
300.136	305.25
300.366	281.25
300.597	301.25
300.827	296.25
301.057	299.25
301.288	306.25
301.518	304.25
301.748	331.25
301.979	346.25
302.209	319.25
302.439	331.25
302.669	336.25
302.9	351.25
303.13	369.25
303.36	353.25
303.59	362.25
303.82	384.25
304.051	393.25
304.281	431.25
304.511	430.25
304.741	440.25
304.971	521.25
305.201	625.25
305.431	704.25
305.661	792.25
305.891	859.25
306.121	780.25
306.352	691.25
306.582	743.25
306.812	708.25
307.042	629.25
307.272	611.25
307.502	693.25
307.731	917.25
307.961	1313.25
308.191	1866.25
308.421	2214.25
308.651	1829.25
308.881	1694.25
309.111	2139.25
309.341	2692.25
309.571	2604.25
309.8	1598.25
310.03	1035.25
310.26	814.25
310.49	646.25
310.72	617.25
310.949	556.25
311.179	518.25
311.409	460.25
311.639	434.25
311.868	455.25
312.098	450.25
312.328	406.25
312.557	411.25
312.787	394.25
313.017	398.25
313.246	407.25
313.476	381.25
313.706	385.25
313.935	360.25
314.165	354.25
314.394	360.25
314.624	370.25
314.853	365.25
315.083	356.25
315.312	350.25
315.542	352.25
315.771	351.25
316.001	352.25
316.23	367.25
316.46	355.25
316.689	344.25
316.919	346.25
317.148	337.25
317.377	354.25
317.607	350.25
317.836	338.25
318.065	334.25
318.295	341.25
318.524	346.25
318.753	355.25
318.983	328.25
319.212	352.25
319.441	337.25
319.67	337.25
319.9	341.25
320.129	331.25
320.358	316.25
320.587	318.25
320.816	337.25
321.046	328.25
321.275	337.25
321.504	346.25
321.733	351.25
321.962	332.25
322.191	345.25
322.42	335.25
322.649	301.25
322.878	316.25
323.108	352.25
323.337	349.25
323.566	353.25
323.795	367.25
324.024	365.25
324.253	362.25
324.482	351.25
324.71	357.25
324.939	363.25
325.168	352.25
325.397	339.25
325.626	331.25
325.855	350.25
326.084	338.25
326.313	347.25
326.542	352.25
326.77	352.25
326.999	348.25
327.228	349.25
327.457	358.25
327.686	364.25
327.914	347.25
328.143	350.25
328.372	352.25
328.6	350.25
328.829	341.25
329.058	345.25
329.287	359.25
329.515	332.25
329.744	361.25
329.972	367.25
330.201	360.25
330.43	365.25
330.658	374.25
330.887	366.25
331.115	385.25
331.344	379.25
331.572	386.25
331.801	383.25
332.03	376.25
332.258	352.25
332.486	382.25
332.715	383.25
332.943	383.25
333.172	393.25
333.4	399.25
333.629	404.25
333.857	427.25
334.085	430.25
334.314	405.25
334.542	417.25
334.771	413.25
334.999	397.25
335.227	400.25
335.455	400.25
335.684	384.25
335.912	394.25
336.14	386.25
336.369	376.25
336.597	396.25
336.825	377.25
337.053	387.25
337.281	393.25
337.51	398.25
337.738	385.25
337.966	390.25
338.194	386.25
338.422	375.25
338.65	385.25
338.878	390.25
339.106	374.25
339.334	383.25
339.562	381.25
339.79	369.25
340.018	347.25
340.246	372.25
340.474	371.25
340.702	379.25
340.93	373.25
341.158	378.25
341.386	376.25
341.614	380.25
341.842	381.25
342.07	375.25
342.298	374.25
342.526	363.25
342.754	359.25
342.981	392.25
343.209	382.25
343.437	425.25
343.665	396.25
343.893	418.25
344.12	429.25
344.348	423.25
344.576	394.25
344.804	398.25
345.031	390.25
345.259	409.25
345.487	380.25
345.714	388.25
345.942	376.25
346.17	374.25
346.397	369.25
346.625	388.25
346.853	377.25
347.08	378.25
347.308	374.25
347.535	369.25
347.763	385.25
347.99	389.25
348.218	404.25
348.445	383.25
348.673	364.25
348.9	389.25
349.128	393.25
349.355	380.25
349.583	406.25
349.81	380.25
350.037	398.25
350.265	388.25
350.492	383.25
350.72	386.25
350.947	405.25
351.174	404.25
351.402	397.25
351.629	390.25
351.856	397.25
352.083	399.25
352.311	399.25
352.538	420.25
352.765	411.25
352.992	415.25
353.22	418.25
353.447	424.25
353.674	418.25
353.901	444.25
354.128	461.25
354.355	415.25
354.583	453.25
354.81	463.25
355.037	460.25
355.264	508.25
355.491	483.25
355.718	512.25
355.945	519.25
356.172	513.25
356.399	538.25
356.626	559.25
356.853	608.25
357.08	633.25
357.307	658.25
357.534	738.25
357.761	797.25
357.988	902.25
358.215	1062.25
358.441	1220.25
358.668	1367.25
358.895	1343.25
359.122	1073.25
359.349	924.25
359.576	790.25
359.802	717.25
360.029	682.25
360.256	636.25
360.483	618.25
360.709	603.25
360.936	598.25
361.163	576.25
361.39	542.25
361.616	537.25
361.843	528.25
362.07	519.25
362.296	519.25
362.523	503.25
362.749	482.25
362.976	471.25
363.203	473.25
363.429	482.25
363.656	445.25
363.882	446.25
364.109	466.25
364.335	446.25
364.562	438.25
364.788	431.25
365.015	434.25
365.241	425.25
365.468	419.25
365.694	435.25
365.92	421.25
366.147	413.25
366.373	409.25
366.599	430.25
366.826	429.25
367.052	419.25
367.278	415.25
367.505	397.25
367.731	437.25
367.957	417.25
368.184	407.25
368.41	409.25
368.636	416.25
368.862	436.25
369.089	397.25
369.315	415.25
369.541	415.25
369.767	428.25
369.993	435.25
370.219	412.25
370.445	421.25
370.672	437.25
370.898	420.25
371.124	433.25
371.35	412.25
371.576	440.25
371.802	437.25
372.028	420.25
372.254	431.25
372.48	449.25
372.706	437.25
372.932	439.25
373.158	428.25
373.384	437.25
373.61	445.25
373.835	415.25
374.061	408.25
374.287	428.25
374.513	432.25
374.739	444.25
374.965	437.25
375.191	456.25
375.416	420.25
375.642	433.25
375.868	441.25
376.094	436.25
376.319	405.25
376.545	421.25
376.771	410.25
376.997	415.25
377.222	433.25
377.448	419.25
377.674	421.25
377.899	432.25
378.125	411.25
378.35	433.25
378.576	414.25
378.802	435.25
379.027	435.25
379.253	439.25
379.478	441.25
379.704	422.25
379.929	426.25
380.155	442.25
380.38	418.25
380.606	428.25
380.831	456.25
381.057	441.25
381.282	438.25
381.507	453.25
381.733	464.25
381.958	462.25
382.184	480.25
382.409	494.25
382.634	503.25
382.86	528.25
383.085	544.25
383.31	581.25
383.535	598.25
383.761	580.25
383.986	594.25
384.211	537.25
384.436	484.25
384.662	496.25
384.887	501.25
385.112	480.25
385.337	506.25
385.562	488.25
385.787	494.25
386.013	501.25
386.238	524.25
386.463	518.25
386.688	553.25
386.913	508.25
387.138	509.25
387.363	526.25
387.588	492.25
387.813	501.25
388.038	507.25
388.263	494.25
388.488	501.25
388.713	525.25
388.938	510.25
389.163	484.25
389.387	526.25
389.612	497.25
389.837	503.25
390.062	513.25
390.287	532.25
390.512	518.25
390.736	531.25
390.961	534.25
391.186	528.25
391.411	534.25
391.636	541.25
391.86	566.25
392.085	571.25
392.31	559.25
392.534	583.25
392.759	605.25
392.984	615.25
393.208	661.25
393.433	743.25
393.658	824.25
393.882	1006.25
394.107	1691.25
394.331	2972.25
394.556	3977.25
394.78	2716.25
395.005	1530.25
395.229	1194.25
395.454	1200.25
395.678	1484.25
395.903	2558.25
396.127	4413.25
396.352	5228.25
396.576	3147.25
396.801	1770.25
397.025	1289.25
397.249	1003.25
397.474	909.25
397.698	829.25
397.922	786.25
398.147	719.25
398.371	722.25
398.595	702.25
398.82	702.25
399.044	696.25
399.268	737.25
399.492	753.25
399.717	754.25
399.941	750.25
400.165	702.25
400.389	678.25
400.613	648.25
400.837	626.25
401.062	607.25
401.286	625.25
401.51	617.25
401.734	594.25
401.958	588.25
402.182	592.25
402.406	572.25
402.63	614.25
402.854	614.25
403.078	621.25
403.302	635.25
403.526	623.25
403.75	639.25
403.974	595.25
404.198	615.25
404.422	605.25
404.645	607.25
404.869	592.25
405.093	601.25
405.317	598.25
405.541	605.25
405.765	593.25
405.988	572.25
406.212	605.25
406.436	630.25
406.66	622.25
406.883	621.25
407.107	641.25
407.331	688.25
407.555	652.25
407.778	609.25
408.002	625.25
408.226	646.25
408.449	628.25
408.673	605.25
408.896	586.25
409.12	597.25
409.344	609.25
409.567	616.25
409.791	599.25
410.014	615.25
410.238	605.25
410.461	578.25
410.685	588.25
410.908	569.25
411.132	575.25
411.355	581.25
411.578	583.25
411.802	560.25
412.025	597.25
412.249	613.25
412.472	593.25
412.695	555.25
412.919	560.25
413.142	582.25
413.365	590.25
413.589	593.25
413.812	556.25
414.035	573.25
414.258	580.25
414.482	588.25
414.705	585.25
414.928	585.25
415.151	567.25
415.374	577.25
415.597	582.25
415.821	550.25
416.044	576.25
416.267	569.25
416.49	583.25
416.713	559.25
416.936	577.25
417.159	556.25
417.382	576.25
417.605	566.25
417.828	578.25
418.051	551.25
418.274	572.25
418.497	588.25
418.72	567.25
418.943	572.25
419.166	583.25
419.389	608.25
419.611	609.25
419.834	586.25
420.057	588.25
420.28	600.25
420.503	573.25
420.726	587.25
420.948	576.25
421.171	560.25
421.394	584.25
421.617	568.25
421.839	583.25
422.062	560.25
422.285	576.25
422.507	580.25
422.73	594.25
422.953	592.25
423.175	573.25
423.398	586.25
423.621	584.25
423.843	589.25
424.066	612.25
424.288	591.25
424.511	592.25
424.733	592.25
424.956	582.25
425.178	582.25
425.401	585.25
425.623	597.25
425.846	566.25
426.068	584.25
426.291	558.25
426.513	572.25
426.735	575.25
426.958	550.25
427.18	558.25
427.402	572.25
427.625	562.25
427.847	522.25
428.069	552.25
428.292	553.25
428.514	560.25
428.736	550.25
428.958	539.25
429.181	510.25
429.403	538.25
429.625	546.25
429.847	533.25
430.069	551.25
430.292	540.25
430.514	518.25
430.736	546.25
430.958	547.25
431.18	520.25
431.402	516.25
431.624	518.25
431.846	511.25
432.068	503.25
432.29	516.25
432.512	526.25
432.734	534.25
432.956	550.25
433.178	562.25
433.4	542.25
433.622	559.25
433.844	546.25
434.066	530.25
434.287	504.25
434.509	513.25
434.731	556.25
434.953	546.25
435.175	567.25
435.397	583.25
435.618	540.25
435.84	544.25
436.062	546.25
436.284	567.25
436.505	554.25
436.727	544.25
436.949	554.25
437.17	534.25
437.392	531.25
437.614	504.25
437.835	478.25
438.057	511.25
438.278	507.25
438.5	537.25
438.721	543.25
438.943	512.25
439.165	532.25
439.386	534.25
439.608	576.25
439.829	569.25
440.05	555.25
440.272	571.25
440.493	558.25
440.715	567.25
440.936	580.25
441.158	592.25
441.379	590.25
441.6	604.25
441.822	597.25
442.043	613.25
442.264	600.25
442.486	608.25
442.707	597.25
442.928	580.25
443.149	606.25
443.371	571.25
443.592	593.25
443.813	591.25
444.034	571.25
444.255	601.25
444.476	619.25
444.698	650.25
444.919	652.25
445.14	866.25
445.361	712.25
445.582	607.25
445.803	584.25
446.024	592.25
446.245	600.25
446.466	590.25
446.687	576.25
446.908	604.25
447.129	587.25
447.35	567.25
447.571	566.25
447.792	585.25
448.013	565.25
448.234	574.25
448.455	568.25
448.675	562.25
448.896	540.25
449.117	534.25
449.338	520.25
449.559	527.25
449.779	525.25
450	559.25
450.221	524.25
450.442	547.25
450.662	528.25
450.883	533.25
451.104	557.25
451.324	537.25
451.545	528.25
451.766	560.25
451.986	531.25
452.207	531.25
452.428	547.25
452.648	557.25
452.869	535.25
453.089	536.25
453.31	527.25
453.53	523.25
453.751	546.25
453.971	542.25
454.192	526.25
454.412	522.25
454.633	512.25
454.853	529.25
455.073	498.25
455.294	529.25
455.514	535.25
455.734	486.25
455.955	481.25
456.175	482.25
456.395	476.25
456.616	488.25
456.836	488.25
457.056	471.25
457.276	464.25
457.497	467.25
457.717	467.25
457.937	469.25
458.157	481.25
458.377	484.25
458.598	473.25
458.818	484.25
459.038	475.25
459.258	479.25
459.478	513.25
459.698	517.25
459.918	547.25
460.138	552.25
460.358	568.25
460.578	587.25
460.798	555.25
461.018	568.25
461.238	550.25
461.458	568.25
461.678	565.25
461.898	598.25
462.118	581.25
462.338	605.25
462.558	626.25
462.777	625.25
462.997	664.25
463.217	673.25
463.437	650.25
463.657	623.25
463.876	625.25
464.096	610.25
464.316	631.25
464.536	675.25
464.755	648.25
464.975	619.25
465.195	612.25
465.414	567.25
465.634	572.25
465.854	597.25
466.073	643.25
466.293	692.25
466.512	750.25
466.732	712.25
466.951	678.25
467.171	647.25
467.391	641.25
467.61	610.25
467.829	607.25
468.049	589.25
468.268	568.25
468.488	579.25
468.707	552.25
468.927	576.25
469.146	583.25
469.365	588.25
469.585	575.25
469.804	581.25
470.023	580.25
470.243	569.25
470.462	565.25
470.681	593.25
470.901	577.25
471.12	566.25
471.339	556.25
471.558	558.25
471.777	573.25
471.997	546.25
472.216	562.25
472.435	526.25
472.654	516.25
472.873	531.25
473.092	562.25
473.311	605.25
473.53	637.25
473.749	657.25
473.968	679.25
474.187	640.25
474.406	652.25
474.625	675.25
474.844	703.25
475.063	692.25
475.282	638.25
475.501	569.25
475.72	580.25
475.939	573.25
476.158	563.25
476.377	544.25
476.596	572.25
476.814	547.25
477.033	534.25
477.252	544.25
477.471	562.25
477.69	571.25
477.908	573.25
478.127	603.25
478.346	586.25
478.564	576.25
478.783	607.25
479.002	613.25
479.22	605.25
479.439	598.25
479.658	602.25
479.876	587.25
480.095	573.25
480.313	568.25
480.532	590.25
480.751	602.25
480.969	576.25
481.188	550.25
481.406	543.25
481.624	547.25
481.843	529.25
482.061	545.25
482.28	546.25
482.498	534.25
482.717	550.25
482.935	562.25
483.153	577.25
483.372	586.25
483.59	584.25
483.808	597.25
484.027	581.25
484.245	597.25
484.463	664.25
484.681	724.25
484.9	653.25
485.118	645.25
485.336	616.25
485.554	630.25
485.772	602.25
485.99	619.25
486.209	606.25
486.427	621.25
486.645	634.25
486.863	686.25
487.081	659.25
487.299	653.25
487.517	647.25
487.735	685.25
487.953	698.25
488.171	708.25
488.389	689.25
488.607	660.25
488.825	616.25
489.043	645.25
489.261	639.25
489.479	623.25
489.696	629.25
489.914	641.25
490.132	635.25
490.35	671.25
490.568	658.25
490.786	662.25
491.003	678.25
491.221	674.25
491.439	697.25
491.657	684.25
491.874	716.25
492.092	761.25
492.31	754.25
492.527	737.25
492.745	700.25
492.963	697.25
493.18	697.25
493.398	690.25
493.615	688.25
493.833	683.25
494.05	678.25
494.268	665.25
494.485	668.25
494.703	644.25
494.92	641.25
495.138	686.25
495.355	680.25
495.573	657.25
495.79	671.25
496.008	712.25
496.225	666.25
496.442	661.25
496.66	681.25
496.877	681.25
497.094	691.25
497.312	674.25
497.529	696.25
497.746	676.25
497.963	698.25
498.181	681.25
498.398	710.25
498.615	728.25
498.832	764.25
499.049	795.25
499.267	841.25
499.484	869.25
499.701	924.25
499.918	991.25
500.135	1058.25
500.352	1079.25
500.569	1141.25
500.786	1136.25
501.003	1068.25
501.22	1010.25
501.437	935.25
501.654	879.25
501.871	855.25
502.088	790.25
502.305	766.25
