Data from SampC_HRD10591_00090.txt Node
Date: Mon Jan 19 11:38:00 EST 2026
User: Yrep
Spectrometer: HR+D1059
Trigger mode: 0
Integration Time (sec): 3.443000E-1
Scans to average: 1
Electric dark correction enabled: true
Nonlinearity correction enabled: false
Boxcar width: 0
XAxis mode: Wavelengths
Number of Pixels in Spectrum: 2048
>>>>>Begin Spectral Data<<<<<
223.165	-18.88
223.4	-18.88
223.635	-18.88
223.869	-31.88
224.104	-24.88
224.338	-24.88
224.573	-11.88
224.808	-7.88
225.042	-6.88
225.277	-6.88
225.511	-6.88
225.746	1.12
225.98	6.12
226.215	26.12
226.449	28.12
226.683	17.12
226.918	29.12
227.152	33.12
227.387	46.12
227.621	43.12
227.856	43.12
228.09	41.12
228.324	55.12
228.559	54.12
228.793	55.12
229.027	86.12
229.262	75.12
229.496	86.12
229.73	86.12
229.964	84.12
230.199	79.12
230.433	100.12
230.667	103.12
230.901	94.12
231.136	83.12
231.37	98.12
231.604	108.12
231.838	101.12
232.072	106.12
232.306	109.12
232.541	103.12
232.775	101.12
233.009	106.12
233.243	101.12
233.477	112.12
233.711	104.12
233.945	100.12
234.179	86.12
234.413	112.12
234.647	87.12
234.881	89.12
235.115	102.12
235.349	90.12
235.583	101.12
235.817	97.12
236.051	116.12
236.285	101.12
236.519	108.12
236.753	125.12
236.987	136.12
237.221	160.12
237.455	158.12
237.689	157.12
237.922	138.12
238.156	114.12
238.39	101.12
238.624	107.12
238.858	106.12
239.091	106.12
239.325	94.12
239.559	105.12
239.793	89.12
240.027	106.12
240.26	94.12
240.494	105.12
240.728	97.12
240.961	95.12
241.195	93.12
241.429	106.12
241.662	109.12
241.896	97.12
242.13	99.12
242.363	88.12
242.597	98.12
242.83	87.12
243.064	97.12
243.298	100.12
243.531	103.12
243.765	100.12
243.998	102.12
244.232	115.12
244.465	93.12
244.699	93.12
244.932	111.12
245.166	107.12
245.399	100.12
245.633	98.12
245.866	105.12
246.099	99.12
246.333	107.12
246.566	112.12
246.8	110.12
247.033	110.12
247.266	103.12
247.5	89.12
247.733	107.12
247.966	98.12
248.2	121.12
248.433	91.12
248.666	91.12
248.899	121.12
249.133	113.12
249.366	117.12
249.599	127.12
249.832	94.12
250.066	100.12
250.299	107.12
250.532	108.12
250.765	114.12
250.998	110.12
251.231	115.12
251.465	109.12
251.698	108.12
251.931	106.12
252.164	107.12
252.397	115.12
252.63	119.12
252.863	129.12
253.096	108.12
253.329	118.12
253.562	100.12
253.795	108.12
254.028	111.12
254.261	122.12
254.494	113.12
254.727	119.12
254.96	118.12
255.193	132.12
255.426	125.12
255.659	114.12
255.892	118.12
256.124	130.12
256.357	124.12
256.59	137.12
256.823	149.12
257.056	177.12
257.289	177.12
257.521	177.12
257.754	203.12
257.987	191.12
258.22	161.12
258.452	138.12
258.685	139.12
258.918	128.12
259.151	131.12
259.383	126.12
259.616	127.12
259.849	132.12
260.081	125.12
260.314	119.12
260.547	124.12
260.779	117.12
261.012	137.12
261.244	114.12
261.477	123.12
261.71	131.12
261.942	143.12
262.175	125.12
262.407	114.12
262.64	148.12
262.872	150.12
263.105	161.12
263.337	183.12
263.57	171.12
263.802	183.12
264.035	162.12
264.267	143.12
264.499	142.12
264.732	163.12
264.964	160.12
265.197	167.12
265.429	178.12
265.661	185.12
265.894	157.12
266.126	190.12
266.358	176.12
266.591	155.12
266.823	135.12
267.055	146.12
267.287	126.12
267.52	131.12
267.752	142.12
267.984	140.12
268.216	129.12
268.448	134.12
268.681	121.12
268.913	141.12
269.145	129.12
269.377	145.12
269.609	122.12
269.841	130.12
270.073	151.12
270.306	135.12
270.538	125.12
270.77	122.12
271.002	138.12
271.234	122.12
271.466	155.12
271.698	135.12
271.93	142.12
272.162	155.12
272.394	139.12
272.626	137.12
272.858	133.12
273.09	128.12
273.322	132.12
273.553	131.12
273.785	153.12
274.017	144.12
274.249	146.12
274.481	138.12
274.713	132.12
274.945	156.12
275.176	137.12
275.408	152.12
275.64	154.12
275.872	136.12
276.104	147.12
276.335	133.12
276.567	148.12
276.799	149.12
277.031	166.12
277.262	151.12
277.494	161.12
277.726	165.12
277.957	171.12
278.189	177.12
278.421	185.12
278.652	203.12
278.884	189.12
279.115	229.12
279.347	321.12
279.579	416.12
279.81	481.12
280.042	395.12
280.273	385.12
280.505	362.12
280.736	269.12
280.968	209.12
281.199	223.12
281.431	242.12
281.662	316.12
281.894	324.12
282.125	288.12
282.356	230.12
282.588	217.12
282.819	202.12
283.051	182.12
283.282	182.12
283.513	195.12
283.745	169.12
283.976	166.12
284.207	168.12
284.439	165.12
284.67	163.12
284.901	190.12
285.132	198.12
285.364	213.12
285.595	194.12
285.826	165.12
286.057	155.12
286.288	163.12
286.52	174.12
286.751	161.12
286.982	155.12
287.213	162.12
287.444	152.12
287.675	175.12
287.906	162.12
288.138	173.12
288.369	167.12
288.6	158.12
288.831	173.12
289.062	179.12
289.293	164.12
289.524	163.12
289.755	165.12
289.986	156.12
290.217	155.12
290.448	165.12
290.679	152.12
290.91	187.12
291.141	149.12
291.371	178.12
291.602	167.12
291.833	169.12
292.064	171.12
292.295	177.12
292.526	166.12
292.757	185.12
292.987	190.12
293.218	181.12
293.449	175.12
293.68	189.12
293.91	178.12
294.141	178.12
294.372	165.12
294.603	152.12
294.833	171.12
295.064	174.12
295.295	169.12
295.525	175.12
295.756	144.12
295.987	157.12
296.217	148.12
296.448	187.12
296.679	154.12
296.909	171.12
297.14	174.12
297.37	157.12
297.601	175.12
297.831	158.12
298.062	169.12
298.292	159.12
298.523	170.12
298.753	155.12
298.984	164.12
299.214	163.12
299.445	170.12
299.675	179.12
299.905	178.12
300.136	174.12
300.366	184.12
300.597	175.12
300.827	171.12
301.057	178.12
301.288	175.12
301.518	188.12
301.748	173.12
301.979	226.12
302.209	196.12
302.439	207.12
302.669	175.12
302.9	186.12
303.13	197.12
303.36	204.12
303.59	205.12
303.82	203.12
304.051	211.12
304.281	222.12
304.511	238.12
304.741	238.12
304.971	242.12
305.201	290.12
305.431	323.12
305.661	381.12
305.891	418.12
306.121	382.12
306.352	338.12
306.582	367.12
306.812	347.12
307.042	318.12
307.272	321.12
307.502	332.12
307.731	417.12
307.961	549.12
308.191	777.12
308.421	909.12
308.651	775.12
308.881	738.12
309.111	867.12
309.341	1067.12
309.571	1002.12
309.8	700.12
310.03	479.12
310.26	380.12
310.49	337.12
310.72	303.12
310.949	280.12
311.179	246.12
311.409	244.12
311.639	242.12
311.868	256.12
312.098	256.12
312.328	218.12
312.557	235.12
312.787	220.12
313.017	235.12
313.246	227.12
313.476	215.12
313.706	197.12
313.935	203.12
314.165	205.12
314.394	219.12
314.624	207.12
314.853	214.12
315.083	207.12
315.312	208.12
315.542	199.12
315.771	203.12
316.001	186.12
316.23	205.12
316.46	188.12
316.689	192.12
316.919	176.12
317.148	206.12
317.377	207.12
317.607	187.12
317.836	186.12
318.065	194.12
318.295	195.12
318.524	183.12
318.753	196.12
318.983	188.12
319.212	199.12
319.441	188.12
319.67	201.12
319.9	193.12
320.129	190.12
320.358	193.12
320.587	181.12
320.816	196.12
321.046	195.12
321.275	202.12
321.504	189.12
321.733	191.12
321.962	205.12
322.191	191.12
322.42	175.12
322.649	187.12
322.878	187.12
323.108	193.12
323.337	176.12
323.566	187.12
323.795	192.12
324.024	214.12
324.253	202.12
324.482	209.12
324.71	198.12
324.939	215.12
325.168	211.12
325.397	193.12
325.626	211.12
325.855	198.12
326.084	201.12
326.313	197.12
326.542	185.12
326.77	196.12
326.999	175.12
327.228	203.12
327.457	196.12
327.686	203.12
327.914	189.12
328.143	198.12
328.372	194.12
328.6	189.12
328.829	213.12
329.058	196.12
329.287	189.12
329.515	210.12
329.744	211.12
329.972	185.12
330.201	206.12
330.43	198.12
330.658	206.12
330.887	222.12
331.115	214.12
331.344	197.12
331.572	199.12
331.801	201.12
332.03	205.12
332.258	219.12
332.486	216.12
332.715	211.12
332.943	219.12
333.172	218.12
333.4	213.12
333.629	222.12
333.857	225.12
334.085	218.12
334.314	235.12
334.542	205.12
334.771	225.12
334.999	213.12
335.227	210.12
335.455	205.12
335.684	229.12
335.912	206.12
336.14	191.12
336.369	220.12
336.597	212.12
336.825	215.12
337.053	212.12
337.281	209.12
337.51	192.12
337.738	227.12
337.966	179.12
338.194	196.12
338.422	221.12
338.65	209.12
338.878	207.12
339.106	209.12
339.334	212.12
339.562	200.12
339.79	200.12
340.018	197.12
340.246	207.12
340.474	221.12
340.702	202.12
340.93	201.12
341.158	209.12
341.386	188.12
341.614	181.12
341.842	223.12
342.07	209.12
342.298	207.12
342.526	207.12
342.754	196.12
342.981	201.12
343.209	197.12
343.437	227.12
343.665	230.12
343.893	215.12
344.12	206.12
344.348	226.12
344.576	210.12
344.804	207.12
345.031	212.12
345.259	187.12
345.487	208.12
345.714	183.12
345.942	192.12
346.17	212.12
346.397	198.12
346.625	195.12
346.853	208.12
347.08	193.12
347.308	210.12
347.535	197.12
347.763	198.12
347.99	217.12
348.218	217.12
348.445	216.12
348.673	210.12
348.9	208.12
349.128	215.12
349.355	191.12
349.583	210.12
349.81	197.12
350.037	212.12
350.265	187.12
350.492	212.12
350.72	213.12
350.947	212.12
351.174	211.12
351.402	205.12
351.629	215.12
351.856	207.12
352.083	215.12
352.311	208.12
352.538	212.12
352.765	213.12
352.992	233.12
353.22	219.12
353.447	221.12
353.674	230.12
353.901	227.12
354.128	238.12
354.355	220.12
354.583	244.12
354.81	237.12
355.037	242.12
355.264	240.12
355.491	242.12
355.718	234.12
355.945	255.12
356.172	257.12
356.399	270.12
356.626	267.12
356.853	295.12
357.08	294.12
357.307	325.12
357.534	340.12
357.761	367.12
357.988	398.12
358.215	443.12
358.441	489.12
358.668	551.12
358.895	536.12
359.122	472.12
359.349	371.12
359.576	344.12
359.802	326.12
360.029	311.12
360.256	323.12
360.483	286.12
360.709	278.12
360.936	301.12
361.163	273.12
361.39	277.12
361.616	260.12
361.843	258.12
362.07	252.12
362.296	241.12
362.523	242.12
362.749	230.12
362.976	237.12
363.203	257.12
363.429	234.12
363.656	228.12
363.882	247.12
364.109	235.12
364.335	236.12
364.562	228.12
364.788	223.12
365.015	215.12
365.241	225.12
365.468	219.12
365.694	224.12
365.92	209.12
366.147	210.12
366.373	201.12
366.599	198.12
366.826	205.12
367.052	222.12
367.278	219.12
367.505	213.12
367.731	202.12
367.957	214.12
368.184	221.12
368.41	235.12
368.636	219.12
368.862	242.12
369.089	214.12
369.315	202.12
369.541	205.12
369.767	222.12
369.993	211.12
370.219	211.12
370.445	222.12
370.672	207.12
370.898	219.12
371.124	206.12
371.35	223.12
371.576	207.12
371.802	233.12
372.028	226.12
372.254	229.12
372.48	225.12
372.706	226.12
372.932	228.12
373.158	238.12
373.384	246.12
373.61	238.12
373.835	238.12
374.061	232.12
374.287	236.12
374.513	223.12
374.739	215.12
374.965	242.12
375.191	242.12
375.416	232.12
375.642	226.12
375.868	227.12
376.094	210.12
376.319	214.12
376.545	211.12
376.771	218.12
376.997	235.12
377.222	210.12
377.448	223.12
377.674	220.12
377.899	208.12
378.125	220.12
378.35	238.12
378.576	231.12
378.802	209.12
379.027	210.12
379.253	223.12
379.478	223.12
379.704	219.12
379.929	217.12
380.155	203.12
380.38	226.12
380.606	240.12
380.831	230.12
381.057	243.12
381.282	226.12
381.507	233.12
381.733	232.12
381.958	247.12
382.184	221.12
382.409	246.12
382.634	259.12
382.86	268.12
383.085	277.12
383.31	287.12
383.535	263.12
383.761	292.12
383.986	294.12
384.211	265.12
384.436	239.12
384.662	256.12
384.887	231.12
385.112	249.12
385.337	266.12
385.562	253.12
385.787	254.12
386.013	256.12
386.238	252.12
386.463	260.12
386.688	286.12
386.913	270.12
387.138	268.12
387.363	269.12
387.588	257.12
387.813	263.12
388.038	266.12
388.263	259.12
388.488	266.12
388.713	253.12
388.938	249.12
389.163	255.12
389.387	259.12
389.612	245.12
389.837	255.12
390.062	269.12
390.287	271.12
390.512	253.12
390.736	273.12
390.961	271.12
391.186	275.12
391.411	274.12
391.636	276.12
391.86	265.12
392.085	283.12
392.31	280.12
392.534	295.12
392.759	304.12
392.984	300.12
393.208	321.12
393.433	371.12
393.658	393.12
393.882	447.12
394.107	713.12
394.331	1187.12
394.556	1559.12
394.78	1129.12
395.005	683.12
395.229	526.12
395.454	544.12
395.678	689.12
395.903	1053.12
396.127	1674.12
396.352	1983.12
396.576	1266.12
396.801	765.12
397.025	595.12
397.249	481.12
397.474	423.12
397.698	414.12
397.922	385.12
398.147	369.12
398.371	354.12
398.595	346.12
398.82	319.12
399.044	343.12
399.268	338.12
399.492	362.12
399.717	370.12
399.941	362.12
400.165	334.12
400.389	323.12
400.613	315.12
400.837	324.12
401.062	321.12
401.286	287.12
401.51	300.12
401.734	302.12
401.958	283.12
402.182	298.12
402.406	291.12
402.63	299.12
402.854	293.12
403.078	303.12
403.302	294.12
403.526	305.12
403.75	293.12
403.974	302.12
404.198	312.12
404.422	292.12
404.645	293.12
404.869	307.12
405.093	297.12
405.317	281.12
405.541	294.12
405.765	290.12
405.988	298.12
406.212	285.12
406.436	274.12
406.66	335.12
406.883	305.12
407.107	315.12
407.331	294.12
407.555	313.12
407.778	323.12
408.002	321.12
408.226	305.12
408.449	298.12
408.673	279.12
408.896	301.12
409.12	283.12
409.344	304.12
409.567	289.12
409.791	284.12
410.014	290.12
410.238	305.12
410.461	293.12
410.685	293.12
410.908	284.12
411.132	300.12
411.355	284.12
411.578	296.12
411.802	303.12
412.025	282.12
412.249	281.12
412.472	292.12
412.695	293.12
412.919	292.12
413.142	297.12
413.365	292.12
413.589	284.12
413.812	280.12
414.035	290.12
414.258	273.12
414.482	269.12
414.705	262.12
414.928	275.12
415.151	277.12
415.374	278.12
415.597	294.12
415.821	277.12
416.044	274.12
416.267	285.12
416.49	289.12
416.713	284.12
416.936	273.12
417.159	286.12
417.382	296.12
417.605	266.12
417.828	280.12
418.051	289.12
418.274	286.12
418.497	292.12
418.72	291.12
418.943	283.12
419.166	301.12
419.389	312.12
419.611	305.12
419.834	289.12
420.057	272.12
420.28	274.12
420.503	289.12
420.726	286.12
420.948	269.12
421.171	308.12
421.394	285.12
421.617	301.12
421.839	288.12
422.062	291.12
422.285	270.12
422.507	269.12
422.73	305.12
422.953	282.12
423.175	281.12
423.398	294.12
423.621	270.12
423.843	293.12
424.066	279.12
424.288	303.12
424.511	303.12
424.733	299.12
424.956	300.12
425.178	292.12
425.401	297.12
425.623	273.12
425.846	267.12
426.068	287.12
426.291	277.12
426.513	264.12
426.735	282.12
426.958	292.12
427.18	269.12
427.402	273.12
427.625	282.12
427.847	287.12
428.069	279.12
428.292	286.12
428.514	270.12
428.736	277.12
428.958	281.12
429.181	272.12
429.403	253.12
429.625	281.12
429.847	281.12
430.069	272.12
430.292	277.12
430.514	260.12
430.736	269.12
430.958	271.12
431.18	278.12
431.402	280.12
431.624	273.12
431.846	263.12
432.068	240.12
432.29	254.12
432.512	267.12
432.734	276.12
432.956	273.12
433.178	291.12
433.4	276.12
433.622	286.12
433.844	273.12
434.066	269.12
434.287	270.12
434.509	270.12
434.731	275.12
434.953	281.12
435.175	283.12
435.397	290.12
435.618	271.12
435.84	271.12
436.062	261.12
436.284	268.12
436.505	277.12
436.727	263.12
436.949	261.12
437.17	268.12
437.392	277.12
437.614	260.12
437.835	255.12
438.057	250.12
438.278	238.12
438.5	260.12
438.721	261.12
438.943	271.12
439.165	258.12
439.386	278.12
439.608	286.12
439.829	288.12
440.05	289.12
440.272	280.12
440.493	289.12
440.715	299.12
440.936	284.12
441.158	298.12
441.379	286.12
441.6	287.12
441.822	310.12
442.043	305.12
442.264	279.12
442.486	293.12
442.707	284.12
442.928	290.12
443.149	275.12
443.371	292.12
443.592	305.12
443.813	310.12
444.034	297.12
444.255	300.12
444.476	304.12
444.698	288.12
444.919	297.12
445.14	494.12
445.361	391.12
445.582	287.12
445.803	295.12
446.024	306.12
446.245	293.12
446.466	290.12
446.687	285.12
446.908	271.12
447.129	285.12
447.35	276.12
447.571	286.12
447.792	279.12
448.013	274.12
448.234	272.12
448.455	299.12
448.675	277.12
448.896	270.12
449.117	277.12
449.338	272.12
449.559	261.12
449.779	271.12
450	267.12
450.221	285.12
450.442	292.12
450.662	265.12
450.883	268.12
451.104	257.12
451.324	269.12
451.545	275.12
451.766	274.12
451.986	260.12
452.207	270.12
452.428	252.12
452.648	267.12
452.869	253.12
453.089	256.12
453.31	243.12
453.53	254.12
453.751	255.12
453.971	267.12
454.192	255.12
454.412	266.12
454.633	257.12
454.853	255.12
455.073	262.12
455.294	253.12
455.514	255.12
455.734	251.12
455.955	253.12
456.175	249.12
456.395	246.12
456.616	240.12
456.836	238.12
457.056	239.12
457.276	220.12
457.497	253.12
457.717	231.12
457.937	242.12
458.157	230.12
458.377	226.12
458.598	231.12
458.818	237.12
459.038	240.12
459.258	233.12
459.478	257.12
459.698	240.12
459.918	281.12
460.138	273.12
460.358	281.12
460.578	286.12
460.798	271.12
461.018	282.12
461.238	267.12
461.458	283.12
461.678	288.12
461.898	275.12
462.118	283.12
462.338	293.12
462.558	292.12
462.777	294.12
462.997	301.12
463.217	325.12
463.437	310.12
463.657	315.12
463.876	295.12
464.096	316.12
464.316	310.12
464.536	322.12
464.755	315.12
464.975	279.12
465.195	277.12
465.414	283.12
465.634	288.12
465.854	287.12
466.073	314.12
466.293	306.12
466.512	340.12
466.732	335.12
466.951	330.12
467.171	300.12
467.391	311.12
467.61	291.12
467.829	304.12
468.049	294.12
468.268	291.12
468.488	273.12
468.707	275.12
468.927	274.12
469.146	284.12
469.365	292.12
469.585	293.12
469.804	275.12
470.023	292.12
470.243	289.12
470.462	290.12
470.681	284.12
470.901	276.12
471.12	274.12
471.339	281.12
471.558	282.12
471.777	274.12
471.997	270.12
472.216	285.12
472.435	272.12
472.654	255.12
472.873	264.12
473.092	290.12
473.311	295.12
473.53	278.12
473.749	309.12
473.968	325.12
474.187	308.12
474.406	311.12
474.625	316.12
474.844	341.12
475.063	310.12
475.282	314.12
475.501	299.12
475.72	290.12
475.939	293.12
476.158	284.12
476.377	262.12
476.596	279.12
476.814	266.12
477.033	275.12
477.252	263.12
477.471	278.12
477.69	289.12
477.908	289.12
478.127	301.12
478.346	287.12
478.564	275.12
478.783	300.12
479.002	289.12
479.22	315.12
479.439	299.12
479.658	286.12
479.876	280.12
480.095	273.12
480.313	294.12
480.532	296.12
480.751	277.12
480.969	280.12
481.188	279.12
481.406	266.12
481.624	271.12
481.843	235.12
482.061	249.12
482.28	259.12
482.498	273.12
482.717	272.12
482.935	277.12
483.153	292.12
483.372	303.12
483.59	283.12
483.808	281.12
484.027	288.12
484.245	313.12
484.463	316.12
484.681	345.12
484.9	314.12
485.118	307.12
485.336	307.12
485.554	294.12
485.772	294.12
485.99	290.12
486.209	287.12
486.427	318.12
486.645	314.12
486.863	320.12
487.081	314.12
487.299	311.12
487.517	308.12
487.735	330.12
487.953	335.12
488.171	340.12
488.389	329.12
488.607	302.12
488.825	293.12
489.043	289.12
489.261	311.12
489.479	311.12
489.696	290.12
489.914	313.12
490.132	308.12
490.35	307.12
490.568	307.12
490.786	321.12
491.003	321.12
491.221	317.12
491.439	348.12
491.657	323.12
491.874	341.12
492.092	357.12
492.31	349.12
492.527	319.12
492.745	338.12
492.963	326.12
493.18	340.12
493.398	341.12
493.615	322.12
493.833	305.12
494.05	331.12
494.268	315.12
494.485	311.12
494.703	333.12
494.92	323.12
495.138	318.12
495.355	315.12
495.573	331.12
495.79	323.12
496.008	319.12
496.225	336.12
496.442	340.12
496.66	339.12
496.877	342.12
497.094	340.12
497.312	330.12
497.529	333.12
497.746	322.12
497.963	343.12
498.181	328.12
498.398	331.12
498.615	339.12
498.832	348.12
499.049	362.12
499.267	382.12
499.484	380.12
499.701	417.12
499.918	445.12
500.135	459.12
500.352	475.12
500.569	486.12
500.786	485.12
501.003	476.12
501.22	447.12
501.437	420.12
501.654	402.12
501.871	393.12
502.088	369.12
502.305	346.12
502.522	341.12
502.739	341.12
502.956	317.12
503.172	331.12
