Data from SampC_HRD10591_00033.txt Node
Date: Mon Jan 19 11:37:40 EST 2026
User: Yrep
Spectrometer: HR+D1059
Trigger mode: 0
Integration Time (sec): 3.443000E-1
Scans to average: 1
Electric dark correction enabled: true
Nonlinearity correction enabled: false
Boxcar width: 0
XAxis mode: Wavelengths
Number of Pixels in Spectrum: 2048
>>>>>Begin Spectral Data<<<<<
223.165	-8.56
223.4	-8.56
223.635	-8.56
223.869	-28.56
224.104	-27.56
224.338	-13.56
224.573	-15.56
224.808	-25.56
225.042	4.44
225.277	-8.56
225.511	0.44
225.746	11.44
225.98	14.44
226.215	13.44
226.449	10.44
226.683	12.44
226.918	25.44
227.152	35.44
227.387	27.44
227.621	32.44
227.856	50.44
228.09	54.44
228.324	42.44
228.559	46.44
228.793	68.44
229.027	65.44
229.262	72.44
229.496	73.44
229.73	65.44
229.964	83.44
230.199	75.44
230.433	84.44
230.667	75.44
230.901	99.44
231.136	88.44
231.37	90.44
231.604	98.44
231.838	95.44
232.072	101.44
232.306	90.44
232.541	86.44
232.775	94.44
233.009	92.44
233.243	90.44
233.477	94.44
233.711	82.44
233.945	97.44
234.179	89.44
234.413	105.44
234.647	110.44
234.881	98.44
235.115	93.44
235.349	107.44
235.583	91.44
235.817	88.44
236.051	97.44
236.285	88.44
236.519	92.44
236.753	95.44
236.987	115.44
237.221	139.44
237.455	121.44
237.689	120.44
237.922	119.44
238.156	106.44
238.39	96.44
238.624	103.44
238.858	79.44
239.091	95.44
239.325	88.44
239.559	74.44
239.793	92.44
240.027	102.44
240.26	99.44
240.494	88.44
240.728	97.44
240.961	82.44
241.195	89.44
241.429	95.44
241.662	95.44
241.896	94.44
242.13	81.44
242.363	79.44
242.597	95.44
242.83	88.44
243.064	98.44
243.298	89.44
243.531	89.44
243.765	87.44
243.998	90.44
244.232	100.44
244.465	95.44
244.699	90.44
244.932	88.44
245.166	83.44
245.399	93.44
245.633	91.44
245.866	108.44
246.099	96.44
246.333	106.44
246.566	90.44
246.8	100.44
247.033	88.44
247.266	86.44
247.5	80.44
247.733	91.44
247.966	102.44
248.2	106.44
248.433	99.44
248.666	87.44
248.899	105.44
249.133	103.44
249.366	108.44
249.599	111.44
249.832	95.44
250.066	101.44
250.299	91.44
250.532	108.44
250.765	87.44
250.998	95.44
251.231	87.44
251.465	102.44
251.698	96.44
251.931	96.44
252.164	96.44
252.397	79.44
252.63	98.44
252.863	96.44
253.096	94.44
253.329	106.44
253.562	102.44
253.795	94.44
254.028	99.44
254.261	91.44
254.494	92.44
254.727	105.44
254.96	106.44
255.193	103.44
255.426	112.44
255.659	102.44
255.892	113.44
256.124	91.44
256.357	100.44
256.59	129.44
256.823	129.44
257.056	150.44
257.289	164.44
257.521	155.44
257.754	174.44
257.987	168.44
258.22	139.44
258.452	125.44
258.685	117.44
258.918	104.44
259.151	99.44
259.383	123.44
259.616	114.44
259.849	113.44
260.081	111.44
260.314	95.44
260.547	97.44
260.779	115.44
261.012	100.44
261.244	106.44
261.477	119.44
261.71	106.44
261.942	102.44
262.175	103.44
262.407	114.44
262.64	118.44
262.872	120.44
263.105	134.44
263.337	125.44
263.57	124.44
263.802	126.44
264.035	122.44
264.267	116.44
264.499	128.44
264.732	135.44
264.964	129.44
265.197	138.44
265.429	156.44
265.661	150.44
265.894	127.44
266.126	154.44
266.358	156.44
266.591	147.44
266.823	121.44
267.055	130.44
267.287	113.44
267.52	121.44
267.752	119.44
267.984	116.44
268.216	106.44
268.448	110.44
268.681	115.44
268.913	111.44
269.145	105.44
269.377	115.44
269.609	105.44
269.841	112.44
270.073	103.44
270.306	110.44
270.538	108.44
270.77	119.44
271.002	100.44
271.234	120.44
271.466	118.44
271.698	106.44
271.93	114.44
272.162	119.44
272.394	123.44
272.626	122.44
272.858	110.44
273.09	118.44
273.322	139.44
273.553	103.44
273.785	112.44
274.017	108.44
274.249	117.44
274.481	118.44
274.713	127.44
274.945	126.44
275.176	115.44
275.408	113.44
275.64	117.44
275.872	115.44
276.104	122.44
276.335	129.44
276.567	130.44
276.799	139.44
277.031	114.44
277.262	125.44
277.494	129.44
277.726	128.44
277.957	129.44
278.189	134.44
278.421	147.44
278.652	143.44
278.884	169.44
279.115	188.44
279.347	252.44
279.579	304.44
279.81	334.44
280.042	280.44
280.273	273.44
280.505	257.44
280.736	193.44
280.968	158.44
281.199	175.44
281.431	186.44
281.662	233.44
281.894	224.44
282.125	221.44
282.356	192.44
282.588	160.44
282.819	151.44
283.051	145.44
283.282	137.44
283.513	147.44
283.745	133.44
283.976	132.44
284.207	131.44
284.439	139.44
284.67	146.44
284.901	147.44
285.132	160.44
285.364	169.44
285.595	164.44
285.826	130.44
286.057	133.44
286.288	121.44
286.52	117.44
286.751	122.44
286.982	135.44
287.213	131.44
287.444	134.44
287.675	138.44
287.906	148.44
288.138	144.44
288.369	140.44
288.6	136.44
288.831	139.44
289.062	134.44
289.293	129.44
289.524	130.44
289.755	115.44
289.986	138.44
290.217	137.44
290.448	140.44
290.679	151.44
290.91	150.44
291.141	138.44
291.371	132.44
291.602	142.44
291.833	144.44
292.064	138.44
292.295	133.44
292.526	140.44
292.757	154.44
292.987	145.44
293.218	138.44
293.449	144.44
293.68	135.44
293.91	135.44
294.141	160.44
294.372	136.44
294.603	134.44
294.833	145.44
295.064	150.44
295.295	127.44
295.525	127.44
295.756	153.44
295.987	147.44
296.217	133.44
296.448	151.44
296.679	144.44
296.909	127.44
297.14	152.44
297.37	144.44
297.601	150.44
297.831	130.44
298.062	132.44
298.292	116.44
298.523	147.44
298.753	128.44
298.984	136.44
299.214	142.44
299.445	141.44
299.675	151.44
299.905	139.44
300.136	131.44
300.366	142.44
300.597	160.44
300.827	149.44
301.057	136.44
301.288	141.44
301.518	158.44
301.748	139.44
301.979	190.44
302.209	148.44
302.439	161.44
302.669	140.44
302.9	159.44
303.13	158.44
303.36	175.44
303.59	165.44
303.82	152.44
304.051	174.44
304.281	160.44
304.511	175.44
304.741	183.44
304.971	201.44
305.201	238.44
305.431	264.44
305.661	286.44
305.891	300.44
306.121	276.44
306.352	273.44
306.582	262.44
306.812	267.44
307.042	249.44
307.272	256.44
307.502	276.44
307.731	340.44
307.961	435.44
308.191	594.44
308.421	679.44
308.651	586.44
308.881	551.44
309.111	637.44
309.341	782.44
309.571	766.44
309.8	529.44
310.03	365.44
310.26	305.44
310.49	249.44
310.72	224.44
310.949	223.44
311.179	223.44
311.409	198.44
311.639	182.44
311.868	191.44
312.098	184.44
312.328	178.44
312.557	179.44
312.787	163.44
313.017	177.44
313.246	178.44
313.476	172.44
313.706	169.44
313.935	173.44
314.165	160.44
314.394	157.44
314.624	165.44
314.853	156.44
315.083	170.44
315.312	158.44
315.542	146.44
315.771	157.44
316.001	156.44
316.23	142.44
316.46	142.44
316.689	160.44
316.919	151.44
317.148	152.44
317.377	178.44
317.607	162.44
317.836	151.44
318.065	162.44
318.295	158.44
318.524	150.44
318.753	145.44
318.983	169.44
319.212	154.44
319.441	142.44
319.67	159.44
319.9	153.44
320.129	160.44
320.358	155.44
320.587	154.44
320.816	147.44
321.046	152.44
321.275	169.44
321.504	147.44
321.733	143.44
321.962	159.44
322.191	172.44
322.42	151.44
322.649	151.44
322.878	131.44
323.108	166.44
323.337	162.44
323.566	168.44
323.795	141.44
324.024	163.44
324.253	154.44
324.482	157.44
324.71	158.44
324.939	171.44
325.168	156.44
325.397	148.44
325.626	159.44
325.855	160.44
326.084	170.44
326.313	172.44
326.542	150.44
326.77	168.44
326.999	148.44
327.228	141.44
327.457	154.44
327.686	166.44
327.914	168.44
328.143	159.44
328.372	150.44
328.6	164.44
328.829	151.44
329.058	150.44
329.287	149.44
329.515	158.44
329.744	162.44
329.972	171.44
330.201	149.44
330.43	150.44
330.658	146.44
330.887	151.44
331.115	148.44
331.344	161.44
331.572	147.44
331.801	156.44
332.03	162.44
332.258	154.44
332.486	154.44
332.715	172.44
332.943	165.44
333.172	168.44
333.4	165.44
333.629	152.44
333.857	180.44
334.085	170.44
334.314	156.44
334.542	182.44
334.771	167.44
334.999	154.44
335.227	169.44
335.455	174.44
335.684	172.44
335.912	161.44
336.14	164.44
336.369	154.44
336.597	153.44
336.825	175.44
337.053	164.44
337.281	161.44
337.51	151.44
337.738	179.44
337.966	143.44
338.194	152.44
338.422	147.44
338.65	167.44
338.878	170.44
339.106	172.44
339.334	176.44
339.562	159.44
339.79	149.44
340.018	163.44
340.246	178.44
340.474	155.44
340.702	151.44
340.93	170.44
341.158	149.44
341.386	137.44
341.614	162.44
341.842	168.44
342.07	173.44
342.298	164.44
342.526	142.44
342.754	153.44
342.981	156.44
343.209	153.44
343.437	198.44
343.665	177.44
343.893	155.44
344.12	187.44
344.348	167.44
344.576	179.44
344.804	155.44
345.031	158.44
345.259	170.44
345.487	171.44
345.714	156.44
345.942	150.44
346.17	170.44
346.397	166.44
346.625	156.44
346.853	166.44
347.08	175.44
347.308	152.44
347.535	168.44
347.763	168.44
347.99	175.44
348.218	177.44
348.445	156.44
348.673	146.44
348.9	151.44
349.128	162.44
349.355	164.44
349.583	163.44
349.81	170.44
350.037	169.44
350.265	175.44
350.492	166.44
350.72	159.44
350.947	145.44
351.174	160.44
351.402	170.44
351.629	170.44
351.856	181.44
352.083	155.44
352.311	187.44
352.538	162.44
352.765	169.44
352.992	171.44
353.22	174.44
353.447	159.44
353.674	156.44
353.901	170.44
354.128	177.44
354.355	165.44
354.583	176.44
354.81	163.44
355.037	185.44
355.264	189.44
355.491	173.44
355.718	188.44
355.945	204.44
356.172	199.44
356.399	174.44
356.626	203.44
356.853	224.44
357.08	220.44
357.307	239.44
357.534	250.44
357.761	253.44
357.988	288.44
358.215	310.44
358.441	351.44
358.668	376.44
358.895	363.44
359.122	315.44
359.349	280.44
359.576	253.44
359.802	232.44
360.029	224.44
360.256	230.44
360.483	207.44
360.709	202.44
360.936	218.44
361.163	202.44
361.39	211.44
361.616	211.44
361.843	195.44
362.07	190.44
362.296	191.44
362.523	187.44
362.749	174.44
362.976	182.44
363.203	188.44
363.429	178.44
363.656	180.44
363.882	166.44
364.109	178.44
364.335	169.44
364.562	171.44
364.788	154.44
365.015	157.44
365.241	161.44
365.468	186.44
365.694	183.44
365.92	190.44
366.147	172.44
366.373	171.44
366.599	172.44
366.826	173.44
367.052	175.44
367.278	169.44
367.505	157.44
367.731	192.44
367.957	152.44
368.184	168.44
368.41	165.44
368.636	167.44
368.862	167.44
369.089	183.44
369.315	164.44
369.541	177.44
369.767	162.44
369.993	177.44
370.219	163.44
370.445	174.44
370.672	177.44
370.898	199.44
371.124	193.44
371.35	173.44
371.576	178.44
371.802	169.44
372.028	170.44
372.254	184.44
372.48	180.44
372.706	167.44
372.932	180.44
373.158	174.44
373.384	174.44
373.61	185.44
373.835	173.44
374.061	162.44
374.287	173.44
374.513	168.44
374.739	177.44
374.965	176.44
375.191	177.44
375.416	162.44
375.642	185.44
375.868	176.44
376.094	192.44
376.319	189.44
376.545	202.44
376.771	166.44
376.997	175.44
377.222	164.44
377.448	158.44
377.674	187.44
377.899	175.44
378.125	182.44
378.35	194.44
378.576	174.44
378.802	179.44
379.027	166.44
379.253	191.44
379.478	176.44
379.704	165.44
379.929	177.44
380.155	170.44
380.38	163.44
380.606	174.44
380.831	199.44
381.057	161.44
381.282	170.44
381.507	178.44
381.733	186.44
381.958	168.44
382.184	200.44
382.409	184.44
382.634	204.44
382.86	196.44
383.085	234.44
383.31	232.44
383.535	226.44
383.761	196.44
383.986	234.44
384.211	207.44
384.436	193.44
384.662	187.44
384.887	200.44
385.112	189.44
385.337	186.44
385.562	201.44
385.787	223.44
386.013	206.44
386.238	198.44
386.463	207.44
386.688	232.44
386.913	193.44
387.138	201.44
387.363	183.44
387.588	200.44
387.813	211.44
388.038	186.44
388.263	195.44
388.488	183.44
388.713	192.44
388.938	201.44
389.163	204.44
389.387	201.44
389.612	202.44
389.837	191.44
390.062	218.44
390.287	197.44
390.512	204.44
390.736	187.44
390.961	205.44
391.186	211.44
391.411	209.44
391.636	211.44
391.86	215.44
392.085	220.44
392.31	226.44
392.534	226.44
392.759	226.44
392.984	241.44
393.208	245.44
393.433	296.44
393.658	314.44
393.882	359.44
394.107	544.44
394.331	911.44
394.556	1114.44
394.78	806.44
395.005	514.44
395.229	412.44
395.454	426.44
395.678	511.44
395.903	787.44
396.127	1281.44
396.352	1463.44
396.576	936.44
396.801	601.44
397.025	436.44
397.249	363.44
397.474	336.44
397.698	309.44
397.922	298.44
398.147	275.44
398.371	266.44
398.595	268.44
398.82	269.44
399.044	266.44
399.268	272.44
399.492	287.44
399.717	284.44
399.941	270.44
400.165	264.44
400.389	245.44
400.613	249.44
400.837	244.44
401.062	238.44
401.286	251.44
401.51	228.44
401.734	235.44
401.958	236.44
402.182	228.44
402.406	226.44
402.63	231.44
402.854	222.44
403.078	214.44
403.302	231.44
403.526	224.44
403.75	229.44
403.974	217.44
404.198	223.44
404.422	240.44
404.645	216.44
404.869	225.44
405.093	241.44
405.317	231.44
405.541	222.44
405.765	209.44
405.988	220.44
406.212	213.44
406.436	228.44
406.66	233.44
406.883	212.44
407.107	214.44
407.331	250.44
407.555	236.44
407.778	242.44
408.002	237.44
408.226	230.44
408.449	212.44
408.673	226.44
408.896	239.44
409.12	227.44
409.344	236.44
409.567	217.44
409.791	215.44
410.014	226.44
410.238	227.44
410.461	230.44
410.685	223.44
410.908	211.44
411.132	235.44
411.355	215.44
411.578	244.44
411.802	225.44
412.025	210.44
412.249	213.44
412.472	221.44
412.695	214.44
412.919	206.44
413.142	215.44
413.365	230.44
413.589	200.44
413.812	207.44
414.035	211.44
414.258	216.44
414.482	210.44
414.705	222.44
414.928	205.44
415.151	225.44
415.374	210.44
415.597	218.44
415.821	214.44
416.044	212.44
416.267	204.44
416.49	215.44
416.713	221.44
416.936	212.44
417.159	219.44
417.382	212.44
417.605	220.44
417.828	220.44
418.051	207.44
418.274	229.44
418.497	225.44
418.72	214.44
418.943	225.44
419.166	238.44
419.389	235.44
419.611	222.44
419.834	234.44
420.057	222.44
420.28	208.44
420.503	213.44
420.726	219.44
420.948	210.44
421.171	234.44
421.394	217.44
421.617	225.44
421.839	203.44
422.062	201.44
422.285	216.44
422.507	227.44
422.73	217.44
422.953	208.44
423.175	214.44
423.398	228.44
423.621	232.44
423.843	239.44
424.066	205.44
424.288	222.44
424.511	236.44
424.733	242.44
424.956	218.44
425.178	211.44
425.401	221.44
425.623	216.44
425.846	215.44
426.068	227.44
426.291	200.44
426.513	232.44
426.735	215.44
426.958	208.44
427.18	209.44
427.402	226.44
427.625	219.44
427.847	225.44
428.069	199.44
428.292	215.44
428.514	193.44
428.736	206.44
428.958	210.44
429.181	216.44
429.403	213.44
429.625	222.44
429.847	223.44
430.069	211.44
430.292	220.44
430.514	215.44
430.736	204.44
430.958	219.44
431.18	201.44
431.402	208.44
431.624	204.44
431.846	207.44
432.068	203.44
432.29	207.44
432.512	214.44
432.734	202.44
432.956	235.44
433.178	232.44
433.4	227.44
433.622	233.44
433.844	212.44
434.066	204.44
434.287	213.44
434.509	190.44
434.731	206.44
434.953	220.44
435.175	222.44
435.397	221.44
435.618	194.44
435.84	215.44
436.062	202.44
436.284	204.44
436.505	211.44
436.727	210.44
436.949	228.44
437.17	219.44
437.392	217.44
437.614	203.44
437.835	195.44
438.057	189.44
438.278	186.44
438.5	216.44
438.721	195.44
438.943	214.44
439.165	221.44
439.386	207.44
439.608	222.44
439.829	216.44
440.05	252.44
440.272	224.44
440.493	217.44
440.715	221.44
440.936	219.44
441.158	224.44
441.379	237.44
441.6	221.44
441.822	243.44
442.043	239.44
442.264	221.44
442.486	228.44
442.707	220.44
442.928	217.44
443.149	235.44
443.371	231.44
443.592	224.44
443.813	219.44
444.034	225.44
444.255	233.44
444.476	227.44
444.698	234.44
444.919	236.44
445.14	496.44
445.361	352.44
445.582	233.44
445.803	224.44
446.024	233.44
446.245	226.44
446.466	252.44
446.687	220.44
446.908	242.44
447.129	231.44
447.35	230.44
447.571	220.44
447.792	210.44
448.013	204.44
448.234	223.44
448.455	208.44
448.675	210.44
448.896	207.44
449.117	231.44
449.338	180.44
449.559	224.44
449.779	207.44
450	204.44
450.221	217.44
450.442	221.44
450.662	212.44
450.883	216.44
451.104	228.44
451.324	216.44
451.545	210.44
451.766	217.44
451.986	199.44
452.207	198.44
452.428	212.44
452.648	210.44
452.869	210.44
453.089	208.44
453.31	177.44
453.53	191.44
453.751	194.44
453.971	205.44
454.192	217.44
454.412	194.44
454.633	201.44
454.853	214.44
455.073	201.44
455.294	184.44
455.514	182.44
455.734	195.44
455.955	191.44
456.175	199.44
456.395	193.44
456.616	179.44
456.836	191.44
457.056	180.44
457.276	174.44
457.497	183.44
457.717	195.44
457.937	182.44
458.157	172.44
458.377	179.44
458.598	183.44
458.818	183.44
459.038	196.44
459.258	210.44
459.478	187.44
459.698	200.44
459.918	206.44
460.138	206.44
460.358	216.44
460.578	218.44
460.798	211.44
461.018	211.44
461.238	231.44
461.458	203.44
461.678	219.44
461.898	220.44
462.118	229.44
462.338	212.44
462.558	223.44
462.777	238.44
462.997	232.44
463.217	234.44
463.437	233.44
463.657	227.44
463.876	238.44
464.096	231.44
464.316	226.44
464.536	226.44
464.755	210.44
464.975	225.44
465.195	233.44
465.414	223.44
465.634	218.44
465.854	234.44
466.073	233.44
466.293	226.44
466.512	250.44
466.732	227.44
466.951	240.44
467.171	237.44
467.391	234.44
467.61	238.44
467.829	222.44
468.049	222.44
468.268	224.44
468.488	197.44
468.707	206.44
468.927	202.44
469.146	242.44
469.365	206.44
469.585	217.44
469.804	225.44
470.023	238.44
470.243	208.44
470.462	217.44
470.681	209.44
470.901	215.44
471.12	224.44
471.339	225.44
471.558	212.44
471.777	218.44
471.997	214.44
472.216	224.44
472.435	190.44
472.654	210.44
472.873	190.44
473.092	216.44
473.311	221.44
473.53	234.44
473.749	244.44
473.968	251.44
474.187	223.44
474.406	220.44
474.625	244.44
474.844	242.44
475.063	234.44
475.282	217.44
475.501	213.44
475.72	229.44
475.939	223.44
476.158	225.44
476.377	203.44
476.596	219.44
476.814	205.44
477.033	209.44
477.252	203.44
477.471	216.44
477.69	224.44
477.908	225.44
478.127	242.44
478.346	220.44
478.564	235.44
478.783	216.44
479.002	227.44
479.22	223.44
479.439	222.44
479.658	212.44
479.876	223.44
480.095	203.44
480.313	224.44
480.532	228.44
480.751	215.44
480.969	197.44
481.188	223.44
481.406	214.44
481.624	215.44
481.843	202.44
482.061	212.44
482.28	199.44
482.498	199.44
482.717	195.44
482.935	207.44
483.153	218.44
483.372	231.44
483.59	229.44
483.808	216.44
484.027	208.44
484.245	228.44
484.463	228.44
484.681	251.44
484.9	230.44
485.118	231.44
485.336	223.44
485.554	222.44
485.772	238.44
485.99	213.44
486.209	227.44
486.427	227.44
486.645	212.44
486.863	251.44
487.081	227.44
487.299	228.44
487.517	246.44
487.735	255.44
487.953	268.44
488.171	254.44
488.389	248.44
488.607	232.44
488.825	231.44
489.043	222.44
489.261	240.44
489.479	238.44
489.696	224.44
489.914	228.44
490.132	239.44
490.35	250.44
490.568	246.44
490.786	242.44
491.003	242.44
491.221	261.44
491.439	251.44
491.657	255.44
491.874	281.44
492.092	276.44
492.31	282.44
492.527	272.44
492.745	246.44
492.963	243.44
493.18	258.44
493.398	273.44
493.615	259.44
493.833	263.44
494.05	248.44
494.268	280.44
494.485	262.44
494.703	262.44
494.92	247.44
495.138	262.44
495.355	243.44
495.573	272.44
495.79	258.44
496.008	255.44
496.225	257.44
496.442	242.44
496.66	255.44
496.877	261.44
497.094	259.44
497.312	243.44
497.529	253.44
497.746	285.44
497.963	259.44
498.181	255.44
498.398	241.44
498.615	256.44
498.832	262.44
499.049	268.44
499.267	282.44
499.484	289.44
499.701	313.44
499.918	333.44
500.135	327.44
500.352	371.44
500.569	369.44
500.786	354.44
501.003	348.44
501.22	326.44
501.437	319.44
501.654	287.44
501.871	279.44
502.088	272.44
502.305	274.44
502.522	257.44
502.739	252.44
502.956	241.44
503.172	246.44
503.389	237.44
503.606	233.44
503.823	240.44
