Data from SampC_HRD10591_00032.txt Node
Date: Mon Jan 19 11:37:40 EST 2026
User: Yrep
Spectrometer: HR+D1059
Trigger mode: 0
Integration Time (sec): 3.443000E-1
Scans to average: 1
Electric dark correction enabled: true
Nonlinearity correction enabled: false
Boxcar width: 0
XAxis mode: Wavelengths
Number of Pixels in Spectrum: 2048
>>>>>Begin Spectral Data<<<<<
223.165	-19.12
223.4	-19.12
223.635	-19.12
223.869	-34.12
224.104	-31.12
224.338	-19.12
224.573	-8.12
224.808	-14.12
225.042	-7.12
225.277	16.88
225.511	-10.12
225.746	11.88
225.98	10.88
226.215	13.88
226.449	13.88
226.683	24.88
226.918	27.88
227.152	22.88
227.387	26.88
227.621	39.88
227.856	55.88
228.09	35.88
228.324	54.88
228.559	54.88
228.793	57.88
229.027	81.88
229.262	82.88
229.496	96.88
229.73	76.88
229.964	97.88
230.199	86.88
230.433	81.88
230.667	93.88
230.901	74.88
231.136	98.88
231.37	103.88
231.604	109.88
231.838	102.88
232.072	105.88
232.306	103.88
232.541	111.88
232.775	92.88
233.009	107.88
233.243	93.88
233.477	90.88
233.711	109.88
233.945	98.88
234.179	92.88
234.413	87.88
234.647	102.88
234.881	87.88
235.115	105.88
235.349	103.88
235.583	114.88
235.817	115.88
236.051	107.88
236.285	118.88
236.519	122.88
236.753	145.88
236.987	157.88
237.221	175.88
237.455	190.88
237.689	167.88
237.922	163.88
238.156	126.88
238.39	121.88
238.624	104.88
238.858	113.88
239.091	108.88
239.325	102.88
239.559	98.88
239.793	109.88
240.027	106.88
240.26	91.88
240.494	103.88
240.728	107.88
240.961	92.88
241.195	110.88
241.429	107.88
241.662	102.88
241.896	83.88
242.13	107.88
242.363	91.88
242.597	79.88
242.83	94.88
243.064	98.88
243.298	116.88
243.531	100.88
243.765	106.88
243.998	117.88
244.232	125.88
244.465	115.88
244.699	97.88
244.932	110.88
245.166	106.88
245.399	94.88
245.633	109.88
245.866	99.88
246.099	101.88
246.333	119.88
246.566	117.88
246.8	94.88
247.033	111.88
247.266	97.88
247.5	97.88
247.733	121.88
247.966	121.88
248.2	120.88
248.433	117.88
248.666	128.88
248.899	118.88
249.133	113.88
249.366	119.88
249.599	102.88
249.832	114.88
250.066	107.88
250.299	109.88
250.532	123.88
250.765	110.88
250.998	113.88
251.231	129.88
251.465	124.88
251.698	97.88
251.931	121.88
252.164	130.88
252.397	102.88
252.63	129.88
252.863	136.88
253.096	119.88
253.329	118.88
253.562	118.88
253.795	109.88
254.028	111.88
254.261	113.88
254.494	122.88
254.727	129.88
254.96	124.88
255.193	114.88
255.426	126.88
255.659	122.88
255.892	125.88
256.124	118.88
256.357	127.88
256.59	157.88
256.823	193.88
257.056	226.88
257.289	240.88
257.521	228.88
257.754	258.88
257.987	233.88
258.22	201.88
258.452	157.88
258.685	147.88
258.918	129.88
259.151	131.88
259.383	121.88
259.616	125.88
259.849	136.88
260.081	120.88
260.314	139.88
260.547	139.88
260.779	121.88
261.012	127.88
261.244	135.88
261.477	139.88
261.71	138.88
261.942	137.88
262.175	145.88
262.407	144.88
262.64	156.88
262.872	150.88
263.105	152.88
263.337	172.88
263.57	173.88
263.802	173.88
264.035	167.88
264.267	159.88
264.499	168.88
264.732	187.88
264.964	162.88
265.197	181.88
265.429	209.88
265.661	205.88
265.894	202.88
266.126	234.88
266.358	237.88
266.591	193.88
266.823	173.88
267.055	178.88
267.287	150.88
267.52	158.88
267.752	144.88
267.984	154.88
268.216	153.88
268.448	157.88
268.681	141.88
268.913	151.88
269.145	151.88
269.377	142.88
269.609	137.88
269.841	151.88
270.073	145.88
270.306	146.88
270.538	151.88
270.77	138.88
271.002	138.88
271.234	146.88
271.466	155.88
271.698	160.88
271.93	139.88
272.162	149.88
272.394	139.88
272.626	154.88
272.858	145.88
273.09	161.88
273.322	159.88
273.553	145.88
273.785	135.88
274.017	132.88
274.249	153.88
274.481	149.88
274.713	161.88
274.945	159.88
275.176	159.88
275.408	154.88
275.64	147.88
275.872	142.88
276.104	166.88
276.335	153.88
276.567	153.88
276.799	155.88
277.031	158.88
277.262	150.88
277.494	161.88
277.726	176.88
277.957	193.88
278.189	193.88
278.421	189.88
278.652	193.88
278.884	221.88
279.115	289.88
279.347	386.88
279.579	513.88
279.81	561.88
280.042	475.88
280.273	454.88
280.505	431.88
280.736	313.88
280.968	234.88
281.199	237.88
281.431	272.88
281.662	312.88
281.894	359.88
282.125	308.88
282.356	258.88
282.588	227.88
282.819	216.88
283.051	201.88
283.282	184.88
283.513	209.88
283.745	192.88
283.976	192.88
284.207	184.88
284.439	186.88
284.67	188.88
284.901	206.88
285.132	241.88
285.364	268.88
285.595	263.88
285.826	203.88
286.057	194.88
286.288	185.88
286.52	175.88
286.751	162.88
286.982	174.88
287.213	180.88
287.444	170.88
287.675	174.88
287.906	187.88
288.138	173.88
288.369	188.88
288.6	182.88
288.831	183.88
289.062	183.88
289.293	173.88
289.524	172.88
289.755	162.88
289.986	161.88
290.217	188.88
290.448	175.88
290.679	187.88
290.91	183.88
291.141	176.88
291.371	179.88
291.602	175.88
291.833	185.88
292.064	186.88
292.295	185.88
292.526	204.88
292.757	191.88
292.987	209.88
293.218	215.88
293.449	209.88
293.68	216.88
293.91	199.88
294.141	209.88
294.372	200.88
294.603	193.88
294.833	181.88
295.064	191.88
295.295	178.88
295.525	175.88
295.756	162.88
295.987	177.88
296.217	184.88
296.448	189.88
296.679	187.88
296.909	190.88
297.14	190.88
297.37	185.88
297.601	185.88
297.831	170.88
298.062	179.88
298.292	193.88
298.523	200.88
298.753	183.88
298.984	171.88
299.214	178.88
299.445	184.88
299.675	189.88
299.905	189.88
300.136	190.88
300.366	186.88
300.597	194.88
300.827	202.88
301.057	178.88
301.288	187.88
301.518	206.88
301.748	201.88
301.979	234.88
302.209	217.88
302.439	221.88
302.669	240.88
302.9	226.88
303.13	214.88
303.36	244.88
303.59	237.88
303.82	232.88
304.051	245.88
304.281	257.88
304.511	283.88
304.741	289.88
304.971	336.88
305.201	383.88
305.431	416.88
305.661	453.88
305.891	507.88
306.121	466.88
306.352	419.88
306.582	433.88
306.812	426.88
307.042	380.88
307.272	367.88
307.502	448.88
307.731	562.88
307.961	771.88
308.191	1079.88
308.421	1260.88
308.651	1053.88
308.881	1004.88
309.111	1218.88
309.341	1512.88
309.571	1429.88
309.8	945.88
310.03	612.88
310.26	478.88
310.49	427.88
310.72	366.88
310.949	338.88
311.179	323.88
311.409	305.88
311.639	287.88
311.868	297.88
312.098	261.88
312.328	268.88
312.557	267.88
312.787	263.88
313.017	253.88
313.246	253.88
313.476	227.88
313.706	238.88
313.935	225.88
314.165	241.88
314.394	242.88
314.624	225.88
314.853	224.88
315.083	227.88
315.312	223.88
315.542	234.88
315.771	223.88
316.001	222.88
316.23	221.88
316.46	221.88
316.689	216.88
316.919	207.88
317.148	214.88
317.377	227.88
317.607	209.88
317.836	220.88
318.065	206.88
318.295	200.88
318.524	217.88
318.753	197.88
318.983	211.88
319.212	218.88
319.441	213.88
319.67	209.88
319.9	214.88
320.129	219.88
320.358	198.88
320.587	223.88
320.816	205.88
321.046	211.88
321.275	223.88
321.504	193.88
321.733	201.88
321.962	203.88
322.191	203.88
322.42	209.88
322.649	206.88
322.878	192.88
323.108	217.88
323.337	215.88
323.566	212.88
323.795	228.88
324.024	225.88
324.253	209.88
324.482	219.88
324.71	209.88
324.939	245.88
325.168	225.88
325.397	222.88
325.626	209.88
325.855	208.88
326.084	207.88
326.313	218.88
326.542	205.88
326.77	222.88
326.999	227.88
327.228	218.88
327.457	227.88
327.686	209.88
327.914	221.88
328.143	224.88
328.372	202.88
328.6	223.88
328.829	217.88
329.058	219.88
329.287	202.88
329.515	212.88
329.744	214.88
329.972	223.88
330.201	225.88
330.43	225.88
330.658	218.88
330.887	200.88
331.115	203.88
331.344	210.88
331.572	227.88
331.801	224.88
332.03	231.88
332.258	221.88
332.486	230.88
332.715	220.88
332.943	219.88
333.172	244.88
333.4	252.88
333.629	237.88
333.857	231.88
334.085	232.88
334.314	224.88
334.542	220.88
334.771	242.88
334.999	232.88
335.227	233.88
335.455	239.88
335.684	247.88
335.912	239.88
336.14	211.88
336.369	219.88
336.597	227.88
336.825	252.88
337.053	220.88
337.281	221.88
337.51	222.88
337.738	225.88
337.966	228.88
338.194	230.88
338.422	224.88
338.65	215.88
338.878	236.88
339.106	233.88
339.334	230.88
339.562	213.88
339.79	232.88
340.018	225.88
340.246	228.88
340.474	203.88
340.702	217.88
340.93	224.88
341.158	203.88
341.386	208.88
341.614	215.88
341.842	215.88
342.07	217.88
342.298	231.88
342.526	217.88
342.754	227.88
342.981	229.88
343.209	207.88
343.437	248.88
343.665	234.88
343.893	227.88
344.12	248.88
344.348	223.88
344.576	236.88
344.804	230.88
345.031	219.88
345.259	215.88
345.487	222.88
345.714	219.88
345.942	243.88
346.17	230.88
346.397	219.88
346.625	225.88
346.853	221.88
347.08	237.88
347.308	229.88
347.535	216.88
347.763	206.88
347.99	224.88
348.218	215.88
348.445	202.88
348.673	212.88
348.9	236.88
349.128	222.88
349.355	213.88
349.583	210.88
349.81	226.88
350.037	226.88
350.265	232.88
350.492	224.88
350.72	238.88
350.947	223.88
351.174	227.88
351.402	235.88
351.629	224.88
351.856	222.88
352.083	215.88
352.311	244.88
352.538	230.88
352.765	219.88
352.992	250.88
353.22	220.88
353.447	239.88
353.674	229.88
353.901	234.88
354.128	247.88
354.355	243.88
354.583	256.88
354.81	268.88
355.037	249.88
355.264	251.88
355.491	259.88
355.718	259.88
355.945	276.88
356.172	281.88
356.399	277.88
356.626	281.88
356.853	316.88
357.08	306.88
357.307	341.88
357.534	343.88
357.761	363.88
357.988	421.88
358.215	479.88
358.441	521.88
358.668	555.88
358.895	558.88
359.122	483.88
359.349	411.88
359.576	377.88
359.802	346.88
360.029	319.88
360.256	322.88
360.483	324.88
360.709	305.88
360.936	310.88
361.163	290.88
361.39	279.88
361.616	283.88
361.843	286.88
362.07	288.88
362.296	261.88
362.523	254.88
362.749	254.88
362.976	273.88
363.203	283.88
363.429	263.88
363.656	277.88
363.882	234.88
364.109	250.88
364.335	247.88
364.562	233.88
364.788	249.88
365.015	239.88
365.241	249.88
365.468	266.88
365.694	236.88
365.92	240.88
366.147	237.88
366.373	255.88
366.599	241.88
366.826	239.88
367.052	229.88
367.278	235.88
367.505	244.88
367.731	264.88
367.957	249.88
368.184	227.88
368.41	255.88
368.636	245.88
368.862	252.88
369.089	252.88
369.315	246.88
369.541	245.88
369.767	254.88
369.993	247.88
370.219	222.88
370.445	249.88
370.672	251.88
370.898	252.88
371.124	256.88
371.35	241.88
371.576	253.88
371.802	254.88
372.028	247.88
372.254	259.88
372.48	237.88
372.706	247.88
372.932	254.88
373.158	262.88
373.384	270.88
373.61	269.88
373.835	267.88
374.061	260.88
374.287	248.88
374.513	261.88
374.739	263.88
374.965	279.88
375.191	249.88
375.416	267.88
375.642	261.88
375.868	255.88
376.094	253.88
376.319	251.88
376.545	245.88
376.771	256.88
376.997	246.88
377.222	235.88
377.448	246.88
377.674	252.88
377.899	231.88
378.125	236.88
378.35	246.88
378.576	252.88
378.802	252.88
379.027	264.88
379.253	258.88
379.478	249.88
379.704	236.88
379.929	263.88
380.155	253.88
380.38	238.88
380.606	258.88
380.831	258.88
381.057	280.88
381.282	257.88
381.507	274.88
381.733	253.88
381.958	277.88
382.184	287.88
382.409	296.88
382.634	296.88
382.86	313.88
383.085	355.88
383.31	386.88
383.535	383.88
383.761	371.88
383.986	384.88
384.211	315.88
384.436	297.88
384.662	292.88
384.887	299.88
385.112	282.88
385.337	281.88
385.562	281.88
385.787	286.88
386.013	314.88
386.238	294.88
386.463	285.88
386.688	321.88
386.913	294.88
387.138	288.88
387.363	294.88
387.588	304.88
387.813	303.88
388.038	299.88
388.263	308.88
388.488	305.88
388.713	288.88
388.938	299.88
389.163	299.88
389.387	295.88
389.612	289.88
389.837	294.88
390.062	309.88
390.287	315.88
390.512	299.88
390.736	313.88
390.961	323.88
391.186	321.88
391.411	320.88
391.636	331.88
391.86	328.88
392.085	334.88
392.31	327.88
392.534	335.88
392.759	363.88
392.984	404.88
393.208	449.88
393.433	522.88
393.658	575.88
393.882	675.88
394.107	1064.88
394.331	1835.88
394.556	2387.88
394.78	1634.88
395.005	971.88
395.229	749.88
395.454	775.88
395.678	1003.88
395.903	1583.88
396.127	2688.88
396.352	3038.88
396.576	1856.88
396.801	1089.88
397.025	785.88
397.249	651.88
397.474	575.88
397.698	489.88
397.922	471.88
398.147	450.88
398.371	447.88
398.595	426.88
398.82	402.88
399.044	407.88
399.268	404.88
399.492	438.88
399.717	442.88
399.941	447.88
400.165	432.88
400.389	391.88
400.613	376.88
400.837	344.88
401.062	342.88
401.286	361.88
401.51	335.88
401.734	335.88
401.958	332.88
402.182	349.88
402.406	345.88
402.63	354.88
402.854	357.88
403.078	350.88
403.302	332.88
403.526	350.88
403.75	333.88
403.974	346.88
404.198	357.88
404.422	364.88
404.645	349.88
404.869	347.88
405.093	357.88
405.317	364.88
405.541	354.88
405.765	331.88
405.988	348.88
406.212	358.88
406.436	338.88
406.66	356.88
406.883	363.88
407.107	363.88
407.331	350.88
407.555	363.88
407.778	350.88
408.002	342.88
408.226	380.88
408.449	363.88
408.673	352.88
408.896	341.88
409.12	348.88
409.344	365.88
409.567	341.88
409.791	341.88
410.014	332.88
410.238	327.88
410.461	347.88
410.685	333.88
410.908	334.88
411.132	346.88
411.355	337.88
411.578	346.88
411.802	348.88
412.025	319.88
412.249	347.88
412.472	338.88
412.695	343.88
412.919	322.88
413.142	323.88
413.365	333.88
413.589	351.88
413.812	330.88
414.035	330.88
414.258	346.88
414.482	344.88
414.705	333.88
414.928	336.88
415.151	327.88
415.374	354.88
415.597	341.88
415.821	336.88
416.044	348.88
416.267	349.88
416.49	351.88
416.713	334.88
416.936	338.88
417.159	330.88
417.382	311.88
417.605	333.88
417.828	346.88
418.051	319.88
418.274	347.88
418.497	335.88
418.72	327.88
418.943	339.88
419.166	365.88
419.389	375.88
419.611	356.88
419.834	337.88
420.057	360.88
420.28	329.88
420.503	319.88
420.726	333.88
420.948	322.88
421.171	327.88
421.394	309.88
421.617	345.88
421.839	335.88
422.062	352.88
422.285	331.88
422.507	318.88
422.73	364.88
422.953	346.88
423.175	328.88
423.398	344.88
423.621	333.88
423.843	329.88
424.066	355.88
424.288	358.88
424.511	361.88
424.733	367.88
424.956	340.88
425.178	337.88
425.401	350.88
425.623	354.88
425.846	331.88
426.068	326.88
426.291	328.88
426.513	314.88
426.735	335.88
426.958	329.88
427.18	309.88
427.402	334.88
427.625	322.88
427.847	329.88
428.069	311.88
428.292	318.88
428.514	330.88
428.736	333.88
428.958	320.88
429.181	318.88
429.403	319.88
429.625	328.88
429.847	305.88
430.069	317.88
430.292	339.88
430.514	325.88
430.736	317.88
430.958	320.88
431.18	317.88
431.402	303.88
431.624	312.88
431.846	274.88
432.068	281.88
432.29	309.88
432.512	306.88
432.734	324.88
432.956	327.88
433.178	327.88
433.4	336.88
433.622	319.88
433.844	325.88
434.066	291.88
434.287	285.88
434.509	311.88
434.731	307.88
434.953	338.88
435.175	308.88
435.397	319.88
435.618	293.88
435.84	309.88
436.062	307.88
436.284	313.88
436.505	322.88
436.727	323.88
436.949	334.88
437.17	316.88
437.392	306.88
437.614	306.88
437.835	272.88
438.057	314.88
438.278	313.88
438.5	315.88
438.721	312.88
438.943	298.88
439.165	320.88
439.386	334.88
439.608	334.88
439.829	328.88
440.05	340.88
440.272	342.88
440.493	337.88
440.715	335.88
440.936	343.88
441.158	352.88
441.379	361.88
441.6	366.88
441.822	344.88
442.043	354.88
442.264	354.88
442.486	357.88
442.707	346.88
442.928	339.88
443.149	350.88
443.371	354.88
443.592	348.88
443.813	350.88
444.034	366.88
444.255	361.88
444.476	362.88
444.698	362.88
444.919	373.88
445.14	610.88
445.361	492.88
445.582	365.88
445.803	352.88
446.024	354.88
446.245	352.88
446.466	352.88
446.687	367.88
446.908	357.88
447.129	360.88
447.35	358.88
447.571	323.88
447.792	339.88
448.013	332.88
448.234	352.88
448.455	331.88
448.675	313.88
448.896	335.88
449.117	323.88
449.338	310.88
449.559	328.88
449.779	309.88
450	312.88
450.221	315.88
450.442	341.88
450.662	322.88
450.883	317.88
451.104	331.88
451.324	312.88
451.545	296.88
451.766	345.88
451.986	328.88
452.207	308.88
452.428	311.88
452.648	328.88
452.869	318.88
453.089	329.88
453.31	301.88
453.53	313.88
453.751	312.88
453.971	303.88
454.192	299.88
454.412	321.88
454.633	293.88
454.853	299.88
455.073	294.88
455.294	294.88
455.514	296.88
455.734	300.88
455.955	303.88
456.175	291.88
456.395	296.88
456.616	283.88
456.836	272.88
457.056	300.88
457.276	275.88
457.497	282.88
457.717	279.88
457.937	254.88
458.157	277.88
458.377	267.88
458.598	284.88
458.818	263.88
459.038	282.88
459.258	285.88
459.478	277.88
459.698	297.88
459.918	307.88
460.138	312.88
460.358	316.88
460.578	327.88
460.798	329.88
461.018	319.88
461.238	327.88
461.458	341.88
461.678	327.88
461.898	336.88
462.118	334.88
462.338	351.88
462.558	355.88
462.777	364.88
462.997	358.88
463.217	369.88
463.437	364.88
463.657	348.88
463.876	356.88
464.096	347.88
464.316	354.88
464.536	368.88
464.755	352.88
464.975	346.88
465.195	365.88
465.414	331.88
465.634	323.88
465.854	331.88
466.073	361.88
466.293	350.88
466.512	392.88
466.732	384.88
466.951	371.88
467.171	344.88
467.391	343.88
467.61	361.88
467.829	355.88
468.049	341.88
468.268	335.88
468.488	309.88
468.707	325.88
468.927	320.88
469.146	333.88
469.365	355.88
469.585	344.88
469.804	341.88
470.023	346.88
470.243	339.88
470.462	339.88
470.681	334.88
470.901	343.88
471.12	343.88
471.339	330.88
471.558	318.88
471.777	338.88
471.997	335.88
472.216	311.88
472.435	287.88
472.654	317.88
472.873	340.88
473.092	315.88
473.311	331.88
473.53	376.88
473.749	374.88
473.968	382.88
474.187	368.88
474.406	365.88
474.625	388.88
474.844	414.88
475.063	382.88
475.282	366.88
475.501	338.88
475.72	317.88
475.939	338.88
476.158	339.88
476.377	340.88
476.596	313.88
476.814	316.88
477.033	315.88
477.252	310.88
477.471	313.88
477.69	337.88
477.908	352.88
478.127	344.88
478.346	342.88
478.564	348.88
478.783	358.88
479.002	350.88
479.22	344.88
479.439	352.88
479.658	326.88
479.876	337.88
480.095	318.88
480.313	342.88
480.532	355.88
480.751	344.88
480.969	315.88
481.188	311.88
481.406	314.88
481.624	299.88
481.843	303.88
482.061	293.88
482.28	320.88
482.498	315.88
482.717	316.88
482.935	332.88
483.153	350.88
483.372	325.88
483.59	338.88
483.808	345.88
484.027	333.88
484.245	356.88
484.463	402.88
484.681	406.88
484.9	379.88
485.118	357.88
485.336	362.88
485.554	354.88
485.772	352.88
485.99	340.88
486.209	343.88
486.427	346.88
486.645	358.88
486.863	378.88
487.081	373.88
487.299	371.88
487.517	379.88
487.735	407.88
487.953	402.88
488.171	425.88
488.389	415.88
488.607	401.88
488.825	364.88
489.043	331.88
489.261	356.88
489.479	363.88
489.696	376.88
489.914	375.88
490.132	365.88
490.35	377.88
490.568	397.88
490.786	396.88
491.003	372.88
491.221	405.88
491.439	411.88
491.657	426.88
491.874	428.88
492.092	469.88
492.31	472.88
492.527	423.88
492.745	430.88
492.963	426.88
493.18	428.88
493.398	405.88
493.615	418.88
493.833	408.88
494.05	401.88
494.268	395.88
494.485	376.88
494.703	401.88
494.92	391.88
495.138	414.88
495.355	397.88
495.573	393.88
495.79	377.88
496.008	400.88
496.225	412.88
496.442	398.88
496.66	395.88
496.877	378.88
497.094	418.88
497.312	389.88
497.529	400.88
497.746	407.88
497.963	389.88
498.181	377.88
498.398	415.88
498.615	426.88
498.832	412.88
499.049	415.88
499.267	455.88
499.484	466.88
499.701	526.88
499.918	530.88
500.135	552.88
500.352	578.88
500.569	587.88
500.786	592.88
501.003	562.88
501.22	537.88
501.437	525.88
501.654	482.88
501.871	449.88
502.088	435.88
502.305	426.88
502.522	399.88
502.739	383.88
502.956	383.88
