Data from SampC_HRD10591_00083.txt Node
Date: Mon Jan 19 11:37:57 EST 2026
User: Yrep
Spectrometer: HR+D1059
Trigger mode: 0
Integration Time (sec): 3.443000E-1
Scans to average: 1
Electric dark correction enabled: true
Nonlinearity correction enabled: false
Boxcar width: 0
XAxis mode: Wavelengths
Number of Pixels in Spectrum: 2048
>>>>>Begin Spectral Data<<<<<
223.165	-19.31
223.4	-19.31
223.635	-19.31
223.869	-22.31
224.104	-4.31
224.338	-15.31
224.573	-20.31
224.808	-28.31
225.042	-18.31
225.277	-3.31
225.511	-20.31
225.746	11.69
225.98	17.69
226.215	24.69
226.449	16.69
226.683	11.69
226.918	31.69
227.152	37.69
227.387	33.69
227.621	35.69
227.856	37.69
228.09	32.69
228.324	44.69
228.559	48.69
228.793	79.69
229.027	59.69
229.262	78.69
229.496	73.69
229.73	78.69
229.964	83.69
230.199	90.69
230.433	87.69
230.667	109.69
230.901	92.69
231.136	91.69
231.37	98.69
231.604	94.69
231.838	97.69
232.072	93.69
232.306	96.69
232.541	102.69
232.775	94.69
233.009	89.69
233.243	85.69
233.477	84.69
233.711	85.69
233.945	91.69
234.179	93.69
234.413	105.69
234.647	92.69
234.881	92.69
235.115	94.69
235.349	97.69
235.583	105.69
235.817	100.69
236.051	101.69
236.285	102.69
236.519	114.69
236.753	135.69
236.987	133.69
237.221	160.69
237.455	147.69
237.689	156.69
237.922	141.69
238.156	132.69
238.39	106.69
238.624	99.69
238.858	102.69
239.091	99.69
239.325	95.69
239.559	108.69
239.793	106.69
240.027	92.69
240.26	101.69
240.494	92.69
240.728	82.69
240.961	92.69
241.195	101.69
241.429	101.69
241.662	95.69
241.896	90.69
242.13	104.69
242.363	95.69
242.597	96.69
242.83	97.69
243.064	81.69
243.298	103.69
243.531	97.69
243.765	87.69
243.998	106.69
244.232	97.69
244.465	104.69
244.699	112.69
244.932	106.69
245.166	112.69
245.399	90.69
245.633	102.69
245.866	109.69
246.099	107.69
246.333	114.69
246.566	103.69
246.8	115.69
247.033	106.69
247.266	100.69
247.5	98.69
247.733	120.69
247.966	117.69
248.2	118.69
248.433	99.69
248.666	114.69
248.899	78.69
249.133	109.69
249.366	113.69
249.599	115.69
249.832	112.69
250.066	127.69
250.299	116.69
250.532	101.69
250.765	110.69
250.998	121.69
251.231	113.69
251.465	119.69
251.698	90.69
251.931	122.69
252.164	113.69
252.397	116.69
252.63	117.69
252.863	99.69
253.096	139.69
253.329	117.69
253.562	114.69
253.795	124.69
254.028	122.69
254.261	126.69
254.494	121.69
254.727	137.69
254.96	118.69
255.193	111.69
255.426	128.69
255.659	121.69
255.892	115.69
256.124	121.69
256.357	127.69
256.59	152.69
256.823	149.69
257.056	189.69
257.289	176.69
257.521	185.69
257.754	214.69
257.987	201.69
258.22	155.69
258.452	153.69
258.685	149.69
258.918	123.69
259.151	119.69
259.383	130.69
259.616	126.69
259.849	125.69
260.081	146.69
260.314	121.69
260.547	120.69
260.779	129.69
261.012	127.69
261.244	138.69
261.477	135.69
261.71	125.69
261.942	136.69
262.175	135.69
262.407	120.69
262.64	126.69
262.872	153.69
263.105	151.69
263.337	178.69
263.57	171.69
263.802	156.69
264.035	154.69
264.267	136.69
264.499	153.69
264.732	173.69
264.964	167.69
265.197	167.69
265.429	174.69
265.661	185.69
265.894	161.69
266.126	176.69
266.358	192.69
266.591	191.69
266.823	158.69
267.055	147.69
267.287	147.69
267.52	132.69
267.752	130.69
267.984	136.69
268.216	144.69
268.448	156.69
268.681	129.69
268.913	140.69
269.145	130.69
269.377	130.69
269.609	125.69
269.841	129.69
270.073	127.69
270.306	142.69
270.538	136.69
270.77	134.69
271.002	153.69
271.234	140.69
271.466	130.69
271.698	139.69
271.93	121.69
272.162	125.69
272.394	127.69
272.626	138.69
272.858	141.69
273.09	141.69
273.322	139.69
273.553	151.69
273.785	146.69
274.017	129.69
274.249	147.69
274.481	151.69
274.713	140.69
274.945	155.69
275.176	153.69
275.408	141.69
275.64	143.69
275.872	157.69
276.104	139.69
276.335	139.69
276.567	138.69
276.799	141.69
277.031	147.69
277.262	140.69
277.494	159.69
277.726	161.69
277.957	151.69
278.189	176.69
278.421	169.69
278.652	176.69
278.884	193.69
279.115	261.69
279.347	333.69
279.579	397.69
279.81	481.69
280.042	412.69
280.273	369.69
280.505	362.69
280.736	266.69
280.968	216.69
281.199	213.69
281.431	257.69
281.662	303.69
281.894	347.69
282.125	290.69
282.356	215.69
282.588	201.69
282.819	191.69
283.051	193.69
283.282	190.69
283.513	197.69
283.745	181.69
283.976	163.69
284.207	153.69
284.439	169.69
284.67	179.69
284.901	177.69
285.132	204.69
285.364	211.69
285.595	204.69
285.826	182.69
286.057	191.69
286.288	157.69
286.52	164.69
286.751	164.69
286.982	153.69
287.213	185.69
287.444	173.69
287.675	163.69
287.906	174.69
288.138	146.69
288.369	162.69
288.6	169.69
288.831	176.69
289.062	165.69
289.293	173.69
289.524	177.69
289.755	173.69
289.986	161.69
290.217	183.69
290.448	171.69
290.679	173.69
290.91	185.69
291.141	178.69
291.371	180.69
291.602	181.69
291.833	171.69
292.064	167.69
292.295	178.69
292.526	168.69
292.757	194.69
292.987	188.69
293.218	192.69
293.449	189.69
293.68	178.69
293.91	181.69
294.141	194.69
294.372	176.69
294.603	174.69
294.833	172.69
295.064	171.69
295.295	164.69
295.525	156.69
295.756	182.69
295.987	177.69
296.217	174.69
296.448	170.69
296.679	180.69
296.909	186.69
297.14	170.69
297.37	180.69
297.601	169.69
297.831	170.69
298.062	170.69
298.292	175.69
298.523	183.69
298.753	176.69
298.984	181.69
299.214	179.69
299.445	179.69
299.675	185.69
299.905	172.69
300.136	162.69
300.366	158.69
300.597	176.69
300.827	187.69
301.057	165.69
301.288	183.69
301.518	184.69
301.748	190.69
301.979	241.69
302.209	194.69
302.439	190.69
302.669	174.69
302.9	193.69
303.13	195.69
303.36	222.69
303.59	220.69
303.82	197.69
304.051	205.69
304.281	220.69
304.511	215.69
304.741	235.69
304.971	268.69
305.201	288.69
305.431	315.69
305.661	376.69
305.891	387.69
306.121	382.69
306.352	359.69
306.582	356.69
306.812	382.69
307.042	319.69
307.272	305.69
307.502	349.69
307.731	442.69
307.961	591.69
308.191	795.69
308.421	943.69
308.651	798.69
308.881	728.69
309.111	868.69
309.341	1083.69
309.571	1045.69
309.8	678.69
310.03	485.69
310.26	391.69
310.49	320.69
310.72	318.69
310.949	287.69
311.179	279.69
311.409	259.69
311.639	241.69
311.868	242.69
312.098	243.69
312.328	235.69
312.557	227.69
312.787	222.69
313.017	223.69
313.246	219.69
313.476	222.69
313.706	225.69
313.935	218.69
314.165	233.69
314.394	217.69
314.624	207.69
314.853	192.69
315.083	213.69
315.312	195.69
315.542	218.69
315.771	201.69
316.001	204.69
316.23	194.69
316.46	188.69
316.689	205.69
316.919	201.69
317.148	198.69
317.377	207.69
317.607	206.69
317.836	189.69
318.065	192.69
318.295	195.69
318.524	186.69
318.753	200.69
318.983	198.69
319.212	194.69
319.441	199.69
319.67	195.69
319.9	190.69
320.129	212.69
320.358	205.69
320.587	199.69
320.816	201.69
321.046	192.69
321.275	197.69
321.504	186.69
321.733	183.69
321.962	203.69
322.191	194.69
322.42	188.69
322.649	197.69
322.878	205.69
323.108	183.69
323.337	203.69
323.566	203.69
323.795	196.69
324.024	201.69
324.253	203.69
324.482	209.69
324.71	208.69
324.939	189.69
325.168	212.69
325.397	205.69
325.626	220.69
325.855	183.69
326.084	184.69
326.313	201.69
326.542	197.69
326.77	196.69
326.999	203.69
327.228	195.69
327.457	211.69
327.686	192.69
327.914	205.69
328.143	203.69
328.372	183.69
328.6	203.69
328.829	205.69
329.058	206.69
329.287	195.69
329.515	193.69
329.744	215.69
329.972	203.69
330.201	194.69
330.43	216.69
330.658	217.69
330.887	204.69
331.115	209.69
331.344	208.69
331.572	209.69
331.801	218.69
332.03	216.69
332.258	213.69
332.486	205.69
332.715	215.69
332.943	216.69
333.172	234.69
333.4	240.69
333.629	246.69
333.857	239.69
334.085	257.69
334.314	226.69
334.542	233.69
334.771	215.69
334.999	233.69
335.227	216.69
335.455	221.69
335.684	215.69
335.912	233.69
336.14	217.69
336.369	212.69
336.597	210.69
336.825	202.69
337.053	212.69
337.281	210.69
337.51	215.69
337.738	201.69
337.966	203.69
338.194	217.69
338.422	205.69
338.65	203.69
338.878	209.69
339.106	212.69
339.334	227.69
339.562	205.69
339.79	186.69
340.018	213.69
340.246	201.69
340.474	212.69
340.702	217.69
340.93	201.69
341.158	213.69
341.386	223.69
341.614	218.69
341.842	215.69
342.07	194.69
342.298	203.69
342.526	203.69
342.754	215.69
342.981	226.69
343.209	191.69
343.437	248.69
343.665	230.69
343.893	249.69
344.12	238.69
344.348	235.69
344.576	209.69
344.804	207.69
345.031	183.69
345.259	220.69
345.487	204.69
345.714	215.69
345.942	216.69
346.17	226.69
346.397	201.69
346.625	211.69
346.853	206.69
347.08	210.69
347.308	189.69
347.535	223.69
347.763	207.69
347.99	201.69
348.218	220.69
348.445	219.69
348.673	205.69
348.9	218.69
349.128	222.69
349.355	216.69
349.583	203.69
349.81	219.69
350.037	220.69
350.265	220.69
350.492	213.69
350.72	217.69
350.947	212.69
351.174	202.69
351.402	200.69
351.629	212.69
351.856	199.69
352.083	216.69
352.311	223.69
352.538	224.69
352.765	220.69
352.992	231.69
353.22	236.69
353.447	237.69
353.674	227.69
353.901	241.69
354.128	234.69
354.355	225.69
354.583	243.69
354.81	243.69
355.037	251.69
355.264	252.69
355.491	248.69
355.718	264.69
355.945	286.69
356.172	279.69
356.399	263.69
356.626	280.69
356.853	292.69
357.08	315.69
357.307	330.69
357.534	314.69
357.761	357.69
357.988	419.69
358.215	465.69
358.441	536.69
358.668	575.69
358.895	573.69
359.122	467.69
359.349	407.69
359.576	383.69
359.802	339.69
360.029	327.69
360.256	303.69
360.483	288.69
360.709	278.69
360.936	325.69
361.163	306.69
361.39	286.69
361.616	276.69
361.843	267.69
362.07	264.69
362.296	257.69
362.523	245.69
362.749	239.69
362.976	247.69
363.203	242.69
363.429	232.69
363.656	240.69
363.882	236.69
364.109	241.69
364.335	257.69
364.562	240.69
364.788	227.69
365.015	248.69
365.241	229.69
365.468	221.69
365.694	219.69
365.92	222.69
366.147	215.69
366.373	232.69
366.599	219.69
366.826	239.69
367.052	231.69
367.278	237.69
367.505	225.69
367.731	230.69
367.957	233.69
368.184	229.69
368.41	232.69
368.636	210.69
368.862	209.69
369.089	217.69
369.315	215.69
369.541	216.69
369.767	218.69
369.993	213.69
370.219	239.69
370.445	236.69
370.672	231.69
370.898	225.69
371.124	222.69
371.35	224.69
371.576	217.69
371.802	245.69
372.028	221.69
372.254	239.69
372.48	234.69
372.706	219.69
372.932	236.69
373.158	242.69
373.384	248.69
373.61	248.69
373.835	238.69
374.061	237.69
374.287	235.69
374.513	227.69
374.739	237.69
374.965	244.69
375.191	228.69
375.416	224.69
375.642	228.69
375.868	258.69
376.094	222.69
376.319	218.69
376.545	237.69
376.771	223.69
376.997	223.69
377.222	233.69
377.448	218.69
377.674	250.69
377.899	242.69
378.125	221.69
378.35	232.69
378.576	216.69
378.802	215.69
379.027	219.69
379.253	229.69
379.478	240.69
379.704	223.69
379.929	227.69
380.155	225.69
380.38	221.69
380.606	228.69
380.831	230.69
381.057	240.69
381.282	258.69
381.507	234.69
381.733	249.69
381.958	243.69
382.184	252.69
382.409	235.69
382.634	268.69
382.86	267.69
383.085	283.69
383.31	281.69
383.535	284.69
383.761	297.69
383.986	294.69
384.211	270.69
384.436	255.69
384.662	251.69
384.887	266.69
385.112	239.69
385.337	250.69
385.562	240.69
385.787	271.69
386.013	277.69
386.238	259.69
386.463	265.69
386.688	292.69
386.913	251.69
387.138	246.69
387.363	267.69
387.588	280.69
387.813	271.69
388.038	248.69
388.263	270.69
388.488	260.69
388.713	275.69
388.938	262.69
389.163	274.69
389.387	259.69
389.612	263.69
389.837	265.69
390.062	277.69
390.287	258.69
390.512	254.69
390.736	255.69
390.961	255.69
391.186	287.69
391.411	287.69
391.636	297.69
391.86	274.69
392.085	301.69
392.31	303.69
392.534	288.69
392.759	296.69
392.984	305.69
393.208	337.69
393.433	380.69
393.658	415.69
393.882	482.69
394.107	733.69
394.331	1244.69
394.556	1612.69
394.78	1144.69
395.005	669.69
395.229	535.69
395.454	568.69
395.678	662.69
395.903	1052.69
396.127	1796.69
396.352	2113.69
396.576	1309.69
396.801	784.69
397.025	574.69
397.249	505.69
397.474	425.69
397.698	391.69
397.922	389.69
398.147	379.69
398.371	357.69
398.595	355.69
398.82	329.69
399.044	336.69
399.268	347.69
399.492	351.69
399.717	372.69
399.941	368.69
400.165	367.69
400.389	338.69
400.613	321.69
400.837	331.69
401.062	313.69
401.286	293.69
401.51	291.69
401.734	305.69
401.958	305.69
402.182	309.69
402.406	308.69
402.63	290.69
402.854	319.69
403.078	307.69
403.302	311.69
403.526	313.69
403.75	295.69
403.974	314.69
404.198	309.69
404.422	334.69
404.645	311.69
404.869	315.69
405.093	296.69
405.317	315.69
405.541	303.69
405.765	304.69
405.988	295.69
406.212	307.69
406.436	288.69
406.66	322.69
406.883	313.69
407.107	307.69
407.331	317.69
407.555	351.69
407.778	330.69
408.002	329.69
408.226	321.69
408.449	309.69
408.673	314.69
408.896	310.69
409.12	299.69
409.344	306.69
409.567	308.69
409.791	275.69
410.014	284.69
410.238	309.69
410.461	311.69
410.685	304.69
410.908	307.69
411.132	301.69
411.355	308.69
411.578	307.69
411.802	282.69
412.025	305.69
412.249	297.69
412.472	304.69
412.695	286.69
412.919	274.69
413.142	290.69
413.365	279.69
413.589	290.69
413.812	297.69
414.035	307.69
414.258	282.69
414.482	290.69
414.705	290.69
414.928	292.69
415.151	280.69
415.374	284.69
415.597	287.69
415.821	311.69
416.044	300.69
416.267	301.69
416.49	294.69
416.713	280.69
416.936	284.69
417.159	282.69
417.382	283.69
417.605	275.69
417.828	289.69
418.051	291.69
418.274	286.69
418.497	294.69
418.72	305.69
418.943	298.69
419.166	309.69
419.389	328.69
419.611	312.69
419.834	304.69
420.057	310.69
420.28	313.69
420.503	260.69
420.726	285.69
420.948	311.69
421.171	300.69
421.394	315.69
421.617	291.69
421.839	303.69
422.062	297.69
422.285	293.69
422.507	306.69
422.73	302.69
422.953	292.69
423.175	279.69
423.398	305.69
423.621	289.69
423.843	317.69
424.066	323.69
424.288	318.69
424.511	311.69
424.733	304.69
424.956	308.69
425.178	299.69
425.401	294.69
425.623	301.69
425.846	278.69
426.068	283.69
426.291	290.69
426.513	296.69
426.735	294.69
426.958	284.69
427.18	287.69
427.402	284.69
427.625	292.69
427.847	274.69
428.069	285.69
428.292	275.69
428.514	282.69
428.736	264.69
428.958	257.69
429.181	283.69
429.403	299.69
429.625	283.69
429.847	275.69
430.069	281.69
430.292	301.69
430.514	272.69
430.736	270.69
430.958	284.69
431.18	275.69
431.402	271.69
431.624	287.69
431.846	269.69
432.068	271.69
432.29	273.69
432.512	263.69
432.734	273.69
432.956	271.69
433.178	286.69
433.4	289.69
433.622	281.69
433.844	287.69
434.066	281.69
434.287	269.69
434.509	263.69
434.731	267.69
434.953	283.69
435.175	299.69
435.397	276.69
435.618	272.69
435.84	276.69
436.062	261.69
436.284	267.69
436.505	274.69
436.727	265.69
436.949	293.69
437.17	257.69
437.392	267.69
437.614	247.69
437.835	256.69
438.057	258.69
438.278	261.69
438.5	270.69
438.721	285.69
438.943	297.69
439.165	282.69
439.386	283.69
439.608	302.69
439.829	291.69
440.05	294.69
440.272	283.69
440.493	280.69
440.715	292.69
440.936	299.69
441.158	311.69
441.379	308.69
441.6	313.69
441.822	299.69
442.043	287.69
442.264	293.69
442.486	280.69
442.707	309.69
442.928	287.69
443.149	305.69
443.371	301.69
443.592	295.69
443.813	300.69
444.034	305.69
444.255	301.69
444.476	289.69
444.698	319.69
444.919	326.69
445.14	511.69
445.361	379.69
445.582	318.69
445.803	287.69
446.024	284.69
446.245	305.69
446.466	293.69
446.687	311.69
446.908	291.69
447.129	283.69
447.35	283.69
447.571	292.69
447.792	303.69
448.013	288.69
448.234	293.69
448.455	298.69
448.675	293.69
448.896	283.69
449.117	271.69
449.338	308.69
449.559	283.69
449.779	277.69
450	283.69
450.221	273.69
450.442	266.69
450.662	285.69
450.883	271.69
451.104	275.69
451.324	264.69
451.545	261.69
451.766	282.69
451.986	275.69
452.207	285.69
452.428	282.69
452.648	290.69
452.869	284.69
453.089	274.69
453.31	284.69
453.53	267.69
453.751	268.69
453.971	275.69
454.192	297.69
454.412	286.69
454.633	274.69
454.853	261.69
455.073	263.69
455.294	259.69
455.514	255.69
455.734	249.69
455.955	258.69
456.175	250.69
456.395	241.69
456.616	251.69
456.836	253.69
457.056	246.69
457.276	243.69
457.497	247.69
457.717	241.69
457.937	253.69
458.157	252.69
458.377	244.69
458.598	246.69
458.818	251.69
459.038	254.69
459.258	252.69
459.478	233.69
459.698	257.69
459.918	273.69
460.138	275.69
460.358	274.69
460.578	292.69
460.798	293.69
461.018	289.69
461.238	279.69
461.458	288.69
461.678	303.69
461.898	301.69
462.118	291.69
462.338	296.69
462.558	302.69
462.777	309.69
462.997	335.69
463.217	316.69
463.437	337.69
463.657	295.69
463.876	316.69
464.096	327.69
464.316	304.69
464.536	309.69
464.755	313.69
464.975	320.69
465.195	314.69
465.414	290.69
465.634	301.69
465.854	312.69
466.073	316.69
466.293	333.69
466.512	354.69
466.732	356.69
466.951	316.69
467.171	312.69
467.391	305.69
467.61	304.69
467.829	301.69
468.049	290.69
468.268	286.69
468.488	296.69
468.707	286.69
468.927	297.69
469.146	278.69
469.365	302.69
469.585	290.69
469.804	291.69
470.023	286.69
470.243	305.69
470.462	290.69
470.681	283.69
470.901	279.69
471.12	286.69
471.339	279.69
471.558	296.69
471.777	283.69
471.997	293.69
472.216	274.69
472.435	276.69
472.654	265.69
472.873	281.69
473.092	284.69
473.311	296.69
473.53	301.69
473.749	315.69
473.968	332.69
474.187	320.69
474.406	327.69
474.625	329.69
474.844	320.69
475.063	319.69
475.282	302.69
475.501	273.69
475.72	319.69
475.939	284.69
476.158	284.69
476.377	290.69
476.596	279.69
476.814	284.69
477.033	284.69
477.252	294.69
477.471	286.69
477.69	297.69
477.908	291.69
478.127	293.69
478.346	308.69
478.564	300.69
478.783	293.69
479.002	313.69
479.22	314.69
479.439	296.69
479.658	304.69
479.876	301.69
480.095	294.69
480.313	282.69
480.532	320.69
480.751	273.69
480.969	280.69
481.188	277.69
481.406	291.69
481.624	275.69
481.843	270.69
482.061	268.69
482.28	273.69
482.498	269.69
482.717	265.69
482.935	288.69
483.153	299.69
483.372	300.69
483.59	293.69
483.808	289.69
484.027	317.69
484.245	322.69
484.463	335.69
484.681	323.69
484.9	324.69
485.118	319.69
485.336	305.69
485.554	315.69
485.772	311.69
485.99	313.69
486.209	296.69
486.427	294.69
486.645	317.69
486.863	329.69
487.081	331.69
487.299	323.69
487.517	348.69
487.735	346.69
487.953	348.69
488.171	347.69
488.389	345.69
488.607	321.69
488.825	300.69
489.043	318.69
489.261	320.69
489.479	304.69
489.696	320.69
489.914	332.69
490.132	312.69
490.35	335.69
490.568	305.69
490.786	339.69
491.003	335.69
491.221	333.69
491.439	346.69
491.657	327.69
491.874	364.69
492.092	370.69
492.31	372.69
492.527	348.69
492.745	341.69
492.963	339.69
493.18	342.69
493.398	348.69
493.615	331.69
493.833	340.69
494.05	332.69
494.268	335.69
494.485	334.69
494.703	330.69
494.92	358.69
495.138	343.69
495.355	344.69
495.573	348.69
495.79	328.69
496.008	338.69
496.225	352.69
496.442	323.69
496.66	334.69
496.877	346.69
497.094	362.69
497.312	341.69
497.529	347.69
497.746	342.69
497.963	320.69
498.181	337.69
498.398	347.69
498.615	373.69
498.832	364.69
499.049	368.69
499.267	401.69
499.484	407.69
499.701	450.69
499.918	452.69
500.135	484.69
500.352	496.69
500.569	515.69
500.786	497.69
501.003	502.69
501.22	467.69
501.437	448.69
501.654	416.69
501.871	398.69
502.088	386.69
502.305	381.69
502.522	356.69
502.739	380.69
502.956	355.69
503.172	329.69
