Data from SampC_HRD10591_00054.txt Node
Date: Mon Jan 19 11:37:48 EST 2026
User: Yrep
Spectrometer: HR+D1059
Trigger mode: 0
Integration Time (sec): 3.443000E-1
Scans to average: 1
Electric dark correction enabled: true
Nonlinearity correction enabled: false
Boxcar width: 0
XAxis mode: Wavelengths
Number of Pixels in Spectrum: 2048
>>>>>Begin Spectral Data<<<<<
223.165	-33.19
223.4	-33.19
223.635	-33.19
223.869	-24.19
224.104	-26.19
224.338	-16.19
224.573	-13.19
224.808	-16.19
225.042	9.81
225.277	-6.19
225.511	6.81
225.746	7.81
225.98	23.81
226.215	5.81
226.449	14.81
226.683	12.81
226.918	27.81
227.152	25.81
227.387	43.81
227.621	38.81
227.856	59.81
228.09	55.81
228.324	45.81
228.559	57.81
228.793	58.81
229.027	75.81
229.262	93.81
229.496	80.81
229.73	89.81
229.964	89.81
230.199	81.81
230.433	81.81
230.667	72.81
230.901	83.81
231.136	92.81
231.37	97.81
231.604	95.81
231.838	100.81
232.072	94.81
232.306	112.81
232.541	99.81
232.775	101.81
233.009	106.81
233.243	83.81
233.477	101.81
233.711	108.81
233.945	88.81
234.179	94.81
234.413	101.81
234.647	86.81
234.881	78.81
235.115	96.81
235.349	89.81
235.583	100.81
235.817	95.81
236.051	92.81
236.285	95.81
236.519	117.81
236.753	106.81
236.987	131.81
237.221	148.81
237.455	146.81
237.689	153.81
237.922	143.81
238.156	106.81
238.39	102.81
238.624	84.81
238.858	94.81
239.091	82.81
239.325	89.81
239.559	88.81
239.793	100.81
240.027	96.81
240.26	97.81
240.494	86.81
240.728	87.81
240.961	88.81
241.195	93.81
241.429	93.81
241.662	98.81
241.896	89.81
242.13	83.81
242.363	97.81
242.597	88.81
242.83	82.81
243.064	96.81
243.298	93.81
243.531	93.81
243.765	86.81
243.998	107.81
244.232	108.81
244.465	87.81
244.699	85.81
244.932	101.81
245.166	91.81
245.399	93.81
245.633	83.81
245.866	105.81
246.099	95.81
246.333	98.81
246.566	103.81
246.8	95.81
247.033	103.81
247.266	110.81
247.5	99.81
247.733	113.81
247.966	115.81
248.2	108.81
248.433	108.81
248.666	106.81
248.899	98.81
249.133	97.81
249.366	110.81
249.599	91.81
249.832	104.81
250.066	127.81
250.299	109.81
250.532	104.81
250.765	101.81
250.998	102.81
251.231	119.81
251.465	112.81
251.698	99.81
251.931	120.81
252.164	101.81
252.397	99.81
252.63	111.81
252.863	100.81
253.096	109.81
253.329	124.81
253.562	97.81
253.795	97.81
254.028	102.81
254.261	101.81
254.494	106.81
254.727	111.81
254.96	103.81
255.193	97.81
255.426	96.81
255.659	106.81
255.892	121.81
256.124	92.81
256.357	118.81
256.59	123.81
256.823	146.81
257.056	155.81
257.289	154.81
257.521	177.81
257.754	189.81
257.987	161.81
258.22	145.81
258.452	119.81
258.685	120.81
258.918	125.81
259.151	123.81
259.383	122.81
259.616	111.81
259.849	121.81
260.081	125.81
260.314	109.81
260.547	119.81
260.779	115.81
261.012	122.81
261.244	130.81
261.477	128.81
261.71	115.81
261.942	118.81
262.175	137.81
262.407	130.81
262.64	133.81
262.872	129.81
263.105	146.81
263.337	156.81
263.57	138.81
263.802	142.81
264.035	145.81
264.267	132.81
264.499	128.81
264.732	133.81
264.964	141.81
265.197	153.81
265.429	161.81
265.661	153.81
265.894	148.81
266.126	181.81
266.358	168.81
266.591	154.81
266.823	142.81
267.055	142.81
267.287	142.81
267.52	134.81
267.752	133.81
267.984	131.81
268.216	133.81
268.448	138.81
268.681	110.81
268.913	130.81
269.145	133.81
269.377	134.81
269.609	124.81
269.841	133.81
270.073	127.81
270.306	129.81
270.538	128.81
270.77	135.81
271.002	114.81
271.234	123.81
271.466	118.81
271.698	119.81
271.93	119.81
272.162	112.81
272.394	138.81
272.626	130.81
272.858	123.81
273.09	122.81
273.322	119.81
273.553	130.81
273.785	134.81
274.017	135.81
274.249	117.81
274.481	131.81
274.713	140.81
274.945	137.81
275.176	142.81
275.408	164.81
275.64	118.81
275.872	126.81
276.104	146.81
276.335	125.81
276.567	122.81
276.799	134.81
277.031	130.81
277.262	130.81
277.494	125.81
277.726	142.81
277.957	163.81
278.189	162.81
278.421	138.81
278.652	162.81
278.884	171.81
279.115	198.81
279.347	283.81
279.579	357.81
279.81	378.81
280.042	349.81
280.273	331.81
280.505	317.81
280.736	234.81
280.968	201.81
281.199	182.81
281.431	225.81
281.662	257.81
281.894	277.81
282.125	229.81
282.356	211.81
282.588	187.81
282.819	164.81
283.051	154.81
283.282	160.81
283.513	165.81
283.745	163.81
283.976	161.81
284.207	158.81
284.439	158.81
284.67	146.81
284.901	162.81
285.132	175.81
285.364	190.81
285.595	182.81
285.826	155.81
286.057	140.81
286.288	155.81
286.52	146.81
286.751	146.81
286.982	148.81
287.213	133.81
287.444	146.81
287.675	150.81
287.906	165.81
288.138	155.81
288.369	158.81
288.6	141.81
288.831	144.81
289.062	162.81
289.293	142.81
289.524	143.81
289.755	146.81
289.986	143.81
290.217	163.81
290.448	139.81
290.679	137.81
290.91	153.81
291.141	153.81
291.371	147.81
291.602	145.81
291.833	161.81
292.064	154.81
292.295	157.81
292.526	154.81
292.757	159.81
292.987	171.81
293.218	176.81
293.449	174.81
293.68	157.81
293.91	140.81
294.141	162.81
294.372	160.81
294.603	155.81
294.833	153.81
295.064	145.81
295.295	149.81
295.525	145.81
295.756	164.81
295.987	153.81
296.217	138.81
296.448	153.81
296.679	149.81
296.909	159.81
297.14	150.81
297.37	149.81
297.601	146.81
297.831	151.81
298.062	150.81
298.292	146.81
298.523	154.81
298.753	153.81
298.984	156.81
299.214	160.81
299.445	156.81
299.675	157.81
299.905	145.81
300.136	141.81
300.366	165.81
300.597	152.81
300.827	160.81
301.057	147.81
301.288	156.81
301.518	169.81
301.748	171.81
301.979	187.81
302.209	162.81
302.439	160.81
302.669	156.81
302.9	183.81
303.13	160.81
303.36	193.81
303.59	183.81
303.82	196.81
304.051	173.81
304.281	198.81
304.511	201.81
304.741	191.81
304.971	225.81
305.201	272.81
305.431	302.81
305.661	313.81
305.891	335.81
306.121	321.81
306.352	298.81
306.582	303.81
306.812	281.81
307.042	273.81
307.272	270.81
307.502	288.81
307.731	352.81
307.961	482.81
308.191	691.81
308.421	797.81
308.651	679.81
308.881	629.81
309.111	772.81
309.341	965.81
309.571	928.81
309.8	594.81
310.03	401.81
310.26	339.81
310.49	274.81
310.72	254.81
310.949	244.81
311.179	237.81
311.409	227.81
311.639	228.81
311.868	205.81
312.098	190.81
312.328	190.81
312.557	187.81
312.787	195.81
313.017	199.81
313.246	189.81
313.476	181.81
313.706	193.81
313.935	190.81
314.165	189.81
314.394	180.81
314.624	170.81
314.853	181.81
315.083	185.81
315.312	176.81
315.542	192.81
315.771	187.81
316.001	167.81
316.23	174.81
316.46	171.81
316.689	167.81
316.919	170.81
317.148	165.81
317.377	192.81
317.607	185.81
317.836	183.81
318.065	170.81
318.295	166.81
318.524	165.81
318.753	170.81
318.983	169.81
319.212	183.81
319.441	177.81
319.67	167.81
319.9	169.81
320.129	153.81
320.358	145.81
320.587	162.81
320.816	167.81
321.046	176.81
321.275	171.81
321.504	168.81
321.733	175.81
321.962	167.81
322.191	174.81
322.42	166.81
322.649	163.81
322.878	188.81
323.108	179.81
323.337	177.81
323.566	181.81
323.795	182.81
324.024	170.81
324.253	180.81
324.482	180.81
324.71	179.81
324.939	199.81
325.168	164.81
325.397	166.81
325.626	165.81
325.855	171.81
326.084	180.81
326.313	191.81
326.542	180.81
326.77	173.81
326.999	173.81
327.228	163.81
327.457	164.81
327.686	174.81
327.914	174.81
328.143	178.81
328.372	172.81
328.6	173.81
328.829	153.81
329.058	173.81
329.287	172.81
329.515	163.81
329.744	182.81
329.972	177.81
330.201	179.81
330.43	178.81
330.658	162.81
330.887	186.81
331.115	174.81
331.344	176.81
331.572	178.81
331.801	175.81
332.03	198.81
332.258	180.81
332.486	174.81
332.715	181.81
332.943	186.81
333.172	185.81
333.4	195.81
333.629	179.81
333.857	206.81
334.085	195.81
334.314	202.81
334.542	177.81
334.771	192.81
334.999	208.81
335.227	205.81
335.455	185.81
335.684	198.81
335.912	181.81
336.14	204.81
336.369	184.81
336.597	189.81
336.825	188.81
337.053	182.81
337.281	188.81
337.51	198.81
337.738	171.81
337.966	179.81
338.194	175.81
338.422	174.81
338.65	195.81
338.878	177.81
339.106	187.81
339.334	197.81
339.562	178.81
339.79	180.81
340.018	171.81
340.246	189.81
340.474	187.81
340.702	173.81
340.93	173.81
341.158	190.81
341.386	191.81
341.614	173.81
341.842	178.81
342.07	172.81
342.298	175.81
342.526	163.81
342.754	189.81
342.981	171.81
343.209	181.81
343.437	203.81
343.665	179.81
343.893	191.81
344.12	201.81
344.348	178.81
344.576	189.81
344.804	194.81
345.031	172.81
345.259	181.81
345.487	181.81
345.714	171.81
345.942	181.81
346.17	181.81
346.397	180.81
346.625	194.81
346.853	166.81
347.08	168.81
347.308	195.81
347.535	179.81
347.763	175.81
347.99	176.81
348.218	185.81
348.445	182.81
348.673	180.81
348.9	186.81
349.128	180.81
349.355	185.81
349.583	185.81
349.81	191.81
350.037	165.81
350.265	185.81
350.492	191.81
350.72	185.81
350.947	185.81
351.174	193.81
351.402	185.81
351.629	198.81
351.856	201.81
352.083	176.81
352.311	193.81
352.538	196.81
352.765	195.81
352.992	195.81
353.22	186.81
353.447	190.81
353.674	189.81
353.901	195.81
354.128	191.81
354.355	183.81
354.583	201.81
354.81	207.81
355.037	218.81
355.264	220.81
355.491	220.81
355.718	226.81
355.945	245.81
356.172	224.81
356.399	235.81
356.626	234.81
356.853	252.81
357.08	268.81
357.307	256.81
357.534	277.81
357.761	309.81
357.988	334.81
358.215	386.81
358.441	410.81
358.668	429.81
358.895	457.81
359.122	382.81
359.349	319.81
359.576	295.81
359.802	271.81
360.029	267.81
360.256	235.81
360.483	249.81
360.709	248.81
360.936	273.81
361.163	233.81
361.39	238.81
361.616	228.81
361.843	217.81
362.07	232.81
362.296	203.81
362.523	223.81
362.749	202.81
362.976	227.81
363.203	227.81
363.429	210.81
363.656	206.81
363.882	205.81
364.109	203.81
364.335	217.81
364.562	193.81
364.788	195.81
365.015	204.81
365.241	193.81
365.468	198.81
365.694	205.81
365.92	205.81
366.147	201.81
366.373	189.81
366.599	197.81
366.826	186.81
367.052	181.81
367.278	193.81
367.505	191.81
367.731	216.81
367.957	202.81
368.184	186.81
368.41	192.81
368.636	203.81
368.862	211.81
369.089	194.81
369.315	199.81
369.541	197.81
369.767	194.81
369.993	189.81
370.219	188.81
370.445	179.81
370.672	197.81
370.898	192.81
371.124	198.81
371.35	195.81
371.576	188.81
371.802	191.81
372.028	189.81
372.254	180.81
372.48	201.81
372.706	195.81
372.932	197.81
373.158	212.81
373.384	199.81
373.61	208.81
373.835	202.81
374.061	198.81
374.287	202.81
374.513	206.81
374.739	204.81
374.965	209.81
375.191	211.81
375.416	196.81
375.642	190.81
375.868	198.81
376.094	188.81
376.319	192.81
376.545	206.81
376.771	183.81
376.997	190.81
377.222	191.81
377.448	209.81
377.674	201.81
377.899	204.81
378.125	203.81
378.35	193.81
378.576	197.81
378.802	202.81
379.027	203.81
379.253	197.81
379.478	207.81
379.704	190.81
379.929	192.81
380.155	187.81
380.38	189.81
380.606	207.81
380.831	196.81
381.057	201.81
381.282	202.81
381.507	201.81
381.733	204.81
381.958	209.81
382.184	208.81
382.409	203.81
382.634	225.81
382.86	219.81
383.085	247.81
383.31	226.81
383.535	233.81
383.761	239.81
383.986	250.81
384.211	235.81
384.436	232.81
384.662	212.81
384.887	209.81
385.112	223.81
385.337	206.81
385.562	225.81
385.787	230.81
386.013	234.81
386.238	223.81
386.463	227.81
386.688	263.81
386.913	214.81
387.138	210.81
387.363	214.81
387.588	230.81
387.813	217.81
388.038	205.81
388.263	212.81
388.488	217.81
388.713	219.81
388.938	223.81
389.163	244.81
389.387	229.81
389.612	226.81
389.837	219.81
390.062	222.81
390.287	228.81
390.512	233.81
390.736	218.81
390.961	230.81
391.186	231.81
391.411	237.81
391.636	227.81
391.86	238.81
392.085	247.81
392.31	240.81
392.534	249.81
392.759	248.81
392.984	285.81
393.208	281.81
393.433	325.81
393.658	337.81
393.882	407.81
394.107	609.81
394.331	1062.81
394.556	1361.81
394.78	969.81
395.005	561.81
395.229	459.81
395.454	467.81
395.678	566.81
395.903	897.81
396.127	1524.81
396.352	1793.81
396.576	1097.81
396.801	629.81
397.025	479.81
397.249	406.81
397.474	349.81
397.698	345.81
397.922	314.81
398.147	295.81
398.371	299.81
398.595	296.81
398.82	281.81
399.044	305.81
399.268	297.81
399.492	317.81
399.717	306.81
399.941	294.81
400.165	303.81
400.389	267.81
400.613	259.81
400.837	281.81
401.062	271.81
401.286	257.81
401.51	263.81
401.734	248.81
401.958	253.81
402.182	264.81
402.406	243.81
402.63	267.81
402.854	240.81
403.078	252.81
403.302	262.81
403.526	265.81
403.75	259.81
403.974	271.81
404.198	247.81
404.422	272.81
404.645	241.81
404.869	262.81
405.093	261.81
405.317	255.81
405.541	255.81
405.765	266.81
405.988	255.81
406.212	265.81
406.436	231.81
406.66	273.81
406.883	268.81
407.107	270.81
407.331	266.81
407.555	267.81
407.778	263.81
408.002	251.81
408.226	252.81
408.449	250.81
408.673	259.81
408.896	265.81
409.12	270.81
409.344	265.81
409.567	233.81
409.791	251.81
410.014	259.81
410.238	231.81
410.461	239.81
410.685	269.81
410.908	235.81
411.132	253.81
411.355	249.81
411.578	255.81
411.802	256.81
412.025	244.81
412.249	241.81
412.472	257.81
412.695	252.81
412.919	269.81
413.142	255.81
413.365	251.81
413.589	237.81
413.812	211.81
414.035	240.81
414.258	237.81
414.482	239.81
414.705	238.81
414.928	241.81
415.151	253.81
415.374	246.81
415.597	252.81
415.821	229.81
416.044	257.81
416.267	251.81
416.49	252.81
416.713	243.81
416.936	250.81
417.159	241.81
417.382	251.81
417.605	235.81
417.828	231.81
418.051	248.81
418.274	249.81
418.497	252.81
418.72	254.81
418.943	251.81
419.166	258.81
419.389	263.81
419.611	249.81
419.834	249.81
420.057	241.81
420.28	236.81
420.503	240.81
420.726	268.81
420.948	248.81
421.171	260.81
421.394	255.81
421.617	255.81
421.839	244.81
422.062	268.81
422.285	249.81
422.507	253.81
422.73	266.81
422.953	249.81
423.175	229.81
423.398	245.81
423.621	242.81
423.843	237.81
424.066	244.81
424.288	237.81
424.511	263.81
424.733	260.81
424.956	246.81
425.178	261.81
425.401	242.81
425.623	245.81
425.846	230.81
426.068	230.81
426.291	238.81
426.513	254.81
426.735	255.81
426.958	242.81
427.18	237.81
427.402	240.81
427.625	240.81
427.847	220.81
428.069	254.81
428.292	246.81
428.514	235.81
428.736	241.81
428.958	235.81
429.181	230.81
429.403	228.81
429.625	228.81
429.847	238.81
430.069	231.81
430.292	252.81
430.514	236.81
430.736	232.81
430.958	246.81
431.18	220.81
431.402	235.81
431.624	235.81
431.846	242.81
432.068	229.81
432.29	221.81
432.512	230.81
432.734	223.81
432.956	239.81
433.178	268.81
433.4	235.81
433.622	240.81
433.844	229.81
434.066	236.81
434.287	231.81
434.509	202.81
434.731	235.81
434.953	235.81
435.175	233.81
435.397	247.81
435.618	239.81
435.84	222.81
436.062	226.81
436.284	241.81
436.505	231.81
436.727	237.81
436.949	220.81
437.17	234.81
437.392	237.81
437.614	247.81
437.835	227.81
438.057	211.81
438.278	227.81
438.5	238.81
438.721	248.81
438.943	244.81
439.165	229.81
439.386	253.81
439.608	242.81
439.829	229.81
440.05	256.81
440.272	251.81
440.493	246.81
440.715	253.81
440.936	260.81
441.158	270.81
441.379	228.81
441.6	267.81
441.822	262.81
442.043	251.81
442.264	246.81
442.486	246.81
442.707	240.81
442.928	258.81
443.149	264.81
443.371	237.81
443.592	248.81
443.813	255.81
444.034	267.81
444.255	254.81
444.476	271.81
444.698	259.81
444.919	252.81
445.14	462.81
445.361	353.81
445.582	265.81
445.803	252.81
446.024	255.81
446.245	244.81
446.466	276.81
446.687	245.81
446.908	269.81
447.129	273.81
447.35	248.81
447.571	235.81
447.792	233.81
448.013	243.81
448.234	239.81
448.455	245.81
448.675	236.81
448.896	255.81
449.117	236.81
449.338	234.81
449.559	228.81
449.779	229.81
450	246.81
450.221	217.81
450.442	229.81
450.662	229.81
450.883	225.81
451.104	237.81
451.324	255.81
451.545	239.81
451.766	236.81
451.986	234.81
452.207	254.81
452.428	217.81
452.648	231.81
452.869	230.81
453.089	238.81
453.31	216.81
453.53	225.81
453.751	229.81
453.971	214.81
454.192	227.81
454.412	213.81
454.633	225.81
454.853	243.81
455.073	208.81
455.294	221.81
455.514	231.81
455.734	225.81
455.955	211.81
456.175	239.81
456.395	214.81
456.616	197.81
456.836	210.81
457.056	198.81
457.276	211.81
457.497	194.81
457.717	206.81
457.937	206.81
458.157	188.81
458.377	211.81
458.598	211.81
458.818	219.81
459.038	206.81
459.258	208.81
459.478	218.81
459.698	235.81
459.918	218.81
460.138	230.81
460.358	223.81
460.578	233.81
460.798	233.81
461.018	246.81
461.238	241.81
461.458	240.81
461.678	227.81
461.898	251.81
462.118	248.81
462.338	240.81
462.558	265.81
462.777	261.81
462.997	275.81
463.217	270.81
463.437	268.81
463.657	250.81
463.876	273.81
464.096	256.81
464.316	269.81
464.536	263.81
464.755	253.81
464.975	271.81
465.195	252.81
465.414	253.81
465.634	253.81
465.854	248.81
466.073	265.81
466.293	269.81
466.512	288.81
466.732	274.81
466.951	273.81
467.171	267.81
467.391	252.81
467.61	268.81
467.829	247.81
468.049	267.81
468.268	237.81
468.488	244.81
468.707	257.81
468.927	233.81
469.146	228.81
469.365	258.81
469.585	239.81
469.804	250.81
470.023	256.81
470.243	249.81
470.462	261.81
470.681	248.81
470.901	247.81
471.12	239.81
471.339	244.81
471.558	248.81
471.777	242.81
471.997	229.81
472.216	243.81
472.435	225.81
472.654	215.81
472.873	223.81
473.092	227.81
473.311	255.81
473.53	252.81
473.749	271.81
473.968	275.81
474.187	275.81
474.406	273.81
474.625	289.81
474.844	299.81
475.063	267.81
475.282	261.81
475.501	241.81
475.72	259.81
475.939	242.81
476.158	245.81
476.377	247.81
476.596	226.81
476.814	238.81
477.033	225.81
477.252	236.81
477.471	245.81
477.69	254.81
477.908	254.81
478.127	254.81
478.346	242.81
478.564	272.81
478.783	266.81
479.002	259.81
479.22	273.81
479.439	267.81
479.658	252.81
479.876	251.81
480.095	249.81
480.313	247.81
480.532	252.81
480.751	238.81
480.969	237.81
481.188	240.81
481.406	228.81
481.624	228.81
481.843	228.81
482.061	217.81
482.28	237.81
482.498	223.81
482.717	227.81
482.935	237.81
483.153	258.81
483.372	241.81
483.59	246.81
483.808	252.81
484.027	237.81
484.245	245.81
484.463	276.81
484.681	272.81
484.9	270.81
485.118	280.81
485.336	250.81
485.554	283.81
485.772	249.81
485.99	244.81
486.209	261.81
486.427	251.81
486.645	254.81
486.863	275.81
487.081	277.81
487.299	264.81
487.517	269.81
487.735	284.81
487.953	288.81
488.171	303.81
488.389	275.81
488.607	277.81
488.825	269.81
489.043	266.81
489.261	250.81
489.479	264.81
489.696	250.81
489.914	268.81
490.132	281.81
490.35	279.81
490.568	263.81
490.786	271.81
491.003	276.81
491.221	287.81
491.439	278.81
491.657	294.81
491.874	301.81
492.092	317.81
492.31	319.81
492.527	302.81
492.745	290.81
492.963	308.81
493.18	305.81
493.398	297.81
493.615	296.81
493.833	285.81
494.05	283.81
494.268	285.81
494.485	282.81
494.703	306.81
494.92	288.81
495.138	294.81
495.355	294.81
495.573	283.81
495.79	280.81
496.008	278.81
496.225	285.81
496.442	281.81
496.66	278.81
496.877	267.81
497.094	297.81
497.312	270.81
497.529	284.81
497.746	289.81
497.963	267.81
498.181	281.81
498.398	293.81
498.615	294.81
498.832	293.81
499.049	305.81
499.267	314.81
499.484	342.81
499.701	373.81
499.918	352.81
500.135	382.81
500.352	414.81
500.569	421.81
500.786	390.81
501.003	405.81
501.22	360.81
501.437	335.81
501.654	350.81
501.871	341.81
502.088	311.81
502.305	295.81
502.522	308.81
502.739	299.81
502.956	298.81
503.172	272.81
503.389	276.81
503.606	280.81
