Data from SampC_HRD10591_00065.txt Node
Date: Mon Jan 19 11:37:51 EST 2026
User: Yrep
Spectrometer: HR+D1059
Trigger mode: 0
Integration Time (sec): 3.443000E-1
Scans to average: 1
Electric dark correction enabled: true
Nonlinearity correction enabled: false
Boxcar width: 0
XAxis mode: Wavelengths
Number of Pixels in Spectrum: 2048
>>>>>Begin Spectral Data<<<<<
223.165	-21.38
223.4	-21.38
223.635	-21.38
223.869	-33.38
224.104	-27.38
224.338	-18.38
224.573	-4.38
224.808	-22.38
225.042	-7.38
225.277	8.62
225.511	-17.38
225.746	11.62
225.98	8.62
226.215	25.62
226.449	18.62
226.683	24.62
226.918	18.62
227.152	35.62
227.387	48.62
227.621	54.62
227.856	55.62
228.09	53.62
228.324	48.62
228.559	73.62
228.793	80.62
229.027	87.62
229.262	79.62
229.496	80.62
229.73	94.62
229.964	98.62
230.199	73.62
230.433	85.62
230.667	104.62
230.901	96.62
231.136	100.62
231.37	101.62
231.604	106.62
231.838	105.62
232.072	80.62
232.306	100.62
232.541	112.62
232.775	107.62
233.009	102.62
233.243	113.62
233.477	88.62
233.711	113.62
233.945	101.62
234.179	95.62
234.413	114.62
234.647	102.62
234.881	99.62
235.115	95.62
235.349	111.62
235.583	111.62
235.817	104.62
236.051	102.62
236.285	110.62
236.519	127.62
236.753	119.62
236.987	142.62
237.221	159.62
237.455	159.62
237.689	151.62
237.922	132.62
238.156	126.62
238.39	114.62
238.624	115.62
238.858	106.62
239.091	105.62
239.325	105.62
239.559	98.62
239.793	105.62
240.027	97.62
240.26	97.62
240.494	101.62
240.728	102.62
240.961	91.62
241.195	100.62
241.429	109.62
241.662	94.62
241.896	101.62
242.13	97.62
242.363	117.62
242.597	111.62
242.83	118.62
243.064	80.62
243.298	95.62
243.531	96.62
243.765	92.62
243.998	111.62
244.232	116.62
244.465	107.62
244.699	95.62
244.932	106.62
245.166	111.62
245.399	103.62
245.633	113.62
245.866	97.62
246.099	92.62
246.333	102.62
246.566	111.62
246.8	106.62
247.033	103.62
247.266	109.62
247.5	106.62
247.733	109.62
247.966	128.62
248.2	122.62
248.433	104.62
248.666	124.62
248.899	114.62
249.133	98.62
249.366	119.62
249.599	104.62
249.832	114.62
250.066	117.62
250.299	117.62
250.532	103.62
250.765	108.62
250.998	98.62
251.231	100.62
251.465	112.62
251.698	114.62
251.931	129.62
252.164	124.62
252.397	112.62
252.63	105.62
252.863	107.62
253.096	112.62
253.329	119.62
253.562	115.62
253.795	127.62
254.028	123.62
254.261	121.62
254.494	116.62
254.727	121.62
254.96	119.62
255.193	123.62
255.426	108.62
255.659	119.62
255.892	118.62
256.124	103.62
256.357	118.62
256.59	142.62
256.823	171.62
257.056	187.62
257.289	198.62
257.521	187.62
257.754	229.62
257.987	210.62
258.22	162.62
258.452	140.62
258.685	142.62
258.918	127.62
259.151	134.62
259.383	127.62
259.616	122.62
259.849	128.62
260.081	123.62
260.314	131.62
260.547	129.62
260.779	120.62
261.012	127.62
261.244	121.62
261.477	134.62
261.71	125.62
261.942	142.62
262.175	129.62
262.407	132.62
262.64	129.62
262.872	132.62
263.105	130.62
263.337	177.62
263.57	144.62
263.802	156.62
264.035	137.62
264.267	139.62
264.499	119.62
264.732	139.62
264.964	143.62
265.197	153.62
265.429	183.62
265.661	176.62
265.894	194.62
266.126	189.62
266.358	202.62
266.591	170.62
266.823	140.62
267.055	158.62
267.287	148.62
267.52	141.62
267.752	142.62
267.984	118.62
268.216	150.62
268.448	139.62
268.681	123.62
268.913	143.62
269.145	126.62
269.377	131.62
269.609	135.62
269.841	135.62
270.073	136.62
270.306	112.62
270.538	126.62
270.77	129.62
271.002	140.62
271.234	134.62
271.466	123.62
271.698	144.62
271.93	145.62
272.162	118.62
272.394	151.62
272.626	125.62
272.858	127.62
273.09	122.62
273.322	133.62
273.553	132.62
273.785	126.62
274.017	131.62
274.249	131.62
274.481	126.62
274.713	139.62
274.945	140.62
275.176	146.62
275.408	136.62
275.64	136.62
275.872	137.62
276.104	137.62
276.335	155.62
276.567	130.62
276.799	131.62
277.031	138.62
277.262	139.62
277.494	149.62
277.726	158.62
277.957	178.62
278.189	176.62
278.421	162.62
278.652	167.62
278.884	196.62
279.115	233.62
279.347	320.62
279.579	432.62
279.81	484.62
280.042	387.62
280.273	353.62
280.505	359.62
280.736	249.62
280.968	206.62
281.199	206.62
281.431	240.62
281.662	280.62
281.894	288.62
282.125	241.62
282.356	214.62
282.588	187.62
282.819	178.62
283.051	173.62
283.282	155.62
283.513	167.62
283.745	165.62
283.976	164.62
284.207	171.62
284.439	154.62
284.67	182.62
284.901	192.62
285.132	197.62
285.364	230.62
285.595	200.62
285.826	172.62
286.057	144.62
286.288	144.62
286.52	148.62
286.751	144.62
286.982	155.62
287.213	160.62
287.444	159.62
287.675	153.62
287.906	153.62
288.138	182.62
288.369	160.62
288.6	136.62
288.831	151.62
289.062	170.62
289.293	159.62
289.524	158.62
289.755	154.62
289.986	151.62
290.217	142.62
290.448	160.62
290.679	138.62
290.91	168.62
291.141	155.62
291.371	162.62
291.602	156.62
291.833	171.62
292.064	153.62
292.295	191.62
292.526	180.62
292.757	178.62
292.987	171.62
293.218	176.62
293.449	186.62
293.68	190.62
293.91	182.62
294.141	172.62
294.372	140.62
294.603	136.62
294.833	149.62
295.064	160.62
295.295	163.62
295.525	154.62
295.756	159.62
295.987	156.62
296.217	149.62
296.448	155.62
296.679	152.62
296.909	160.62
297.14	176.62
297.37	164.62
297.601	167.62
297.831	139.62
298.062	148.62
298.292	158.62
298.523	179.62
298.753	172.62
298.984	168.62
299.214	175.62
299.445	176.62
299.675	167.62
299.905	172.62
300.136	170.62
300.366	166.62
300.597	162.62
300.827	181.62
301.057	176.62
301.288	172.62
301.518	174.62
301.748	162.62
301.979	233.62
302.209	177.62
302.439	180.62
302.669	179.62
302.9	195.62
303.13	201.62
303.36	214.62
303.59	197.62
303.82	208.62
304.051	218.62
304.281	217.62
304.511	230.62
304.741	240.62
304.971	285.62
305.201	321.62
305.431	330.62
305.661	370.62
305.891	404.62
306.121	364.62
306.352	337.62
306.582	343.62
306.812	353.62
307.042	329.62
307.272	328.62
307.502	354.62
307.731	446.62
307.961	615.62
308.191	868.62
308.421	962.62
308.651	827.62
308.881	744.62
309.111	922.62
309.341	1127.62
309.571	1103.62
309.8	739.62
310.03	507.62
310.26	416.62
310.49	350.62
310.72	304.62
310.949	278.62
311.179	283.62
311.409	249.62
311.639	243.62
311.868	265.62
312.098	219.62
312.328	216.62
312.557	234.62
312.787	207.62
313.017	226.62
313.246	215.62
313.476	201.62
313.706	212.62
313.935	202.62
314.165	196.62
314.394	201.62
314.624	180.62
314.853	199.62
315.083	193.62
315.312	184.62
315.542	197.62
315.771	190.62
316.001	167.62
316.23	191.62
316.46	169.62
316.689	160.62
316.919	166.62
317.148	186.62
317.377	187.62
317.607	173.62
317.836	176.62
318.065	172.62
318.295	171.62
318.524	178.62
318.753	178.62
318.983	175.62
319.212	188.62
319.441	179.62
319.67	165.62
319.9	176.62
320.129	181.62
320.358	184.62
320.587	180.62
320.816	176.62
321.046	189.62
321.275	174.62
321.504	163.62
321.733	172.62
321.962	180.62
322.191	169.62
322.42	184.62
322.649	178.62
322.878	176.62
323.108	170.62
323.337	201.62
323.566	180.62
323.795	176.62
324.024	182.62
324.253	187.62
324.482	180.62
324.71	181.62
324.939	191.62
325.168	182.62
325.397	174.62
325.626	172.62
325.855	163.62
326.084	184.62
326.313	186.62
326.542	191.62
326.77	199.62
326.999	193.62
327.228	196.62
327.457	173.62
327.686	184.62
327.914	193.62
328.143	204.62
328.372	185.62
328.6	187.62
328.829	181.62
329.058	176.62
329.287	175.62
329.515	182.62
329.744	184.62
329.972	176.62
330.201	178.62
330.43	186.62
330.658	173.62
330.887	189.62
331.115	182.62
331.344	196.62
331.572	192.62
331.801	202.62
332.03	188.62
332.258	195.62
332.486	187.62
332.715	200.62
332.943	198.62
333.172	212.62
333.4	196.62
333.629	198.62
333.857	201.62
334.085	212.62
334.314	207.62
334.542	201.62
334.771	193.62
334.999	207.62
335.227	204.62
335.455	192.62
335.684	195.62
335.912	201.62
336.14	189.62
336.369	205.62
336.597	196.62
336.825	178.62
337.053	192.62
337.281	210.62
337.51	203.62
337.738	189.62
337.966	190.62
338.194	191.62
338.422	194.62
338.65	199.62
338.878	195.62
339.106	180.62
339.334	215.62
339.562	172.62
339.79	188.62
340.018	178.62
340.246	186.62
340.474	169.62
340.702	176.62
340.93	199.62
341.158	187.62
341.386	175.62
341.614	185.62
341.842	201.62
342.07	168.62
342.298	159.62
342.526	199.62
342.754	195.62
342.981	193.62
343.209	193.62
343.437	220.62
343.665	197.62
343.893	202.62
344.12	216.62
344.348	205.62
344.576	186.62
344.804	180.62
345.031	175.62
345.259	200.62
345.487	184.62
345.714	187.62
345.942	172.62
346.17	177.62
346.397	172.62
346.625	198.62
346.853	186.62
347.08	181.62
347.308	194.62
347.535	192.62
347.763	191.62
347.99	181.62
348.218	172.62
348.445	170.62
348.673	184.62
348.9	183.62
349.128	197.62
349.355	187.62
349.583	198.62
349.81	198.62
350.037	200.62
350.265	198.62
350.492	174.62
350.72	175.62
350.947	183.62
351.174	205.62
351.402	179.62
351.629	197.62
351.856	194.62
352.083	195.62
352.311	183.62
352.538	173.62
352.765	201.62
352.992	214.62
353.22	207.62
353.447	178.62
353.674	203.62
353.901	206.62
354.128	218.62
354.355	182.62
354.583	202.62
354.81	184.62
355.037	213.62
355.264	216.62
355.491	215.62
355.718	212.62
355.945	217.62
356.172	228.62
356.399	234.62
356.626	231.62
356.853	251.62
357.08	274.62
357.307	278.62
357.534	278.62
357.761	280.62
357.988	332.62
358.215	386.62
358.441	419.62
358.668	449.62
358.895	450.62
359.122	362.62
359.349	314.62
359.576	290.62
359.802	276.62
360.029	264.62
360.256	267.62
360.483	242.62
360.709	233.62
360.936	261.62
361.163	238.62
361.39	236.62
361.616	227.62
361.843	218.62
362.07	236.62
362.296	198.62
362.523	226.62
362.749	197.62
362.976	221.62
363.203	211.62
363.429	207.62
363.656	221.62
363.882	211.62
364.109	214.62
364.335	204.62
364.562	217.62
364.788	203.62
365.015	212.62
365.241	209.62
365.468	198.62
365.694	203.62
365.92	211.62
366.147	186.62
366.373	183.62
366.599	197.62
366.826	200.62
367.052	184.62
367.278	187.62
367.505	189.62
367.731	212.62
367.957	196.62
368.184	185.62
368.41	186.62
368.636	204.62
368.862	209.62
369.089	211.62
369.315	194.62
369.541	210.62
369.767	211.62
369.993	193.62
370.219	195.62
370.445	213.62
370.672	212.62
370.898	209.62
371.124	213.62
371.35	190.62
371.576	191.62
371.802	197.62
372.028	236.62
372.254	201.62
372.48	207.62
372.706	194.62
372.932	193.62
373.158	207.62
373.384	206.62
373.61	240.62
373.835	222.62
374.061	195.62
374.287	202.62
374.513	207.62
374.739	208.62
374.965	215.62
375.191	217.62
375.416	216.62
375.642	218.62
375.868	211.62
376.094	204.62
376.319	202.62
376.545	189.62
376.771	200.62
376.997	197.62
377.222	202.62
377.448	210.62
377.674	203.62
377.899	199.62
378.125	196.62
378.35	208.62
378.576	199.62
378.802	207.62
379.027	223.62
379.253	228.62
379.478	200.62
379.704	196.62
379.929	215.62
380.155	199.62
380.38	191.62
380.606	195.62
380.831	203.62
381.057	208.62
381.282	209.62
381.507	224.62
381.733	233.62
381.958	218.62
382.184	215.62
382.409	227.62
382.634	239.62
382.86	253.62
383.085	284.62
383.31	299.62
383.535	306.62
383.761	307.62
383.986	305.62
384.211	259.62
384.436	240.62
384.662	239.62
384.887	231.62
385.112	239.62
385.337	223.62
385.562	241.62
385.787	234.62
386.013	230.62
386.238	235.62
386.463	228.62
386.688	255.62
386.913	242.62
387.138	225.62
387.363	242.62
387.588	247.62
387.813	218.62
388.038	230.62
388.263	244.62
388.488	236.62
388.713	209.62
388.938	226.62
389.163	240.62
389.387	246.62
389.612	239.62
389.837	232.62
390.062	238.62
390.287	255.62
390.512	241.62
390.736	238.62
390.961	266.62
391.186	236.62
391.411	251.62
391.636	250.62
391.86	260.62
392.085	271.62
392.31	268.62
392.534	288.62
392.759	286.62
392.984	313.62
393.208	352.62
393.433	398.62
393.658	428.62
393.882	511.62
394.107	808.62
394.331	1406.62
394.556	1834.62
394.78	1262.62
395.005	727.62
395.229	587.62
395.454	603.62
395.678	734.62
395.903	1233.62
396.127	1995.62
396.352	2320.62
396.576	1475.62
396.801	832.62
397.025	632.62
397.249	499.62
397.474	442.62
397.698	391.62
397.922	378.62
398.147	351.62
398.371	334.62
398.595	333.62
398.82	330.62
399.044	320.62
399.268	306.62
399.492	329.62
399.717	336.62
399.941	330.62
400.165	315.62
400.389	283.62
400.613	283.62
400.837	279.62
401.062	272.62
401.286	257.62
401.51	265.62
401.734	258.62
401.958	286.62
402.182	282.62
402.406	266.62
402.63	267.62
402.854	257.62
403.078	270.62
403.302	288.62
403.526	275.62
403.75	265.62
403.974	262.62
404.198	274.62
404.422	271.62
404.645	280.62
404.869	289.62
405.093	255.62
405.317	270.62
405.541	251.62
405.765	279.62
405.988	259.62
406.212	281.62
406.436	278.62
406.66	283.62
406.883	270.62
407.107	288.62
407.331	271.62
407.555	284.62
407.778	278.62
408.002	276.62
408.226	257.62
408.449	258.62
408.673	266.62
408.896	270.62
409.12	266.62
409.344	284.62
409.567	270.62
409.791	237.62
410.014	258.62
410.238	285.62
410.461	251.62
410.685	264.62
410.908	265.62
411.132	285.62
411.355	265.62
411.578	270.62
411.802	264.62
412.025	257.62
412.249	262.62
412.472	269.62
412.695	262.62
412.919	254.62
413.142	277.62
413.365	253.62
413.589	251.62
413.812	256.62
414.035	271.62
414.258	251.62
414.482	246.62
414.705	262.62
414.928	261.62
415.151	260.62
415.374	248.62
415.597	267.62
415.821	264.62
416.044	258.62
416.267	247.62
416.49	260.62
416.713	243.62
416.936	278.62
417.159	262.62
417.382	272.62
417.605	250.62
417.828	247.62
418.051	267.62
418.274	261.62
418.497	255.62
418.72	270.62
418.943	275.62
419.166	268.62
419.389	267.62
419.611	272.62
419.834	250.62
420.057	242.62
420.28	254.62
420.503	263.62
420.726	260.62
420.948	250.62
421.171	258.62
421.394	244.62
421.617	261.62
421.839	252.62
422.062	246.62
422.285	250.62
422.507	275.62
422.73	280.62
422.953	244.62
423.175	257.62
423.398	257.62
423.621	258.62
423.843	266.62
424.066	275.62
424.288	278.62
424.511	265.62
424.733	253.62
424.956	262.62
425.178	257.62
425.401	265.62
425.623	258.62
425.846	253.62
426.068	258.62
426.291	259.62
426.513	251.62
426.735	263.62
426.958	259.62
427.18	242.62
427.402	255.62
427.625	265.62
427.847	240.62
428.069	266.62
428.292	226.62
428.514	250.62
428.736	265.62
428.958	245.62
429.181	251.62
429.403	257.62
429.625	247.62
429.847	243.62
430.069	254.62
430.292	251.62
430.514	252.62
430.736	256.62
430.958	256.62
431.18	242.62
431.402	243.62
431.624	242.62
431.846	247.62
432.068	227.62
432.29	223.62
432.512	239.62
432.734	242.62
432.956	264.62
433.178	256.62
433.4	240.62
433.622	266.62
433.844	286.62
434.066	239.62
434.287	246.62
434.509	229.62
434.731	244.62
434.953	267.62
435.175	263.62
435.397	261.62
435.618	249.62
435.84	247.62
436.062	248.62
436.284	246.62
436.505	251.62
436.727	237.62
436.949	239.62
437.17	255.62
437.392	236.62
437.614	242.62
437.835	245.62
438.057	213.62
438.278	234.62
438.5	246.62
438.721	240.62
438.943	242.62
439.165	255.62
439.386	255.62
439.608	266.62
439.829	259.62
440.05	250.62
440.272	258.62
440.493	279.62
440.715	262.62
440.936	273.62
441.158	282.62
441.379	282.62
441.6	266.62
441.822	282.62
442.043	286.62
442.264	292.62
442.486	255.62
442.707	264.62
442.928	254.62
443.149	267.62
443.371	259.62
443.592	254.62
443.813	280.62
444.034	289.62
444.255	282.62
444.476	280.62
444.698	283.62
444.919	275.62
445.14	452.62
445.361	355.62
445.582	280.62
445.803	268.62
446.024	254.62
446.245	256.62
446.466	277.62
446.687	263.62
446.908	258.62
447.129	260.62
447.35	266.62
447.571	270.62
447.792	275.62
448.013	271.62
448.234	270.62
448.455	249.62
448.675	253.62
448.896	256.62
449.117	255.62
449.338	252.62
449.559	244.62
449.779	249.62
450	252.62
450.221	234.62
450.442	259.62
450.662	242.62
450.883	246.62
451.104	248.62
451.324	258.62
451.545	254.62
451.766	245.62
451.986	246.62
452.207	257.62
452.428	249.62
452.648	251.62
452.869	243.62
453.089	240.62
453.31	242.62
453.53	241.62
453.751	238.62
453.971	243.62
454.192	228.62
454.412	235.62
454.633	261.62
454.853	254.62
455.073	248.62
455.294	247.62
455.514	232.62
455.734	230.62
455.955	236.62
456.175	230.62
456.395	241.62
456.616	235.62
456.836	211.62
457.056	218.62
457.276	217.62
457.497	203.62
457.717	214.62
457.937	233.62
458.157	225.62
458.377	210.62
458.598	222.62
458.818	210.62
459.038	234.62
459.258	220.62
459.478	230.62
459.698	232.62
459.918	244.62
460.138	236.62
460.358	263.62
460.578	245.62
460.798	257.62
461.018	255.62
461.238	270.62
461.458	242.62
461.678	245.62
461.898	251.62
462.118	256.62
462.338	267.62
462.558	259.62
462.777	273.62
462.997	286.62
463.217	294.62
463.437	279.62
463.657	271.62
463.876	283.62
464.096	286.62
464.316	263.62
464.536	282.62
464.755	284.62
464.975	274.62
465.195	278.62
465.414	273.62
465.634	267.62
465.854	289.62
466.073	281.62
466.293	299.62
466.512	309.62
466.732	296.62
466.951	278.62
467.171	286.62
467.391	291.62
467.61	290.62
467.829	277.62
468.049	280.62
468.268	261.62
468.488	254.62
468.707	266.62
468.927	273.62
469.146	267.62
469.365	270.62
469.585	272.62
469.804	277.62
470.023	272.62
470.243	271.62
470.462	271.62
470.681	261.62
470.901	273.62
471.12	252.62
471.339	264.62
471.558	266.62
471.777	275.62
471.997	255.62
472.216	259.62
472.435	256.62
472.654	254.62
472.873	247.62
473.092	262.62
473.311	267.62
473.53	291.62
473.749	320.62
473.968	319.62
474.187	293.62
474.406	292.62
474.625	305.62
474.844	320.62
475.063	290.62
475.282	290.62
475.501	264.62
475.72	271.62
475.939	254.62
476.158	244.62
476.377	266.62
476.596	266.62
476.814	245.62
477.033	240.62
477.252	241.62
477.471	267.62
477.69	254.62
477.908	264.62
478.127	281.62
478.346	269.62
478.564	280.62
478.783	266.62
479.002	267.62
479.22	265.62
479.439	262.62
479.658	247.62
479.876	245.62
480.095	250.62
480.313	260.62
480.532	261.62
480.751	262.62
480.969	241.62
481.188	249.62
481.406	251.62
481.624	235.62
481.843	231.62
482.061	246.62
482.28	269.62
482.498	234.62
482.717	260.62
482.935	256.62
483.153	257.62
483.372	262.62
483.59	278.62
483.808	266.62
484.027	267.62
484.245	263.62
484.463	304.62
484.681	322.62
484.9	317.62
485.118	321.62
485.336	305.62
485.554	283.62
485.772	283.62
485.99	280.62
486.209	280.62
486.427	276.62
486.645	303.62
486.863	304.62
487.081	299.62
487.299	282.62
487.517	288.62
487.735	316.62
487.953	313.62
488.171	324.62
488.389	304.62
488.607	317.62
488.825	274.62
489.043	291.62
489.261	298.62
489.479	279.62
489.696	282.62
489.914	301.62
490.132	288.62
490.35	309.62
490.568	305.62
490.786	312.62
491.003	308.62
491.221	313.62
491.439	298.62
491.657	306.62
491.874	330.62
492.092	318.62
492.31	342.62
492.527	319.62
492.745	326.62
492.963	312.62
493.18	307.62
493.398	305.62
493.615	299.62
493.833	311.62
494.05	315.62
494.268	300.62
494.485	294.62
494.703	316.62
494.92	282.62
495.138	291.62
495.355	288.62
495.573	324.62
495.79	296.62
496.008	306.62
496.225	289.62
496.442	298.62
496.66	318.62
496.877	281.62
497.094	287.62
497.312	301.62
497.529	301.62
497.746	297.62
497.963	299.62
498.181	298.62
498.398	286.62
498.615	327.62
498.832	309.62
499.049	306.62
499.267	361.62
499.484	340.62
499.701	387.62
499.918	383.62
500.135	405.62
500.352	433.62
500.569	440.62
500.786	442.62
501.003	423.62
501.22	373.62
501.437	347.62
501.654	355.62
501.871	343.62
502.088	339.62
502.305	340.62
502.522	309.62
502.739	320.62
502.956	305.62
