Data from SampC_HRD10591_00035.txt Node
Date: Mon Jan 19 11:37:41 EST 2026
User: Yrep
Spectrometer: HR+D1059
Trigger mode: 0
Integration Time (sec): 3.443000E-1
Scans to average: 1
Electric dark correction enabled: true
Nonlinearity correction enabled: false
Boxcar width: 0
XAxis mode: Wavelengths
Number of Pixels in Spectrum: 2048
>>>>>Begin Spectral Data<<<<<
223.165	-14.38
223.4	-14.38
223.635	-14.38
223.869	-31.38
224.104	-16.38
224.338	-13.38
224.573	1.62
224.808	-23.38
225.042	-2.38
225.277	-3.38
225.511	3.62
225.746	16.62
225.98	0.62
226.215	7.62
226.449	18.62
226.683	3.62
226.918	27.62
227.152	24.62
227.387	30.62
227.621	35.62
227.856	52.62
228.09	32.62
228.324	52.62
228.559	75.62
228.793	59.62
229.027	63.62
229.262	82.62
229.496	93.62
229.73	93.62
229.964	99.62
230.199	93.62
230.433	94.62
230.667	91.62
230.901	94.62
231.136	87.62
231.37	101.62
231.604	121.62
231.838	109.62
232.072	117.62
232.306	96.62
232.541	101.62
232.775	102.62
233.009	103.62
233.243	105.62
233.477	111.62
233.711	97.62
233.945	95.62
234.179	105.62
234.413	124.62
234.647	116.62
234.881	104.62
235.115	100.62
235.349	116.62
235.583	104.62
235.817	113.62
236.051	117.62
236.285	112.62
236.519	130.62
236.753	136.62
236.987	164.62
237.221	192.62
237.455	192.62
237.689	174.62
237.922	140.62
238.156	142.62
238.39	122.62
238.624	115.62
238.858	112.62
239.091	104.62
239.325	99.62
239.559	107.62
239.793	121.62
240.027	105.62
240.26	100.62
240.494	115.62
240.728	108.62
240.961	105.62
241.195	112.62
241.429	102.62
241.662	105.62
241.896	111.62
242.13	87.62
242.363	100.62
242.597	95.62
242.83	112.62
243.064	105.62
243.298	114.62
243.531	107.62
243.765	112.62
243.998	105.62
244.232	114.62
244.465	117.62
244.699	100.62
244.932	99.62
245.166	91.62
245.399	97.62
245.633	100.62
245.866	118.62
246.099	106.62
246.333	137.62
246.566	114.62
246.8	120.62
247.033	114.62
247.266	115.62
247.5	111.62
247.733	98.62
247.966	116.62
248.2	118.62
248.433	112.62
248.666	120.62
248.899	104.62
249.133	127.62
249.366	135.62
249.599	116.62
249.832	117.62
250.066	121.62
250.299	117.62
250.532	120.62
250.765	119.62
250.998	109.62
251.231	120.62
251.465	106.62
251.698	120.62
251.931	125.62
252.164	128.62
252.397	112.62
252.63	119.62
252.863	126.62
253.096	117.62
253.329	124.62
253.562	132.62
253.795	123.62
254.028	121.62
254.261	137.62
254.494	141.62
254.727	126.62
254.96	133.62
255.193	132.62
255.426	129.62
255.659	125.62
255.892	159.62
256.124	133.62
256.357	141.62
256.59	167.62
256.823	179.62
257.056	205.62
257.289	216.62
257.521	217.62
257.754	251.62
257.987	237.62
258.22	196.62
258.452	161.62
258.685	159.62
258.918	159.62
259.151	143.62
259.383	154.62
259.616	162.62
259.849	132.62
260.081	128.62
260.314	151.62
260.547	147.62
260.779	151.62
261.012	163.62
261.244	146.62
261.477	161.62
261.71	157.62
261.942	145.62
262.175	149.62
262.407	153.62
262.64	153.62
262.872	161.62
263.105	181.62
263.337	191.62
263.57	200.62
263.802	182.62
264.035	170.62
264.267	183.62
264.499	173.62
264.732	185.62
264.964	187.62
265.197	188.62
265.429	197.62
265.661	209.62
265.894	205.62
266.126	219.62
266.358	219.62
266.591	188.62
266.823	179.62
267.055	166.62
267.287	161.62
267.52	144.62
267.752	139.62
267.984	136.62
268.216	164.62
268.448	164.62
268.681	149.62
268.913	160.62
269.145	142.62
269.377	139.62
269.609	139.62
269.841	137.62
270.073	153.62
270.306	153.62
270.538	152.62
270.77	151.62
271.002	145.62
271.234	149.62
271.466	153.62
271.698	158.62
271.93	164.62
272.162	163.62
272.394	169.62
272.626	152.62
272.858	146.62
273.09	142.62
273.322	169.62
273.553	165.62
273.785	156.62
274.017	162.62
274.249	168.62
274.481	170.62
274.713	143.62
274.945	171.62
275.176	162.62
275.408	173.62
275.64	182.62
275.872	181.62
276.104	173.62
276.335	159.62
276.567	149.62
276.799	156.62
277.031	173.62
277.262	167.62
277.494	181.62
277.726	188.62
277.957	191.62
278.189	191.62
278.421	213.62
278.652	230.62
278.884	248.62
279.115	274.62
279.347	379.62
279.579	532.62
279.81	595.62
280.042	495.62
280.273	443.62
280.505	443.62
280.736	312.62
280.968	263.62
281.199	260.62
281.431	301.62
281.662	365.62
281.894	377.62
282.125	313.62
282.356	298.62
282.588	235.62
282.819	206.62
283.051	207.62
283.282	194.62
283.513	222.62
283.745	204.62
283.976	208.62
284.207	205.62
284.439	191.62
284.67	205.62
284.901	214.62
285.132	228.62
285.364	272.62
285.595	228.62
285.826	211.62
286.057	179.62
286.288	190.62
286.52	196.62
286.751	178.62
286.982	192.62
287.213	187.62
287.444	179.62
287.675	185.62
287.906	195.62
288.138	185.62
288.369	205.62
288.6	197.62
288.831	199.62
289.062	207.62
289.293	194.62
289.524	190.62
289.755	184.62
289.986	187.62
290.217	199.62
290.448	187.62
290.679	192.62
290.91	199.62
291.141	197.62
291.371	188.62
291.602	179.62
291.833	188.62
292.064	204.62
292.295	200.62
292.526	185.62
292.757	216.62
292.987	208.62
293.218	206.62
293.449	201.62
293.68	219.62
293.91	206.62
294.141	207.62
294.372	188.62
294.603	208.62
294.833	192.62
295.064	199.62
295.295	191.62
295.525	191.62
295.756	171.62
295.987	210.62
296.217	200.62
296.448	204.62
296.679	181.62
296.909	209.62
297.14	204.62
297.37	187.62
297.601	209.62
297.831	191.62
298.062	191.62
298.292	202.62
298.523	218.62
298.753	199.62
298.984	189.62
299.214	205.62
299.445	195.62
299.675	196.62
299.905	208.62
300.136	201.62
300.366	190.62
300.597	219.62
300.827	217.62
301.057	229.62
301.288	213.62
301.518	211.62
301.748	216.62
301.979	264.62
302.209	217.62
302.439	221.62
302.669	212.62
302.9	236.62
303.13	233.62
303.36	254.62
303.59	232.62
303.82	244.62
304.051	252.62
304.281	259.62
304.511	278.62
304.741	279.62
304.971	330.62
305.201	402.62
305.431	443.62
305.661	459.62
305.891	501.62
306.121	487.62
306.352	420.62
306.582	441.62
306.812	417.62
307.042	404.62
307.272	391.62
307.502	426.62
307.731	542.62
307.961	732.62
308.191	1034.62
308.421	1165.62
308.651	991.62
308.881	910.62
309.111	1119.62
309.341	1374.62
309.571	1333.62
309.8	870.62
310.03	604.62
310.26	489.62
310.49	415.62
310.72	362.62
310.949	346.62
311.179	331.62
311.409	305.62
311.639	298.62
311.868	282.62
312.098	278.62
312.328	275.62
312.557	261.62
312.787	262.62
313.017	247.62
313.246	244.62
313.476	244.62
313.706	249.62
313.935	254.62
314.165	250.62
314.394	233.62
314.624	238.62
314.853	236.62
315.083	231.62
315.312	239.62
315.542	225.62
315.771	238.62
316.001	249.62
316.23	229.62
316.46	225.62
316.689	222.62
316.919	225.62
317.148	227.62
317.377	233.62
317.607	219.62
317.836	230.62
318.065	221.62
318.295	231.62
318.524	237.62
318.753	238.62
318.983	211.62
319.212	237.62
319.441	221.62
319.67	225.62
319.9	217.62
320.129	234.62
320.358	232.62
320.587	221.62
320.816	212.62
321.046	212.62
321.275	233.62
321.504	233.62
321.733	223.62
321.962	228.62
322.191	236.62
322.42	226.62
322.649	243.62
322.878	203.62
323.108	223.62
323.337	223.62
323.566	243.62
323.795	220.62
324.024	229.62
324.253	235.62
324.482	231.62
324.71	248.62
324.939	255.62
325.168	230.62
325.397	240.62
325.626	234.62
325.855	230.62
326.084	219.62
326.313	248.62
326.542	231.62
326.77	231.62
326.999	228.62
327.228	227.62
327.457	230.62
327.686	227.62
327.914	236.62
328.143	243.62
328.372	236.62
328.6	223.62
328.829	239.62
329.058	241.62
329.287	242.62
329.515	225.62
329.744	239.62
329.972	236.62
330.201	251.62
330.43	241.62
330.658	222.62
330.887	237.62
331.115	237.62
331.344	242.62
331.572	251.62
331.801	247.62
332.03	232.62
332.258	242.62
332.486	240.62
332.715	253.62
332.943	249.62
333.172	249.62
333.4	259.62
333.629	253.62
333.857	269.62
334.085	275.62
334.314	263.62
334.542	268.62
334.771	266.62
334.999	253.62
335.227	269.62
335.455	250.62
335.684	254.62
335.912	251.62
336.14	242.62
336.369	263.62
336.597	260.62
336.825	242.62
337.053	240.62
337.281	263.62
337.51	245.62
337.738	263.62
337.966	257.62
338.194	247.62
338.422	243.62
338.65	242.62
338.878	247.62
339.106	245.62
339.334	255.62
339.562	249.62
339.79	234.62
340.018	236.62
340.246	253.62
340.474	248.62
340.702	231.62
340.93	254.62
341.158	235.62
341.386	244.62
341.614	237.62
341.842	258.62
342.07	223.62
342.298	242.62
342.526	247.62
342.754	247.62
342.981	253.62
343.209	258.62
343.437	290.62
343.665	258.62
343.893	267.62
344.12	293.62
344.348	270.62
344.576	254.62
344.804	247.62
345.031	243.62
345.259	232.62
345.487	238.62
345.714	232.62
345.942	228.62
346.17	243.62
346.397	249.62
346.625	225.62
346.853	226.62
347.08	234.62
347.308	249.62
347.535	271.62
347.763	229.62
347.99	239.62
348.218	233.62
348.445	256.62
348.673	233.62
348.9	246.62
349.128	252.62
349.355	231.62
349.583	250.62
349.81	243.62
350.037	236.62
350.265	255.62
350.492	227.62
350.72	232.62
350.947	253.62
351.174	241.62
351.402	251.62
351.629	254.62
351.856	248.62
352.083	254.62
352.311	247.62
352.538	247.62
352.765	256.62
352.992	276.62
353.22	279.62
353.447	265.62
353.674	260.62
353.901	279.62
354.128	279.62
354.355	265.62
354.583	276.62
354.81	281.62
355.037	301.62
355.264	277.62
355.491	290.62
355.718	286.62
355.945	306.62
356.172	305.62
356.399	312.62
356.626	334.62
356.853	329.62
357.08	375.62
357.307	377.62
357.534	384.62
357.761	436.62
357.988	488.62
358.215	529.62
358.441	591.62
358.668	634.62
358.895	612.62
359.122	530.62
359.349	474.62
359.576	446.62
359.802	398.62
360.029	372.62
360.256	373.62
360.483	360.62
360.709	358.62
360.936	350.62
361.163	338.62
361.39	316.62
361.616	323.62
361.843	322.62
362.07	307.62
362.296	298.62
362.523	288.62
362.749	299.62
362.976	285.62
363.203	313.62
363.429	281.62
363.656	285.62
363.882	270.62
364.109	278.62
364.335	285.62
364.562	282.62
364.788	281.62
365.015	263.62
365.241	269.62
365.468	282.62
365.694	257.62
365.92	261.62
366.147	273.62
366.373	273.62
366.599	263.62
366.826	252.62
367.052	259.62
367.278	258.62
367.505	252.62
367.731	271.62
367.957	248.62
368.184	262.62
368.41	265.62
368.636	252.62
368.862	261.62
369.089	254.62
369.315	257.62
369.541	269.62
369.767	263.62
369.993	266.62
370.219	283.62
370.445	254.62
370.672	249.62
370.898	254.62
371.124	259.62
371.35	280.62
371.576	257.62
371.802	279.62
372.028	269.62
372.254	281.62
372.48	265.62
372.706	294.62
372.932	279.62
373.158	285.62
373.384	287.62
373.61	283.62
373.835	271.62
374.061	263.62
374.287	268.62
374.513	279.62
374.739	270.62
374.965	278.62
375.191	285.62
375.416	286.62
375.642	267.62
375.868	292.62
376.094	272.62
376.319	261.62
376.545	274.62
376.771	271.62
376.997	275.62
377.222	278.62
377.448	280.62
377.674	281.62
377.899	271.62
378.125	271.62
378.35	269.62
378.576	261.62
378.802	263.62
379.027	269.62
379.253	275.62
379.478	269.62
379.704	281.62
379.929	275.62
380.155	285.62
380.38	276.62
380.606	280.62
380.831	275.62
381.057	283.62
381.282	275.62
381.507	272.62
381.733	292.62
381.958	296.62
382.184	284.62
382.409	311.62
382.634	312.62
382.86	321.62
383.085	321.62
383.31	352.62
383.535	351.62
383.761	364.62
383.986	360.62
384.211	318.62
384.436	302.62
384.662	324.62
384.887	312.62
385.112	276.62
385.337	318.62
385.562	298.62
385.787	319.62
386.013	324.62
386.238	323.62
386.463	316.62
386.688	348.62
386.913	321.62
387.138	307.62
387.363	321.62
387.588	336.62
387.813	324.62
388.038	301.62
388.263	320.62
388.488	306.62
388.713	321.62
388.938	332.62
389.163	313.62
389.387	323.62
389.612	331.62
389.837	313.62
390.062	331.62
390.287	327.62
390.512	330.62
390.736	340.62
390.961	339.62
391.186	344.62
391.411	353.62
391.636	327.62
391.86	351.62
392.085	355.62
392.31	357.62
392.534	375.62
392.759	386.62
392.984	370.62
393.208	399.62
393.433	448.62
393.658	489.62
393.882	593.62
394.107	926.62
394.331	1565.62
394.556	1995.62
394.78	1433.62
395.005	882.62
395.229	717.62
395.454	699.62
395.678	855.62
395.903	1349.62
396.127	2242.62
396.352	2580.62
396.576	1637.62
396.801	985.62
397.025	754.62
397.249	638.62
397.474	547.62
397.698	515.62
397.922	491.62
398.147	475.62
398.371	451.62
398.595	438.62
398.82	435.62
399.044	439.62
399.268	456.62
399.492	459.62
399.717	455.62
399.941	459.62
400.165	437.62
400.389	415.62
400.613	379.62
400.837	402.62
401.062	376.62
401.286	379.62
401.51	385.62
401.734	378.62
401.958	379.62
402.182	376.62
402.406	373.62
402.63	373.62
402.854	372.62
403.078	363.62
403.302	367.62
403.526	373.62
403.75	386.62
403.974	372.62
404.198	385.62
404.422	402.62
404.645	371.62
404.869	362.62
405.093	373.62
405.317	381.62
405.541	383.62
405.765	387.62
405.988	378.62
406.212	397.62
406.436	366.62
406.66	378.62
406.883	394.62
407.107	388.62
407.331	397.62
407.555	419.62
407.778	386.62
408.002	373.62
408.226	385.62
408.449	400.62
408.673	382.62
408.896	372.62
409.12	369.62
409.344	378.62
409.567	376.62
409.791	379.62
410.014	372.62
410.238	354.62
410.461	373.62
410.685	379.62
410.908	381.62
411.132	363.62
411.355	369.62
411.578	354.62
411.802	372.62
412.025	358.62
412.249	367.62
412.472	383.62
412.695	375.62
412.919	379.62
413.142	374.62
413.365	371.62
413.589	359.62
413.812	360.62
414.035	369.62
414.258	363.62
414.482	353.62
414.705	372.62
414.928	356.62
415.151	369.62
415.374	357.62
415.597	363.62
415.821	343.62
416.044	351.62
416.267	365.62
416.49	358.62
416.713	354.62
416.936	383.62
417.159	363.62
417.382	345.62
417.605	353.62
417.828	344.62
418.051	369.62
418.274	364.62
418.497	363.62
418.72	375.62
418.943	370.62
419.166	380.62
419.389	421.62
419.611	403.62
419.834	375.62
420.057	367.62
420.28	378.62
420.503	356.62
420.726	367.62
420.948	346.62
421.171	359.62
421.394	362.62
421.617	392.62
421.839	382.62
422.062	372.62
422.285	357.62
422.507	371.62
422.73	373.62
422.953	363.62
423.175	361.62
423.398	345.62
423.621	367.62
423.843	383.62
424.066	380.62
424.288	359.62
424.511	395.62
424.733	381.62
424.956	378.62
425.178	391.62
425.401	383.62
425.623	373.62
425.846	364.62
426.068	357.62
426.291	370.62
426.513	367.62
426.735	354.62
426.958	374.62
427.18	391.62
427.402	360.62
427.625	343.62
427.847	346.62
428.069	350.62
428.292	341.62
428.514	347.62
428.736	352.62
428.958	317.62
429.181	347.62
429.403	309.62
429.625	346.62
429.847	347.62
430.069	335.62
430.292	355.62
430.514	350.62
430.736	338.62
430.958	331.62
431.18	330.62
431.402	327.62
431.624	339.62
431.846	321.62
432.068	319.62
432.29	300.62
432.512	315.62
432.734	344.62
432.956	351.62
433.178	371.62
433.4	362.62
433.622	354.62
433.844	345.62
434.066	334.62
434.287	327.62
434.509	315.62
434.731	338.62
434.953	359.62
435.175	362.62
435.397	356.62
435.618	348.62
435.84	340.62
436.062	332.62
436.284	344.62
436.505	359.62
436.727	346.62
436.949	340.62
437.17	344.62
437.392	340.62
437.614	343.62
437.835	316.62
438.057	311.62
438.278	325.62
438.5	337.62
438.721	343.62
438.943	350.62
439.165	351.62
439.386	371.62
439.608	357.62
439.829	356.62
440.05	373.62
440.272	364.62
440.493	362.62
440.715	373.62
440.936	367.62
441.158	378.62
441.379	365.62
441.6	384.62
441.822	384.62
442.043	380.62
442.264	381.62
442.486	380.62
442.707	387.62
442.928	394.62
443.149	383.62
443.371	370.62
443.592	386.62
443.813	375.62
444.034	373.62
444.255	395.62
444.476	393.62
444.698	391.62
444.919	404.62
445.14	649.62
445.361	501.62
445.582	388.62
445.803	396.62
446.024	377.62
446.245	367.62
446.466	385.62
446.687	373.62
446.908	377.62
447.129	375.62
447.35	369.62
447.571	375.62
447.792	376.62
448.013	357.62
448.234	355.62
448.455	350.62
448.675	369.62
448.896	369.62
449.117	333.62
449.338	346.62
449.559	341.62
449.779	351.62
450	337.62
450.221	348.62
450.442	346.62
450.662	361.62
450.883	330.62
451.104	339.62
451.324	327.62
451.545	328.62
451.766	348.62
451.986	336.62
452.207	334.62
452.428	323.62
452.648	341.62
452.869	341.62
453.089	335.62
453.31	325.62
453.53	310.62
453.751	329.62
453.971	302.62
454.192	317.62
454.412	320.62
454.633	315.62
454.853	322.62
455.073	319.62
455.294	314.62
455.514	330.62
455.734	311.62
455.955	327.62
456.175	303.62
456.395	304.62
456.616	295.62
456.836	280.62
457.056	311.62
457.276	311.62
457.497	293.62
457.717	275.62
457.937	317.62
458.157	310.62
458.377	311.62
458.598	285.62
458.818	299.62
459.038	287.62
459.258	283.62
459.478	296.62
459.698	303.62
459.918	324.62
460.138	318.62
460.358	348.62
460.578	356.62
460.798	324.62
461.018	374.62
461.238	372.62
461.458	367.62
461.678	362.62
461.898	359.62
462.118	354.62
462.338	371.62
462.558	373.62
462.777	383.62
462.997	398.62
463.217	396.62
463.437	413.62
463.657	392.62
463.876	383.62
464.096	380.62
464.316	364.62
464.536	392.62
464.755	377.62
464.975	375.62
465.195	383.62
465.414	348.62
465.634	349.62
465.854	372.62
466.073	364.62
466.293	376.62
466.512	395.62
466.732	399.62
466.951	384.62
467.171	391.62
467.391	389.62
467.61	383.62
467.829	366.62
468.049	360.62
468.268	346.62
468.488	341.62
468.707	364.62
468.927	338.62
469.146	340.62
469.365	364.62
469.585	333.62
469.804	344.62
470.023	358.62
470.243	347.62
470.462	370.62
470.681	365.62
470.901	356.62
471.12	368.62
471.339	369.62
471.558	362.62
471.777	376.62
471.997	358.62
472.216	345.62
472.435	336.62
472.654	340.62
472.873	306.62
473.092	353.62
473.311	378.62
473.53	372.62
473.749	419.62
473.968	414.62
474.187	381.62
474.406	396.62
474.625	424.62
474.844	423.62
475.063	395.62
475.282	375.62
475.501	368.62
475.72	379.62
475.939	369.62
476.158	337.62
476.377	330.62
476.596	345.62
476.814	345.62
477.033	330.62
477.252	325.62
477.471	339.62
477.69	350.62
477.908	364.62
478.127	388.62
478.346	364.62
478.564	371.62
478.783	371.62
479.002	384.62
479.22	386.62
479.439	386.62
479.658	386.62
479.876	359.62
480.095	367.62
480.313	387.62
480.532	363.62
480.751	365.62
480.969	339.62
481.188	329.62
481.406	335.62
481.624	319.62
481.843	324.62
482.061	324.62
482.28	340.62
482.498	353.62
482.717	327.62
482.935	370.62
483.153	355.62
483.372	372.62
483.59	364.62
483.808	353.62
484.027	366.62
484.245	366.62
484.463	410.62
484.681	407.62
484.9	387.62
485.118	402.62
485.336	379.62
485.554	353.62
485.772	366.62
485.99	360.62
486.209	368.62
486.427	371.62
486.645	364.62
486.863	412.62
487.081	374.62
487.299	393.62
487.517	418.62
487.735	429.62
487.953	438.62
488.171	426.62
488.389	412.62
488.607	412.62
488.825	392.62
489.043	365.62
489.261	385.62
489.479	374.62
489.696	399.62
489.914	368.62
490.132	393.62
490.35	398.62
490.568	416.62
490.786	434.62
491.003	420.62
491.221	448.62
491.439	433.62
491.657	419.62
491.874	451.62
492.092	459.62
492.31	472.62
492.527	459.62
492.745	460.62
492.963	461.62
493.18	445.62
493.398	435.62
493.615	443.62
493.833	425.62
494.05	429.62
494.268	400.62
494.485	451.62
494.703	445.62
494.92	437.62
495.138	428.62
495.355	424.62
495.573	423.62
495.79	417.62
496.008	448.62
496.225	451.62
496.442	415.62
496.66	449.62
496.877	429.62
497.094	445.62
497.312	427.62
497.529	417.62
497.746	426.62
497.963	420.62
498.181	436.62
498.398	420.62
498.615	449.62
498.832	472.62
499.049	472.62
499.267	484.62
499.484	524.62
499.701	537.62
499.918	585.62
500.135	613.62
500.352	656.62
500.569	652.62
500.786	661.62
501.003	603.62
501.22	580.62
501.437	539.62
501.654	506.62
501.871	496.62
502.088	480.62
502.305	471.62
502.522	443.62
502.739	447.62
502.956	425.62
