Data from SampC_HRD10591_00073.txt Node
Date: Mon Jan 19 11:37:54 EST 2026
User: Yrep
Spectrometer: HR+D1059
Trigger mode: 0
Integration Time (sec): 3.443000E-1
Scans to average: 1
Electric dark correction enabled: true
Nonlinearity correction enabled: false
Boxcar width: 0
XAxis mode: Wavelengths
Number of Pixels in Spectrum: 2048
>>>>>Begin Spectral Data<<<<<
223.165	-11.12
223.4	-11.12
223.635	-11.12
223.869	-28.12
224.104	-0.12
224.338	-11.12
224.573	-26.12
224.808	-17.12
225.042	-4.12
225.277	-28.12
225.511	0.88
225.746	11.88
225.98	0.88
226.215	10.88
226.449	17.88
226.683	22.88
226.918	34.88
227.152	25.88
227.387	31.88
227.621	36.88
227.856	55.88
228.09	48.88
228.324	48.88
228.559	53.88
228.793	67.88
229.027	95.88
229.262	97.88
229.496	81.88
229.73	90.88
229.964	104.88
230.199	104.88
230.433	98.88
230.667	114.88
230.901	113.88
231.136	98.88
231.37	121.88
231.604	113.88
231.838	123.88
232.072	130.88
232.306	132.88
232.541	130.88
232.775	111.88
233.009	102.88
233.243	100.88
233.477	117.88
233.711	112.88
233.945	131.88
234.179	114.88
234.413	121.88
234.647	110.88
234.881	104.88
235.115	120.88
235.349	122.88
235.583	127.88
235.817	121.88
236.051	130.88
236.285	145.88
236.519	172.88
236.753	190.88
236.987	209.88
237.221	247.88
237.455	262.88
237.689	249.88
237.922	222.88
238.156	160.88
238.39	158.88
238.624	138.88
238.858	135.88
239.091	127.88
239.325	120.88
239.559	103.88
239.793	119.88
240.027	131.88
240.26	119.88
240.494	138.88
240.728	120.88
240.961	112.88
241.195	125.88
241.429	121.88
241.662	110.88
241.896	106.88
242.13	110.88
242.363	111.88
242.597	124.88
242.83	124.88
243.064	108.88
243.298	127.88
243.531	130.88
243.765	126.88
243.998	134.88
244.232	126.88
244.465	119.88
244.699	118.88
244.932	112.88
245.166	122.88
245.399	126.88
245.633	140.88
245.866	119.88
246.099	127.88
246.333	142.88
246.566	125.88
246.8	142.88
247.033	148.88
247.266	135.88
247.5	138.88
247.733	129.88
247.966	129.88
248.2	118.88
248.433	129.88
248.666	146.88
248.899	134.88
249.133	134.88
249.366	161.88
249.599	143.88
249.832	134.88
250.066	139.88
250.299	143.88
250.532	148.88
250.765	144.88
250.998	145.88
251.231	162.88
251.465	139.88
251.698	154.88
251.931	159.88
252.164	141.88
252.397	154.88
252.63	163.88
252.863	150.88
253.096	160.88
253.329	170.88
253.562	132.88
253.795	144.88
254.028	153.88
254.261	158.88
254.494	142.88
254.727	162.88
254.96	164.88
255.193	140.88
255.426	167.88
255.659	162.88
255.892	174.88
256.124	176.88
256.357	188.88
256.59	213.88
256.823	252.88
257.056	332.88
257.289	334.88
257.521	332.88
257.754	392.88
257.987	373.88
258.22	273.88
258.452	221.88
258.685	204.88
258.918	176.88
259.151	170.88
259.383	199.88
259.616	183.88
259.849	175.88
260.081	168.88
260.314	190.88
260.547	181.88
260.779	184.88
261.012	175.88
261.244	170.88
261.477	192.88
261.71	185.88
261.942	149.88
262.175	197.88
262.407	192.88
262.64	189.88
262.872	206.88
263.105	226.88
263.337	259.88
263.57	255.88
263.802	260.88
264.035	239.88
264.267	202.88
264.499	200.88
264.732	203.88
264.964	215.88
265.197	250.88
265.429	296.88
265.661	290.88
265.894	280.88
266.126	327.88
266.358	341.88
266.591	292.88
266.823	242.88
267.055	210.88
267.287	221.88
267.52	198.88
267.752	193.88
267.984	179.88
268.216	201.88
268.448	185.88
268.681	189.88
268.913	173.88
269.145	180.88
269.377	191.88
269.609	184.88
269.841	187.88
270.073	178.88
270.306	189.88
270.538	169.88
270.77	184.88
271.002	184.88
271.234	202.88
271.466	193.88
271.698	188.88
271.93	192.88
272.162	199.88
272.394	190.88
272.626	188.88
272.858	175.88
273.09	209.88
273.322	193.88
273.553	187.88
273.785	207.88
274.017	215.88
274.249	200.88
274.481	204.88
274.713	189.88
274.945	207.88
275.176	207.88
275.408	199.88
275.64	210.88
275.872	211.88
276.104	194.88
276.335	191.88
276.567	216.88
276.799	220.88
277.031	199.88
277.262	218.88
277.494	238.88
277.726	252.88
277.957	263.88
278.189	286.88
278.421	275.88
278.652	294.88
278.884	330.88
279.115	412.88
279.347	598.88
279.579	833.88
279.81	962.88
280.042	759.88
280.273	738.88
280.505	691.88
280.736	471.88
280.968	334.88
281.199	357.88
281.431	427.88
281.662	537.88
281.894	595.88
282.125	486.88
282.356	366.88
282.588	320.88
282.819	281.88
283.051	282.88
283.282	271.88
283.513	263.88
283.745	269.88
283.976	269.88
284.207	254.88
284.439	251.88
284.67	279.88
284.901	290.88
285.132	347.88
285.364	405.88
285.595	351.88
285.826	269.88
286.057	252.88
286.288	244.88
286.52	242.88
286.751	251.88
286.982	240.88
287.213	227.88
287.444	228.88
287.675	235.88
287.906	241.88
288.138	242.88
288.369	256.88
288.6	239.88
288.831	236.88
289.062	238.88
289.293	236.88
289.524	245.88
289.755	226.88
289.986	239.88
290.217	243.88
290.448	249.88
290.679	241.88
290.91	241.88
291.141	251.88
291.371	237.88
291.602	276.88
291.833	260.88
292.064	260.88
292.295	283.88
292.526	268.88
292.757	290.88
292.987	290.88
293.218	283.88
293.449	283.88
293.68	288.88
293.91	307.88
294.141	279.88
294.372	243.88
294.603	262.88
294.833	250.88
295.064	246.88
295.295	253.88
295.525	258.88
295.756	264.88
295.987	244.88
296.217	235.88
296.448	247.88
296.679	239.88
296.909	256.88
297.14	239.88
297.37	259.88
297.601	257.88
297.831	247.88
298.062	257.88
298.292	244.88
298.523	264.88
298.753	262.88
298.984	253.88
299.214	252.88
299.445	254.88
299.675	274.88
299.905	267.88
300.136	260.88
300.366	266.88
300.597	274.88
300.827	302.88
301.057	276.88
301.288	276.88
301.518	283.88
301.748	279.88
301.979	332.88
302.209	321.88
302.439	305.88
302.669	307.88
302.9	296.88
303.13	346.88
303.36	343.88
303.59	342.88
303.82	358.88
304.051	363.88
304.281	387.88
304.511	421.88
304.741	447.88
304.971	499.88
305.201	623.88
305.431	676.88
305.661	793.88
305.891	841.88
306.121	770.88
306.352	680.88
306.582	708.88
306.812	687.88
307.042	616.88
307.272	608.88
307.502	689.88
307.731	923.88
307.961	1377.88
308.191	2017.88
308.421	2358.88
308.651	1950.88
308.881	1754.88
309.111	2236.88
309.341	2917.88
309.571	2743.88
309.8	1631.88
310.03	1072.88
310.26	787.88
310.49	650.88
310.72	591.88
310.949	506.88
311.179	470.88
311.409	464.88
311.639	419.88
311.868	423.88
312.098	410.88
312.328	386.88
312.557	373.88
312.787	368.88
313.017	376.88
313.246	365.88
313.476	353.88
313.706	333.88
313.935	352.88
314.165	330.88
314.394	335.88
314.624	310.88
314.853	341.88
315.083	333.88
315.312	319.88
315.542	327.88
315.771	308.88
316.001	313.88
316.23	319.88
316.46	304.88
316.689	313.88
316.919	309.88
317.148	320.88
317.377	306.88
317.607	313.88
317.836	288.88
318.065	301.88
318.295	298.88
318.524	297.88
318.753	306.88
318.983	284.88
319.212	290.88
319.441	287.88
319.67	304.88
319.9	286.88
320.129	301.88
320.358	325.88
320.587	300.88
320.816	300.88
321.046	289.88
321.275	289.88
321.504	290.88
321.733	290.88
321.962	295.88
322.191	303.88
322.42	302.88
322.649	309.88
322.878	301.88
323.108	302.88
323.337	329.88
323.566	296.88
323.795	307.88
324.024	309.88
324.253	308.88
324.482	313.88
324.71	319.88
324.939	326.88
325.168	314.88
325.397	306.88
325.626	299.88
325.855	320.88
326.084	307.88
326.313	307.88
326.542	299.88
326.77	304.88
326.999	312.88
327.228	301.88
327.457	299.88
327.686	319.88
327.914	310.88
328.143	316.88
328.372	297.88
328.6	314.88
328.829	291.88
329.058	306.88
329.287	296.88
329.515	301.88
329.744	315.88
329.972	281.88
330.201	311.88
330.43	292.88
330.658	306.88
330.887	326.88
331.115	324.88
331.344	302.88
331.572	323.88
331.801	320.88
332.03	312.88
332.258	344.88
332.486	317.88
332.715	339.88
332.943	342.88
333.172	353.88
333.4	346.88
333.629	370.88
333.857	339.88
334.085	351.88
334.314	368.88
334.542	341.88
334.771	349.88
334.999	363.88
335.227	325.88
335.455	345.88
335.684	339.88
335.912	355.88
336.14	335.88
336.369	339.88
336.597	328.88
336.825	352.88
337.053	324.88
337.281	350.88
337.51	326.88
337.738	334.88
337.966	307.88
338.194	328.88
338.422	336.88
338.65	328.88
338.878	327.88
339.106	324.88
339.334	326.88
339.562	320.88
339.79	339.88
340.018	300.88
340.246	298.88
340.474	319.88
340.702	314.88
340.93	311.88
341.158	321.88
341.386	310.88
341.614	309.88
341.842	316.88
342.07	326.88
342.298	312.88
342.526	321.88
342.754	346.88
342.981	338.88
343.209	352.88
343.437	369.88
343.665	344.88
343.893	354.88
344.12	365.88
344.348	355.88
344.576	321.88
344.804	343.88
345.031	333.88
345.259	319.88
345.487	311.88
345.714	330.88
345.942	314.88
346.17	320.88
346.397	317.88
346.625	326.88
346.853	321.88
347.08	306.88
347.308	319.88
347.535	319.88
347.763	335.88
347.99	331.88
348.218	339.88
348.445	330.88
348.673	323.88
348.9	320.88
349.128	331.88
349.355	328.88
349.583	327.88
349.81	330.88
350.037	318.88
350.265	330.88
350.492	340.88
350.72	346.88
350.947	328.88
351.174	313.88
351.402	332.88
351.629	322.88
351.856	323.88
352.083	338.88
352.311	314.88
352.538	347.88
352.765	348.88
352.992	370.88
353.22	347.88
353.447	336.88
353.674	352.88
353.901	347.88
354.128	362.88
354.355	390.88
354.583	382.88
354.81	383.88
355.037	390.88
355.264	386.88
355.491	380.88
355.718	378.88
355.945	402.88
356.172	413.88
356.399	432.88
356.626	456.88
356.853	482.88
357.08	530.88
357.307	548.88
357.534	575.88
357.761	617.88
357.988	691.88
358.215	788.88
358.441	953.88
358.668	1061.88
358.895	982.88
359.122	822.88
359.349	687.88
359.576	604.88
359.802	547.88
360.029	513.88
360.256	497.88
360.483	488.88
360.709	489.88
360.936	491.88
361.163	461.88
361.39	441.88
361.616	424.88
361.843	425.88
362.07	424.88
362.296	394.88
362.523	379.88
362.749	400.88
362.976	387.88
363.203	398.88
363.429	375.88
363.656	375.88
363.882	364.88
364.109	386.88
364.335	372.88
364.562	384.88
364.788	376.88
365.015	368.88
365.241	347.88
365.468	353.88
365.694	358.88
365.92	344.88
366.147	359.88
366.373	350.88
366.599	348.88
366.826	355.88
367.052	378.88
367.278	360.88
367.505	348.88
367.731	366.88
367.957	338.88
368.184	352.88
368.41	320.88
368.636	324.88
368.862	339.88
369.089	348.88
369.315	355.88
369.541	349.88
369.767	347.88
369.993	357.88
370.219	359.88
370.445	346.88
370.672	348.88
370.898	367.88
371.124	358.88
371.35	340.88
371.576	366.88
371.802	359.88
372.028	355.88
372.254	386.88
372.48	377.88
372.706	366.88
372.932	373.88
373.158	370.88
373.384	367.88
373.61	372.88
373.835	381.88
374.061	365.88
374.287	382.88
374.513	356.88
374.739	378.88
374.965	386.88
375.191	368.88
375.416	363.88
375.642	363.88
375.868	366.88
376.094	371.88
376.319	362.88
376.545	363.88
376.771	361.88
376.997	340.88
377.222	352.88
377.448	347.88
377.674	347.88
377.899	340.88
378.125	348.88
378.35	359.88
378.576	367.88
378.802	360.88
379.027	338.88
379.253	376.88
379.478	361.88
379.704	366.88
379.929	367.88
380.155	351.88
380.38	366.88
380.606	368.88
380.831	372.88
381.057	383.88
381.282	362.88
381.507	390.88
381.733	411.88
381.958	391.88
382.184	412.88
382.409	420.88
382.634	435.88
382.86	481.88
383.085	521.88
383.31	512.88
383.535	515.88
383.761	538.88
383.986	567.88
384.211	476.88
384.436	430.88
384.662	412.88
384.887	422.88
385.112	411.88
385.337	428.88
385.562	436.88
385.787	432.88
386.013	440.88
386.238	428.88
386.463	425.88
386.688	483.88
386.913	433.88
387.138	441.88
387.363	414.88
387.588	440.88
387.813	430.88
388.038	415.88
388.263	435.88
388.488	432.88
388.713	426.88
388.938	407.88
389.163	418.88
389.387	428.88
389.612	431.88
389.837	436.88
390.062	470.88
390.287	454.88
390.512	449.88
390.736	455.88
390.961	433.88
391.186	478.88
391.411	488.88
391.636	448.88
391.86	499.88
392.085	516.88
392.31	537.88
392.534	530.88
392.759	556.88
392.984	587.88
393.208	643.88
393.433	732.88
393.658	830.88
393.882	1059.88
394.107	1792.88
394.331	3360.88
394.556	4518.88
394.78	2894.88
395.005	1560.88
395.229	1189.88
395.454	1232.88
395.678	1596.88
395.903	2847.88
396.127	4959.88
396.352	5763.88
396.576	3291.88
396.801	1772.88
397.025	1268.88
397.249	981.88
397.474	867.88
397.698	790.88
397.922	721.88
398.147	691.88
398.371	672.88
398.595	656.88
398.82	631.88
399.044	624.88
399.268	603.88
399.492	635.88
399.717	666.88
399.941	658.88
400.165	616.88
400.389	568.88
400.613	559.88
400.837	536.88
401.062	534.88
401.286	527.88
401.51	527.88
401.734	489.88
401.958	511.88
402.182	516.88
402.406	528.88
402.63	503.88
402.854	540.88
403.078	521.88
403.302	529.88
403.526	528.88
403.75	513.88
403.974	542.88
404.198	511.88
404.422	498.88
404.645	504.88
404.869	507.88
405.093	518.88
405.317	499.88
405.541	530.88
405.765	496.88
405.988	516.88
406.212	527.88
406.436	530.88
406.66	528.88
406.883	523.88
407.107	536.88
407.331	547.88
407.555	530.88
407.778	523.88
408.002	556.88
408.226	536.88
408.449	527.88
408.673	520.88
408.896	508.88
409.12	503.88
409.344	549.88
409.567	516.88
409.791	478.88
410.014	501.88
410.238	499.88
410.461	522.88
410.685	510.88
410.908	510.88
411.132	510.88
411.355	492.88
411.578	508.88
411.802	490.88
412.025	481.88
412.249	468.88
412.472	485.88
412.695	481.88
412.919	479.88
413.142	471.88
413.365	503.88
413.589	471.88
413.812	482.88
414.035	474.88
414.258	474.88
414.482	499.88
414.705	500.88
414.928	479.88
415.151	467.88
415.374	483.88
415.597	478.88
415.821	464.88
416.044	487.88
416.267	469.88
416.49	473.88
416.713	473.88
416.936	473.88
417.159	482.88
417.382	466.88
417.605	458.88
417.828	482.88
418.051	484.88
418.274	487.88
418.497	478.88
418.72	491.88
418.943	493.88
419.166	501.88
419.389	520.88
419.611	512.88
419.834	523.88
420.057	493.88
420.28	502.88
420.503	484.88
420.726	473.88
420.948	488.88
421.171	481.88
421.394	492.88
421.617	480.88
421.839	512.88
422.062	505.88
422.285	486.88
422.507	499.88
422.73	518.88
422.953	496.88
423.175	492.88
423.398	492.88
423.621	488.88
423.843	497.88
424.066	505.88
424.288	503.88
424.511	504.88
424.733	504.88
424.956	510.88
425.178	502.88
425.401	510.88
425.623	520.88
425.846	514.88
426.068	473.88
426.291	483.88
426.513	491.88
426.735	465.88
426.958	482.88
427.18	467.88
427.402	484.88
427.625	460.88
427.847	445.88
428.069	458.88
428.292	473.88
428.514	463.88
428.736	470.88
428.958	483.88
429.181	444.88
429.403	464.88
429.625	454.88
429.847	461.88
430.069	465.88
430.292	457.88
430.514	452.88
430.736	470.88
430.958	439.88
431.18	454.88
431.402	465.88
431.624	460.88
431.846	421.88
432.068	424.88
432.29	426.88
432.512	438.88
432.734	459.88
432.956	456.88
433.178	495.88
433.4	482.88
433.622	479.88
433.844	477.88
434.066	476.88
434.287	432.88
434.509	455.88
434.731	440.88
434.953	474.88
435.175	474.88
435.397	472.88
435.618	465.88
435.84	459.88
436.062	449.88
436.284	459.88
436.505	480.88
436.727	466.88
436.949	449.88
437.17	474.88
437.392	438.88
437.614	418.88
437.835	420.88
438.057	423.88
438.278	447.88
438.5	448.88
438.721	487.88
438.943	479.88
439.165	471.88
439.386	477.88
439.608	475.88
439.829	460.88
440.05	491.88
440.272	492.88
440.493	496.88
440.715	499.88
440.936	515.88
441.158	526.88
441.379	521.88
441.6	514.88
441.822	536.88
442.043	513.88
442.264	516.88
442.486	523.88
442.707	528.88
442.928	505.88
443.149	491.88
443.371	494.88
443.592	497.88
443.813	499.88
444.034	480.88
444.255	519.88
444.476	538.88
444.698	528.88
444.919	561.88
445.14	720.88
445.361	601.88
445.582	508.88
445.803	488.88
446.024	496.88
446.245	505.88
446.466	515.88
446.687	501.88
446.908	522.88
447.129	503.88
447.35	503.88
447.571	500.88
447.792	487.88
448.013	488.88
448.234	471.88
448.455	479.88
448.675	485.88
448.896	506.88
449.117	457.88
449.338	461.88
449.559	479.88
449.779	476.88
450	462.88
450.221	470.88
450.442	449.88
450.662	458.88
450.883	444.88
451.104	479.88
451.324	466.88
451.545	454.88
451.766	471.88
451.986	438.88
452.207	487.88
452.428	479.88
452.648	478.88
452.869	500.88
453.089	473.88
453.31	460.88
453.53	451.88
453.751	458.88
453.971	461.88
454.192	452.88
454.412	458.88
454.633	436.88
454.853	438.88
455.073	450.88
455.294	430.88
455.514	444.88
455.734	417.88
455.955	419.88
456.175	427.88
456.395	428.88
456.616	397.88
456.836	415.88
457.056	399.88
457.276	395.88
457.497	411.88
457.717	403.88
457.937	398.88
458.157	411.88
458.377	411.88
458.598	417.88
458.818	399.88
459.038	383.88
459.258	413.88
459.478	421.88
459.698	429.88
459.918	429.88
460.138	453.88
460.358	475.88
460.578	477.88
460.798	478.88
461.018	495.88
461.238	489.88
461.458	514.88
461.678	484.88
461.898	474.88
462.118	498.88
462.338	500.88
462.558	519.88
462.777	526.88
462.997	550.88
463.217	553.88
463.437	546.88
463.657	531.88
463.876	515.88
464.096	542.88
464.316	502.88
464.536	527.88
464.755	534.88
464.975	524.88
465.195	508.88
465.414	516.88
465.634	478.88
465.854	503.88
466.073	524.88
466.293	556.88
466.512	620.88
466.732	597.88
466.951	576.88
467.171	564.88
467.391	536.88
467.61	528.88
467.829	493.88
468.049	496.88
468.268	477.88
468.488	493.88
468.707	482.88
468.927	491.88
469.146	470.88
469.365	479.88
469.585	498.88
469.804	522.88
470.023	490.88
470.243	504.88
470.462	498.88
470.681	506.88
470.901	493.88
471.12	509.88
471.339	498.88
471.558	498.88
471.777	495.88
471.997	483.88
472.216	489.88
472.435	438.88
472.654	455.88
472.873	465.88
473.092	465.88
473.311	514.88
473.53	536.88
473.749	604.88
473.968	589.88
474.187	568.88
474.406	576.88
474.625	616.88
474.844	622.88
475.063	584.88
475.282	552.88
475.501	520.88
475.72	509.88
475.939	499.88
476.158	501.88
476.377	485.88
476.596	488.88
476.814	468.88
477.033	439.88
477.252	458.88
477.471	466.88
477.69	494.88
477.908	505.88
478.127	495.88
478.346	491.88
478.564	492.88
478.783	516.88
479.002	521.88
479.22	510.88
479.439	503.88
479.658	471.88
479.876	479.88
480.095	482.88
480.313	518.88
480.532	501.88
480.751	484.88
480.969	470.88
481.188	453.88
481.406	449.88
481.624	441.88
481.843	416.88
482.061	442.88
482.28	464.88
482.498	461.88
482.717	440.88
482.935	470.88
483.153	489.88
483.372	491.88
483.59	494.88
483.808	484.88
484.027	484.88
484.245	541.88
484.463	607.88
484.681	604.88
484.9	586.88
485.118	555.88
485.336	544.88
485.554	533.88
485.772	527.88
485.99	528.88
486.209	551.88
486.427	528.88
486.645	555.88
486.863	578.88
487.081	574.88
487.299	571.88
487.517	594.88
487.735	634.88
487.953	628.88
488.171	616.88
488.389	590.88
488.607	566.88
488.825	530.88
489.043	546.88
489.261	543.88
489.479	541.88
489.696	564.88
489.914	542.88
490.132	558.88
490.35	568.88
490.568	566.88
490.786	591.88
491.003	593.88
491.221	576.88
491.439	584.88
491.657	588.88
491.874	633.88
492.092	664.88
492.31	660.88
492.527	639.88
492.745	613.88
492.963	610.88
493.18	601.88
493.398	578.88
493.615	588.88
493.833	604.88
494.05	570.88
494.268	563.88
494.485	555.88
494.703	556.88
494.92	594.88
495.138	560.88
495.355	584.88
495.573	590.88
495.79	569.88
496.008	573.88
496.225	558.88
496.442	550.88
496.66	583.88
496.877	573.88
497.094	579.88
497.312	574.88
497.529	583.88
497.746	575.88
497.963	559.88
498.181	562.88
498.398	588.88
498.615	596.88
498.832	606.88
499.049	638.88
499.267	660.88
499.484	710.88
499.701	748.88
499.918	791.88
500.135	822.88
500.352	882.88
500.569	892.88
500.786	897.88
501.003	848.88
501.22	782.88
501.437	751.88
501.654	706.88
501.871	666.88
502.088	664.88
502.305	634.88
502.522	608.88
