Data from SampC_HRD10591_00085.txt Node
Date: Mon Jan 19 11:37:58 EST 2026
User: Yrep
Spectrometer: HR+D1059
Trigger mode: 0
Integration Time (sec): 3.443000E-1
Scans to average: 1
Electric dark correction enabled: true
Nonlinearity correction enabled: false
Boxcar width: 0
XAxis mode: Wavelengths
Number of Pixels in Spectrum: 2048
>>>>>Begin Spectral Data<<<<<
223.165	-34.31
223.4	-34.31
223.635	-34.31
223.869	-31.31
224.104	-9.31
224.338	-5.31
224.573	-18.31
224.808	-16.31
225.042	4.69
225.277	-8.31
225.511	-12.31
225.746	8.69
225.98	0.69
226.215	20.69
226.449	24.69
226.683	35.69
226.918	17.69
227.152	22.69
227.387	15.69
227.621	58.69
227.856	47.69
228.09	29.69
228.324	67.69
228.559	64.69
228.793	67.69
229.027	72.69
229.262	96.69
229.496	79.69
229.73	100.69
229.964	110.69
230.199	92.69
230.433	98.69
230.667	122.69
230.901	110.69
231.136	113.69
231.37	111.69
231.604	111.69
231.838	122.69
232.072	118.69
232.306	111.69
232.541	128.69
232.775	115.69
233.009	117.69
233.243	109.69
233.477	113.69
233.711	102.69
233.945	115.69
234.179	116.69
234.413	109.69
234.647	121.69
234.881	113.69
235.115	109.69
235.349	120.69
235.583	119.69
235.817	136.69
236.051	126.69
236.285	136.69
236.519	155.69
236.753	172.69
236.987	209.69
237.221	215.69
237.455	204.69
237.689	218.69
237.922	177.69
238.156	141.69
238.39	135.69
238.624	121.69
238.858	118.69
239.091	123.69
239.325	120.69
239.559	133.69
239.793	121.69
240.027	120.69
240.26	118.69
240.494	124.69
240.728	122.69
240.961	127.69
241.195	113.69
241.429	125.69
241.662	109.69
241.896	117.69
242.13	124.69
242.363	126.69
242.597	102.69
242.83	136.69
243.064	123.69
243.298	137.69
243.531	127.69
243.765	128.69
243.998	127.69
244.232	126.69
244.465	111.69
244.699	133.69
244.932	115.69
245.166	128.69
245.399	131.69
245.633	129.69
245.866	106.69
246.099	126.69
246.333	131.69
246.566	143.69
246.8	153.69
247.033	139.69
247.266	124.69
247.5	141.69
247.733	123.69
247.966	136.69
248.2	140.69
248.433	136.69
248.666	146.69
248.899	152.69
249.133	132.69
249.366	164.69
249.599	140.69
249.832	123.69
250.066	128.69
250.299	146.69
250.532	144.69
250.765	140.69
250.998	136.69
251.231	161.69
251.465	147.69
251.698	137.69
251.931	162.69
252.164	154.69
252.397	141.69
252.63	162.69
252.863	167.69
253.096	140.69
253.329	161.69
253.562	155.69
253.795	132.69
254.028	148.69
254.261	152.69
254.494	143.69
254.727	157.69
254.96	161.69
255.193	166.69
255.426	148.69
255.659	156.69
255.892	159.69
256.124	187.69
256.357	171.69
256.59	209.69
256.823	212.69
257.056	262.69
257.289	257.69
257.521	282.69
257.754	281.69
257.987	271.69
258.22	252.69
258.452	198.69
258.685	187.69
258.918	178.69
259.151	165.69
259.383	174.69
259.616	181.69
259.849	174.69
260.081	171.69
260.314	174.69
260.547	159.69
260.779	170.69
261.012	158.69
261.244	172.69
261.477	177.69
261.71	177.69
261.942	172.69
262.175	169.69
262.407	176.69
262.64	202.69
262.872	198.69
263.105	224.69
263.337	251.69
263.57	234.69
263.802	265.69
264.035	226.69
264.267	215.69
264.499	210.69
264.732	220.69
264.964	208.69
265.197	226.69
265.429	245.69
265.661	231.69
265.894	238.69
266.126	274.69
266.358	282.69
266.591	257.69
266.823	229.69
267.055	202.69
267.287	207.69
267.52	200.69
267.752	195.69
267.984	174.69
268.216	181.69
268.448	184.69
268.681	192.69
268.913	185.69
269.145	182.69
269.377	190.69
269.609	177.69
269.841	192.69
270.073	172.69
270.306	177.69
270.538	187.69
270.77	189.69
271.002	170.69
271.234	188.69
271.466	200.69
271.698	191.69
271.93	200.69
272.162	193.69
272.394	193.69
272.626	180.69
272.858	194.69
273.09	189.69
273.322	193.69
273.553	200.69
273.785	208.69
274.017	205.69
274.249	205.69
274.481	199.69
274.713	197.69
274.945	225.69
275.176	210.69
275.408	195.69
275.64	214.69
275.872	205.69
276.104	204.69
276.335	212.69
276.567	207.69
276.799	203.69
277.031	227.69
277.262	214.69
277.494	228.69
277.726	240.69
277.957	229.69
278.189	254.69
278.421	260.69
278.652	264.69
278.884	300.69
279.115	367.69
279.347	524.69
279.579	717.69
279.81	775.69
280.042	652.69
280.273	598.69
280.505	607.69
280.736	417.69
280.968	325.69
281.199	324.69
281.431	412.69
281.662	506.69
281.894	559.69
282.125	458.69
282.356	375.69
282.588	328.69
282.819	281.69
283.051	283.69
283.282	264.69
283.513	270.69
283.745	264.69
283.976	275.69
284.207	249.69
284.439	264.69
284.67	266.69
284.901	264.69
285.132	291.69
285.364	318.69
285.595	298.69
285.826	247.69
286.057	229.69
286.288	229.69
286.52	229.69
286.751	228.69
286.982	229.69
287.213	233.69
287.444	250.69
287.675	240.69
287.906	249.69
288.138	240.69
288.369	245.69
288.6	227.69
288.831	238.69
289.062	239.69
289.293	238.69
289.524	246.69
289.755	241.69
289.986	241.69
290.217	231.69
290.448	234.69
290.679	258.69
290.91	245.69
291.141	246.69
291.371	261.69
291.602	248.69
291.833	252.69
292.064	265.69
292.295	242.69
292.526	280.69
292.757	281.69
292.987	287.69
293.218	271.69
293.449	287.69
293.68	278.69
293.91	274.69
294.141	268.69
294.372	256.69
294.603	258.69
294.833	245.69
295.064	247.69
295.295	230.69
295.525	233.69
295.756	236.69
295.987	238.69
296.217	249.69
296.448	251.69
296.679	246.69
296.909	264.69
297.14	254.69
297.37	266.69
297.601	244.69
297.831	252.69
298.062	250.69
298.292	249.69
298.523	262.69
298.753	266.69
298.984	261.69
299.214	258.69
299.445	247.69
299.675	267.69
299.905	264.69
300.136	256.69
300.366	266.69
300.597	273.69
300.827	273.69
301.057	267.69
301.288	275.69
301.518	273.69
301.748	277.69
301.979	321.69
302.209	277.69
302.439	289.69
302.669	309.69
302.9	284.69
303.13	298.69
303.36	312.69
303.59	299.69
303.82	338.69
304.051	347.69
304.281	352.69
304.511	362.69
304.741	381.69
304.971	424.69
305.201	512.69
305.431	559.69
305.661	612.69
305.891	645.69
306.121	610.69
306.352	549.69
306.582	599.69
306.812	547.69
307.042	515.69
307.272	479.69
307.502	553.69
307.731	718.69
307.961	976.69
308.191	1352.69
308.421	1544.69
308.651	1337.69
308.881	1251.69
309.111	1533.69
309.341	1878.69
309.571	1804.69
309.8	1205.69
310.03	790.69
310.26	641.69
310.49	531.69
310.72	496.69
310.949	447.69
311.179	439.69
311.409	410.69
311.639	386.69
311.868	379.69
312.098	359.69
312.328	369.69
312.557	366.69
312.787	341.69
313.017	338.69
313.246	323.69
313.476	330.69
313.706	312.69
313.935	326.69
314.165	319.69
314.394	314.69
314.624	309.69
314.853	324.69
315.083	313.69
315.312	311.69
315.542	313.69
315.771	312.69
316.001	311.69
316.23	318.69
316.46	286.69
316.689	298.69
316.919	301.69
317.148	306.69
317.377	296.69
317.607	304.69
317.836	294.69
318.065	302.69
318.295	280.69
318.524	297.69
318.753	283.69
318.983	277.69
319.212	291.69
319.441	291.69
319.67	301.69
319.9	290.69
320.129	296.69
320.358	283.69
320.587	295.69
320.816	271.69
321.046	286.69
321.275	277.69
321.504	291.69
321.733	286.69
321.962	285.69
322.191	297.69
322.42	312.69
322.649	298.69
322.878	293.69
323.108	299.69
323.337	302.69
323.566	294.69
323.795	312.69
324.024	314.69
324.253	295.69
324.482	293.69
324.71	298.69
324.939	313.69
325.168	308.69
325.397	298.69
325.626	291.69
325.855	296.69
326.084	301.69
326.313	305.69
326.542	293.69
326.77	329.69
326.999	310.69
327.228	312.69
327.457	314.69
327.686	326.69
327.914	323.69
328.143	316.69
328.372	288.69
328.6	298.69
328.829	307.69
329.058	294.69
329.287	322.69
329.515	305.69
329.744	318.69
329.972	299.69
330.201	300.69
330.43	294.69
330.658	329.69
330.887	310.69
331.115	324.69
331.344	298.69
331.572	324.69
331.801	306.69
332.03	318.69
332.258	325.69
332.486	305.69
332.715	337.69
332.943	346.69
333.172	337.69
333.4	364.69
333.629	356.69
333.857	366.69
334.085	333.69
334.314	365.69
334.542	338.69
334.771	345.69
334.999	346.69
335.227	340.69
335.455	337.69
335.684	355.69
335.912	352.69
336.14	327.69
336.369	341.69
336.597	328.69
336.825	339.69
337.053	333.69
337.281	334.69
337.51	336.69
337.738	322.69
337.966	312.69
338.194	301.69
338.422	324.69
338.65	324.69
338.878	319.69
339.106	332.69
339.334	325.69
339.562	304.69
339.79	312.69
340.018	316.69
340.246	324.69
340.474	309.69
340.702	312.69
340.93	302.69
341.158	317.69
341.386	318.69
341.614	322.69
341.842	322.69
342.07	294.69
342.298	305.69
342.526	308.69
342.754	317.69
342.981	298.69
343.209	320.69
343.437	351.69
343.665	346.69
343.893	350.69
344.12	376.69
344.348	347.69
344.576	324.69
344.804	336.69
345.031	320.69
345.259	320.69
345.487	319.69
345.714	312.69
345.942	295.69
346.17	327.69
346.397	335.69
346.625	322.69
346.853	330.69
347.08	304.69
347.308	325.69
347.535	328.69
347.763	334.69
347.99	324.69
348.218	333.69
348.445	313.69
348.673	323.69
348.9	344.69
349.128	344.69
349.355	335.69
349.583	332.69
349.81	326.69
350.037	309.69
350.265	340.69
350.492	330.69
350.72	337.69
350.947	317.69
351.174	328.69
351.402	312.69
351.629	338.69
351.856	342.69
352.083	333.69
352.311	331.69
352.538	333.69
352.765	362.69
352.992	360.69
353.22	354.69
353.447	352.69
353.674	359.69
353.901	378.69
354.128	349.69
354.355	351.69
354.583	391.69
354.81	392.69
355.037	387.69
355.264	410.69
355.491	380.69
355.718	417.69
355.945	432.69
356.172	434.69
356.399	442.69
356.626	484.69
356.853	480.69
357.08	519.69
357.307	538.69
357.534	547.69
357.761	626.69
357.988	677.69
358.215	779.69
358.441	898.69
358.668	989.69
358.895	956.69
359.122	801.69
359.349	683.69
359.576	613.69
359.802	556.69
360.029	542.69
360.256	504.69
360.483	492.69
360.709	503.69
360.936	493.69
361.163	486.69
361.39	469.69
361.616	442.69
361.843	440.69
362.07	439.69
362.296	422.69
362.523	421.69
362.749	404.69
362.976	402.69
363.203	405.69
363.429	389.69
363.656	370.69
363.882	353.69
364.109	365.69
364.335	364.69
364.562	377.69
364.788	381.69
365.015	369.69
365.241	346.69
365.468	338.69
365.694	354.69
365.92	366.69
366.147	348.69
366.373	342.69
366.599	329.69
366.826	345.69
367.052	343.69
367.278	340.69
367.505	336.69
367.731	362.69
367.957	360.69
368.184	353.69
368.41	365.69
368.636	370.69
368.862	362.69
369.089	354.69
369.315	339.69
369.541	338.69
369.767	362.69
369.993	351.69
370.219	353.69
370.445	346.69
370.672	347.69
370.898	368.69
371.124	354.69
371.35	361.69
371.576	349.69
371.802	352.69
372.028	351.69
372.254	357.69
372.48	360.69
372.706	354.69
372.932	361.69
373.158	351.69
373.384	381.69
373.61	382.69
373.835	374.69
374.061	351.69
374.287	352.69
374.513	376.69
374.739	390.69
374.965	380.69
375.191	374.69
375.416	386.69
375.642	354.69
375.868	380.69
376.094	355.69
376.319	363.69
376.545	349.69
376.771	356.69
376.997	359.69
377.222	349.69
377.448	377.69
377.674	358.69
377.899	352.69
378.125	353.69
378.35	340.69
378.576	352.69
378.802	371.69
379.027	365.69
379.253	365.69
379.478	347.69
379.704	360.69
379.929	385.69
380.155	371.69
380.38	361.69
380.606	354.69
380.831	338.69
381.057	366.69
381.282	365.69
381.507	378.69
381.733	361.69
381.958	370.69
382.184	383.69
382.409	384.69
382.634	399.69
382.86	438.69
383.085	448.69
383.31	464.69
383.535	467.69
383.761	474.69
383.986	477.69
384.211	409.69
384.436	412.69
384.662	403.69
384.887	410.69
385.112	414.69
385.337	421.69
385.562	416.69
385.787	387.69
386.013	416.69
386.238	416.69
386.463	414.69
386.688	450.69
386.913	451.69
387.138	408.69
387.363	428.69
387.588	420.69
387.813	417.69
388.038	444.69
388.263	442.69
388.488	435.69
388.713	436.69
388.938	422.69
389.163	425.69
389.387	417.69
389.612	424.69
389.837	429.69
390.062	434.69
390.287	445.69
390.512	430.69
390.736	459.69
390.961	437.69
391.186	431.69
391.411	459.69
391.636	461.69
391.86	448.69
392.085	462.69
392.31	491.69
392.534	492.69
392.759	503.69
392.984	539.69
393.208	556.69
393.433	630.69
393.658	681.69
393.882	789.69
394.107	1208.69
394.331	2150.69
394.556	2793.69
394.78	1980.69
395.005	1181.69
395.229	967.69
395.454	978.69
395.678	1160.69
395.903	1845.69
396.127	3094.69
396.352	3613.69
396.576	2239.69
396.801	1364.69
397.025	1015.69
397.249	820.69
397.474	742.69
397.698	643.69
397.922	659.69
398.147	633.69
398.371	600.69
398.595	588.69
398.82	591.69
399.044	571.69
399.268	593.69
399.492	602.69
399.717	627.69
399.941	604.69
400.165	579.69
400.389	551.69
400.613	531.69
400.837	521.69
401.062	510.69
401.286	503.69
401.51	510.69
401.734	496.69
401.958	482.69
402.182	474.69
402.406	501.69
402.63	502.69
402.854	496.69
403.078	521.69
403.302	506.69
403.526	513.69
403.75	534.69
403.974	521.69
404.198	496.69
404.422	487.69
404.645	503.69
404.869	494.69
405.093	528.69
405.317	504.69
405.541	480.69
405.765	501.69
405.988	509.69
406.212	490.69
406.436	528.69
406.66	538.69
406.883	499.69
407.107	541.69
407.331	540.69
407.555	532.69
407.778	541.69
408.002	523.69
408.226	523.69
408.449	529.69
408.673	526.69
408.896	544.69
409.12	506.69
409.344	496.69
409.567	486.69
409.791	505.69
410.014	497.69
410.238	509.69
410.461	509.69
410.685	496.69
410.908	502.69
411.132	494.69
411.355	474.69
411.578	486.69
411.802	488.69
412.025	489.69
412.249	502.69
412.472	506.69
412.695	476.69
412.919	461.69
413.142	486.69
413.365	465.69
413.589	492.69
413.812	477.69
414.035	468.69
414.258	486.69
414.482	488.69
414.705	462.69
414.928	481.69
415.151	481.69
415.374	492.69
415.597	484.69
415.821	476.69
416.044	473.69
416.267	477.69
416.49	469.69
416.713	474.69
416.936	477.69
417.159	497.69
417.382	485.69
417.605	464.69
417.828	480.69
418.051	474.69
418.274	477.69
418.497	481.69
418.72	471.69
418.943	483.69
419.166	496.69
419.389	513.69
419.611	516.69
419.834	495.69
420.057	495.69
420.28	490.69
420.503	488.69
420.726	478.69
420.948	477.69
421.171	475.69
421.394	496.69
421.617	472.69
421.839	493.69
422.062	499.69
422.285	488.69
422.507	498.69
422.73	500.69
422.953	504.69
423.175	491.69
423.398	480.69
423.621	480.69
423.843	489.69
424.066	491.69
424.288	503.69
424.511	506.69
424.733	486.69
424.956	499.69
425.178	495.69
425.401	489.69
425.623	475.69
425.846	486.69
426.068	490.69
426.291	464.69
426.513	481.69
426.735	480.69
426.958	483.69
427.18	478.69
427.402	473.69
427.625	466.69
427.847	451.69
428.069	484.69
428.292	466.69
428.514	446.69
428.736	453.69
428.958	456.69
429.181	442.69
429.403	447.69
429.625	468.69
429.847	465.69
430.069	458.69
430.292	457.69
430.514	438.69
430.736	460.69
430.958	444.69
431.18	449.69
431.402	478.69
431.624	453.69
431.846	425.69
432.068	388.69
432.29	426.69
432.512	448.69
432.734	469.69
432.956	458.69
433.178	498.69
433.4	469.69
433.622	469.69
433.844	462.69
434.066	464.69
434.287	444.69
434.509	434.69
434.731	438.69
434.953	465.69
435.175	473.69
435.397	483.69
435.618	461.69
435.84	448.69
436.062	416.69
436.284	448.69
436.505	457.69
436.727	490.69
436.949	465.69
437.17	440.69
437.392	453.69
437.614	449.69
437.835	413.69
438.057	419.69
438.278	429.69
438.5	458.69
438.721	441.69
438.943	466.69
439.165	468.69
439.386	473.69
439.608	500.69
439.829	486.69
440.05	481.69
440.272	489.69
440.493	463.69
440.715	489.69
440.936	501.69
441.158	509.69
441.379	515.69
441.6	531.69
441.822	501.69
442.043	506.69
442.264	506.69
442.486	501.69
442.707	498.69
442.928	482.69
443.149	499.69
443.371	498.69
443.592	515.69
443.813	514.69
444.034	489.69
444.255	511.69
444.476	530.69
444.698	500.69
444.919	531.69
445.14	721.69
445.361	600.69
445.582	529.69
445.803	482.69
446.024	493.69
446.245	519.69
446.466	474.69
446.687	480.69
446.908	495.69
447.129	498.69
447.35	474.69
447.571	491.69
447.792	477.69
448.013	490.69
448.234	487.69
448.455	475.69
448.675	473.69
448.896	471.69
449.117	457.69
449.338	449.69
449.559	458.69
449.779	444.69
450	436.69
450.221	443.69
450.442	453.69
450.662	451.69
450.883	461.69
451.104	457.69
451.324	449.69
451.545	451.69
451.766	450.69
451.986	464.69
452.207	463.69
452.428	446.69
452.648	462.69
452.869	457.69
453.089	462.69
453.31	450.69
453.53	435.69
453.751	437.69
453.971	448.69
454.192	446.69
454.412	430.69
454.633	432.69
454.853	441.69
455.073	428.69
455.294	415.69
455.514	412.69
455.734	428.69
455.955	397.69
456.175	422.69
456.395	400.69
456.616	398.69
456.836	405.69
457.056	407.69
457.276	382.69
457.497	396.69
457.717	404.69
457.937	420.69
458.157	389.69
458.377	397.69
458.598	400.69
458.818	394.69
459.038	398.69
459.258	394.69
459.478	418.69
459.698	434.69
459.918	426.69
460.138	440.69
460.358	449.69
460.578	481.69
460.798	490.69
461.018	471.69
461.238	485.69
461.458	467.69
461.678	458.69
461.898	468.69
462.118	483.69
462.338	500.69
462.558	520.69
462.777	536.69
462.997	543.69
463.217	560.69
463.437	547.69
463.657	523.69
463.876	537.69
464.096	508.69
464.316	512.69
464.536	535.69
464.755	513.69
464.975	496.69
465.195	485.69
465.414	504.69
465.634	499.69
465.854	492.69
466.073	496.69
466.293	532.69
466.512	578.69
466.732	584.69
466.951	551.69
467.171	546.69
467.391	538.69
467.61	525.69
467.829	513.69
468.049	481.69
468.268	461.69
468.488	474.69
468.707	468.69
468.927	476.69
469.146	467.69
469.365	467.69
469.585	486.69
469.804	480.69
470.023	466.69
470.243	477.69
470.462	483.69
470.681	486.69
470.901	472.69
471.12	464.69
471.339	496.69
471.558	476.69
471.777	474.69
471.997	464.69
472.216	455.69
472.435	447.69
472.654	453.69
472.873	468.69
473.092	440.69
473.311	480.69
473.53	499.69
473.749	533.69
473.968	536.69
474.187	538.69
474.406	534.69
474.625	541.69
474.844	544.69
475.063	530.69
475.282	517.69
475.501	460.69
475.72	468.69
475.939	470.69
476.158	453.69
476.377	484.69
476.596	445.69
476.814	472.69
477.033	433.69
477.252	460.69
477.471	448.69
477.69	480.69
477.908	510.69
478.127	495.69
478.346	502.69
478.564	493.69
478.783	461.69
479.002	478.69
479.22	502.69
479.439	514.69
479.658	525.69
479.876	488.69
480.095	479.69
480.313	499.69
480.532	500.69
480.751	493.69
480.969	468.69
481.188	464.69
481.406	442.69
481.624	432.69
481.843	428.69
482.061	443.69
482.28	475.69
482.498	479.69
482.717	462.69
482.935	467.69
483.153	464.69
483.372	485.69
483.59	490.69
483.808	464.69
484.027	476.69
484.245	499.69
484.463	537.69
484.681	576.69
484.9	548.69
485.118	546.69
485.336	522.69
485.554	508.69
485.772	505.69
485.99	489.69
486.209	507.69
486.427	507.69
486.645	535.69
486.863	555.69
487.081	555.69
487.299	533.69
487.517	539.69
487.735	595.69
487.953	573.69
488.171	589.69
488.389	576.69
488.607	538.69
488.825	512.69
489.043	498.69
489.261	521.69
489.479	517.69
489.696	520.69
489.914	506.69
490.132	530.69
490.35	542.69
490.568	535.69
490.786	548.69
491.003	542.69
491.221	563.69
491.439	575.69
491.657	594.69
491.874	605.69
492.092	625.69
492.31	661.69
492.527	620.69
492.745	588.69
492.963	582.69
493.18	578.69
493.398	593.69
493.615	575.69
493.833	597.69
494.05	588.69
494.268	558.69
494.485	550.69
494.703	577.69
494.92	569.69
495.138	572.69
495.355	578.69
495.573	563.69
495.79	589.69
496.008	562.69
496.225	564.69
496.442	546.69
496.66	574.69
496.877	560.69
497.094	580.69
497.312	560.69
497.529	572.69
497.746	574.69
497.963	569.69
498.181	574.69
498.398	589.69
498.615	594.69
498.832	612.69
499.049	639.69
499.267	678.69
499.484	694.69
499.701	751.69
499.918	794.69
500.135	859.69
500.352	876.69
500.569	895.69
500.786	905.69
501.003	855.69
501.22	790.69
501.437	748.69
501.654	695.69
501.871	686.69
502.088	645.69
502.305	631.69
502.522	621.69
