Data from SampC_HRD10591_00094.txt Node
Date: Mon Jan 19 11:38:01 EST 2026
User: Yrep
Spectrometer: HR+D1059
Trigger mode: 0
Integration Time (sec): 3.443000E-1
Scans to average: 1
Electric dark correction enabled: true
Nonlinearity correction enabled: false
Boxcar width: 0
XAxis mode: Wavelengths
Number of Pixels in Spectrum: 2048
>>>>>Begin Spectral Data<<<<<
223.165	-23.69
223.4	-23.69
223.635	-23.69
223.869	-24.69
224.104	-19.69
224.338	-7.69
224.573	-11.69
224.808	-10.69
225.042	2.31
225.277	-11.69
225.511	-2.69
225.746	20.31
225.98	4.31
226.215	14.31
226.449	7.31
226.683	4.31
226.918	27.31
227.152	32.31
227.387	33.31
227.621	41.31
227.856	43.31
228.09	56.31
228.324	44.31
228.559	63.31
228.793	75.31
229.027	84.31
229.262	82.31
229.496	83.31
229.73	72.31
229.964	92.31
230.199	82.31
230.433	76.31
230.667	93.31
230.901	79.31
231.136	84.31
231.37	85.31
231.604	101.31
231.838	96.31
232.072	102.31
232.306	85.31
232.541	97.31
232.775	75.31
233.009	78.31
233.243	86.31
233.477	91.31
233.711	100.31
233.945	88.31
234.179	114.31
234.413	108.31
234.647	108.31
234.881	87.31
235.115	107.31
235.349	115.31
235.583	107.31
235.817	89.31
236.051	106.31
236.285	102.31
236.519	105.31
236.753	120.31
236.987	132.31
237.221	144.31
237.455	155.31
237.689	146.31
237.922	129.31
238.156	117.31
238.39	115.31
238.624	95.31
238.858	108.31
239.091	113.31
239.325	90.31
239.559	90.31
239.793	108.31
240.027	118.31
240.26	97.31
240.494	98.31
240.728	93.31
240.961	99.31
241.195	108.31
241.429	105.31
241.662	81.31
241.896	82.31
242.13	98.31
242.363	100.31
242.597	107.31
242.83	98.31
243.064	84.31
243.298	99.31
243.531	92.31
243.765	93.31
243.998	100.31
244.232	82.31
244.465	97.31
244.699	107.31
244.932	85.31
245.166	82.31
245.399	104.31
245.633	114.31
245.866	101.31
246.099	101.31
246.333	101.31
246.566	94.31
246.8	102.31
247.033	102.31
247.266	106.31
247.5	89.31
247.733	104.31
247.966	114.31
248.2	113.31
248.433	105.31
248.666	114.31
248.899	115.31
249.133	101.31
249.366	124.31
249.599	90.31
249.832	100.31
250.066	116.31
250.299	107.31
250.532	100.31
250.765	110.31
250.998	102.31
251.231	114.31
251.465	119.31
251.698	108.31
251.931	107.31
252.164	110.31
252.397	111.31
252.63	115.31
252.863	108.31
253.096	115.31
253.329	102.31
253.562	112.31
253.795	118.31
254.028	121.31
254.261	115.31
254.494	110.31
254.727	108.31
254.96	104.31
255.193	109.31
255.426	102.31
255.659	113.31
255.892	117.31
256.124	122.31
256.357	130.31
256.59	138.31
256.823	142.31
257.056	181.31
257.289	188.31
257.521	198.31
257.754	220.31
257.987	205.31
258.22	160.31
258.452	140.31
258.685	145.31
258.918	137.31
259.151	119.31
259.383	122.31
259.616	125.31
259.849	131.31
260.081	124.31
260.314	133.31
260.547	124.31
260.779	109.31
261.012	130.31
261.244	130.31
261.477	128.31
261.71	114.31
261.942	132.31
262.175	125.31
262.407	121.31
262.64	136.31
262.872	136.31
263.105	158.31
263.337	152.31
263.57	164.31
263.802	158.31
264.035	144.31
264.267	134.31
264.499	116.31
264.732	136.31
264.964	130.31
265.197	154.31
265.429	169.31
265.661	187.31
265.894	170.31
266.126	167.31
266.358	211.31
266.591	182.31
266.823	137.31
267.055	139.31
267.287	131.31
267.52	122.31
267.752	126.31
267.984	125.31
268.216	146.31
268.448	133.31
268.681	121.31
268.913	121.31
269.145	136.31
269.377	138.31
269.609	125.31
269.841	138.31
270.073	119.31
270.306	128.31
270.538	150.31
270.77	139.31
271.002	129.31
271.234	132.31
271.466	141.31
271.698	133.31
271.93	141.31
272.162	128.31
272.394	140.31
272.626	131.31
272.858	125.31
273.09	132.31
273.322	129.31
273.553	140.31
273.785	140.31
274.017	130.31
274.249	120.31
274.481	123.31
274.713	142.31
274.945	148.31
275.176	145.31
275.408	134.31
275.64	136.31
275.872	132.31
276.104	140.31
276.335	144.31
276.567	131.31
276.799	143.31
277.031	131.31
277.262	146.31
277.494	174.31
277.726	157.31
277.957	173.31
278.189	157.31
278.421	183.31
278.652	173.31
278.884	202.31
279.115	234.31
279.347	332.31
279.579	410.31
279.81	471.31
280.042	394.31
280.273	360.31
280.505	349.31
280.736	238.31
280.968	195.31
281.199	215.31
281.431	231.31
281.662	278.31
281.894	308.31
282.125	239.31
282.356	212.31
282.588	202.31
282.819	185.31
283.051	170.31
283.282	157.31
283.513	171.31
283.745	170.31
283.976	177.31
284.207	174.31
284.439	160.31
284.67	176.31
284.901	190.31
285.132	201.31
285.364	233.31
285.595	196.31
285.826	155.31
286.057	168.31
286.288	159.31
286.52	160.31
286.751	148.31
286.982	164.31
287.213	155.31
287.444	155.31
287.675	161.31
287.906	153.31
288.138	168.31
288.369	173.31
288.6	172.31
288.831	144.31
289.062	172.31
289.293	159.31
289.524	143.31
289.755	157.31
289.986	158.31
290.217	157.31
290.448	155.31
290.679	165.31
290.91	167.31
291.141	149.31
291.371	158.31
291.602	150.31
291.833	165.31
292.064	160.31
292.295	180.31
292.526	171.31
292.757	166.31
292.987	185.31
293.218	167.31
293.449	181.31
293.68	184.31
293.91	180.31
294.141	191.31
294.372	165.31
294.603	161.31
294.833	156.31
295.064	159.31
295.295	156.31
295.525	154.31
295.756	155.31
295.987	148.31
296.217	148.31
296.448	178.31
296.679	157.31
296.909	155.31
297.14	169.31
297.37	175.31
297.601	167.31
297.831	155.31
298.062	156.31
298.292	153.31
298.523	177.31
298.753	175.31
298.984	166.31
299.214	180.31
299.445	152.31
299.675	165.31
299.905	173.31
300.136	166.31
300.366	156.31
300.597	160.31
300.827	162.31
301.057	164.31
301.288	162.31
301.518	178.31
301.748	180.31
301.979	214.31
302.209	179.31
302.439	186.31
302.669	191.31
302.9	189.31
303.13	196.31
303.36	193.31
303.59	194.31
303.82	202.31
304.051	212.31
304.281	236.31
304.511	241.31
304.741	227.31
304.971	266.31
305.201	294.31
305.431	336.31
305.661	361.31
305.891	397.31
306.121	377.31
306.352	329.31
306.582	366.31
306.812	347.31
307.042	316.31
307.272	301.31
307.502	319.31
307.731	438.31
307.961	591.31
308.191	834.31
308.421	981.31
308.651	783.31
308.881	737.31
309.111	932.31
309.341	1152.31
309.571	1072.31
309.8	701.31
310.03	478.31
310.26	388.31
310.49	321.31
310.72	288.31
310.949	277.31
311.179	260.31
311.409	244.31
311.639	232.31
311.868	232.31
312.098	234.31
312.328	219.31
312.557	216.31
312.787	208.31
313.017	201.31
313.246	216.31
313.476	212.31
313.706	203.31
313.935	197.31
314.165	181.31
314.394	191.31
314.624	192.31
314.853	185.31
315.083	185.31
315.312	198.31
315.542	190.31
315.771	202.31
316.001	172.31
316.23	192.31
316.46	188.31
316.689	177.31
316.919	170.31
317.148	190.31
317.377	177.31
317.607	175.31
317.836	195.31
318.065	190.31
318.295	184.31
318.524	162.31
318.753	189.31
318.983	176.31
319.212	184.31
319.441	182.31
319.67	200.31
319.9	176.31
320.129	169.31
320.358	178.31
320.587	159.31
320.816	200.31
321.046	182.31
321.275	184.31
321.504	172.31
321.733	190.31
321.962	190.31
322.191	188.31
322.42	169.31
322.649	182.31
322.878	178.31
323.108	183.31
323.337	195.31
323.566	186.31
323.795	182.31
324.024	204.31
324.253	188.31
324.482	192.31
324.71	188.31
324.939	203.31
325.168	183.31
325.397	186.31
325.626	177.31
325.855	197.31
326.084	179.31
326.313	187.31
326.542	176.31
326.77	194.31
326.999	187.31
327.228	182.31
327.457	164.31
327.686	191.31
327.914	206.31
328.143	203.31
328.372	193.31
328.6	190.31
328.829	188.31
329.058	183.31
329.287	183.31
329.515	201.31
329.744	176.31
329.972	177.31
330.201	186.31
330.43	196.31
330.658	198.31
330.887	203.31
331.115	190.31
331.344	184.31
331.572	212.31
331.801	195.31
332.03	196.31
332.258	181.31
332.486	211.31
332.715	206.31
332.943	204.31
333.172	192.31
333.4	195.31
333.629	226.31
333.857	223.31
334.085	209.31
334.314	194.31
334.542	207.31
334.771	204.31
334.999	188.31
335.227	184.31
335.455	206.31
335.684	208.31
335.912	208.31
336.14	189.31
336.369	200.31
336.597	200.31
336.825	223.31
337.053	210.31
337.281	221.31
337.51	204.31
337.738	213.31
337.966	201.31
338.194	177.31
338.422	193.31
338.65	189.31
338.878	206.31
339.106	198.31
339.334	207.31
339.562	194.31
339.79	197.31
340.018	192.31
340.246	194.31
340.474	191.31
340.702	209.31
340.93	195.31
341.158	200.31
341.386	201.31
341.614	171.31
341.842	199.31
342.07	179.31
342.298	184.31
342.526	186.31
342.754	192.31
342.981	177.31
343.209	195.31
343.437	242.31
343.665	208.31
343.893	221.31
344.12	222.31
344.348	208.31
344.576	203.31
344.804	185.31
345.031	191.31
345.259	173.31
345.487	187.31
345.714	183.31
345.942	198.31
346.17	181.31
346.397	201.31
346.625	195.31
346.853	185.31
347.08	192.31
347.308	190.31
347.535	170.31
347.763	193.31
347.99	206.31
348.218	194.31
348.445	202.31
348.673	188.31
348.9	185.31
349.128	187.31
349.355	187.31
349.583	187.31
349.81	202.31
350.037	197.31
350.265	206.31
350.492	201.31
350.72	180.31
350.947	186.31
351.174	197.31
351.402	207.31
351.629	206.31
351.856	192.31
352.083	204.31
352.311	185.31
352.538	198.31
352.765	194.31
352.992	219.31
353.22	211.31
353.447	193.31
353.674	208.31
353.901	205.31
354.128	213.31
354.355	208.31
354.583	213.31
354.81	238.31
355.037	221.31
355.264	214.31
355.491	238.31
355.718	230.31
355.945	238.31
356.172	248.31
356.399	228.31
356.626	256.31
356.853	249.31
357.08	262.31
357.307	286.31
357.534	296.31
357.761	344.31
357.988	368.31
358.215	385.31
358.441	462.31
358.668	478.31
358.895	477.31
359.122	398.31
359.349	354.31
359.576	329.31
359.802	316.31
360.029	300.31
360.256	278.31
360.483	269.31
360.709	270.31
360.936	256.31
361.163	244.31
361.39	246.31
361.616	251.31
361.843	247.31
362.07	239.31
362.296	235.31
362.523	225.31
362.749	225.31
362.976	208.31
363.203	251.31
363.429	213.31
363.656	205.31
363.882	219.31
364.109	241.31
364.335	230.31
364.562	213.31
364.788	198.31
365.015	204.31
365.241	214.31
365.468	214.31
365.694	203.31
365.92	212.31
366.147	217.31
366.373	203.31
366.599	201.31
366.826	200.31
367.052	202.31
367.278	220.31
367.505	203.31
367.731	219.31
367.957	220.31
368.184	214.31
368.41	202.31
368.636	211.31
368.862	208.31
369.089	189.31
369.315	189.31
369.541	227.31
369.767	223.31
369.993	218.31
370.219	211.31
370.445	220.31
370.672	214.31
370.898	216.31
371.124	208.31
371.35	198.31
371.576	205.31
371.802	202.31
372.028	228.31
372.254	210.31
372.48	210.31
372.706	219.31
372.932	213.31
373.158	205.31
373.384	223.31
373.61	221.31
373.835	219.31
374.061	208.31
374.287	206.31
374.513	205.31
374.739	214.31
374.965	218.31
375.191	220.31
375.416	222.31
375.642	216.31
375.868	218.31
376.094	228.31
376.319	200.31
376.545	202.31
376.771	203.31
376.997	213.31
377.222	214.31
377.448	213.31
377.674	214.31
377.899	215.31
378.125	201.31
378.35	202.31
378.576	196.31
378.802	208.31
379.027	211.31
379.253	231.31
379.478	209.31
379.704	207.31
379.929	210.31
380.155	201.31
380.38	225.31
380.606	192.31
380.831	210.31
381.057	224.31
381.282	206.31
381.507	226.31
381.733	229.31
381.958	235.31
382.184	249.31
382.409	227.31
382.634	241.31
382.86	247.31
383.085	277.31
383.31	294.31
383.535	265.31
383.761	259.31
383.986	285.31
384.211	261.31
384.436	236.31
384.662	224.31
384.887	252.31
385.112	225.31
385.337	230.31
385.562	225.31
385.787	239.31
386.013	257.31
386.238	239.31
386.463	255.31
386.688	260.31
386.913	224.31
387.138	241.31
387.363	245.31
387.588	251.31
387.813	258.31
388.038	247.31
388.263	239.31
388.488	237.31
388.713	234.31
388.938	235.31
389.163	230.31
389.387	238.31
389.612	246.31
389.837	259.31
390.062	234.31
390.287	234.31
390.512	250.31
390.736	235.31
390.961	249.31
391.186	264.31
391.411	250.31
391.636	258.31
391.86	271.31
392.085	278.31
392.31	270.31
392.534	283.31
392.759	285.31
392.984	300.31
393.208	339.31
393.433	381.31
393.658	410.31
393.882	480.31
394.107	742.31
394.331	1304.31
394.556	1675.31
394.78	1145.31
395.005	702.31
395.229	532.31
395.454	540.31
395.678	678.31
395.903	1140.31
396.127	1844.31
396.352	2097.31
396.576	1333.31
396.801	782.31
397.025	575.31
397.249	476.31
397.474	430.31
397.698	392.31
397.922	384.31
398.147	357.31
398.371	326.31
398.595	324.31
398.82	336.31
399.044	338.31
399.268	309.31
399.492	323.31
399.717	344.31
399.941	317.31
400.165	336.31
400.389	306.31
400.613	316.31
400.837	282.31
401.062	293.31
401.286	274.31
401.51	261.31
401.734	272.31
401.958	282.31
402.182	275.31
402.406	260.31
402.63	273.31
402.854	290.31
403.078	270.31
403.302	272.31
403.526	283.31
403.75	288.31
403.974	274.31
404.198	276.31
404.422	272.31
404.645	283.31
404.869	298.31
405.093	290.31
405.317	298.31
405.541	283.31
405.765	280.31
405.988	271.31
406.212	277.31
406.436	284.31
406.66	291.31
406.883	298.31
407.107	286.31
407.331	282.31
407.555	314.31
407.778	286.31
408.002	265.31
408.226	269.31
408.449	268.31
408.673	277.31
408.896	285.31
409.12	281.31
409.344	268.31
409.567	266.31
409.791	262.31
410.014	280.31
410.238	260.31
410.461	280.31
410.685	271.31
410.908	270.31
411.132	277.31
411.355	278.31
411.578	292.31
411.802	272.31
412.025	281.31
412.249	267.31
412.472	272.31
412.695	262.31
412.919	270.31
413.142	271.31
413.365	265.31
413.589	260.31
413.812	266.31
414.035	274.31
414.258	264.31
414.482	253.31
414.705	259.31
414.928	292.31
415.151	262.31
415.374	276.31
415.597	253.31
415.821	264.31
416.044	257.31
416.267	264.31
416.49	270.31
416.713	267.31
416.936	257.31
417.159	263.31
417.382	261.31
417.605	264.31
417.828	276.31
418.051	269.31
418.274	271.31
418.497	266.31
418.72	265.31
418.943	277.31
419.166	290.31
419.389	286.31
419.611	284.31
419.834	248.31
420.057	270.31
420.28	260.31
420.503	274.31
420.726	278.31
420.948	248.31
421.171	262.31
421.394	273.31
421.617	266.31
421.839	285.31
422.062	262.31
422.285	262.31
422.507	278.31
422.73	278.31
422.953	295.31
423.175	229.31
423.398	258.31
423.621	266.31
423.843	274.31
424.066	279.31
424.288	282.31
424.511	289.31
424.733	282.31
424.956	255.31
425.178	282.31
425.401	266.31
425.623	282.31
425.846	276.31
426.068	256.31
426.291	255.31
426.513	269.31
426.735	280.31
426.958	265.31
427.18	270.31
427.402	274.31
427.625	253.31
427.847	244.31
428.069	261.31
428.292	242.31
428.514	251.31
428.736	260.31
428.958	254.31
429.181	273.31
429.403	257.31
429.625	257.31
429.847	238.31
430.069	266.31
430.292	272.31
430.514	243.31
430.736	251.31
430.958	272.31
431.18	252.31
431.402	244.31
431.624	253.31
431.846	238.31
432.068	212.31
432.29	224.31
432.512	245.31
432.734	235.31
432.956	249.31
433.178	240.31
433.4	245.31
433.622	272.31
433.844	274.31
434.066	258.31
434.287	248.31
434.509	246.31
434.731	245.31
434.953	257.31
435.175	285.31
435.397	264.31
435.618	242.31
435.84	237.31
436.062	245.31
436.284	245.31
436.505	268.31
436.727	243.31
436.949	232.31
437.17	272.31
437.392	254.31
437.614	249.31
437.835	240.31
438.057	241.31
438.278	244.31
438.5	253.31
438.721	250.31
438.943	256.31
439.165	242.31
439.386	251.31
439.608	250.31
439.829	277.31
440.05	289.31
440.272	264.31
440.493	273.31
440.715	260.31
440.936	288.31
441.158	268.31
441.379	265.31
441.6	286.31
441.822	273.31
442.043	272.31
442.264	264.31
442.486	260.31
442.707	277.31
442.928	266.31
443.149	275.31
443.371	271.31
443.592	271.31
443.813	302.31
444.034	273.31
444.255	287.31
444.476	273.31
444.698	294.31
444.919	276.31
445.14	466.31
445.361	364.31
445.582	260.31
445.803	268.31
446.024	276.31
446.245	291.31
446.466	268.31
446.687	273.31
446.908	275.31
447.129	280.31
447.35	268.31
447.571	276.31
447.792	282.31
448.013	256.31
448.234	279.31
448.455	268.31
448.675	261.31
448.896	243.31
449.117	275.31
449.338	250.31
449.559	257.31
449.779	238.31
450	267.31
450.221	245.31
450.442	256.31
450.662	252.31
450.883	252.31
451.104	268.31
451.324	249.31
451.545	240.31
451.766	266.31
451.986	253.31
452.207	246.31
452.428	244.31
452.648	255.31
452.869	256.31
453.089	249.31
453.31	242.31
453.53	247.31
453.751	239.31
453.971	259.31
454.192	256.31
454.412	231.31
454.633	248.31
454.853	239.31
455.073	235.31
455.294	231.31
455.514	244.31
455.734	238.31
455.955	229.31
456.175	226.31
456.395	243.31
456.616	234.31
456.836	242.31
457.056	241.31
457.276	238.31
457.497	221.31
457.717	212.31
457.937	229.31
458.157	243.31
458.377	230.31
458.598	220.31
458.818	224.31
459.038	224.31
459.258	231.31
459.478	221.31
459.698	241.31
459.918	251.31
460.138	257.31
460.358	264.31
460.578	270.31
460.798	253.31
461.018	243.31
461.238	261.31
461.458	256.31
461.678	277.31
461.898	270.31
462.118	277.31
462.338	276.31
462.558	294.31
462.777	300.31
462.997	288.31
463.217	298.31
463.437	306.31
463.657	293.31
463.876	289.31
464.096	310.31
464.316	298.31
464.536	282.31
464.755	290.31
464.975	268.31
465.195	282.31
465.414	299.31
465.634	254.31
465.854	267.31
466.073	280.31
466.293	289.31
466.512	322.31
466.732	318.31
466.951	288.31
467.171	300.31
467.391	288.31
467.61	280.31
467.829	252.31
468.049	270.31
468.268	269.31
468.488	252.31
468.707	258.31
468.927	273.31
469.146	256.31
469.365	267.31
469.585	254.31
469.804	287.31
470.023	272.31
470.243	266.31
470.462	264.31
470.681	267.31
470.901	256.31
471.12	269.31
471.339	275.31
471.558	264.31
471.777	282.31
471.997	277.31
472.216	269.31
472.435	266.31
472.654	254.31
472.873	258.31
473.092	274.31
473.311	270.31
473.53	302.31
473.749	308.31
473.968	319.31
474.187	284.31
474.406	286.31
474.625	316.31
474.844	316.31
475.063	295.31
475.282	285.31
475.501	257.31
475.72	278.31
475.939	240.31
476.158	261.31
476.377	261.31
476.596	251.31
476.814	246.31
477.033	258.31
477.252	256.31
477.471	259.31
477.69	265.31
477.908	267.31
478.127	273.31
478.346	262.31
478.564	264.31
478.783	282.31
479.002	258.31
479.22	280.31
479.439	269.31
479.658	269.31
479.876	273.31
480.095	266.31
480.313	257.31
480.532	286.31
480.751	288.31
480.969	267.31
481.188	259.31
481.406	255.31
481.624	264.31
481.843	241.31
482.061	266.31
482.28	249.31
482.498	259.31
482.717	242.31
482.935	247.31
483.153	251.31
483.372	275.31
483.59	273.31
483.808	268.31
484.027	270.31
484.245	290.31
484.463	310.31
484.681	319.31
484.9	293.31
485.118	288.31
485.336	289.31
485.554	266.31
485.772	270.31
485.99	265.31
486.209	268.31
486.427	278.31
486.645	277.31
486.863	294.31
487.081	289.31
487.299	288.31
487.517	318.31
487.735	334.31
487.953	316.31
488.171	316.31
488.389	304.31
488.607	290.31
488.825	272.31
489.043	281.31
489.261	305.31
489.479	302.31
489.696	299.31
489.914	286.31
490.132	293.31
490.35	306.31
490.568	307.31
490.786	318.31
491.003	323.31
491.221	311.31
491.439	329.31
491.657	305.31
491.874	322.31
492.092	332.31
492.31	346.31
492.527	332.31
492.745	317.31
492.963	314.31
493.18	318.31
493.398	315.31
493.615	309.31
493.833	293.31
494.05	313.31
494.268	321.31
494.485	306.31
494.703	321.31
494.92	302.31
495.138	314.31
495.355	309.31
495.573	300.31
495.79	313.31
496.008	315.31
496.225	304.31
496.442	290.31
496.66	321.31
496.877	297.31
497.094	306.31
497.312	302.31
497.529	289.31
497.746	321.31
497.963	289.31
498.181	310.31
498.398	298.31
498.615	332.31
498.832	328.31
499.049	338.31
499.267	359.31
499.484	347.31
499.701	389.31
499.918	410.31
500.135	426.31
500.352	469.31
500.569	459.31
500.786	459.31
501.003	442.31
501.22	410.31
501.437	385.31
501.654	389.31
501.871	336.31
502.088	334.31
502.305	338.31
502.522	329.31
502.739	330.31
502.956	300.31
503.172	310.31
