Data from SampC_HRD10591_00067.txt Node
Date: Mon Jan 19 11:37:52 EST 2026
User: Yrep
Spectrometer: HR+D1059
Trigger mode: 0
Integration Time (sec): 3.443000E-1
Scans to average: 1
Electric dark correction enabled: true
Nonlinearity correction enabled: false
Boxcar width: 0
XAxis mode: Wavelengths
Number of Pixels in Spectrum: 2048
>>>>>Begin Spectral Data<<<<<
223.165	-19.62
223.4	-19.62
223.635	-19.62
223.869	-22.62
224.104	-12.62
224.338	-20.62
224.573	-20.62
224.808	-11.62
225.042	-2.62
225.277	-10.62
225.511	2.38
225.746	2.38
225.98	2.38
226.215	24.38
226.449	15.38
226.683	15.38
226.918	26.38
227.152	32.38
227.387	30.38
227.621	26.38
227.856	50.38
228.09	39.38
228.324	56.38
228.559	73.38
228.793	67.38
229.027	88.38
229.262	106.38
229.496	97.38
229.73	90.38
229.964	100.38
230.199	90.38
230.433	96.38
230.667	114.38
230.901	103.38
231.136	97.38
231.37	116.38
231.604	118.38
231.838	104.38
232.072	129.38
232.306	117.38
232.541	134.38
232.775	116.38
233.009	119.38
233.243	117.38
233.477	112.38
233.711	121.38
233.945	115.38
234.179	121.38
234.413	127.38
234.647	115.38
234.881	125.38
235.115	122.38
235.349	133.38
235.583	129.38
235.817	131.38
236.051	124.38
236.285	131.38
236.519	131.38
236.753	172.38
236.987	192.38
237.221	214.38
237.455	217.38
237.689	228.38
237.922	190.38
238.156	161.38
238.39	152.38
238.624	131.38
238.858	124.38
239.091	128.38
239.325	129.38
239.559	112.38
239.793	102.38
240.027	120.38
240.26	123.38
240.494	112.38
240.728	106.38
240.961	105.38
241.195	104.38
241.429	120.38
241.662	118.38
241.896	106.38
242.13	128.38
242.363	108.38
242.597	118.38
242.83	110.38
243.064	117.38
243.298	117.38
243.531	136.38
243.765	145.38
243.998	115.38
244.232	126.38
244.465	122.38
244.699	117.38
244.932	120.38
245.166	124.38
245.399	123.38
245.633	133.38
245.866	117.38
246.099	141.38
246.333	130.38
246.566	138.38
246.8	126.38
247.033	147.38
247.266	118.38
247.5	129.38
247.733	133.38
247.966	136.38
248.2	144.38
248.433	134.38
248.666	133.38
248.899	143.38
249.133	152.38
249.366	158.38
249.599	132.38
249.832	135.38
250.066	138.38
250.299	126.38
250.532	124.38
250.765	131.38
250.998	132.38
251.231	146.38
251.465	144.38
251.698	143.38
251.931	145.38
252.164	132.38
252.397	130.38
252.63	145.38
252.863	149.38
253.096	156.38
253.329	139.38
253.562	139.38
253.795	137.38
254.028	141.38
254.261	150.38
254.494	162.38
254.727	139.38
254.96	149.38
255.193	149.38
255.426	155.38
255.659	163.38
255.892	153.38
256.124	171.38
256.357	191.38
256.59	182.38
256.823	234.38
257.056	292.38
257.289	313.38
257.521	321.38
257.754	361.38
257.987	318.38
258.22	261.38
258.452	220.38
258.685	152.38
258.918	181.38
259.151	160.38
259.383	164.38
259.616	166.38
259.849	154.38
260.081	166.38
260.314	172.38
260.547	162.38
260.779	145.38
261.012	164.38
261.244	170.38
261.477	178.38
261.71	137.38
261.942	171.38
262.175	184.38
262.407	185.38
262.64	166.38
262.872	192.38
263.105	202.38
263.337	235.38
263.57	222.38
263.802	217.38
264.035	225.38
264.267	185.38
264.499	185.38
264.732	193.38
264.964	203.38
265.197	235.38
265.429	261.38
265.661	270.38
265.894	273.38
266.126	308.38
266.358	313.38
266.591	275.38
266.823	228.38
267.055	200.38
267.287	191.38
267.52	179.38
267.752	172.38
267.984	174.38
268.216	177.38
268.448	184.38
268.681	187.38
268.913	170.38
269.145	181.38
269.377	195.38
269.609	168.38
269.841	171.38
270.073	176.38
270.306	162.38
270.538	181.38
270.77	167.38
271.002	154.38
271.234	176.38
271.466	170.38
271.698	169.38
271.93	159.38
272.162	178.38
272.394	177.38
272.626	177.38
272.858	166.38
273.09	187.38
273.322	168.38
273.553	185.38
273.785	175.38
274.017	172.38
274.249	196.38
274.481	194.38
274.713	186.38
274.945	184.38
275.176	174.38
275.408	195.38
275.64	181.38
275.872	207.38
276.104	192.38
276.335	197.38
276.567	192.38
276.799	187.38
277.031	197.38
277.262	201.38
277.494	205.38
277.726	228.38
277.957	238.38
278.189	252.38
278.421	229.38
278.652	265.38
278.884	294.38
279.115	358.38
279.347	497.38
279.579	696.38
279.81	784.38
280.042	620.38
280.273	586.38
280.505	581.38
280.736	386.38
280.968	298.38
281.199	302.38
281.431	353.38
281.662	428.38
281.894	501.38
282.125	394.38
282.356	328.38
282.588	292.38
282.819	261.38
283.051	240.38
283.282	243.38
283.513	247.38
283.745	241.38
283.976	235.38
284.207	228.38
284.439	226.38
284.67	233.38
284.901	257.38
285.132	314.38
285.364	370.38
285.595	304.38
285.826	234.38
286.057	221.38
286.288	221.38
286.52	224.38
286.751	193.38
286.982	229.38
287.213	216.38
287.444	211.38
287.675	216.38
287.906	231.38
288.138	245.38
288.369	246.38
288.6	227.38
288.831	215.38
289.062	219.38
289.293	215.38
289.524	224.38
289.755	214.38
289.986	196.38
290.217	223.38
290.448	230.38
290.679	240.38
290.91	245.38
291.141	230.38
291.371	224.38
291.602	225.38
291.833	219.38
292.064	227.38
292.295	234.38
292.526	256.38
292.757	252.38
292.987	267.38
293.218	244.38
293.449	260.38
293.68	265.38
293.91	258.38
294.141	266.38
294.372	246.38
294.603	249.38
294.833	247.38
295.064	239.38
295.295	238.38
295.525	234.38
295.756	221.38
295.987	228.38
296.217	239.38
296.448	217.38
296.679	217.38
296.909	234.38
297.14	226.38
297.37	233.38
297.601	224.38
297.831	228.38
298.062	227.38
298.292	241.38
298.523	243.38
298.753	233.38
298.984	238.38
299.214	234.38
299.445	230.38
299.675	240.38
299.905	248.38
300.136	212.38
300.366	268.38
300.597	243.38
300.827	252.38
301.057	262.38
301.288	259.38
301.518	273.38
301.748	268.38
301.979	320.38
302.209	295.38
302.439	306.38
302.669	292.38
302.9	301.38
303.13	303.38
303.36	302.38
303.59	304.38
303.82	330.38
304.051	331.38
304.281	369.38
304.511	352.38
304.741	403.38
304.971	430.38
305.201	540.38
305.431	588.38
305.661	687.38
305.891	719.38
306.121	643.38
306.352	591.38
306.582	636.38
306.812	636.38
307.042	533.38
307.272	525.38
307.502	632.38
307.731	848.38
307.961	1190.38
308.191	1770.38
308.421	2084.38
308.651	1692.38
308.881	1574.38
309.111	1912.38
309.341	2482.38
309.571	2348.38
309.8	1461.38
310.03	951.38
310.26	710.38
310.49	573.38
310.72	517.38
310.949	459.38
311.179	454.38
311.409	412.38
311.639	387.38
311.868	385.38
312.098	363.38
312.328	354.38
312.557	347.38
312.787	331.38
313.017	345.38
313.246	316.38
313.476	323.38
313.706	307.38
313.935	316.38
314.165	307.38
314.394	306.38
314.624	289.38
314.853	304.38
315.083	286.38
315.312	306.38
315.542	286.38
315.771	291.38
316.001	287.38
316.23	282.38
316.46	291.38
316.689	282.38
316.919	278.38
317.148	274.38
317.377	288.38
317.607	276.38
317.836	267.38
318.065	273.38
318.295	287.38
318.524	268.38
318.753	273.38
318.983	268.38
319.212	278.38
319.441	257.38
319.67	276.38
319.9	253.38
320.129	276.38
320.358	270.38
320.587	278.38
320.816	270.38
321.046	254.38
321.275	268.38
321.504	255.38
321.733	247.38
321.962	271.38
322.191	274.38
322.42	241.38
322.649	270.38
322.878	260.38
323.108	280.38
323.337	288.38
323.566	286.38
323.795	285.38
324.024	293.38
324.253	288.38
324.482	290.38
324.71	276.38
324.939	293.38
325.168	289.38
325.397	285.38
325.626	278.38
325.855	277.38
326.084	289.38
326.313	299.38
326.542	284.38
326.77	271.38
326.999	281.38
327.228	284.38
327.457	289.38
327.686	284.38
327.914	274.38
328.143	276.38
328.372	273.38
328.6	257.38
328.829	270.38
329.058	278.38
329.287	272.38
329.515	275.38
329.744	280.38
329.972	278.38
330.201	287.38
330.43	273.38
330.658	293.38
330.887	299.38
331.115	290.38
331.344	282.38
331.572	286.38
331.801	283.38
332.03	286.38
332.258	297.38
332.486	306.38
332.715	313.38
332.943	292.38
333.172	308.38
333.4	333.38
333.629	312.38
333.857	319.38
334.085	331.38
334.314	338.38
334.542	288.38
334.771	306.38
334.999	311.38
335.227	308.38
335.455	306.38
335.684	314.38
335.912	307.38
336.14	316.38
336.369	318.38
336.597	296.38
336.825	312.38
337.053	304.38
337.281	262.38
337.51	284.38
337.738	288.38
337.966	299.38
338.194	273.38
338.422	300.38
338.65	298.38
338.878	292.38
339.106	299.38
339.334	304.38
339.562	303.38
339.79	276.38
340.018	292.38
340.246	285.38
340.474	290.38
340.702	286.38
340.93	296.38
341.158	290.38
341.386	284.38
341.614	270.38
341.842	283.38
342.07	282.38
342.298	298.38
342.526	300.38
342.754	313.38
342.981	277.38
343.209	290.38
343.437	338.38
343.665	299.38
343.893	323.38
344.12	347.38
344.348	305.38
344.576	317.38
344.804	313.38
345.031	287.38
345.259	294.38
345.487	307.38
345.714	292.38
345.942	275.38
346.17	286.38
346.397	285.38
346.625	276.38
346.853	272.38
347.08	273.38
347.308	295.38
347.535	294.38
347.763	279.38
347.99	306.38
348.218	309.38
348.445	279.38
348.673	296.38
348.9	280.38
349.128	299.38
349.355	294.38
349.583	282.38
349.81	285.38
350.037	282.38
350.265	293.38
350.492	305.38
350.72	297.38
350.947	297.38
351.174	303.38
351.402	291.38
351.629	303.38
351.856	301.38
352.083	312.38
352.311	334.38
352.538	304.38
352.765	309.38
352.992	333.38
353.22	322.38
353.447	305.38
353.674	309.38
353.901	333.38
354.128	316.38
354.355	318.38
354.583	318.38
354.81	338.38
355.037	323.38
355.264	332.38
355.491	359.38
355.718	356.38
355.945	364.38
356.172	370.38
356.399	372.38
356.626	374.38
356.853	409.38
357.08	434.38
357.307	437.38
357.534	460.38
357.761	512.38
357.988	585.38
358.215	653.38
358.441	723.38
358.668	787.38
358.895	796.38
359.122	655.38
359.349	560.38
359.576	505.38
359.802	464.38
360.029	433.38
360.256	428.38
360.483	412.38
360.709	429.38
360.936	425.38
361.163	367.38
361.39	371.38
361.616	372.38
361.843	344.38
362.07	362.38
362.296	358.38
362.523	352.38
362.749	341.38
362.976	335.38
363.203	344.38
363.429	343.38
363.656	369.38
363.882	315.38
364.109	314.38
364.335	317.38
364.562	310.38
364.788	321.38
365.015	334.38
365.241	298.38
365.468	312.38
365.694	314.38
365.92	310.38
366.147	313.38
366.373	304.38
366.599	320.38
366.826	298.38
367.052	304.38
367.278	321.38
367.505	314.38
367.731	323.38
367.957	301.38
368.184	312.38
368.41	310.38
368.636	312.38
368.862	300.38
369.089	302.38
369.315	300.38
369.541	299.38
369.767	301.38
369.993	317.38
370.219	316.38
370.445	312.38
370.672	323.38
370.898	321.38
371.124	327.38
371.35	326.38
371.576	331.38
371.802	332.38
372.028	325.38
372.254	340.38
372.48	341.38
372.706	325.38
372.932	316.38
373.158	326.38
373.384	341.38
373.61	348.38
373.835	342.38
374.061	334.38
374.287	334.38
374.513	330.38
374.739	334.38
374.965	344.38
375.191	337.38
375.416	334.38
375.642	330.38
375.868	347.38
376.094	323.38
376.319	323.38
376.545	323.38
376.771	318.38
376.997	326.38
377.222	306.38
377.448	314.38
377.674	324.38
377.899	326.38
378.125	309.38
378.35	338.38
378.576	326.38
378.802	309.38
379.027	317.38
379.253	336.38
379.478	323.38
379.704	329.38
379.929	338.38
380.155	331.38
380.38	341.38
380.606	312.38
380.831	334.38
381.057	348.38
381.282	338.38
381.507	346.38
381.733	346.38
381.958	364.38
382.184	370.38
382.409	379.38
382.634	397.38
382.86	422.38
383.085	468.38
383.31	492.38
383.535	514.38
383.761	500.38
383.986	495.38
384.211	430.38
384.436	368.38
384.662	371.38
384.887	392.38
385.112	381.38
385.337	378.38
385.562	377.38
385.787	388.38
386.013	388.38
386.238	404.38
386.463	411.38
386.688	411.38
386.913	401.38
387.138	385.38
387.363	390.38
387.588	394.38
387.813	367.38
388.038	394.38
388.263	395.38
388.488	383.38
388.713	400.38
388.938	384.38
389.163	381.38
389.387	396.38
389.612	392.38
389.837	410.38
390.062	422.38
390.287	429.38
390.512	416.38
390.736	399.38
390.961	414.38
391.186	415.38
391.411	446.38
391.636	441.38
391.86	423.38
392.085	458.38
392.31	470.38
392.534	481.38
392.759	504.38
392.984	507.38
393.208	566.38
393.433	657.38
393.658	742.38
393.882	979.38
394.107	1668.38
394.331	3084.38
394.556	4015.38
394.78	2604.38
395.005	1448.38
395.229	1104.38
395.454	1125.38
395.678	1458.38
395.903	2533.38
396.127	4403.38
396.352	5100.38
396.576	2946.38
396.801	1599.38
397.025	1122.38
397.249	883.38
397.474	773.38
397.698	693.38
397.922	675.38
398.147	626.38
398.371	598.38
398.595	576.38
398.82	546.38
399.044	557.38
399.268	542.38
399.492	577.38
399.717	585.38
399.941	566.38
400.165	556.38
400.389	532.38
400.613	490.38
400.837	490.38
401.062	495.38
401.286	461.38
401.51	485.38
401.734	456.38
401.958	468.38
402.182	480.38
402.406	442.38
402.63	471.38
402.854	465.38
403.078	480.38
403.302	458.38
403.526	466.38
403.75	478.38
403.974	483.38
404.198	476.38
404.422	474.38
404.645	467.38
404.869	460.38
405.093	463.38
405.317	440.38
405.541	467.38
405.765	478.38
405.988	466.38
406.212	470.38
406.436	481.38
406.66	475.38
406.883	478.38
407.107	489.38
407.331	472.38
407.555	504.38
407.778	481.38
408.002	475.38
408.226	479.38
408.449	458.38
408.673	481.38
408.896	474.38
409.12	467.38
409.344	429.38
409.567	434.38
409.791	451.38
410.014	462.38
410.238	448.38
410.461	470.38
410.685	433.38
410.908	456.38
411.132	458.38
411.355	449.38
411.578	456.38
411.802	444.38
412.025	445.38
412.249	452.38
412.472	448.38
412.695	446.38
412.919	434.38
413.142	424.38
413.365	411.38
413.589	430.38
413.812	430.38
414.035	421.38
414.258	432.38
414.482	460.38
414.705	452.38
414.928	445.38
415.151	444.38
415.374	417.38
415.597	438.38
415.821	428.38
416.044	433.38
416.267	422.38
416.49	421.38
416.713	422.38
416.936	430.38
417.159	437.38
417.382	442.38
417.605	435.38
417.828	429.38
418.051	440.38
418.274	427.38
418.497	429.38
418.72	450.38
418.943	426.38
419.166	468.38
419.389	472.38
419.611	464.38
419.834	435.38
420.057	458.38
420.28	426.38
420.503	443.38
420.726	441.38
420.948	418.38
421.171	454.38
421.394	428.38
421.617	437.38
421.839	446.38
422.062	453.38
422.285	439.38
422.507	460.38
422.73	460.38
422.953	463.38
423.175	424.38
423.398	448.38
423.621	458.38
423.843	468.38
424.066	432.38
424.288	482.38
424.511	467.38
424.733	448.38
424.956	453.38
425.178	447.38
425.401	472.38
425.623	452.38
425.846	435.38
426.068	453.38
426.291	438.38
426.513	426.38
426.735	445.38
426.958	444.38
427.18	411.38
427.402	424.38
427.625	422.38
427.847	414.38
428.069	405.38
428.292	428.38
428.514	406.38
428.736	421.38
428.958	430.38
429.181	449.38
429.403	434.38
429.625	416.38
429.847	422.38
430.069	405.38
430.292	433.38
430.514	419.38
430.736	409.38
430.958	416.38
431.18	418.38
431.402	395.38
431.624	387.38
431.846	396.38
432.068	373.38
432.29	392.38
432.512	386.38
432.734	421.38
432.956	422.38
433.178	436.38
433.4	420.38
433.622	413.38
433.844	425.38
434.066	400.38
434.287	397.38
434.509	410.38
434.731	434.38
434.953	418.38
435.175	430.38
435.397	444.38
435.618	406.38
435.84	403.38
436.062	411.38
436.284	432.38
436.505	425.38
436.727	430.38
436.949	433.38
437.17	419.38
437.392	413.38
437.614	398.38
437.835	394.38
438.057	395.38
438.278	399.38
438.5	414.38
438.721	427.38
438.943	422.38
439.165	418.38
439.386	427.38
439.608	438.38
439.829	442.38
440.05	432.38
440.272	439.38
440.493	444.38
440.715	447.38
440.936	458.38
441.158	436.38
441.379	450.38
441.6	473.38
441.822	453.38
442.043	481.38
442.264	475.38
442.486	466.38
442.707	441.38
442.928	460.38
443.149	458.38
443.371	469.38
443.592	466.38
443.813	447.38
444.034	447.38
444.255	484.38
444.476	465.38
444.698	489.38
444.919	500.38
445.14	680.38
445.361	569.38
445.582	472.38
445.803	458.38
446.024	449.38
446.245	461.38
446.466	470.38
446.687	452.38
446.908	476.38
447.129	439.38
447.35	442.38
447.571	448.38
447.792	435.38
448.013	430.38
448.234	443.38
448.455	401.38
448.675	443.38
448.896	423.38
449.117	431.38
449.338	403.38
449.559	416.38
449.779	408.38
450	418.38
450.221	425.38
450.442	443.38
450.662	407.38
450.883	410.38
451.104	428.38
451.324	419.38
451.545	427.38
451.766	422.38
451.986	438.38
452.207	416.38
452.428	429.38
452.648	426.38
452.869	423.38
453.089	409.38
453.31	418.38
453.53	411.38
453.751	392.38
453.971	417.38
454.192	405.38
454.412	386.38
454.633	404.38
454.853	418.38
455.073	391.38
455.294	414.38
455.514	410.38
455.734	403.38
455.955	375.38
456.175	389.38
456.395	361.38
456.616	368.38
456.836	370.38
457.056	372.38
457.276	348.38
457.497	366.38
457.717	372.38
457.937	379.38
458.157	360.38
458.377	373.38
458.598	365.38
458.818	381.38
459.038	347.38
459.258	357.38
459.478	373.38
459.698	394.38
459.918	402.38
460.138	409.38
460.358	396.38
460.578	431.38
460.798	422.38
461.018	434.38
461.238	451.38
461.458	427.38
461.678	442.38
461.898	447.38
462.118	438.38
462.338	455.38
462.558	464.38
462.777	471.38
462.997	495.38
463.217	506.38
463.437	476.38
463.657	479.38
463.876	470.38
464.096	453.38
464.316	458.38
464.536	462.38
464.755	467.38
464.975	467.38
465.195	485.38
465.414	458.38
465.634	437.38
465.854	426.38
466.073	444.38
466.293	502.38
466.512	512.38
466.732	500.38
466.951	508.38
467.171	492.38
467.391	462.38
467.61	485.38
467.829	440.38
468.049	462.38
468.268	432.38
468.488	441.38
468.707	448.38
468.927	446.38
469.146	426.38
469.365	439.38
469.585	459.38
469.804	442.38
470.023	443.38
470.243	466.38
470.462	436.38
470.681	482.38
470.901	444.38
471.12	450.38
471.339	432.38
471.558	449.38
471.777	435.38
471.997	445.38
472.216	422.38
472.435	422.38
472.654	421.38
472.873	411.38
473.092	452.38
473.311	459.38
473.53	501.38
473.749	536.38
473.968	540.38
474.187	523.38
474.406	523.38
474.625	533.38
474.844	566.38
475.063	510.38
475.282	496.38
475.501	468.38
475.72	453.38
475.939	461.38
476.158	463.38
476.377	451.38
476.596	434.38
476.814	433.38
477.033	417.38
477.252	409.38
477.471	439.38
477.69	447.38
477.908	444.38
478.127	466.38
478.346	436.38
478.564	447.38
478.783	432.38
479.002	451.38
479.22	447.38
479.439	449.38
479.658	435.38
479.876	448.38
480.095	438.38
480.313	437.38
480.532	450.38
480.751	426.38
480.969	411.38
481.188	417.38
481.406	397.38
481.624	405.38
481.843	388.38
482.061	407.38
482.28	400.38
482.498	406.38
482.717	429.38
482.935	434.38
483.153	422.38
483.372	458.38
483.59	446.38
483.808	445.38
484.027	436.38
484.245	482.38
484.463	554.38
484.681	554.38
484.9	516.38
485.118	515.38
485.336	493.38
485.554	475.38
485.772	477.38
485.99	469.38
486.209	481.38
486.427	480.38
486.645	515.38
486.863	542.38
487.081	533.38
487.299	495.38
487.517	498.38
487.735	524.38
487.953	542.38
488.171	541.38
488.389	522.38
488.607	514.38
488.825	492.38
489.043	491.38
489.261	497.38
489.479	478.38
489.696	486.38
489.914	496.38
490.132	511.38
490.35	512.38
490.568	524.38
490.786	521.38
491.003	523.38
491.221	515.38
491.439	538.38
491.657	549.38
491.874	559.38
492.092	569.38
492.31	612.38
492.527	565.38
492.745	548.38
492.963	530.38
493.18	559.38
493.398	540.38
493.615	528.38
493.833	541.38
494.05	532.38
494.268	531.38
494.485	527.38
494.703	528.38
494.92	504.38
495.138	498.38
495.355	532.38
495.573	522.38
495.79	529.38
496.008	534.38
496.225	507.38
496.442	516.38
496.66	537.38
496.877	525.38
497.094	533.38
497.312	542.38
497.529	510.38
497.746	502.38
497.963	492.38
498.181	526.38
498.398	536.38
498.615	568.38
498.832	535.38
499.049	555.38
499.267	624.38
499.484	629.38
499.701	657.38
499.918	717.38
500.135	774.38
500.352	802.38
500.569	793.38
500.786	772.38
501.003	783.38
501.22	725.38
501.437	690.38
501.654	626.38
501.871	623.38
502.088	608.38
502.305	589.38
502.522	531.38
