Data from SampC_HRD10591_00049.txt Node
Date: Mon Jan 19 11:37:46 EST 2026
User: Yrep
Spectrometer: HR+D1059
Trigger mode: 0
Integration Time (sec): 3.443000E-1
Scans to average: 1
Electric dark correction enabled: true
Nonlinearity correction enabled: false
Boxcar width: 0
XAxis mode: Wavelengths
Number of Pixels in Spectrum: 2048
>>>>>Begin Spectral Data<<<<<
223.165	-27.75
223.4	-27.75
223.635	-27.75
223.869	-22.75
224.104	-22.75
224.338	-16.75
224.573	-19.75
224.808	-12.75
225.042	-1.75
225.277	10.25
225.511	-18.75
225.746	-3.75
225.98	9.25
226.215	14.25
226.449	20.25
226.683	24.25
226.918	34.25
227.152	34.25
227.387	46.25
227.621	27.25
227.856	56.25
228.09	39.25
228.324	58.25
228.559	49.25
228.793	58.25
229.027	76.25
229.262	89.25
229.496	75.25
229.73	93.25
229.964	97.25
230.199	80.25
230.433	101.25
230.667	100.25
230.901	105.25
231.136	101.25
231.37	104.25
231.604	109.25
231.838	94.25
232.072	107.25
232.306	111.25
232.541	95.25
232.775	110.25
233.009	107.25
233.243	120.25
233.477	107.25
233.711	109.25
233.945	106.25
234.179	105.25
234.413	103.25
234.647	106.25
234.881	115.25
235.115	113.25
235.349	116.25
235.583	111.25
235.817	119.25
236.051	122.25
236.285	124.25
236.519	140.25
236.753	156.25
236.987	164.25
237.221	216.25
237.455	204.25
237.689	196.25
237.922	172.25
238.156	154.25
238.39	132.25
238.624	119.25
238.858	123.25
239.091	110.25
239.325	102.25
239.559	101.25
239.793	114.25
240.027	116.25
240.26	110.25
240.494	120.25
240.728	115.25
240.961	105.25
241.195	102.25
241.429	113.25
241.662	108.25
241.896	107.25
242.13	113.25
242.363	123.25
242.597	99.25
242.83	121.25
243.064	109.25
243.298	108.25
243.531	108.25
243.765	116.25
243.998	126.25
244.232	120.25
244.465	102.25
244.699	117.25
244.932	117.25
245.166	109.25
245.399	113.25
245.633	120.25
245.866	118.25
246.099	108.25
246.333	127.25
246.566	125.25
246.8	127.25
247.033	121.25
247.266	122.25
247.5	104.25
247.733	121.25
247.966	124.25
248.2	113.25
248.433	123.25
248.666	125.25
248.899	121.25
249.133	112.25
249.366	137.25
249.599	112.25
249.832	120.25
250.066	119.25
250.299	122.25
250.532	124.25
250.765	113.25
250.998	121.25
251.231	120.25
251.465	138.25
251.698	123.25
251.931	130.25
252.164	122.25
252.397	113.25
252.63	128.25
252.863	129.25
253.096	131.25
253.329	143.25
253.562	130.25
253.795	122.25
254.028	122.25
254.261	134.25
254.494	140.25
254.727	150.25
254.96	136.25
255.193	122.25
255.426	144.25
255.659	136.25
255.892	144.25
256.124	157.25
256.357	165.25
256.59	175.25
256.823	192.25
257.056	233.25
257.289	230.25
257.521	242.25
257.754	296.25
257.987	271.25
258.22	211.25
258.452	174.25
258.685	156.25
258.918	155.25
259.151	151.25
259.383	159.25
259.616	132.25
259.849	149.25
260.081	160.25
260.314	160.25
260.547	159.25
260.779	142.25
261.012	152.25
261.244	165.25
261.477	162.25
261.71	144.25
261.942	160.25
262.175	172.25
262.407	157.25
262.64	156.25
262.872	153.25
263.105	185.25
263.337	225.25
263.57	207.25
263.802	208.25
264.035	203.25
264.267	185.25
264.499	191.25
264.732	186.25
264.964	180.25
265.197	200.25
265.429	219.25
265.661	209.25
265.894	221.25
266.126	235.25
266.358	236.25
266.591	225.25
266.823	185.25
267.055	185.25
267.287	178.25
267.52	157.25
267.752	170.25
267.984	166.25
268.216	160.25
268.448	160.25
268.681	155.25
268.913	140.25
269.145	150.25
269.377	157.25
269.609	162.25
269.841	166.25
270.073	159.25
270.306	156.25
270.538	161.25
270.77	155.25
271.002	157.25
271.234	174.25
271.466	165.25
271.698	169.25
271.93	164.25
272.162	174.25
272.394	158.25
272.626	163.25
272.858	176.25
273.09	170.25
273.322	179.25
273.553	160.25
273.785	158.25
274.017	159.25
274.249	180.25
274.481	176.25
274.713	173.25
274.945	190.25
275.176	177.25
275.408	174.25
275.64	176.25
275.872	180.25
276.104	181.25
276.335	196.25
276.567	165.25
276.799	179.25
277.031	181.25
277.262	195.25
277.494	187.25
277.726	191.25
277.957	208.25
278.189	221.25
278.421	216.25
278.652	225.25
278.884	266.25
279.115	302.25
279.347	435.25
279.579	604.25
279.81	692.25
280.042	546.25
280.273	511.25
280.505	502.25
280.736	338.25
280.968	266.25
281.199	270.25
281.431	348.25
281.662	413.25
281.894	431.25
282.125	380.25
282.356	298.25
282.588	277.25
282.819	256.25
283.051	224.25
283.282	203.25
283.513	230.25
283.745	220.25
283.976	211.25
284.207	205.25
284.439	216.25
284.67	200.25
284.901	236.25
285.132	253.25
285.364	292.25
285.595	256.25
285.826	216.25
286.057	214.25
286.288	184.25
286.52	213.25
286.751	190.25
286.982	184.25
287.213	203.25
287.444	200.25
287.675	182.25
287.906	208.25
288.138	192.25
288.369	209.25
288.6	206.25
288.831	194.25
289.062	212.25
289.293	196.25
289.524	188.25
289.755	197.25
289.986	209.25
290.217	205.25
290.448	179.25
290.679	186.25
290.91	213.25
291.141	198.25
291.371	205.25
291.602	200.25
291.833	205.25
292.064	206.25
292.295	222.25
292.526	218.25
292.757	228.25
292.987	224.25
293.218	214.25
293.449	240.25
293.68	228.25
293.91	221.25
294.141	241.25
294.372	217.25
294.603	220.25
294.833	208.25
295.064	206.25
295.295	197.25
295.525	204.25
295.756	207.25
295.987	207.25
296.217	194.25
296.448	210.25
296.679	212.25
296.909	216.25
297.14	208.25
297.37	207.25
297.601	198.25
297.831	213.25
298.062	211.25
298.292	212.25
298.523	216.25
298.753	206.25
298.984	213.25
299.214	212.25
299.445	226.25
299.675	219.25
299.905	203.25
300.136	212.25
300.366	205.25
300.597	223.25
300.827	218.25
301.057	228.25
301.288	225.25
301.518	253.25
301.748	226.25
301.979	277.25
302.209	241.25
302.439	253.25
302.669	242.25
302.9	257.25
303.13	269.25
303.36	250.25
303.59	290.25
303.82	276.25
304.051	288.25
304.281	275.25
304.511	280.25
304.741	302.25
304.971	366.25
305.201	415.25
305.431	463.25
305.661	529.25
305.891	556.25
306.121	515.25
306.352	493.25
306.582	493.25
306.812	483.25
307.042	427.25
307.272	424.25
307.502	479.25
307.731	619.25
307.961	861.25
308.191	1183.25
308.421	1396.25
308.651	1189.25
308.881	1096.25
309.111	1371.25
309.341	1717.25
309.571	1654.25
309.8	1041.25
310.03	703.25
310.26	551.25
310.49	469.25
310.72	406.25
310.949	370.25
311.179	341.25
311.409	333.25
311.639	329.25
311.868	324.25
312.098	295.25
312.328	284.25
312.557	288.25
312.787	277.25
313.017	264.25
313.246	274.25
313.476	277.25
313.706	268.25
313.935	264.25
314.165	268.25
314.394	269.25
314.624	278.25
314.853	261.25
315.083	260.25
315.312	250.25
315.542	243.25
315.771	254.25
316.001	248.25
316.23	261.25
316.46	259.25
316.689	241.25
316.919	238.25
317.148	250.25
317.377	260.25
317.607	257.25
317.836	252.25
318.065	230.25
318.295	254.25
318.524	246.25
318.753	247.25
318.983	232.25
319.212	245.25
319.441	248.25
319.67	232.25
319.9	225.25
320.129	219.25
320.358	257.25
320.587	240.25
320.816	238.25
321.046	236.25
321.275	245.25
321.504	238.25
321.733	244.25
321.962	235.25
322.191	240.25
322.42	237.25
322.649	243.25
322.878	241.25
323.108	244.25
323.337	234.25
323.566	246.25
323.795	236.25
324.024	241.25
324.253	268.25
324.482	255.25
324.71	240.25
324.939	261.25
325.168	234.25
325.397	242.25
325.626	244.25
325.855	254.25
326.084	254.25
326.313	250.25
326.542	238.25
326.77	264.25
326.999	238.25
327.228	248.25
327.457	244.25
327.686	258.25
327.914	237.25
328.143	254.25
328.372	266.25
328.6	248.25
328.829	262.25
329.058	241.25
329.287	251.25
329.515	229.25
329.744	224.25
329.972	253.25
330.201	250.25
330.43	241.25
330.658	239.25
330.887	231.25
331.115	253.25
331.344	255.25
331.572	260.25
331.801	265.25
332.03	268.25
332.258	265.25
332.486	270.25
332.715	265.25
332.943	266.25
333.172	289.25
333.4	288.25
333.629	277.25
333.857	294.25
334.085	274.25
334.314	262.25
334.542	280.25
334.771	294.25
334.999	287.25
335.227	286.25
335.455	276.25
335.684	277.25
335.912	273.25
336.14	272.25
336.369	279.25
336.597	269.25
336.825	266.25
337.053	260.25
337.281	264.25
337.51	266.25
337.738	274.25
337.966	265.25
338.194	243.25
338.422	264.25
338.65	249.25
338.878	253.25
339.106	262.25
339.334	265.25
339.562	264.25
339.79	255.25
340.018	266.25
340.246	255.25
340.474	259.25
340.702	249.25
340.93	261.25
341.158	255.25
341.386	266.25
341.614	245.25
341.842	244.25
342.07	244.25
342.298	259.25
342.526	260.25
342.754	253.25
342.981	260.25
343.209	257.25
343.437	290.25
343.665	270.25
343.893	288.25
344.12	297.25
344.348	285.25
344.576	277.25
344.804	270.25
345.031	287.25
345.259	264.25
345.487	270.25
345.714	259.25
345.942	253.25
346.17	257.25
346.397	244.25
346.625	259.25
346.853	258.25
347.08	257.25
347.308	271.25
347.535	250.25
347.763	264.25
347.99	266.25
348.218	252.25
348.445	258.25
348.673	270.25
348.9	266.25
349.128	259.25
349.355	272.25
349.583	282.25
349.81	261.25
350.037	250.25
350.265	252.25
350.492	275.25
350.72	268.25
350.947	270.25
351.174	261.25
351.402	257.25
351.629	275.25
351.856	284.25
352.083	262.25
352.311	279.25
352.538	274.25
352.765	276.25
352.992	277.25
353.22	286.25
353.447	290.25
353.674	277.25
353.901	296.25
354.128	301.25
354.355	307.25
354.583	301.25
354.81	303.25
355.037	315.25
355.264	301.25
355.491	313.25
355.718	325.25
355.945	336.25
356.172	352.25
356.399	355.25
356.626	362.25
356.853	368.25
357.08	402.25
357.307	432.25
357.534	458.25
357.761	487.25
357.988	529.25
358.215	621.25
358.441	682.25
358.668	749.25
358.895	735.25
359.122	614.25
359.349	521.25
359.576	482.25
359.802	432.25
360.029	428.25
360.256	417.25
360.483	406.25
360.709	387.25
360.936	404.25
361.163	363.25
361.39	350.25
361.616	358.25
361.843	340.25
362.07	337.25
362.296	322.25
362.523	332.25
362.749	325.25
362.976	332.25
363.203	322.25
363.429	321.25
363.656	332.25
363.882	305.25
364.109	319.25
364.335	296.25
364.562	285.25
364.788	293.25
365.015	289.25
365.241	286.25
365.468	279.25
365.694	285.25
365.92	282.25
366.147	298.25
366.373	284.25
366.599	281.25
366.826	272.25
367.052	268.25
367.278	306.25
367.505	286.25
367.731	293.25
367.957	266.25
368.184	282.25
368.41	272.25
368.636	291.25
368.862	298.25
369.089	283.25
369.315	269.25
369.541	294.25
369.767	291.25
369.993	286.25
370.219	288.25
370.445	289.25
370.672	289.25
370.898	272.25
371.124	297.25
371.35	289.25
371.576	286.25
371.802	290.25
372.028	258.25
372.254	303.25
372.48	307.25
372.706	307.25
372.932	304.25
373.158	304.25
373.384	316.25
373.61	270.25
373.835	304.25
374.061	280.25
374.287	310.25
374.513	306.25
374.739	303.25
374.965	298.25
375.191	309.25
375.416	295.25
375.642	292.25
375.868	299.25
376.094	314.25
376.319	287.25
376.545	285.25
376.771	293.25
376.997	279.25
377.222	289.25
377.448	294.25
377.674	284.25
377.899	282.25
378.125	291.25
378.35	283.25
378.576	300.25
378.802	298.25
379.027	266.25
379.253	284.25
379.478	298.25
379.704	309.25
379.929	301.25
380.155	293.25
380.38	287.25
380.606	300.25
380.831	294.25
381.057	311.25
381.282	290.25
381.507	291.25
381.733	307.25
381.958	331.25
382.184	312.25
382.409	318.25
382.634	337.25
382.86	346.25
383.085	386.25
383.31	375.25
383.535	382.25
383.761	385.25
383.986	395.25
384.211	367.25
384.436	336.25
384.662	332.25
384.887	343.25
385.112	323.25
385.337	332.25
385.562	326.25
385.787	324.25
386.013	332.25
386.238	338.25
386.463	340.25
386.688	370.25
386.913	334.25
387.138	331.25
387.363	333.25
387.588	345.25
387.813	334.25
388.038	336.25
388.263	346.25
388.488	329.25
388.713	353.25
388.938	340.25
389.163	345.25
389.387	334.25
389.612	353.25
389.837	358.25
390.062	355.25
390.287	358.25
390.512	343.25
390.736	342.25
390.961	366.25
391.186	347.25
391.411	364.25
391.636	384.25
391.86	380.25
392.085	394.25
392.31	378.25
392.534	390.25
392.759	432.25
392.984	422.25
393.208	463.25
393.433	505.25
393.658	586.25
393.882	690.25
394.107	1086.25
394.331	1866.25
394.556	2468.25
394.78	1706.25
395.005	1013.25
395.229	789.25
395.454	796.25
395.678	1000.25
395.903	1625.25
396.127	2723.25
396.352	3154.25
396.576	1914.25
396.801	1139.25
397.025	820.25
397.249	652.25
397.474	611.25
397.698	556.25
397.922	538.25
398.147	507.25
398.371	487.25
398.595	484.25
398.82	480.25
399.044	473.25
399.268	475.25
399.492	479.25
399.717	505.25
399.941	482.25
400.165	484.25
400.389	445.25
400.613	437.25
400.837	429.25
401.062	433.25
401.286	417.25
401.51	402.25
401.734	382.25
401.958	396.25
402.182	388.25
402.406	394.25
402.63	396.25
402.854	396.25
403.078	396.25
403.302	405.25
403.526	409.25
403.75	431.25
403.974	420.25
404.198	417.25
404.422	421.25
404.645	396.25
404.869	392.25
405.093	418.25
405.317	382.25
405.541	406.25
405.765	392.25
405.988	412.25
406.212	384.25
406.436	385.25
406.66	426.25
406.883	409.25
407.107	415.25
407.331	430.25
407.555	442.25
407.778	432.25
408.002	403.25
408.226	412.25
408.449	407.25
408.673	408.25
408.896	409.25
409.12	412.25
409.344	399.25
409.567	409.25
409.791	415.25
410.014	407.25
410.238	416.25
410.461	417.25
410.685	382.25
410.908	394.25
411.132	409.25
411.355	377.25
411.578	362.25
411.802	387.25
412.025	390.25
412.249	390.25
412.472	388.25
412.695	392.25
412.919	359.25
413.142	402.25
413.365	399.25
413.589	401.25
413.812	378.25
414.035	396.25
414.258	382.25
414.482	386.25
414.705	395.25
414.928	385.25
415.151	390.25
415.374	412.25
415.597	380.25
415.821	379.25
416.044	417.25
416.267	395.25
416.49	406.25
416.713	385.25
416.936	396.25
417.159	389.25
417.382	381.25
417.605	381.25
417.828	400.25
418.051	368.25
418.274	370.25
418.497	390.25
418.72	414.25
418.943	389.25
419.166	400.25
419.389	403.25
419.611	420.25
419.834	393.25
420.057	400.25
420.28	400.25
420.503	395.25
420.726	401.25
420.948	394.25
421.171	403.25
421.394	404.25
421.617	387.25
421.839	382.25
422.062	404.25
422.285	384.25
422.507	401.25
422.73	387.25
422.953	418.25
423.175	394.25
423.398	387.25
423.621	389.25
423.843	395.25
424.066	421.25
424.288	401.25
424.511	410.25
424.733	399.25
424.956	398.25
425.178	396.25
425.401	406.25
425.623	403.25
425.846	411.25
426.068	369.25
426.291	386.25
426.513	366.25
426.735	382.25
426.958	382.25
427.18	374.25
427.402	381.25
427.625	387.25
427.847	365.25
428.069	364.25
428.292	358.25
428.514	383.25
428.736	376.25
428.958	393.25
429.181	365.25
429.403	376.25
429.625	356.25
429.847	373.25
430.069	361.25
430.292	361.25
430.514	368.25
430.736	394.25
430.958	376.25
431.18	382.25
431.402	355.25
431.624	356.25
431.846	339.25
432.068	335.25
432.29	365.25
432.512	335.25
432.734	343.25
432.956	379.25
433.178	376.25
433.4	406.25
433.622	381.25
433.844	376.25
434.066	371.25
434.287	364.25
434.509	347.25
434.731	355.25
434.953	380.25
435.175	373.25
435.397	390.25
435.618	367.25
435.84	349.25
436.062	362.25
436.284	359.25
436.505	355.25
436.727	386.25
436.949	364.25
437.17	376.25
437.392	365.25
437.614	356.25
437.835	344.25
438.057	351.25
438.278	356.25
438.5	365.25
438.721	382.25
438.943	381.25
439.165	378.25
439.386	376.25
439.608	413.25
439.829	393.25
440.05	399.25
440.272	393.25
440.493	413.25
440.715	373.25
440.936	393.25
441.158	414.25
441.379	394.25
441.6	394.25
441.822	383.25
442.043	414.25
442.264	416.25
442.486	410.25
442.707	383.25
442.928	402.25
443.149	384.25
443.371	398.25
443.592	409.25
443.813	405.25
444.034	409.25
444.255	426.25
444.476	431.25
444.698	428.25
444.919	435.25
445.14	646.25
445.361	522.25
445.582	421.25
445.803	396.25
446.024	405.25
446.245	421.25
446.466	402.25
446.687	410.25
446.908	388.25
447.129	408.25
447.35	408.25
447.571	402.25
447.792	392.25
448.013	389.25
448.234	383.25
448.455	407.25
448.675	361.25
448.896	373.25
449.117	379.25
449.338	362.25
449.559	379.25
449.779	369.25
450	364.25
450.221	353.25
450.442	380.25
450.662	400.25
450.883	372.25
451.104	363.25
451.324	351.25
451.545	363.25
451.766	354.25
451.986	363.25
452.207	380.25
452.428	365.25
452.648	363.25
452.869	363.25
453.089	350.25
453.31	344.25
453.53	348.25
453.751	354.25
453.971	353.25
454.192	347.25
454.412	342.25
454.633	340.25
454.853	357.25
455.073	370.25
455.294	345.25
455.514	345.25
455.734	363.25
455.955	346.25
456.175	344.25
456.395	330.25
456.616	319.25
456.836	338.25
457.056	318.25
457.276	292.25
457.497	313.25
457.717	315.25
457.937	311.25
458.157	316.25
458.377	335.25
458.598	308.25
458.818	313.25
459.038	324.25
459.258	321.25
459.478	341.25
459.698	317.25
459.918	355.25
460.138	343.25
460.358	366.25
460.578	371.25
460.798	376.25
461.018	380.25
461.238	379.25
461.458	387.25
461.678	374.25
461.898	385.25
462.118	373.25
462.338	414.25
462.558	410.25
462.777	405.25
462.997	438.25
463.217	421.25
463.437	421.25
463.657	409.25
463.876	416.25
464.096	416.25
464.316	409.25
464.536	412.25
464.755	418.25
464.975	399.25
465.195	412.25
465.414	384.25
465.634	372.25
465.854	386.25
466.073	400.25
466.293	436.25
466.512	465.25
466.732	470.25
466.951	436.25
467.171	426.25
467.391	403.25
467.61	401.25
467.829	405.25
468.049	394.25
468.268	380.25
468.488	381.25
468.707	383.25
468.927	381.25
469.146	387.25
469.365	388.25
469.585	370.25
469.804	386.25
470.023	399.25
470.243	399.25
470.462	408.25
470.681	397.25
470.901	394.25
471.12	375.25
471.339	387.25
471.558	384.25
471.777	401.25
471.997	371.25
472.216	359.25
472.435	371.25
472.654	364.25
472.873	384.25
473.092	379.25
473.311	387.25
473.53	417.25
473.749	436.25
473.968	444.25
474.187	446.25
474.406	419.25
474.625	447.25
474.844	467.25
475.063	442.25
475.282	416.25
475.501	384.25
475.72	429.25
475.939	382.25
476.158	380.25
476.377	376.25
476.596	383.25
476.814	387.25
477.033	352.25
477.252	346.25
477.471	377.25
477.69	389.25
477.908	381.25
478.127	416.25
478.346	400.25
478.564	408.25
478.783	407.25
479.002	410.25
479.22	394.25
479.439	389.25
479.658	375.25
479.876	381.25
480.095	364.25
480.313	409.25
480.532	408.25
480.751	383.25
480.969	373.25
481.188	333.25
481.406	344.25
481.624	342.25
481.843	356.25
482.061	353.25
482.28	363.25
482.498	364.25
482.717	340.25
482.935	371.25
483.153	407.25
483.372	410.25
483.59	410.25
483.808	397.25
484.027	394.25
484.245	422.25
484.463	430.25
484.681	472.25
484.9	440.25
485.118	415.25
485.336	403.25
485.554	415.25
485.772	410.25
485.99	410.25
486.209	408.25
486.427	398.25
486.645	416.25
486.863	443.25
487.081	444.25
487.299	433.25
487.517	440.25
487.735	448.25
487.953	473.25
488.171	465.25
488.389	453.25
488.607	435.25
488.825	398.25
489.043	422.25
489.261	444.25
489.479	418.25
489.696	436.25
489.914	448.25
490.132	434.25
490.35	438.25
490.568	444.25
490.786	456.25
491.003	437.25
491.221	466.25
491.439	485.25
491.657	469.25
491.874	497.25
492.092	528.25
492.31	540.25
492.527	500.25
492.745	491.25
492.963	491.25
493.18	483.25
493.398	473.25
493.615	474.25
493.833	465.25
494.05	441.25
494.268	463.25
494.485	460.25
494.703	450.25
494.92	456.25
495.138	458.25
495.355	455.25
495.573	451.25
495.79	439.25
496.008	461.25
496.225	487.25
496.442	454.25
496.66	474.25
496.877	474.25
497.094	480.25
497.312	446.25
497.529	452.25
497.746	453.25
497.963	444.25
498.181	460.25
498.398	456.25
498.615	482.25
498.832	500.25
499.049	514.25
499.267	549.25
499.484	537.25
499.701	588.25
499.918	626.25
500.135	682.25
500.352	674.25
500.569	689.25
500.786	677.25
501.003	651.25
501.22	631.25
501.437	592.25
501.654	571.25
501.871	534.25
502.088	499.25
502.305	478.25
502.522	487.25
