Data from SampC_HRD10591_00037.txt Node
Date: Mon Jan 19 11:37:42 EST 2026
User: Yrep
Spectrometer: HR+D1059
Trigger mode: 0
Integration Time (sec): 3.443000E-1
Scans to average: 1
Electric dark correction enabled: true
Nonlinearity correction enabled: false
Boxcar width: 0
XAxis mode: Wavelengths
Number of Pixels in Spectrum: 2048
>>>>>Begin Spectral Data<<<<<
223.165	-13.25
223.4	-13.25
223.635	-13.25
223.869	-29.25
224.104	-15.25
224.338	-4.25
224.573	-17.25
224.808	-6.25
225.042	-2.25
225.277	-13.25
225.511	3.75
225.746	3.75
225.98	3.75
226.215	6.75
226.449	21.75
226.683	23.75
226.918	11.75
227.152	25.75
227.387	44.75
227.621	34.75
227.856	59.75
228.09	45.75
228.324	55.75
228.559	62.75
228.793	67.75
229.027	73.75
229.262	91.75
229.496	73.75
229.73	94.75
229.964	94.75
230.199	110.75
230.433	107.75
230.667	107.75
230.901	93.75
231.136	99.75
231.37	114.75
231.604	116.75
231.838	101.75
232.072	113.75
232.306	118.75
232.541	104.75
232.775	98.75
233.009	105.75
233.243	110.75
233.477	108.75
233.711	102.75
233.945	123.75
234.179	103.75
234.413	127.75
234.647	120.75
234.881	114.75
235.115	97.75
235.349	98.75
235.583	116.75
235.817	98.75
236.051	114.75
236.285	107.75
236.519	125.75
236.753	141.75
236.987	169.75
237.221	178.75
237.455	183.75
237.689	180.75
237.922	161.75
238.156	136.75
238.39	134.75
238.624	126.75
238.858	121.75
239.091	111.75
239.325	126.75
239.559	111.75
239.793	105.75
240.027	112.75
240.26	92.75
240.494	116.75
240.728	98.75
240.961	108.75
241.195	106.75
241.429	101.75
241.662	94.75
241.896	127.75
242.13	111.75
242.363	111.75
242.597	107.75
242.83	103.75
243.064	95.75
243.298	117.75
243.531	117.75
243.765	117.75
243.998	116.75
244.232	135.75
244.465	108.75
244.699	105.75
244.932	113.75
245.166	107.75
245.399	135.75
245.633	110.75
245.866	113.75
246.099	129.75
246.333	116.75
246.566	129.75
246.8	129.75
247.033	106.75
247.266	112.75
247.5	106.75
247.733	112.75
247.966	113.75
248.2	116.75
248.433	109.75
248.666	117.75
248.899	118.75
249.133	123.75
249.366	133.75
249.599	119.75
249.832	115.75
250.066	126.75
250.299	118.75
250.532	133.75
250.765	119.75
250.998	122.75
251.231	122.75
251.465	119.75
251.698	122.75
251.931	137.75
252.164	124.75
252.397	120.75
252.63	143.75
252.863	125.75
253.096	138.75
253.329	142.75
253.562	140.75
253.795	137.75
254.028	137.75
254.261	134.75
254.494	117.75
254.727	146.75
254.96	139.75
255.193	123.75
255.426	124.75
255.659	138.75
255.892	147.75
256.124	142.75
256.357	153.75
256.59	175.75
256.823	201.75
257.056	240.75
257.289	235.75
257.521	242.75
257.754	292.75
257.987	272.75
258.22	197.75
258.452	175.75
258.685	170.75
258.918	143.75
259.151	159.75
259.383	153.75
259.616	138.75
259.849	149.75
260.081	151.75
260.314	165.75
260.547	155.75
260.779	138.75
261.012	143.75
261.244	142.75
261.477	154.75
261.71	145.75
261.942	148.75
262.175	141.75
262.407	155.75
262.64	160.75
262.872	158.75
263.105	176.75
263.337	201.75
263.57	177.75
263.802	190.75
264.035	179.75
264.267	174.75
264.499	160.75
264.732	177.75
264.964	183.75
265.197	176.75
265.429	213.75
265.661	222.75
265.894	214.75
266.126	243.75
266.358	258.75
266.591	204.75
266.823	165.75
267.055	154.75
267.287	165.75
267.52	175.75
267.752	167.75
267.984	156.75
268.216	156.75
268.448	164.75
268.681	144.75
268.913	157.75
269.145	147.75
269.377	149.75
269.609	142.75
269.841	165.75
270.073	157.75
270.306	167.75
270.538	158.75
270.77	137.75
271.002	147.75
271.234	158.75
271.466	155.75
271.698	148.75
271.93	151.75
272.162	175.75
272.394	147.75
272.626	158.75
272.858	140.75
273.09	161.75
273.322	162.75
273.553	153.75
273.785	171.75
274.017	170.75
274.249	160.75
274.481	161.75
274.713	142.75
274.945	158.75
275.176	167.75
275.408	164.75
275.64	171.75
275.872	159.75
276.104	159.75
276.335	174.75
276.567	165.75
276.799	160.75
277.031	186.75
277.262	166.75
277.494	183.75
277.726	183.75
277.957	190.75
278.189	203.75
278.421	209.75
278.652	210.75
278.884	228.75
279.115	292.75
279.347	397.75
279.579	513.75
279.81	596.75
280.042	468.75
280.273	445.75
280.505	445.75
280.736	303.75
280.968	251.75
281.199	250.75
281.431	276.75
281.662	344.75
281.894	385.75
282.125	316.75
282.356	259.75
282.588	228.75
282.819	213.75
283.051	203.75
283.282	221.75
283.513	231.75
283.745	193.75
283.976	200.75
284.207	200.75
284.439	192.75
284.67	204.75
284.901	213.75
285.132	238.75
285.364	276.75
285.595	248.75
285.826	205.75
286.057	194.75
286.288	190.75
286.52	180.75
286.751	189.75
286.982	178.75
287.213	188.75
287.444	189.75
287.675	192.75
287.906	201.75
288.138	191.75
288.369	186.75
288.6	193.75
288.831	190.75
289.062	188.75
289.293	192.75
289.524	192.75
289.755	182.75
289.986	185.75
290.217	185.75
290.448	185.75
290.679	202.75
290.91	188.75
291.141	195.75
291.371	206.75
291.602	202.75
291.833	215.75
292.064	191.75
292.295	204.75
292.526	213.75
292.757	215.75
292.987	222.75
293.218	204.75
293.449	230.75
293.68	218.75
293.91	218.75
294.141	222.75
294.372	188.75
294.603	207.75
294.833	213.75
295.064	188.75
295.295	185.75
295.525	186.75
295.756	194.75
295.987	184.75
296.217	186.75
296.448	193.75
296.679	191.75
296.909	196.75
297.14	208.75
297.37	189.75
297.601	209.75
297.831	194.75
298.062	189.75
298.292	197.75
298.523	202.75
298.753	188.75
298.984	206.75
299.214	175.75
299.445	193.75
299.675	202.75
299.905	197.75
300.136	219.75
300.366	194.75
300.597	206.75
300.827	199.75
301.057	192.75
301.288	202.75
301.518	230.75
301.748	207.75
301.979	259.75
302.209	227.75
302.439	231.75
302.669	226.75
302.9	226.75
303.13	228.75
303.36	242.75
303.59	250.75
303.82	267.75
304.051	270.75
304.281	275.75
304.511	281.75
304.741	312.75
304.971	346.75
305.201	415.75
305.431	431.75
305.661	490.75
305.891	526.75
306.121	475.75
306.352	444.75
306.582	453.75
306.812	457.75
307.042	414.75
307.272	395.75
307.502	461.75
307.731	566.75
307.961	829.75
308.191	1213.75
308.421	1354.75
308.651	1131.75
308.881	1046.75
309.111	1274.75
309.341	1602.75
309.571	1534.75
309.8	1017.75
310.03	671.75
310.26	530.75
310.49	435.75
310.72	401.75
310.949	347.75
311.179	341.75
311.409	305.75
311.639	306.75
311.868	314.75
312.098	282.75
312.328	286.75
312.557	274.75
312.787	271.75
313.017	258.75
313.246	275.75
313.476	243.75
313.706	248.75
313.935	265.75
314.165	243.75
314.394	244.75
314.624	254.75
314.853	242.75
315.083	244.75
315.312	250.75
315.542	223.75
315.771	233.75
316.001	237.75
316.23	249.75
316.46	243.75
316.689	229.75
316.919	225.75
317.148	227.75
317.377	255.75
317.607	230.75
317.836	228.75
318.065	227.75
318.295	237.75
318.524	223.75
318.753	222.75
318.983	234.75
319.212	226.75
319.441	234.75
319.67	219.75
319.9	231.75
320.129	228.75
320.358	206.75
320.587	221.75
320.816	220.75
321.046	229.75
321.275	227.75
321.504	249.75
321.733	207.75
321.962	209.75
322.191	223.75
322.42	231.75
322.649	236.75
322.878	235.75
323.108	229.75
323.337	223.75
323.566	228.75
323.795	231.75
324.024	234.75
324.253	254.75
324.482	244.75
324.71	219.75
324.939	255.75
325.168	228.75
325.397	245.75
325.626	237.75
325.855	240.75
326.084	229.75
326.313	238.75
326.542	226.75
326.77	233.75
326.999	237.75
327.228	209.75
327.457	231.75
327.686	234.75
327.914	223.75
328.143	236.75
328.372	224.75
328.6	229.75
328.829	240.75
329.058	239.75
329.287	221.75
329.515	221.75
329.744	239.75
329.972	233.75
330.201	232.75
330.43	236.75
330.658	220.75
330.887	229.75
331.115	238.75
331.344	227.75
331.572	251.75
331.801	239.75
332.03	245.75
332.258	243.75
332.486	233.75
332.715	239.75
332.943	254.75
333.172	252.75
333.4	255.75
333.629	259.75
333.857	259.75
334.085	267.75
334.314	273.75
334.542	251.75
334.771	254.75
334.999	259.75
335.227	247.75
335.455	261.75
335.684	263.75
335.912	267.75
336.14	254.75
336.369	247.75
336.597	259.75
336.825	253.75
337.053	244.75
337.281	262.75
337.51	238.75
337.738	233.75
337.966	242.75
338.194	246.75
338.422	239.75
338.65	253.75
338.878	254.75
339.106	244.75
339.334	241.75
339.562	249.75
339.79	231.75
340.018	234.75
340.246	229.75
340.474	224.75
340.702	236.75
340.93	248.75
341.158	229.75
341.386	230.75
341.614	218.75
341.842	247.75
342.07	260.75
342.298	238.75
342.526	239.75
342.754	244.75
342.981	239.75
343.209	254.75
343.437	269.75
343.665	255.75
343.893	247.75
344.12	265.75
344.348	260.75
344.576	256.75
344.804	243.75
345.031	228.75
345.259	249.75
345.487	246.75
345.714	241.75
345.942	237.75
346.17	227.75
346.397	233.75
346.625	242.75
346.853	242.75
347.08	244.75
347.308	238.75
347.535	245.75
347.763	257.75
347.99	248.75
348.218	236.75
348.445	244.75
348.673	229.75
348.9	255.75
349.128	265.75
349.355	239.75
349.583	227.75
349.81	240.75
350.037	242.75
350.265	250.75
350.492	240.75
350.72	251.75
350.947	247.75
351.174	267.75
351.402	238.75
351.629	253.75
351.856	263.75
352.083	241.75
352.311	257.75
352.538	239.75
352.765	268.75
352.992	273.75
353.22	256.75
353.447	255.75
353.674	252.75
353.901	257.75
354.128	288.75
354.355	267.75
354.583	277.75
354.81	267.75
355.037	277.75
355.264	292.75
355.491	279.75
355.718	282.75
355.945	284.75
356.172	284.75
356.399	303.75
356.626	317.75
356.853	354.75
357.08	345.75
357.307	351.75
357.534	370.75
357.761	414.75
357.988	445.75
358.215	501.75
358.441	569.75
358.668	611.75
358.895	607.75
359.122	509.75
359.349	439.75
359.576	402.75
359.802	372.75
360.029	357.75
360.256	344.75
360.483	354.75
360.709	341.75
360.936	339.75
361.163	329.75
361.39	335.75
361.616	316.75
361.843	286.75
362.07	304.75
362.296	292.75
362.523	271.75
362.749	283.75
362.976	293.75
363.203	286.75
363.429	282.75
363.656	269.75
363.882	267.75
364.109	291.75
364.335	277.75
364.562	291.75
364.788	275.75
365.015	257.75
365.241	256.75
365.468	267.75
365.694	267.75
365.92	252.75
366.147	269.75
366.373	271.75
366.599	250.75
366.826	246.75
367.052	262.75
367.278	263.75
367.505	262.75
367.731	276.75
367.957	270.75
368.184	261.75
368.41	258.75
368.636	272.75
368.862	267.75
369.089	260.75
369.315	260.75
369.541	250.75
369.767	275.75
369.993	247.75
370.219	246.75
370.445	263.75
370.672	284.75
370.898	254.75
371.124	259.75
371.35	269.75
371.576	261.75
371.802	262.75
372.028	269.75
372.254	271.75
372.48	267.75
372.706	269.75
372.932	277.75
373.158	267.75
373.384	271.75
373.61	276.75
373.835	285.75
374.061	274.75
374.287	277.75
374.513	266.75
374.739	274.75
374.965	270.75
375.191	280.75
375.416	288.75
375.642	270.75
375.868	282.75
376.094	274.75
376.319	273.75
376.545	240.75
376.771	259.75
376.997	260.75
377.222	250.75
377.448	246.75
377.674	270.75
377.899	267.75
378.125	251.75
378.35	275.75
378.576	277.75
378.802	251.75
379.027	262.75
379.253	263.75
379.478	257.75
379.704	259.75
379.929	266.75
380.155	239.75
380.38	267.75
380.606	274.75
380.831	281.75
381.057	277.75
381.282	286.75
381.507	275.75
381.733	283.75
381.958	281.75
382.184	307.75
382.409	308.75
382.634	310.75
382.86	357.75
383.085	362.75
383.31	370.75
383.535	358.75
383.761	382.75
383.986	386.75
384.211	346.75
384.436	317.75
384.662	292.75
384.887	315.75
385.112	292.75
385.337	320.75
385.562	302.75
385.787	293.75
386.013	333.75
386.238	333.75
386.463	317.75
386.688	342.75
386.913	315.75
387.138	303.75
387.363	323.75
387.588	316.75
387.813	307.75
388.038	308.75
388.263	328.75
388.488	295.75
388.713	332.75
388.938	313.75
389.163	323.75
389.387	315.75
389.612	323.75
389.837	320.75
390.062	331.75
390.287	329.75
390.512	312.75
390.736	324.75
390.961	326.75
391.186	327.75
391.411	333.75
391.636	344.75
391.86	341.75
392.085	361.75
392.31	356.75
392.534	372.75
392.759	391.75
392.984	418.75
393.208	459.75
393.433	491.75
393.658	545.75
393.882	675.75
394.107	1076.75
394.331	1979.75
394.556	2579.75
394.78	1720.75
395.005	1006.75
395.229	783.75
395.454	808.75
395.678	1027.75
395.903	1682.75
396.127	2855.75
396.352	3243.75
396.576	1972.75
396.801	1107.75
397.025	803.75
397.249	670.75
397.474	606.75
397.698	538.75
397.922	490.75
398.147	478.75
398.371	469.75
398.595	467.75
398.82	458.75
399.044	446.75
399.268	446.75
399.492	458.75
399.717	457.75
399.941	446.75
400.165	445.75
400.389	423.75
400.613	382.75
400.837	415.75
401.062	367.75
401.286	387.75
401.51	372.75
401.734	380.75
401.958	378.75
402.182	371.75
402.406	372.75
402.63	372.75
402.854	368.75
403.078	376.75
403.302	387.75
403.526	378.75
403.75	382.75
403.974	386.75
404.198	381.75
404.422	378.75
404.645	373.75
404.869	369.75
405.093	356.75
405.317	371.75
405.541	379.75
405.765	383.75
405.988	356.75
406.212	385.75
406.436	383.75
406.66	384.75
406.883	373.75
407.107	387.75
407.331	395.75
407.555	393.75
407.778	395.75
408.002	427.75
408.226	388.75
408.449	370.75
408.673	382.75
408.896	371.75
409.12	389.75
409.344	375.75
409.567	367.75
409.791	385.75
410.014	377.75
410.238	375.75
410.461	365.75
410.685	366.75
410.908	374.75
411.132	346.75
411.355	362.75
411.578	364.75
411.802	374.75
412.025	360.75
412.249	361.75
412.472	363.75
412.695	363.75
412.919	367.75
413.142	358.75
413.365	353.75
413.589	349.75
413.812	365.75
414.035	371.75
414.258	363.75
414.482	356.75
414.705	350.75
414.928	363.75
415.151	372.75
415.374	354.75
415.597	370.75
415.821	347.75
416.044	359.75
416.267	358.75
416.49	381.75
416.713	355.75
416.936	356.75
417.159	357.75
417.382	352.75
417.605	326.75
417.828	354.75
418.051	355.75
418.274	362.75
418.497	356.75
418.72	360.75
418.943	368.75
419.166	386.75
419.389	386.75
419.611	386.75
419.834	385.75
420.057	366.75
420.28	377.75
420.503	350.75
420.726	346.75
420.948	358.75
421.171	367.75
421.394	353.75
421.617	385.75
421.839	359.75
422.062	369.75
422.285	355.75
422.507	351.75
422.73	365.75
422.953	372.75
423.175	347.75
423.398	355.75
423.621	365.75
423.843	369.75
424.066	377.75
424.288	374.75
424.511	377.75
424.733	381.75
424.956	367.75
425.178	365.75
425.401	365.75
425.623	370.75
425.846	349.75
426.068	353.75
426.291	355.75
426.513	344.75
426.735	344.75
426.958	364.75
427.18	353.75
427.402	345.75
427.625	357.75
427.847	342.75
428.069	328.75
428.292	341.75
428.514	325.75
428.736	347.75
428.958	355.75
429.181	345.75
429.403	322.75
429.625	336.75
429.847	345.75
430.069	359.75
430.292	346.75
430.514	337.75
430.736	346.75
430.958	337.75
431.18	342.75
431.402	332.75
431.624	356.75
431.846	318.75
432.068	311.75
432.29	313.75
432.512	313.75
432.734	358.75
432.956	339.75
433.178	362.75
433.4	365.75
433.622	353.75
433.844	329.75
434.066	359.75
434.287	339.75
434.509	346.75
434.731	325.75
434.953	331.75
435.175	344.75
435.397	351.75
435.618	340.75
435.84	327.75
436.062	339.75
436.284	358.75
436.505	362.75
436.727	345.75
436.949	353.75
437.17	326.75
437.392	351.75
437.614	329.75
437.835	299.75
438.057	303.75
438.278	338.75
438.5	332.75
438.721	343.75
438.943	335.75
439.165	345.75
439.386	367.75
439.608	369.75
439.829	354.75
440.05	356.75
440.272	378.75
440.493	369.75
440.715	374.75
440.936	368.75
441.158	400.75
441.379	383.75
441.6	370.75
441.822	385.75
442.043	366.75
442.264	349.75
442.486	380.75
442.707	388.75
442.928	370.75
443.149	365.75
443.371	363.75
443.592	372.75
443.813	365.75
444.034	363.75
444.255	387.75
444.476	382.75
444.698	395.75
444.919	400.75
445.14	637.75
445.361	494.75
445.582	386.75
445.803	388.75
446.024	382.75
446.245	368.75
446.466	381.75
446.687	375.75
446.908	380.75
447.129	408.75
447.35	369.75
447.571	364.75
447.792	371.75
448.013	362.75
448.234	358.75
448.455	360.75
448.675	347.75
448.896	360.75
449.117	362.75
449.338	340.75
449.559	354.75
449.779	339.75
450	334.75
450.221	358.75
450.442	360.75
450.662	348.75
450.883	340.75
451.104	340.75
451.324	339.75
451.545	341.75
451.766	336.75
451.986	339.75
452.207	340.75
452.428	341.75
452.648	362.75
452.869	342.75
453.089	337.75
453.31	324.75
453.53	322.75
453.751	343.75
453.971	330.75
454.192	331.75
454.412	331.75
454.633	342.75
454.853	331.75
455.073	315.75
455.294	302.75
455.514	328.75
455.734	314.75
455.955	317.75
456.175	306.75
456.395	301.75
456.616	296.75
456.836	289.75
457.056	309.75
457.276	300.75
457.497	302.75
457.717	284.75
457.937	300.75
458.157	283.75
458.377	275.75
458.598	288.75
458.818	287.75
459.038	289.75
459.258	300.75
459.478	295.75
459.698	315.75
459.918	334.75
460.138	337.75
460.358	334.75
460.578	363.75
460.798	350.75
461.018	360.75
461.238	365.75
461.458	354.75
461.678	341.75
461.898	355.75
462.118	350.75
462.338	379.75
462.558	365.75
462.777	386.75
462.997	405.75
463.217	395.75
463.437	385.75
463.657	375.75
463.876	366.75
464.096	378.75
464.316	387.75
464.536	386.75
464.755	381.75
464.975	360.75
465.195	374.75
465.414	363.75
465.634	371.75
465.854	361.75
466.073	366.75
466.293	403.75
466.512	423.75
466.732	414.75
466.951	403.75
467.171	385.75
467.391	372.75
467.61	373.75
467.829	372.75
468.049	367.75
468.268	350.75
468.488	355.75
468.707	352.75
468.927	366.75
469.146	348.75
469.365	346.75
469.585	355.75
469.804	372.75
470.023	359.75
470.243	348.75
470.462	361.75
470.681	370.75
470.901	365.75
471.12	366.75
471.339	362.75
471.558	353.75
471.777	360.75
471.997	339.75
472.216	329.75
472.435	336.75
472.654	333.75
472.873	351.75
473.092	357.75
473.311	357.75
473.53	380.75
473.749	433.75
473.968	419.75
474.187	409.75
474.406	415.75
474.625	421.75
474.844	411.75
475.063	411.75
475.282	372.75
475.501	365.75
475.72	372.75
475.939	358.75
476.158	347.75
476.377	364.75
476.596	352.75
476.814	339.75
477.033	335.75
477.252	333.75
477.471	352.75
477.69	363.75
477.908	380.75
478.127	377.75
478.346	365.75
478.564	374.75
478.783	368.75
479.002	367.75
479.22	386.75
479.439	371.75
479.658	379.75
479.876	350.75
480.095	354.75
480.313	349.75
480.532	381.75
480.751	363.75
480.969	328.75
481.188	336.75
481.406	326.75
481.624	328.75
481.843	331.75
482.061	337.75
482.28	348.75
482.498	340.75
482.717	346.75
482.935	338.75
483.153	371.75
483.372	383.75
483.59	376.75
483.808	352.75
484.027	378.75
484.245	389.75
484.463	423.75
484.681	447.75
484.9	413.75
485.118	422.75
485.336	403.75
485.554	384.75
485.772	381.75
485.99	366.75
486.209	374.75
486.427	386.75
486.645	348.75
486.863	416.75
487.081	423.75
487.299	430.75
487.517	411.75
487.735	430.75
487.953	453.75
488.171	440.75
488.389	445.75
488.607	411.75
488.825	374.75
489.043	385.75
489.261	387.75
489.479	398.75
489.696	403.75
489.914	382.75
490.132	413.75
490.35	399.75
490.568	423.75
490.786	429.75
491.003	434.75
491.221	423.75
491.439	430.75
491.657	437.75
491.874	478.75
492.092	469.75
492.31	497.75
492.527	466.75
492.745	453.75
492.963	463.75
493.18	472.75
493.398	463.75
493.615	427.75
493.833	447.75
494.05	451.75
494.268	414.75
494.485	427.75
494.703	432.75
494.92	427.75
495.138	433.75
495.355	444.75
495.573	429.75
495.79	427.75
496.008	433.75
496.225	431.75
496.442	428.75
496.66	424.75
496.877	446.75
497.094	425.75
497.312	419.75
497.529	442.75
497.746	427.75
497.963	422.75
498.181	418.75
498.398	415.75
498.615	433.75
498.832	437.75
499.049	455.75
499.267	502.75
499.484	510.75
499.701	534.75
499.918	557.75
500.135	609.75
500.352	649.75
500.569	635.75
500.786	647.75
501.003	623.75
501.22	566.75
501.437	526.75
501.654	500.75
501.871	481.75
502.088	459.75
502.305	451.75
502.522	447.75
502.739	439.75
