Data from SampC_HRD10591_00087.txt Node
Date: Mon Jan 19 11:37:59 EST 2026
User: Yrep
Spectrometer: HR+D1059
Trigger mode: 0
Integration Time (sec): 3.443000E-1
Scans to average: 1
Electric dark correction enabled: true
Nonlinearity correction enabled: false
Boxcar width: 0
XAxis mode: Wavelengths
Number of Pixels in Spectrum: 2048
>>>>>Begin Spectral Data<<<<<
223.165	-11.62
223.4	-11.62
223.635	-11.62
223.869	-25.62
224.104	-17.62
224.338	-19.62
224.573	-26.62
224.808	-23.62
225.042	-0.62
225.277	-12.62
225.511	-3.62
225.746	5.38
225.98	21.38
226.215	17.38
226.449	12.38
226.683	23.38
226.918	30.38
227.152	31.38
227.387	12.38
227.621	35.38
227.856	53.38
228.09	58.38
228.324	52.38
228.559	61.38
228.793	77.38
229.027	82.38
229.262	99.38
229.496	97.38
229.73	90.38
229.964	95.38
230.199	88.38
230.433	102.38
230.667	96.38
230.901	114.38
231.136	116.38
231.37	117.38
231.604	96.38
231.838	127.38
232.072	122.38
232.306	134.38
232.541	122.38
232.775	116.38
233.009	112.38
233.243	128.38
233.477	122.38
233.711	117.38
233.945	133.38
234.179	112.38
234.413	119.38
234.647	125.38
234.881	128.38
235.115	132.38
235.349	121.38
235.583	127.38
235.817	124.38
236.051	122.38
236.285	138.38
236.519	149.38
236.753	184.38
236.987	207.38
237.221	224.38
237.455	221.38
237.689	227.38
237.922	198.38
238.156	142.38
238.39	134.38
238.624	127.38
238.858	141.38
239.091	128.38
239.325	118.38
239.559	116.38
239.793	126.38
240.027	112.38
240.26	113.38
240.494	114.38
240.728	116.38
240.961	113.38
241.195	129.38
241.429	121.38
241.662	123.38
241.896	110.38
242.13	130.38
242.363	128.38
242.597	119.38
242.83	138.38
243.064	126.38
243.298	137.38
243.531	132.38
243.765	119.38
243.998	127.38
244.232	148.38
244.465	122.38
244.699	128.38
244.932	141.38
245.166	123.38
245.399	125.38
245.633	134.38
245.866	122.38
246.099	132.38
246.333	138.38
246.566	157.38
246.8	136.38
247.033	142.38
247.266	128.38
247.5	139.38
247.733	135.38
247.966	129.38
248.2	133.38
248.433	132.38
248.666	126.38
248.899	139.38
249.133	154.38
249.366	147.38
249.599	132.38
249.832	144.38
250.066	145.38
250.299	139.38
250.532	155.38
250.765	150.38
250.998	149.38
251.231	154.38
251.465	134.38
251.698	167.38
251.931	153.38
252.164	159.38
252.397	162.38
252.63	153.38
252.863	141.38
253.096	149.38
253.329	160.38
253.562	167.38
253.795	171.38
254.028	153.38
254.261	161.38
254.494	160.38
254.727	147.38
254.96	166.38
255.193	157.38
255.426	173.38
255.659	158.38
255.892	178.38
256.124	158.38
256.357	173.38
256.59	193.38
256.823	216.38
257.056	294.38
257.289	305.38
257.521	289.38
257.754	345.38
257.987	331.38
258.22	261.38
258.452	217.38
258.685	196.38
258.918	191.38
259.151	191.38
259.383	171.38
259.616	187.38
259.849	183.38
260.081	199.38
260.314	179.38
260.547	178.38
260.779	186.38
261.012	173.38
261.244	168.38
261.477	200.38
261.71	186.38
261.942	191.38
262.175	191.38
262.407	191.38
262.64	181.38
262.872	222.38
263.105	230.38
263.337	245.38
263.57	258.38
263.802	253.38
264.035	233.38
264.267	225.38
264.499	226.38
264.732	214.38
264.964	233.38
265.197	231.38
265.429	266.38
265.661	262.38
265.894	250.38
266.126	291.38
266.358	315.38
266.591	262.38
266.823	221.38
267.055	204.38
267.287	209.38
267.52	198.38
267.752	222.38
267.984	198.38
268.216	181.38
268.448	183.38
268.681	190.38
268.913	196.38
269.145	193.38
269.377	188.38
269.609	178.38
269.841	199.38
270.073	197.38
270.306	195.38
270.538	201.38
270.77	192.38
271.002	197.38
271.234	189.38
271.466	216.38
271.698	211.38
271.93	194.38
272.162	201.38
272.394	203.38
272.626	196.38
272.858	197.38
273.09	213.38
273.322	205.38
273.553	201.38
273.785	198.38
274.017	222.38
274.249	220.38
274.481	224.38
274.713	217.38
274.945	215.38
275.176	201.38
275.408	228.38
275.64	223.38
275.872	215.38
276.104	226.38
276.335	232.38
276.567	203.38
276.799	217.38
277.031	209.38
277.262	245.38
277.494	230.38
277.726	242.38
277.957	275.38
278.189	293.38
278.421	275.38
278.652	278.38
278.884	326.38
279.115	431.38
279.347	580.38
279.579	826.38
279.81	949.38
280.042	754.38
280.273	713.38
280.505	681.38
280.736	457.38
280.968	355.38
281.199	345.38
281.431	415.38
281.662	543.38
281.894	597.38
282.125	483.38
282.356	381.38
282.588	325.38
282.819	291.38
283.051	288.38
283.282	277.38
283.513	263.38
283.745	279.38
283.976	281.38
284.207	244.38
284.439	264.38
284.67	259.38
284.901	275.38
285.132	319.38
285.364	384.38
285.595	329.38
285.826	274.38
286.057	245.38
286.288	242.38
286.52	236.38
286.751	254.38
286.982	226.38
287.213	246.38
287.444	253.38
287.675	249.38
287.906	231.38
288.138	245.38
288.369	276.38
288.6	260.38
288.831	244.38
289.062	244.38
289.293	249.38
289.524	245.38
289.755	239.38
289.986	257.38
290.217	265.38
290.448	246.38
290.679	249.38
290.91	250.38
291.141	239.38
291.371	259.38
291.602	257.38
291.833	256.38
292.064	269.38
292.295	275.38
292.526	268.38
292.757	279.38
292.987	267.38
293.218	296.38
293.449	278.38
293.68	279.38
293.91	275.38
294.141	281.38
294.372	268.38
294.603	265.38
294.833	247.38
295.064	269.38
295.295	259.38
295.525	263.38
295.756	246.38
295.987	252.38
296.217	237.38
296.448	250.38
296.679	253.38
296.909	266.38
297.14	270.38
297.37	269.38
297.601	254.38
297.831	242.38
298.062	251.38
298.292	244.38
298.523	252.38
298.753	260.38
298.984	266.38
299.214	268.38
299.445	254.38
299.675	252.38
299.905	277.38
300.136	281.38
300.366	267.38
300.597	279.38
300.827	277.38
301.057	266.38
301.288	271.38
301.518	285.38
301.748	281.38
301.979	325.38
302.209	315.38
302.439	299.38
302.669	321.38
302.9	307.38
303.13	342.38
303.36	331.38
303.59	339.38
303.82	348.38
304.051	353.38
304.281	380.38
304.511	391.38
304.741	415.38
304.971	463.38
305.201	541.38
305.431	589.38
305.661	679.38
305.891	729.38
306.121	668.38
306.352	618.38
306.582	633.38
306.812	619.38
307.042	560.38
307.272	558.38
307.502	599.38
307.731	787.38
307.961	1126.38
308.191	1535.38
308.421	1805.38
308.651	1533.38
308.881	1408.38
309.111	1711.38
309.341	2191.38
309.571	2105.38
309.8	1334.38
310.03	869.38
310.26	697.38
310.49	597.38
310.72	510.38
310.949	482.38
311.179	433.38
311.409	413.38
311.639	403.38
311.868	397.38
312.098	396.38
312.328	381.38
312.557	370.38
312.787	354.38
313.017	349.38
313.246	364.38
313.476	334.38
313.706	334.38
313.935	313.38
314.165	329.38
314.394	340.38
314.624	325.38
314.853	317.38
315.083	333.38
315.312	311.38
315.542	311.38
315.771	314.38
316.001	319.38
316.23	320.38
316.46	312.38
316.689	303.38
316.919	311.38
317.148	309.38
317.377	302.38
317.607	311.38
317.836	319.38
318.065	299.38
318.295	322.38
318.524	304.38
318.753	305.38
318.983	313.38
319.212	290.38
319.441	301.38
319.67	300.38
319.9	289.38
320.129	305.38
320.358	318.38
320.587	313.38
320.816	289.38
321.046	311.38
321.275	310.38
321.504	309.38
321.733	309.38
321.962	287.38
322.191	296.38
322.42	287.38
322.649	309.38
322.878	297.38
323.108	300.38
323.337	322.38
323.566	305.38
323.795	323.38
324.024	319.38
324.253	305.38
324.482	325.38
324.71	323.38
324.939	342.38
325.168	316.38
325.397	304.38
325.626	301.38
325.855	314.38
326.084	311.38
326.313	315.38
326.542	327.38
326.77	306.38
326.999	306.38
327.228	302.38
327.457	332.38
327.686	319.38
327.914	313.38
328.143	295.38
328.372	301.38
328.6	306.38
328.829	327.38
329.058	319.38
329.287	329.38
329.515	316.38
329.744	317.38
329.972	298.38
330.201	316.38
330.43	318.38
330.658	307.38
330.887	319.38
331.115	310.38
331.344	317.38
331.572	335.38
331.801	330.38
332.03	321.38
332.258	329.38
332.486	342.38
332.715	336.38
332.943	342.38
333.172	355.38
333.4	369.38
333.629	343.38
333.857	354.38
334.085	374.38
334.314	351.38
334.542	327.38
334.771	356.38
334.999	356.38
335.227	355.38
335.455	354.38
335.684	361.38
335.912	349.38
336.14	354.38
336.369	355.38
336.597	343.38
336.825	341.38
337.053	343.38
337.281	342.38
337.51	349.38
337.738	345.38
337.966	343.38
338.194	323.38
338.422	329.38
338.65	337.38
338.878	337.38
339.106	330.38
339.334	337.38
339.562	320.38
339.79	337.38
340.018	314.38
340.246	301.38
340.474	333.38
340.702	319.38
340.93	312.38
341.158	319.38
341.386	317.38
341.614	304.38
341.842	310.38
342.07	331.38
342.298	329.38
342.526	342.38
342.754	319.38
342.981	339.38
343.209	330.38
343.437	377.38
343.665	341.38
343.893	359.38
344.12	370.38
344.348	365.38
344.576	329.38
344.804	343.38
345.031	348.38
345.259	345.38
345.487	323.38
345.714	322.38
345.942	324.38
346.17	338.38
346.397	317.38
346.625	325.38
346.853	340.38
347.08	318.38
347.308	336.38
347.535	320.38
347.763	320.38
347.99	344.38
348.218	334.38
348.445	320.38
348.673	324.38
348.9	350.38
349.128	329.38
349.355	339.38
349.583	342.38
349.81	345.38
350.037	329.38
350.265	334.38
350.492	331.38
350.72	353.38
350.947	356.38
351.174	348.38
351.402	326.38
351.629	357.38
351.856	331.38
352.083	341.38
352.311	343.38
352.538	330.38
352.765	344.38
352.992	364.38
353.22	368.38
353.447	361.38
353.674	353.38
353.901	376.38
354.128	388.38
354.355	389.38
354.583	372.38
354.81	372.38
355.037	419.38
355.264	395.38
355.491	404.38
355.718	424.38
355.945	430.38
356.172	435.38
356.399	463.38
356.626	474.38
356.853	490.38
357.08	523.38
357.307	547.38
357.534	579.38
357.761	643.38
357.988	742.38
358.215	787.38
358.441	946.38
358.668	1058.38
358.895	991.38
359.122	855.38
359.349	715.38
359.576	623.38
359.802	567.38
360.029	554.38
360.256	543.38
360.483	513.38
360.709	509.38
360.936	510.38
361.163	476.38
361.39	465.38
361.616	451.38
361.843	449.38
362.07	457.38
362.296	425.38
362.523	414.38
362.749	400.38
362.976	399.38
363.203	424.38
363.429	386.38
363.656	397.38
363.882	397.38
364.109	375.38
364.335	375.38
364.562	386.38
364.788	386.38
365.015	371.38
365.241	359.38
365.468	365.38
365.694	381.38
365.92	364.38
366.147	371.38
366.373	346.38
366.599	356.38
366.826	356.38
367.052	349.38
367.278	373.38
367.505	349.38
367.731	368.38
367.957	345.38
368.184	375.38
368.41	368.38
368.636	367.38
368.862	357.38
369.089	357.38
369.315	369.38
369.541	353.38
369.767	356.38
369.993	358.38
370.219	383.38
370.445	366.38
370.672	371.38
370.898	364.38
371.124	351.38
371.35	369.38
371.576	374.38
371.802	383.38
372.028	378.38
372.254	377.38
372.48	399.38
372.706	387.38
372.932	375.38
373.158	363.38
373.384	381.38
373.61	385.38
373.835	386.38
374.061	375.38
374.287	371.38
374.513	378.38
374.739	379.38
374.965	388.38
375.191	398.38
375.416	393.38
375.642	379.38
375.868	373.38
376.094	370.38
376.319	389.38
376.545	380.38
376.771	359.38
376.997	373.38
377.222	367.38
377.448	372.38
377.674	362.38
377.899	355.38
378.125	345.38
378.35	368.38
378.576	355.38
378.802	372.38
379.027	358.38
379.253	366.38
379.478	362.38
379.704	374.38
379.929	367.38
380.155	370.38
380.38	383.38
380.606	394.38
380.831	371.38
381.057	407.38
381.282	371.38
381.507	377.38
381.733	383.38
381.958	423.38
382.184	404.38
382.409	441.38
382.634	444.38
382.86	451.38
383.085	498.38
383.31	510.38
383.535	519.38
383.761	513.38
383.986	526.38
384.211	474.38
384.436	429.38
384.662	422.38
384.887	429.38
385.112	411.38
385.337	421.38
385.562	440.38
385.787	425.38
386.013	453.38
386.238	441.38
386.463	447.38
386.688	477.38
386.913	438.38
387.138	433.38
387.363	443.38
387.588	448.38
387.813	435.38
388.038	439.38
388.263	429.38
388.488	433.38
388.713	436.38
388.938	427.38
389.163	438.38
389.387	442.38
389.612	411.38
389.837	450.38
390.062	457.38
390.287	434.38
390.512	465.38
390.736	439.38
390.961	484.38
391.186	474.38
391.411	492.38
391.636	473.38
391.86	491.38
392.085	490.38
392.31	494.38
392.534	491.38
392.759	533.38
392.984	560.38
393.208	624.38
393.433	721.38
393.658	756.38
393.882	877.38
394.107	1420.38
394.331	2477.38
394.556	3290.38
394.78	2261.38
395.005	1317.38
395.229	1018.38
395.454	1011.38
395.678	1294.38
395.903	2165.38
396.127	3655.38
396.352	4317.38
396.576	2579.38
396.801	1513.38
397.025	1101.38
397.249	889.38
397.474	791.38
397.698	692.38
397.922	683.38
398.147	641.38
398.371	630.38
398.595	603.38
398.82	587.38
399.044	601.38
399.268	604.38
399.492	631.38
399.717	668.38
399.941	636.38
400.165	615.38
400.389	561.38
400.613	539.38
400.837	531.38
401.062	531.38
401.286	517.38
401.51	538.38
401.734	514.38
401.958	497.38
402.182	495.38
402.406	490.38
402.63	505.38
402.854	526.38
403.078	510.38
403.302	511.38
403.526	546.38
403.75	508.38
403.974	529.38
404.198	515.38
404.422	525.38
404.645	541.38
404.869	528.38
405.093	513.38
405.317	515.38
405.541	543.38
405.765	499.38
405.988	523.38
406.212	522.38
406.436	516.38
406.66	548.38
406.883	543.38
407.107	544.38
407.331	543.38
407.555	548.38
407.778	537.38
408.002	560.38
408.226	553.38
408.449	555.38
408.673	512.38
408.896	523.38
409.12	509.38
409.344	505.38
409.567	522.38
409.791	501.38
410.014	530.38
410.238	519.38
410.461	498.38
410.685	492.38
410.908	526.38
411.132	532.38
411.355	508.38
411.578	500.38
411.802	503.38
412.025	506.38
412.249	497.38
412.472	518.38
412.695	509.38
412.919	478.38
413.142	485.38
413.365	489.38
413.589	488.38
413.812	493.38
414.035	493.38
414.258	485.38
414.482	487.38
414.705	507.38
414.928	522.38
415.151	489.38
415.374	482.38
415.597	493.38
415.821	481.38
416.044	492.38
416.267	474.38
416.49	498.38
416.713	486.38
416.936	477.38
417.159	491.38
417.382	487.38
417.605	491.38
417.828	518.38
418.051	507.38
418.274	502.38
418.497	502.38
418.72	506.38
418.943	510.38
419.166	510.38
419.389	530.38
419.611	526.38
419.834	549.38
420.057	530.38
420.28	485.38
420.503	489.38
420.726	505.38
420.948	475.38
421.171	482.38
421.394	480.38
421.617	513.38
421.839	524.38
422.062	514.38
422.285	477.38
422.507	509.38
422.73	520.38
422.953	515.38
423.175	512.38
423.398	526.38
423.621	526.38
423.843	525.38
424.066	522.38
424.288	533.38
424.511	510.38
424.733	503.38
424.956	516.38
425.178	518.38
425.401	509.38
425.623	513.38
425.846	490.38
426.068	477.38
426.291	497.38
426.513	487.38
426.735	465.38
426.958	497.38
427.18	486.38
427.402	487.38
427.625	467.38
427.847	466.38
428.069	478.38
428.292	460.38
428.514	481.38
428.736	467.38
428.958	457.38
429.181	483.38
429.403	484.38
429.625	455.38
429.847	449.38
430.069	481.38
430.292	478.38
430.514	453.38
430.736	481.38
430.958	471.38
431.18	459.38
431.402	460.38
431.624	449.38
431.846	442.38
432.068	441.38
432.29	446.38
432.512	459.38
432.734	461.38
432.956	467.38
433.178	485.38
433.4	476.38
433.622	486.38
433.844	471.38
434.066	453.38
434.287	467.38
434.509	447.38
434.731	453.38
434.953	473.38
435.175	494.38
435.397	512.38
435.618	477.38
435.84	452.38
436.062	451.38
436.284	483.38
436.505	501.38
436.727	456.38
436.949	458.38
437.17	495.38
437.392	477.38
437.614	445.38
437.835	422.38
438.057	432.38
438.278	461.38
438.5	471.38
438.721	475.38
438.943	493.38
439.165	499.38
439.386	474.38
439.608	487.38
439.829	491.38
440.05	498.38
440.272	497.38
440.493	487.38
440.715	486.38
440.936	492.38
441.158	499.38
441.379	525.38
441.6	535.38
441.822	535.38
442.043	509.38
442.264	513.38
442.486	503.38
442.707	521.38
442.928	515.38
443.149	506.38
443.371	529.38
443.592	510.38
443.813	525.38
444.034	527.38
444.255	509.38
444.476	555.38
444.698	532.38
444.919	556.38
445.14	723.38
445.361	619.38
445.582	521.38
445.803	506.38
446.024	507.38
446.245	523.38
446.466	513.38
446.687	490.38
446.908	505.38
447.129	513.38
447.35	511.38
447.571	511.38
447.792	493.38
448.013	501.38
448.234	503.38
448.455	476.38
448.675	489.38
448.896	469.38
449.117	490.38
449.338	472.38
449.559	483.38
449.779	498.38
450	440.38
450.221	468.38
450.442	467.38
450.662	487.38
450.883	468.38
451.104	451.38
451.324	477.38
451.545	462.38
451.766	458.38
451.986	450.38
452.207	459.38
452.428	451.38
452.648	470.38
452.869	457.38
453.089	465.38
453.31	444.38
453.53	453.38
453.751	460.38
453.971	454.38
454.192	443.38
454.412	441.38
454.633	438.38
454.853	423.38
455.073	445.38
455.294	434.38
455.514	437.38
455.734	443.38
455.955	427.38
456.175	423.38
456.395	423.38
456.616	399.38
456.836	446.38
457.056	423.38
457.276	397.38
457.497	436.38
457.717	409.38
457.937	411.38
458.157	426.38
458.377	406.38
458.598	405.38
458.818	397.38
459.038	419.38
459.258	414.38
459.478	423.38
459.698	437.38
459.918	442.38
460.138	470.38
460.358	485.38
460.578	481.38
460.798	486.38
461.018	495.38
461.238	478.38
461.458	487.38
461.678	466.38
461.898	475.38
462.118	492.38
462.338	518.38
462.558	533.38
462.777	528.38
462.997	567.38
463.217	559.38
463.437	535.38
463.657	561.38
463.876	518.38
464.096	544.38
464.316	532.38
464.536	557.38
464.755	543.38
464.975	535.38
465.195	531.38
465.414	498.38
465.634	523.38
465.854	497.38
466.073	525.38
466.293	560.38
466.512	605.38
466.732	606.38
466.951	586.38
467.171	534.38
467.391	538.38
467.61	532.38
467.829	522.38
468.049	513.38
468.268	477.38
468.488	479.38
468.707	480.38
468.927	474.38
469.146	476.38
469.365	493.38
469.585	485.38
469.804	505.38
470.023	480.38
470.243	494.38
470.462	489.38
470.681	494.38
470.901	499.38
471.12	479.38
471.339	462.38
471.558	488.38
471.777	507.38
471.997	477.38
472.216	482.38
472.435	478.38
472.654	459.38
472.873	477.38
473.092	482.38
473.311	498.38
473.53	522.38
473.749	553.38
473.968	547.38
474.187	569.38
474.406	540.38
474.625	583.38
474.844	596.38
475.063	565.38
475.282	545.38
475.501	486.38
475.72	511.38
475.939	485.38
476.158	489.38
476.377	486.38
476.596	475.38
476.814	470.38
477.033	452.38
477.252	461.38
477.471	476.38
477.69	467.38
477.908	466.38
478.127	504.38
478.346	529.38
478.564	529.38
478.783	497.38
479.002	521.38
479.22	543.38
479.439	525.38
479.658	497.38
479.876	494.38
480.095	505.38
480.313	497.38
480.532	527.38
480.751	498.38
480.969	479.38
481.188	463.38
481.406	459.38
481.624	444.38
481.843	461.38
482.061	479.38
482.28	478.38
482.498	444.38
482.717	487.38
482.935	480.38
483.153	503.38
483.372	515.38
483.59	521.38
483.808	500.38
484.027	497.38
484.245	533.38
484.463	583.38
484.681	586.38
484.9	570.38
485.118	553.38
485.336	555.38
485.554	528.38
485.772	515.38
485.99	519.38
486.209	514.38
486.427	529.38
486.645	539.38
486.863	583.38
487.081	564.38
487.299	557.38
487.517	564.38
487.735	579.38
487.953	624.38
488.171	585.38
488.389	574.38
488.607	557.38
488.825	521.38
489.043	530.38
489.261	553.38
489.479	531.38
489.696	515.38
489.914	555.38
490.132	547.38
490.35	576.38
490.568	560.38
490.786	581.38
491.003	598.38
491.221	600.38
491.439	592.38
491.657	597.38
491.874	630.38
492.092	632.38
492.31	643.38
492.527	642.38
492.745	607.38
492.963	617.38
493.18	598.38
493.398	571.38
493.615	587.38
493.833	581.38
494.05	575.38
494.268	558.38
494.485	587.38
494.703	564.38
494.92	558.38
495.138	556.38
495.355	588.38
495.573	563.38
495.79	569.38
496.008	601.38
496.225	574.38
496.442	605.38
496.66	590.38
496.877	578.38
497.094	596.38
497.312	578.38
497.529	602.38
497.746	589.38
497.963	570.38
498.181	581.38
498.398	597.38
498.615	605.38
498.832	618.38
499.049	655.38
499.267	702.38
499.484	700.38
499.701	781.38
499.918	804.38
500.135	844.38
500.352	903.38
500.569	929.38
500.786	930.38
501.003	897.38
501.22	850.38
501.437	792.38
501.654	738.38
501.871	700.38
502.088	676.38
502.305	662.38
502.522	634.38
