Data from SampC_HRD10591_00077.txt Node
Date: Mon Jan 19 11:37:55 EST 2026
User: Yrep
Spectrometer: HR+D1059
Trigger mode: 0
Integration Time (sec): 3.443000E-1
Scans to average: 1
Electric dark correction enabled: true
Nonlinearity correction enabled: false
Boxcar width: 0
XAxis mode: Wavelengths
Number of Pixels in Spectrum: 2048
>>>>>Begin Spectral Data<<<<<
223.165	-20.81
223.4	-20.81
223.635	-20.81
223.869	-16.81
224.104	-23.81
224.338	-13.81
224.573	-14.81
224.808	-1.81
225.042	1.19
225.277	-4.81
225.511	-1.81
225.746	10.19
225.98	8.19
226.215	12.19
226.449	21.19
226.683	9.19
226.918	-0.81
227.152	37.19
227.387	34.19
227.621	60.19
227.856	52.19
228.09	48.19
228.324	37.19
228.559	74.19
228.793	70.19
229.027	90.19
229.262	112.19
229.496	97.19
229.73	100.19
229.964	113.19
230.199	99.19
230.433	113.19
230.667	118.19
230.901	110.19
231.136	117.19
231.37	128.19
231.604	134.19
231.838	142.19
232.072	131.19
232.306	139.19
232.541	137.19
232.775	111.19
233.009	111.19
233.243	132.19
233.477	126.19
233.711	124.19
233.945	126.19
234.179	120.19
234.413	142.19
234.647	140.19
234.881	140.19
235.115	140.19
235.349	144.19
235.583	132.19
235.817	142.19
236.051	154.19
236.285	153.19
236.519	175.19
236.753	196.19
236.987	250.19
237.221	279.19
237.455	306.19
237.689	293.19
237.922	236.19
238.156	182.19
238.39	173.19
238.624	153.19
238.858	132.19
239.091	157.19
239.325	124.19
239.559	150.19
239.793	125.19
240.027	151.19
240.26	122.19
240.494	125.19
240.728	131.19
240.961	126.19
241.195	136.19
241.429	119.19
241.662	132.19
241.896	131.19
242.13	133.19
242.363	111.19
242.597	143.19
242.83	128.19
243.064	138.19
243.298	134.19
243.531	125.19
243.765	140.19
243.998	138.19
244.232	141.19
244.465	139.19
244.699	132.19
244.932	134.19
245.166	145.19
245.399	151.19
245.633	146.19
245.866	143.19
246.099	147.19
246.333	162.19
246.566	160.19
246.8	141.19
247.033	157.19
247.266	161.19
247.5	149.19
247.733	145.19
247.966	159.19
248.2	150.19
248.433	158.19
248.666	165.19
248.899	160.19
249.133	170.19
249.366	160.19
249.599	171.19
249.832	159.19
250.066	167.19
250.299	153.19
250.532	163.19
250.765	150.19
250.998	173.19
251.231	175.19
251.465	162.19
251.698	173.19
251.931	159.19
252.164	170.19
252.397	165.19
252.63	165.19
252.863	171.19
253.096	174.19
253.329	178.19
253.562	166.19
253.795	199.19
254.028	177.19
254.261	159.19
254.494	173.19
254.727	166.19
254.96	172.19
255.193	184.19
255.426	178.19
255.659	184.19
255.892	218.19
256.124	193.19
256.357	199.19
256.59	237.19
256.823	275.19
257.056	352.19
257.289	342.19
257.521	351.19
257.754	445.19
257.987	410.19
258.22	292.19
258.452	254.19
258.685	218.19
258.918	219.19
259.151	202.19
259.383	214.19
259.616	205.19
259.849	213.19
260.081	226.19
260.314	196.19
260.547	198.19
260.779	209.19
261.012	216.19
261.244	195.19
261.477	202.19
261.71	194.19
261.942	198.19
262.175	219.19
262.407	214.19
262.64	241.19
262.872	257.19
263.105	277.19
263.337	323.19
263.57	342.19
263.802	314.19
264.035	269.19
264.267	260.19
264.499	254.19
264.732	255.19
264.964	259.19
265.197	272.19
265.429	336.19
265.661	319.19
265.894	324.19
266.126	349.19
266.358	379.19
266.591	320.19
266.823	258.19
267.055	259.19
267.287	230.19
267.52	233.19
267.752	223.19
267.984	232.19
268.216	225.19
268.448	230.19
268.681	223.19
268.913	225.19
269.145	200.19
269.377	210.19
269.609	217.19
269.841	213.19
270.073	215.19
270.306	226.19
270.538	219.19
270.77	220.19
271.002	219.19
271.234	214.19
271.466	215.19
271.698	224.19
271.93	229.19
272.162	214.19
272.394	217.19
272.626	222.19
272.858	226.19
273.09	224.19
273.322	227.19
273.553	233.19
273.785	228.19
274.017	233.19
274.249	243.19
274.481	235.19
274.713	241.19
274.945	240.19
275.176	262.19
275.408	230.19
275.64	260.19
275.872	251.19
276.104	263.19
276.335	243.19
276.567	258.19
276.799	241.19
277.031	275.19
277.262	269.19
277.494	255.19
277.726	290.19
277.957	304.19
278.189	321.19
278.421	322.19
278.652	352.19
278.884	402.19
279.115	531.19
279.347	762.19
279.579	1070.19
279.81	1240.19
280.042	988.19
280.273	921.19
280.505	909.19
280.736	561.19
280.968	429.19
281.199	416.19
281.431	520.19
281.662	688.19
281.894	802.19
282.125	602.19
282.356	485.19
282.588	407.19
282.819	364.19
283.051	348.19
283.282	319.19
283.513	308.19
283.745	317.19
283.976	309.19
284.207	297.19
284.439	304.19
284.67	297.19
284.901	331.19
285.132	392.19
285.364	432.19
285.595	387.19
285.826	313.19
286.057	286.19
286.288	286.19
286.52	269.19
286.751	291.19
286.982	277.19
287.213	276.19
287.444	279.19
287.675	287.19
287.906	279.19
288.138	320.19
288.369	308.19
288.6	278.19
288.831	285.19
289.062	285.19
289.293	270.19
289.524	276.19
289.755	292.19
289.986	271.19
290.217	292.19
290.448	286.19
290.679	279.19
290.91	290.19
291.141	307.19
291.371	312.19
291.602	318.19
291.833	295.19
292.064	299.19
292.295	322.19
292.526	320.19
292.757	342.19
292.987	340.19
293.218	319.19
293.449	332.19
293.68	337.19
293.91	348.19
294.141	350.19
294.372	297.19
294.603	308.19
294.833	302.19
295.064	300.19
295.295	290.19
295.525	283.19
295.756	309.19
295.987	297.19
296.217	304.19
296.448	280.19
296.679	285.19
296.909	312.19
297.14	309.19
297.37	289.19
297.601	283.19
297.831	296.19
298.062	310.19
298.292	297.19
298.523	310.19
298.753	318.19
298.984	302.19
299.214	304.19
299.445	308.19
299.675	327.19
299.905	319.19
300.136	321.19
300.366	311.19
300.597	331.19
300.827	345.19
301.057	335.19
301.288	323.19
301.518	338.19
301.748	336.19
301.979	371.19
302.209	360.19
302.439	355.19
302.669	365.19
302.9	379.19
303.13	380.19
303.36	374.19
303.59	383.19
303.82	387.19
304.051	408.19
304.281	463.19
304.511	443.19
304.741	477.19
304.971	578.19
305.201	703.19
305.431	780.19
305.661	871.19
305.891	961.19
306.121	854.19
306.352	787.19
306.582	805.19
306.812	786.19
307.042	721.19
307.272	678.19
307.502	762.19
307.731	1043.19
307.961	1530.19
308.191	2302.19
308.421	2714.19
308.651	2160.19
308.881	1934.19
309.111	2548.19
309.341	3346.19
309.571	3157.19
309.8	1856.19
310.03	1184.19
310.26	876.19
310.49	702.19
310.72	622.19
310.949	563.19
311.179	518.19
311.409	518.19
311.639	495.19
311.868	457.19
312.098	447.19
312.328	441.19
312.557	430.19
312.787	423.19
313.017	403.19
313.246	412.19
313.476	377.19
313.706	404.19
313.935	395.19
314.165	395.19
314.394	382.19
314.624	380.19
314.853	359.19
315.083	369.19
315.312	369.19
315.542	358.19
315.771	366.19
316.001	341.19
316.23	371.19
316.46	377.19
316.689	352.19
316.919	343.19
317.148	352.19
317.377	366.19
317.607	338.19
317.836	340.19
318.065	359.19
318.295	353.19
318.524	351.19
318.753	350.19
318.983	350.19
319.212	363.19
319.441	358.19
319.67	344.19
319.9	362.19
320.129	348.19
320.358	367.19
320.587	359.19
320.816	346.19
321.046	344.19
321.275	355.19
321.504	335.19
321.733	338.19
321.962	360.19
322.191	353.19
322.42	354.19
322.649	342.19
322.878	363.19
323.108	351.19
323.337	373.19
323.566	348.19
323.795	351.19
324.024	374.19
324.253	380.19
324.482	357.19
324.71	359.19
324.939	380.19
325.168	382.19
325.397	380.19
325.626	373.19
325.855	360.19
326.084	359.19
326.313	377.19
326.542	339.19
326.77	367.19
326.999	361.19
327.228	362.19
327.457	351.19
327.686	368.19
327.914	360.19
328.143	375.19
328.372	365.19
328.6	372.19
328.829	382.19
329.058	362.19
329.287	356.19
329.515	357.19
329.744	360.19
329.972	360.19
330.201	355.19
330.43	370.19
330.658	365.19
330.887	370.19
331.115	390.19
331.344	374.19
331.572	390.19
331.801	373.19
332.03	382.19
332.258	387.19
332.486	395.19
332.715	412.19
332.943	410.19
333.172	425.19
333.4	417.19
333.629	414.19
333.857	412.19
334.085	440.19
334.314	446.19
334.542	400.19
334.771	416.19
334.999	442.19
335.227	419.19
335.455	416.19
335.684	418.19
335.912	411.19
336.14	398.19
336.369	418.19
336.597	410.19
336.825	414.19
337.053	399.19
337.281	417.19
337.51	399.19
337.738	402.19
337.966	369.19
338.194	391.19
338.422	387.19
338.65	419.19
338.878	419.19
339.106	370.19
339.334	375.19
339.562	372.19
339.79	381.19
340.018	384.19
340.246	378.19
340.474	375.19
340.702	376.19
340.93	380.19
341.158	410.19
341.386	399.19
341.614	391.19
341.842	382.19
342.07	373.19
342.298	378.19
342.526	371.19
342.754	402.19
342.981	392.19
343.209	401.19
343.437	421.19
343.665	394.19
343.893	432.19
344.12	447.19
344.348	439.19
344.576	399.19
344.804	403.19
345.031	371.19
345.259	371.19
345.487	383.19
345.714	370.19
345.942	383.19
346.17	405.19
346.397	376.19
346.625	369.19
346.853	376.19
347.08	373.19
347.308	384.19
347.535	387.19
347.763	386.19
347.99	418.19
348.218	382.19
348.445	382.19
348.673	396.19
348.9	407.19
349.128	394.19
349.355	396.19
349.583	398.19
349.81	396.19
350.037	403.19
350.265	387.19
350.492	388.19
350.72	385.19
350.947	408.19
351.174	394.19
351.402	419.19
351.629	422.19
351.856	390.19
352.083	396.19
352.311	426.19
352.538	414.19
352.765	432.19
352.992	423.19
353.22	406.19
353.447	446.19
353.674	464.19
353.901	469.19
354.128	450.19
354.355	448.19
354.583	469.19
354.81	476.19
355.037	487.19
355.264	500.19
355.491	514.19
355.718	509.19
355.945	522.19
356.172	546.19
356.399	562.19
356.626	590.19
356.853	628.19
357.08	660.19
357.307	675.19
357.534	692.19
357.761	790.19
357.988	899.19
358.215	1076.19
358.441	1283.19
358.668	1457.19
358.895	1385.19
359.122	1125.19
359.349	909.19
359.576	798.19
359.802	718.19
360.029	666.19
360.256	659.19
360.483	628.19
360.709	615.19
360.936	601.19
361.163	563.19
361.39	560.19
361.616	572.19
361.843	538.19
362.07	540.19
362.296	510.19
362.523	515.19
362.749	472.19
362.976	493.19
363.203	488.19
363.429	488.19
363.656	484.19
363.882	467.19
364.109	446.19
364.335	460.19
364.562	476.19
364.788	452.19
365.015	455.19
365.241	434.19
365.468	430.19
365.694	439.19
365.92	458.19
366.147	418.19
366.373	432.19
366.599	444.19
366.826	415.19
367.052	430.19
367.278	412.19
367.505	419.19
367.731	436.19
367.957	435.19
368.184	424.19
368.41	429.19
368.636	428.19
368.862	442.19
369.089	423.19
369.315	442.19
369.541	446.19
369.767	422.19
369.993	425.19
370.219	426.19
370.445	435.19
370.672	451.19
370.898	432.19
371.124	436.19
371.35	436.19
371.576	448.19
371.802	458.19
372.028	450.19
372.254	440.19
372.48	437.19
372.706	462.19
372.932	461.19
373.158	470.19
373.384	448.19
373.61	466.19
373.835	472.19
374.061	442.19
374.287	458.19
374.513	446.19
374.739	438.19
374.965	448.19
375.191	458.19
375.416	444.19
375.642	448.19
375.868	477.19
376.094	448.19
376.319	429.19
376.545	452.19
376.771	429.19
376.997	413.19
377.222	431.19
377.448	439.19
377.674	426.19
377.899	407.19
378.125	413.19
378.35	437.19
378.576	428.19
378.802	423.19
379.027	412.19
379.253	445.19
379.478	435.19
379.704	420.19
379.929	442.19
380.155	422.19
380.38	423.19
380.606	440.19
380.831	453.19
381.057	455.19
381.282	456.19
381.507	470.19
381.733	466.19
381.958	451.19
382.184	490.19
382.409	498.19
382.634	526.19
382.86	538.19
383.085	585.19
383.31	598.19
383.535	611.19
383.761	641.19
383.986	657.19
384.211	570.19
384.436	524.19
384.662	496.19
384.887	495.19
385.112	506.19
385.337	505.19
385.562	498.19
385.787	523.19
386.013	523.19
386.238	512.19
386.463	509.19
386.688	543.19
386.913	518.19
387.138	529.19
387.363	514.19
387.588	514.19
387.813	519.19
388.038	526.19
388.263	515.19
388.488	526.19
388.713	494.19
388.938	524.19
389.163	495.19
389.387	516.19
389.612	510.19
389.837	541.19
390.062	538.19
390.287	511.19
390.512	546.19
390.736	526.19
390.961	543.19
391.186	536.19
391.411	558.19
391.636	536.19
391.86	589.19
392.085	592.19
392.31	590.19
392.534	612.19
392.759	627.19
392.984	644.19
393.208	746.19
393.433	864.19
393.658	911.19
393.882	1138.19
394.107	1908.19
394.331	3683.19
394.556	5101.19
394.78	3195.19
395.005	1713.19
395.229	1319.19
395.454	1321.19
395.678	1672.19
395.903	3034.19
396.127	5588.19
396.352	6684.19
396.576	3723.19
396.801	1939.19
397.025	1390.19
397.249	1111.19
397.474	978.19
397.698	847.19
397.922	813.19
398.147	799.19
398.371	774.19
398.595	738.19
398.82	709.19
399.044	730.19
399.268	752.19
399.492	748.19
399.717	768.19
399.941	783.19
400.165	727.19
400.389	652.19
400.613	647.19
400.837	636.19
401.062	609.19
401.286	609.19
401.51	613.19
401.734	605.19
401.958	612.19
402.182	605.19
402.406	597.19
402.63	584.19
402.854	594.19
403.078	596.19
403.302	611.19
403.526	620.19
403.75	606.19
403.974	626.19
404.198	626.19
404.422	632.19
404.645	628.19
404.869	595.19
405.093	610.19
405.317	620.19
405.541	624.19
405.765	627.19
405.988	612.19
406.212	623.19
406.436	635.19
406.66	637.19
406.883	613.19
407.107	647.19
407.331	653.19
407.555	645.19
407.778	640.19
408.002	652.19
408.226	639.19
408.449	640.19
408.673	630.19
408.896	594.19
409.12	596.19
409.344	588.19
409.567	616.19
409.791	616.19
410.014	587.19
410.238	592.19
410.461	600.19
410.685	609.19
410.908	597.19
411.132	592.19
411.355	599.19
411.578	595.19
411.802	588.19
412.025	593.19
412.249	614.19
412.472	586.19
412.695	578.19
412.919	578.19
413.142	574.19
413.365	566.19
413.589	578.19
413.812	560.19
414.035	588.19
414.258	577.19
414.482	572.19
414.705	571.19
414.928	579.19
415.151	588.19
415.374	566.19
415.597	562.19
415.821	594.19
416.044	575.19
416.267	566.19
416.49	575.19
416.713	547.19
416.936	582.19
417.159	567.19
417.382	578.19
417.605	573.19
417.828	580.19
418.051	566.19
418.274	577.19
418.497	591.19
418.72	575.19
418.943	588.19
419.166	597.19
419.389	619.19
419.611	631.19
419.834	593.19
420.057	593.19
420.28	591.19
420.503	587.19
420.726	577.19
420.948	575.19
421.171	572.19
421.394	574.19
421.617	594.19
421.839	582.19
422.062	598.19
422.285	583.19
422.507	602.19
422.73	617.19
422.953	639.19
423.175	577.19
423.398	574.19
423.621	565.19
423.843	613.19
424.066	593.19
424.288	596.19
424.511	604.19
424.733	586.19
424.956	585.19
425.178	603.19
425.401	591.19
425.623	578.19
425.846	580.19
426.068	580.19
426.291	570.19
426.513	567.19
426.735	550.19
426.958	561.19
427.18	562.19
427.402	573.19
427.625	566.19
427.847	546.19
428.069	529.19
428.292	549.19
428.514	571.19
428.736	540.19
428.958	549.19
429.181	556.19
429.403	539.19
429.625	533.19
429.847	558.19
430.069	561.19
430.292	547.19
430.514	528.19
430.736	560.19
430.958	590.19
431.18	550.19
431.402	526.19
431.624	532.19
431.846	504.19
432.068	507.19
432.29	510.19
432.512	535.19
432.734	526.19
432.956	556.19
433.178	562.19
433.4	550.19
433.622	559.19
433.844	570.19
434.066	569.19
434.287	541.19
434.509	538.19
434.731	532.19
434.953	567.19
435.175	585.19
435.397	558.19
435.618	528.19
435.84	513.19
436.062	530.19
436.284	548.19
436.505	535.19
436.727	548.19
436.949	547.19
437.17	534.19
437.392	527.19
437.614	535.19
437.835	512.19
438.057	509.19
438.278	499.19
438.5	544.19
438.721	548.19
438.943	558.19
439.165	536.19
439.386	564.19
439.608	584.19
439.829	563.19
440.05	578.19
440.272	580.19
440.493	576.19
440.715	594.19
440.936	608.19
441.158	612.19
441.379	609.19
441.6	616.19
441.822	601.19
442.043	598.19
442.264	594.19
442.486	608.19
442.707	608.19
442.928	606.19
443.149	629.19
443.371	598.19
443.592	595.19
443.813	601.19
444.034	592.19
444.255	630.19
444.476	634.19
444.698	646.19
444.919	636.19
445.14	842.19
445.361	704.19
445.582	615.19
445.803	608.19
446.024	600.19
446.245	616.19
446.466	587.19
446.687	597.19
446.908	588.19
447.129	601.19
447.35	576.19
447.571	578.19
447.792	559.19
448.013	578.19
448.234	570.19
448.455	582.19
448.675	570.19
448.896	557.19
449.117	540.19
449.338	546.19
449.559	543.19
449.779	534.19
450	540.19
450.221	540.19
450.442	548.19
450.662	543.19
450.883	547.19
451.104	551.19
451.324	519.19
451.545	519.19
451.766	541.19
451.986	537.19
452.207	552.19
452.428	546.19
452.648	564.19
452.869	556.19
453.089	555.19
453.31	548.19
453.53	513.19
453.751	531.19
453.971	542.19
454.192	556.19
454.412	515.19
454.633	520.19
454.853	531.19
455.073	512.19
455.294	524.19
455.514	516.19
455.734	509.19
455.955	532.19
456.175	487.19
456.395	481.19
456.616	482.19
456.836	473.19
457.056	502.19
457.276	469.19
457.497	483.19
457.717	461.19
457.937	481.19
458.157	496.19
458.377	479.19
458.598	471.19
458.818	481.19
459.038	456.19
459.258	491.19
459.478	496.19
459.698	518.19
459.918	531.19
460.138	525.19
460.358	560.19
460.578	581.19
460.798	586.19
461.018	563.19
461.238	564.19
461.458	578.19
461.678	576.19
461.898	599.19
462.118	572.19
462.338	619.19
462.558	637.19
462.777	642.19
462.997	676.19
463.217	657.19
463.437	645.19
463.657	656.19
463.876	635.19
464.096	635.19
464.316	633.19
464.536	658.19
464.755	628.19
464.975	643.19
465.195	644.19
465.414	629.19
465.634	595.19
465.854	620.19
466.073	645.19
466.293	674.19
466.512	758.19
466.732	741.19
466.951	670.19
467.171	681.19
467.391	671.19
467.61	613.19
467.829	596.19
468.049	616.19
468.268	573.19
468.488	554.19
468.707	565.19
468.927	571.19
469.146	561.19
469.365	580.19
469.585	552.19
469.804	598.19
470.023	590.19
470.243	594.19
470.462	588.19
470.681	610.19
470.901	577.19
471.12	590.19
471.339	571.19
471.558	590.19
471.777	590.19
471.997	571.19
472.216	554.19
472.435	531.19
472.654	539.19
472.873	550.19
473.092	567.19
473.311	598.19
473.53	654.19
473.749	690.19
473.968	690.19
474.187	671.19
474.406	689.19
474.625	718.19
474.844	731.19
475.063	707.19
475.282	654.19
475.501	578.19
475.72	604.19
475.939	596.19
476.158	580.19
476.377	588.19
476.596	555.19
476.814	563.19
477.033	531.19
477.252	550.19
477.471	557.19
477.69	563.19
477.908	578.19
478.127	623.19
478.346	577.19
478.564	592.19
478.783	599.19
479.002	607.19
479.22	627.19
479.439	628.19
479.658	584.19
479.876	588.19
480.095	580.19
480.313	599.19
480.532	593.19
480.751	603.19
480.969	564.19
481.188	560.19
481.406	549.19
481.624	536.19
481.843	539.19
482.061	528.19
482.28	532.19
482.498	537.19
482.717	538.19
482.935	560.19
483.153	588.19
483.372	608.19
483.59	576.19
483.808	567.19
484.027	606.19
484.245	620.19
484.463	680.19
484.681	698.19
484.9	679.19
485.118	668.19
485.336	629.19
485.554	646.19
485.772	623.19
485.99	632.19
486.209	615.19
486.427	629.19
486.645	662.19
486.863	719.19
487.081	710.19
487.299	676.19
487.517	718.19
487.735	727.19
487.953	728.19
488.171	731.19
488.389	690.19
488.607	643.19
488.825	625.19
489.043	645.19
489.261	659.19
489.479	639.19
489.696	659.19
489.914	643.19
490.132	670.19
490.35	674.19
490.568	668.19
490.786	680.19
491.003	680.19
491.221	691.19
491.439	712.19
491.657	719.19
491.874	708.19
492.092	774.19
492.31	770.19
492.527	754.19
492.745	725.19
492.963	729.19
493.18	693.19
493.398	693.19
493.615	711.19
493.833	686.19
494.05	675.19
494.268	688.19
494.485	688.19
494.703	696.19
494.92	658.19
495.138	661.19
495.355	673.19
495.573	667.19
495.79	702.19
496.008	672.19
496.225	678.19
496.442	665.19
496.66	692.19
496.877	696.19
497.094	700.19
497.312	679.19
497.529	664.19
497.746	706.19
497.963	694.19
498.181	692.19
498.398	699.19
498.615	728.19
498.832	744.19
499.049	776.19
499.267	823.19
499.484	854.19
499.701	917.19
499.918	977.19
500.135	1053.19
500.352	1085.19
500.569	1096.19
500.786	1068.19
501.003	1073.19
501.22	995.19
501.437	945.19
501.654	896.19
501.871	819.19
502.088	810.19
502.305	767.19
