Data from SampC_HRD10591_00095.txt Node
Date: Mon Jan 19 11:38:02 EST 2026
User: Yrep
Spectrometer: HR+D1059
Trigger mode: 0
Integration Time (sec): 3.443000E-1
Scans to average: 1
Electric dark correction enabled: true
Nonlinearity correction enabled: false
Boxcar width: 0
XAxis mode: Wavelengths
Number of Pixels in Spectrum: 2048
>>>>>Begin Spectral Data<<<<<
223.165	-21.75
223.4	-21.75
223.635	-21.75
223.869	-25.75
224.104	-36.75
224.338	-21.75
224.573	-4.75
224.808	-6.75
225.042	-4.75
225.277	9.25
225.511	16.25
225.746	-4.75
225.98	0.25
226.215	10.25
226.449	11.25
226.683	17.25
226.918	24.25
227.152	38.25
227.387	37.25
227.621	46.25
227.856	56.25
228.09	45.25
228.324	43.25
228.559	60.25
228.793	69.25
229.027	89.25
229.262	91.25
229.496	107.25
229.73	99.25
229.964	105.25
230.199	93.25
230.433	90.25
230.667	106.25
230.901	110.25
231.136	108.25
231.37	115.25
231.604	133.25
231.838	124.25
232.072	127.25
232.306	143.25
232.541	123.25
232.775	143.25
233.009	137.25
233.243	111.25
233.477	119.25
233.711	113.25
233.945	109.25
234.179	109.25
234.413	116.25
234.647	133.25
234.881	124.25
235.115	119.25
235.349	125.25
235.583	135.25
235.817	138.25
236.051	122.25
236.285	147.25
236.519	156.25
236.753	198.25
236.987	214.25
237.221	243.25
237.455	270.25
237.689	236.25
237.922	198.25
238.156	161.25
238.39	151.25
238.624	135.25
238.858	131.25
239.091	125.25
239.325	121.25
239.559	128.25
239.793	110.25
240.027	130.25
240.26	123.25
240.494	118.25
240.728	112.25
240.961	121.25
241.195	128.25
241.429	119.25
241.662	128.25
241.896	126.25
242.13	115.25
242.363	117.25
242.597	123.25
242.83	127.25
243.064	129.25
243.298	112.25
243.531	119.25
243.765	126.25
243.998	132.25
244.232	132.25
244.465	138.25
244.699	135.25
244.932	121.25
245.166	127.25
245.399	126.25
245.633	144.25
245.866	131.25
246.099	144.25
246.333	140.25
246.566	125.25
246.8	130.25
247.033	137.25
247.266	137.25
247.5	135.25
247.733	131.25
247.966	135.25
248.2	147.25
248.433	151.25
248.666	149.25
248.899	152.25
249.133	132.25
249.366	134.25
249.599	153.25
249.832	124.25
250.066	149.25
250.299	156.25
250.532	128.25
250.765	132.25
250.998	143.25
251.231	146.25
251.465	155.25
251.698	153.25
251.931	163.25
252.164	148.25
252.397	152.25
252.63	141.25
252.863	156.25
253.096	156.25
253.329	151.25
253.562	145.25
253.795	161.25
254.028	163.25
254.261	152.25
254.494	156.25
254.727	143.25
254.96	174.25
255.193	163.25
255.426	170.25
255.659	162.25
255.892	182.25
256.124	173.25
256.357	204.25
256.59	212.25
256.823	253.25
257.056	294.25
257.289	312.25
257.521	304.25
257.754	369.25
257.987	367.25
258.22	266.25
258.452	205.25
258.685	197.25
258.918	193.25
259.151	191.25
259.383	171.25
259.616	170.25
259.849	179.25
260.081	169.25
260.314	176.25
260.547	172.25
260.779	192.25
261.012	182.25
261.244	178.25
261.477	180.25
261.71	187.25
261.942	180.25
262.175	182.25
262.407	187.25
262.64	198.25
262.872	211.25
263.105	239.25
263.337	252.25
263.57	270.25
263.802	265.25
264.035	234.25
264.267	220.25
264.499	204.25
264.732	233.25
264.964	231.25
265.197	229.25
265.429	272.25
265.661	273.25
265.894	274.25
266.126	297.25
266.358	314.25
266.591	269.25
266.823	238.25
267.055	186.25
267.287	194.25
267.52	199.25
267.752	204.25
267.984	191.25
268.216	186.25
268.448	192.25
268.681	202.25
268.913	201.25
269.145	194.25
269.377	206.25
269.609	165.25
269.841	223.25
270.073	191.25
270.306	194.25
270.538	194.25
270.77	192.25
271.002	195.25
271.234	194.25
271.466	209.25
271.698	190.25
271.93	191.25
272.162	189.25
272.394	202.25
272.626	190.25
272.858	186.25
273.09	202.25
273.322	192.25
273.553	197.25
273.785	213.25
274.017	190.25
274.249	201.25
274.481	205.25
274.713	214.25
274.945	223.25
275.176	212.25
275.408	217.25
275.64	212.25
275.872	212.25
276.104	212.25
276.335	233.25
276.567	217.25
276.799	230.25
277.031	211.25
277.262	234.25
277.494	250.25
277.726	246.25
277.957	271.25
278.189	275.25
278.421	296.25
278.652	286.25
278.884	316.25
279.115	426.25
279.347	611.25
279.579	845.25
279.81	932.25
280.042	743.25
280.273	709.25
280.505	712.25
280.736	467.25
280.968	354.25
281.199	364.25
281.431	425.25
281.662	567.25
281.894	599.25
282.125	487.25
282.356	389.25
282.588	314.25
282.819	291.25
283.051	289.25
283.282	276.25
283.513	281.25
283.745	275.25
283.976	253.25
284.207	253.25
284.439	263.25
284.67	277.25
284.901	297.25
285.132	338.25
285.364	372.25
285.595	326.25
285.826	261.25
286.057	233.25
286.288	250.25
286.52	257.25
286.751	257.25
286.982	238.25
287.213	229.25
287.444	242.25
287.675	239.25
287.906	252.25
288.138	259.25
288.369	267.25
288.6	253.25
288.831	243.25
289.062	257.25
289.293	243.25
289.524	237.25
289.755	256.25
289.986	239.25
290.217	246.25
290.448	254.25
290.679	255.25
290.91	259.25
291.141	241.25
291.371	270.25
291.602	256.25
291.833	255.25
292.064	257.25
292.295	266.25
292.526	284.25
292.757	262.25
292.987	278.25
293.218	286.25
293.449	282.25
293.68	298.25
293.91	276.25
294.141	281.25
294.372	263.25
294.603	271.25
294.833	275.25
295.064	258.25
295.295	267.25
295.525	231.25
295.756	261.25
295.987	256.25
296.217	254.25
296.448	266.25
296.679	272.25
296.909	263.25
297.14	267.25
297.37	265.25
297.601	265.25
297.831	246.25
298.062	259.25
298.292	259.25
298.523	265.25
298.753	254.25
298.984	269.25
299.214	259.25
299.445	271.25
299.675	281.25
299.905	275.25
300.136	277.25
300.366	289.25
300.597	271.25
300.827	293.25
301.057	289.25
301.288	285.25
301.518	302.25
301.748	298.25
301.979	331.25
302.209	295.25
302.439	326.25
302.669	285.25
302.9	310.25
303.13	333.25
303.36	367.25
303.59	339.25
303.82	347.25
304.051	366.25
304.281	376.25
304.511	408.25
304.741	430.25
304.971	498.25
305.201	601.25
305.431	639.25
305.661	731.25
305.891	738.25
306.121	720.25
306.352	667.25
306.582	674.25
306.812	654.25
307.042	589.25
307.272	593.25
307.502	638.25
307.731	871.25
307.961	1220.25
308.191	1707.25
308.421	2125.25
308.651	1703.25
308.881	1570.25
309.111	1965.25
309.341	2584.25
309.571	2402.25
309.8	1475.25
310.03	982.25
310.26	740.25
310.49	622.25
310.72	526.25
310.949	510.25
311.179	464.25
311.409	440.25
311.639	424.25
311.868	424.25
312.098	403.25
312.328	396.25
312.557	377.25
312.787	354.25
313.017	379.25
313.246	352.25
313.476	337.25
313.706	340.25
313.935	339.25
314.165	320.25
314.394	339.25
314.624	307.25
314.853	306.25
315.083	309.25
315.312	324.25
315.542	306.25
315.771	313.25
316.001	315.25
316.23	337.25
316.46	303.25
316.689	301.25
316.919	308.25
317.148	316.25
317.377	309.25
317.607	318.25
317.836	279.25
318.065	307.25
318.295	310.25
318.524	291.25
318.753	301.25
318.983	277.25
319.212	302.25
319.441	293.25
319.67	296.25
319.9	301.25
320.129	300.25
320.358	297.25
320.587	285.25
320.816	293.25
321.046	301.25
321.275	308.25
321.504	298.25
321.733	300.25
321.962	295.25
322.191	316.25
322.42	307.25
322.649	322.25
322.878	332.25
323.108	326.25
323.337	307.25
323.566	314.25
323.795	316.25
324.024	326.25
324.253	321.25
324.482	340.25
324.71	324.25
324.939	317.25
325.168	319.25
325.397	325.25
325.626	324.25
325.855	309.25
326.084	313.25
326.313	313.25
326.542	303.25
326.77	310.25
326.999	317.25
327.228	325.25
327.457	319.25
327.686	328.25
327.914	300.25
328.143	300.25
328.372	296.25
328.6	313.25
328.829	311.25
329.058	291.25
329.287	286.25
329.515	306.25
329.744	331.25
329.972	337.25
330.201	318.25
330.43	313.25
330.658	311.25
330.887	332.25
331.115	299.25
331.344	315.25
331.572	330.25
331.801	315.25
332.03	341.25
332.258	329.25
332.486	316.25
332.715	350.25
332.943	343.25
333.172	336.25
333.4	373.25
333.629	363.25
333.857	368.25
334.085	363.25
334.314	369.25
334.542	360.25
334.771	362.25
334.999	374.25
335.227	340.25
335.455	347.25
335.684	349.25
335.912	348.25
336.14	330.25
336.369	351.25
336.597	357.25
336.825	345.25
337.053	341.25
337.281	330.25
337.51	342.25
337.738	348.25
337.966	321.25
338.194	314.25
338.422	320.25
338.65	336.25
338.878	334.25
339.106	306.25
339.334	351.25
339.562	331.25
339.79	311.25
340.018	317.25
340.246	317.25
340.474	330.25
340.702	325.25
340.93	325.25
341.158	317.25
341.386	324.25
341.614	321.25
341.842	322.25
342.07	329.25
342.298	325.25
342.526	311.25
342.754	332.25
342.981	331.25
343.209	334.25
343.437	365.25
343.665	349.25
343.893	359.25
344.12	385.25
344.348	358.25
344.576	346.25
344.804	346.25
345.031	341.25
345.259	348.25
345.487	325.25
345.714	340.25
345.942	343.25
346.17	330.25
346.397	331.25
346.625	331.25
346.853	327.25
347.08	323.25
347.308	346.25
347.535	332.25
347.763	317.25
347.99	339.25
348.218	336.25
348.445	335.25
348.673	344.25
348.9	336.25
349.128	342.25
349.355	313.25
349.583	331.25
349.81	335.25
350.037	324.25
350.265	319.25
350.492	338.25
350.72	351.25
350.947	344.25
351.174	332.25
351.402	345.25
351.629	366.25
351.856	349.25
352.083	345.25
352.311	348.25
352.538	362.25
352.765	356.25
352.992	367.25
353.22	342.25
353.447	343.25
353.674	362.25
353.901	375.25
354.128	385.25
354.355	373.25
354.583	381.25
354.81	402.25
355.037	390.25
355.264	383.25
355.491	407.25
355.718	412.25
355.945	434.25
356.172	453.25
356.399	473.25
356.626	487.25
356.853	492.25
357.08	509.25
357.307	543.25
357.534	587.25
357.761	632.25
357.988	708.25
358.215	835.25
358.441	977.25
358.668	1097.25
358.895	1033.25
359.122	830.25
359.349	714.25
359.576	621.25
359.802	577.25
360.029	558.25
360.256	525.25
360.483	500.25
360.709	505.25
360.936	512.25
361.163	483.25
361.39	455.25
361.616	454.25
361.843	436.25
362.07	416.25
362.296	434.25
362.523	388.25
362.749	385.25
362.976	419.25
363.203	416.25
363.429	385.25
363.656	381.25
363.882	386.25
364.109	394.25
364.335	381.25
364.562	372.25
364.788	363.25
365.015	357.25
365.241	366.25
365.468	355.25
365.694	365.25
365.92	361.25
366.147	345.25
366.373	366.25
366.599	346.25
366.826	361.25
367.052	345.25
367.278	369.25
367.505	374.25
367.731	384.25
367.957	369.25
368.184	358.25
368.41	358.25
368.636	358.25
368.862	341.25
369.089	370.25
369.315	358.25
369.541	363.25
369.767	352.25
369.993	359.25
370.219	348.25
370.445	376.25
370.672	364.25
370.898	365.25
371.124	370.25
371.35	370.25
371.576	367.25
371.802	364.25
372.028	385.25
372.254	378.25
372.48	371.25
372.706	379.25
372.932	383.25
373.158	366.25
373.384	388.25
373.61	385.25
373.835	389.25
374.061	373.25
374.287	374.25
374.513	393.25
374.739	397.25
374.965	382.25
375.191	387.25
375.416	367.25
375.642	364.25
375.868	389.25
376.094	380.25
376.319	363.25
376.545	358.25
376.771	362.25
376.997	378.25
377.222	354.25
377.448	380.25
377.674	350.25
377.899	373.25
378.125	362.25
378.35	374.25
378.576	370.25
378.802	366.25
379.027	353.25
379.253	373.25
379.478	364.25
379.704	380.25
379.929	363.25
380.155	378.25
380.38	360.25
380.606	378.25
380.831	370.25
381.057	404.25
381.282	397.25
381.507	409.25
381.733	390.25
381.958	397.25
382.184	390.25
382.409	416.25
382.634	438.25
382.86	485.25
383.085	501.25
383.31	526.25
383.535	506.25
383.761	521.25
383.986	543.25
384.211	457.25
384.436	417.25
384.662	417.25
384.887	421.25
385.112	406.25
385.337	438.25
385.562	398.25
385.787	435.25
386.013	447.25
386.238	454.25
386.463	420.25
386.688	466.25
386.913	446.25
387.138	419.25
387.363	426.25
387.588	439.25
387.813	467.25
388.038	432.25
388.263	439.25
388.488	434.25
388.713	433.25
388.938	438.25
389.163	441.25
389.387	439.25
389.612	430.25
389.837	455.25
390.062	462.25
390.287	489.25
390.512	450.25
390.736	454.25
390.961	454.25
391.186	459.25
391.411	474.25
391.636	480.25
391.86	497.25
392.085	498.25
392.31	505.25
392.534	524.25
392.759	560.25
392.984	585.25
393.208	635.25
393.433	719.25
393.658	773.25
393.882	927.25
394.107	1576.25
394.331	2831.25
394.556	3810.25
394.78	2529.25
395.005	1394.25
395.229	1101.25
395.454	1122.25
395.678	1419.25
395.903	2415.25
396.127	4152.25
396.352	4899.25
396.576	2859.25
396.801	1632.25
397.025	1177.25
397.249	948.25
397.474	814.25
397.698	750.25
397.922	706.25
398.147	680.25
398.371	659.25
398.595	625.25
398.82	632.25
399.044	587.25
399.268	617.25
399.492	646.25
399.717	641.25
399.941	613.25
400.165	601.25
400.389	570.25
400.613	532.25
400.837	545.25
401.062	538.25
401.286	510.25
401.51	507.25
401.734	505.25
401.958	518.25
402.182	511.25
402.406	515.25
402.63	524.25
402.854	521.25
403.078	517.25
403.302	539.25
403.526	528.25
403.75	540.25
403.974	532.25
404.198	533.25
404.422	536.25
404.645	534.25
404.869	545.25
405.093	516.25
405.317	514.25
405.541	521.25
405.765	506.25
405.988	504.25
406.212	523.25
406.436	528.25
406.66	537.25
406.883	517.25
407.107	541.25
407.331	532.25
407.555	543.25
407.778	540.25
408.002	535.25
408.226	533.25
408.449	539.25
408.673	540.25
408.896	510.25
409.12	530.25
409.344	509.25
409.567	495.25
409.791	533.25
410.014	529.25
410.238	487.25
410.461	522.25
410.685	530.25
410.908	522.25
411.132	496.25
411.355	494.25
411.578	506.25
411.802	500.25
412.025	503.25
412.249	522.25
412.472	492.25
412.695	496.25
412.919	496.25
413.142	504.25
413.365	497.25
413.589	494.25
413.812	484.25
414.035	481.25
414.258	514.25
414.482	481.25
414.705	497.25
414.928	506.25
415.151	498.25
415.374	508.25
415.597	493.25
415.821	506.25
416.044	475.25
416.267	484.25
416.49	476.25
416.713	464.25
416.936	492.25
417.159	490.25
417.382	474.25
417.605	483.25
417.828	486.25
418.051	489.25
418.274	509.25
418.497	499.25
418.72	485.25
418.943	516.25
419.166	531.25
419.389	519.25
419.611	521.25
419.834	525.25
420.057	509.25
420.28	498.25
420.503	487.25
420.726	504.25
420.948	476.25
421.171	483.25
421.394	493.25
421.617	513.25
421.839	499.25
422.062	526.25
422.285	497.25
422.507	495.25
422.73	528.25
422.953	518.25
423.175	499.25
423.398	493.25
423.621	511.25
423.843	513.25
424.066	507.25
424.288	517.25
424.511	496.25
424.733	501.25
424.956	515.25
425.178	517.25
425.401	509.25
425.623	502.25
425.846	474.25
426.068	487.25
426.291	480.25
426.513	475.25
426.735	489.25
426.958	466.25
427.18	471.25
427.402	463.25
427.625	480.25
427.847	441.25
428.069	484.25
428.292	494.25
428.514	474.25
428.736	474.25
428.958	479.25
429.181	472.25
429.403	458.25
429.625	463.25
429.847	463.25
430.069	469.25
430.292	457.25
430.514	449.25
430.736	475.25
430.958	467.25
431.18	443.25
431.402	446.25
431.624	438.25
431.846	450.25
432.068	441.25
432.29	451.25
432.512	449.25
432.734	467.25
432.956	462.25
433.178	487.25
433.4	466.25
433.622	487.25
433.844	494.25
434.066	470.25
434.287	441.25
434.509	424.25
434.731	454.25
434.953	468.25
435.175	487.25
435.397	478.25
435.618	453.25
435.84	483.25
436.062	463.25
436.284	455.25
436.505	467.25
436.727	479.25
436.949	461.25
437.17	465.25
437.392	456.25
437.614	453.25
437.835	446.25
438.057	446.25
438.278	442.25
438.5	460.25
438.721	467.25
438.943	491.25
439.165	476.25
439.386	468.25
439.608	484.25
439.829	477.25
440.05	491.25
440.272	496.25
440.493	508.25
440.715	500.25
440.936	510.25
441.158	546.25
441.379	495.25
441.6	497.25
441.822	534.25
442.043	508.25
442.264	516.25
442.486	522.25
442.707	501.25
442.928	503.25
443.149	514.25
443.371	487.25
443.592	500.25
443.813	508.25
444.034	521.25
444.255	545.25
444.476	535.25
444.698	544.25
444.919	546.25
445.14	735.25
445.361	614.25
445.582	535.25
445.803	514.25
446.024	517.25
446.245	514.25
446.466	512.25
446.687	505.25
446.908	529.25
447.129	489.25
447.35	500.25
447.571	507.25
447.792	478.25
448.013	501.25
448.234	501.25
448.455	501.25
448.675	490.25
448.896	464.25
449.117	468.25
449.338	460.25
449.559	468.25
449.779	484.25
450	461.25
450.221	461.25
450.442	476.25
450.662	460.25
450.883	464.25
451.104	476.25
451.324	465.25
451.545	463.25
451.766	475.25
451.986	466.25
452.207	477.25
452.428	487.25
452.648	495.25
452.869	474.25
453.089	480.25
453.31	453.25
453.53	450.25
453.751	450.25
453.971	454.25
454.192	462.25
454.412	451.25
454.633	441.25
454.853	444.25
455.073	465.25
455.294	473.25
455.514	439.25
455.734	430.25
455.955	434.25
456.175	425.25
456.395	409.25
456.616	388.25
456.836	426.25
457.056	390.25
457.276	407.25
457.497	419.25
457.717	409.25
457.937	411.25
458.157	404.25
458.377	411.25
458.598	394.25
458.818	426.25
459.038	411.25
459.258	403.25
459.478	425.25
459.698	424.25
459.918	422.25
460.138	458.25
460.358	466.25
460.578	481.25
460.798	490.25
461.018	463.25
461.238	499.25
461.458	492.25
461.678	485.25
461.898	494.25
462.118	519.25
462.338	512.25
462.558	525.25
462.777	533.25
462.997	531.25
463.217	550.25
463.437	540.25
463.657	531.25
463.876	531.25
464.096	533.25
464.316	541.25
464.536	559.25
464.755	538.25
464.975	531.25
465.195	531.25
465.414	535.25
465.634	496.25
465.854	515.25
466.073	527.25
466.293	579.25
466.512	636.25
466.732	602.25
466.951	579.25
467.171	526.25
467.391	549.25
467.61	524.25
467.829	508.25
468.049	518.25
468.268	512.25
468.488	477.25
468.707	490.25
468.927	483.25
469.146	493.25
469.365	478.25
469.585	509.25
469.804	488.25
470.023	488.25
470.243	486.25
470.462	489.25
470.681	507.25
470.901	523.25
471.12	512.25
471.339	487.25
471.558	498.25
471.777	499.25
471.997	486.25
472.216	467.25
472.435	433.25
472.654	449.25
472.873	471.25
473.092	481.25
473.311	525.25
473.53	530.25
473.749	616.25
473.968	590.25
474.187	575.25
474.406	560.25
474.625	580.25
474.844	614.25
475.063	580.25
475.282	552.25
475.501	531.25
475.72	503.25
475.939	485.25
476.158	469.25
476.377	487.25
476.596	478.25
476.814	462.25
477.033	449.25
477.252	464.25
477.471	480.25
477.69	475.25
477.908	510.25
478.127	497.25
478.346	491.25
478.564	497.25
478.783	479.25
479.002	521.25
479.22	523.25
479.439	525.25
479.658	462.25
479.876	485.25
480.095	482.25
480.313	520.25
480.532	524.25
480.751	469.25
480.969	465.25
481.188	460.25
481.406	483.25
481.624	450.25
481.843	441.25
482.061	450.25
482.28	475.25
482.498	470.25
482.717	482.25
482.935	480.25
483.153	483.25
483.372	501.25
483.59	475.25
483.808	475.25
484.027	491.25
484.245	513.25
484.463	582.25
484.681	582.25
484.9	558.25
485.118	551.25
485.336	536.25
485.554	532.25
485.772	540.25
485.99	526.25
486.209	525.25
486.427	525.25
486.645	538.25
486.863	575.25
487.081	564.25
487.299	552.25
487.517	556.25
487.735	598.25
487.953	619.25
488.171	614.25
488.389	583.25
488.607	554.25
488.825	543.25
489.043	516.25
489.261	545.25
489.479	569.25
489.696	552.25
489.914	536.25
490.132	555.25
490.35	562.25
490.568	537.25
490.786	565.25
491.003	573.25
491.221	596.25
491.439	589.25
491.657	587.25
491.874	644.25
492.092	639.25
492.31	673.25
492.527	638.25
492.745	607.25
492.963	600.25
493.18	607.25
493.398	592.25
493.615	612.25
493.833	597.25
494.05	579.25
494.268	570.25
494.485	598.25
494.703	604.25
494.92	561.25
495.138	569.25
495.355	588.25
495.573	577.25
495.79	551.25
496.008	579.25
496.225	588.25
496.442	577.25
496.66	586.25
496.877	595.25
497.094	595.25
497.312	593.25
497.529	577.25
497.746	587.25
497.963	571.25
498.181	581.25
498.398	611.25
498.615	609.25
498.832	626.25
499.049	646.25
499.267	697.25
499.484	722.25
499.701	759.25
499.918	799.25
500.135	851.25
500.352	922.25
500.569	899.25
500.786	911.25
501.003	876.25
501.22	796.25
501.437	778.25
501.654	735.25
501.871	699.25
502.088	637.25
502.305	665.25
502.522	633.25
