Data from SampC_HRD10591_00050.txt Node
Date: Mon Jan 19 11:37:46 EST 2026
User: Yrep
Spectrometer: HR+D1059
Trigger mode: 0
Integration Time (sec): 3.443000E-1
Scans to average: 1
Electric dark correction enabled: true
Nonlinearity correction enabled: false
Boxcar width: 0
XAxis mode: Wavelengths
Number of Pixels in Spectrum: 2048
>>>>>Begin Spectral Data<<<<<
223.165	-30.94
223.4	-30.94
223.635	-30.94
223.869	-11.94
224.104	-19.94
224.338	-13.94
224.573	-8.94
224.808	-31.94
225.042	-5.94
225.277	3.06
225.511	-7.94
225.746	10.06
225.98	10.06
226.215	9.06
226.449	14.06
226.683	22.06
226.918	29.06
227.152	34.06
227.387	29.06
227.621	30.06
227.856	39.06
228.09	57.06
228.324	65.06
228.559	74.06
228.793	59.06
229.027	79.06
229.262	79.06
229.496	77.06
229.73	100.06
229.964	96.06
230.199	89.06
230.433	88.06
230.667	102.06
230.901	103.06
231.136	93.06
231.37	93.06
231.604	92.06
231.838	108.06
232.072	101.06
232.306	117.06
232.541	112.06
232.775	103.06
233.009	98.06
233.243	93.06
233.477	107.06
233.711	102.06
233.945	90.06
234.179	114.06
234.413	110.06
234.647	109.06
234.881	107.06
235.115	98.06
235.349	98.06
235.583	111.06
235.817	127.06
236.051	113.06
236.285	125.06
236.519	108.06
236.753	127.06
236.987	140.06
237.221	158.06
237.455	161.06
237.689	164.06
237.922	150.06
238.156	139.06
238.39	114.06
238.624	106.06
238.858	120.06
239.091	108.06
239.325	117.06
239.559	107.06
239.793	94.06
240.027	109.06
240.26	108.06
240.494	112.06
240.728	103.06
240.961	114.06
241.195	99.06
241.429	115.06
241.662	103.06
241.896	99.06
242.13	102.06
242.363	97.06
242.597	112.06
242.83	118.06
243.064	114.06
243.298	117.06
243.531	108.06
243.765	116.06
243.998	122.06
244.232	122.06
244.465	115.06
244.699	111.06
244.932	103.06
245.166	102.06
245.399	115.06
245.633	118.06
245.866	120.06
246.099	111.06
246.333	125.06
246.566	117.06
246.8	126.06
247.033	106.06
247.266	116.06
247.5	114.06
247.733	107.06
247.966	107.06
248.2	116.06
248.433	138.06
248.666	120.06
248.899	124.06
249.133	126.06
249.366	127.06
249.599	135.06
249.832	118.06
250.066	130.06
250.299	137.06
250.532	115.06
250.765	116.06
250.998	117.06
251.231	135.06
251.465	122.06
251.698	124.06
251.931	121.06
252.164	126.06
252.397	125.06
252.63	131.06
252.863	127.06
253.096	115.06
253.329	140.06
253.562	137.06
253.795	122.06
254.028	124.06
254.261	143.06
254.494	140.06
254.727	130.06
254.96	131.06
255.193	136.06
255.426	131.06
255.659	135.06
255.892	140.06
256.124	145.06
256.357	151.06
256.59	166.06
256.823	168.06
257.056	191.06
257.289	180.06
257.521	197.06
257.754	206.06
257.987	202.06
258.22	165.06
258.452	158.06
258.685	136.06
258.918	156.06
259.151	140.06
259.383	143.06
259.616	139.06
259.849	136.06
260.081	152.06
260.314	135.06
260.547	142.06
260.779	130.06
261.012	134.06
261.244	130.06
261.477	168.06
261.71	149.06
261.942	152.06
262.175	139.06
262.407	139.06
262.64	154.06
262.872	167.06
263.105	184.06
263.337	187.06
263.57	192.06
263.802	190.06
264.035	179.06
264.267	171.06
264.499	165.06
264.732	165.06
264.964	154.06
265.197	176.06
265.429	191.06
265.661	208.06
265.894	207.06
266.126	222.06
266.358	214.06
266.591	195.06
266.823	178.06
267.055	163.06
267.287	156.06
267.52	164.06
267.752	144.06
267.984	166.06
268.216	165.06
268.448	155.06
268.681	155.06
268.913	163.06
269.145	148.06
269.377	148.06
269.609	163.06
269.841	161.06
270.073	141.06
270.306	154.06
270.538	158.06
270.77	175.06
271.002	147.06
271.234	172.06
271.466	167.06
271.698	151.06
271.93	143.06
272.162	146.06
272.394	155.06
272.626	145.06
272.858	142.06
273.09	154.06
273.322	158.06
273.553	167.06
273.785	166.06
274.017	160.06
274.249	179.06
274.481	161.06
274.713	154.06
274.945	162.06
275.176	159.06
275.408	158.06
275.64	160.06
275.872	174.06
276.104	162.06
276.335	154.06
276.567	174.06
276.799	168.06
277.031	175.06
277.262	178.06
277.494	189.06
277.726	187.06
277.957	186.06
278.189	213.06
278.421	196.06
278.652	200.06
278.884	226.06
279.115	274.06
279.347	380.06
279.579	486.06
279.81	548.06
280.042	463.06
280.273	432.06
280.505	415.06
280.736	302.06
280.968	232.06
281.199	237.06
281.431	288.06
281.662	346.06
281.894	387.06
282.125	338.06
282.356	288.06
282.588	252.06
282.819	223.06
283.051	199.06
283.282	196.06
283.513	202.06
283.745	186.06
283.976	197.06
284.207	205.06
284.439	190.06
284.67	204.06
284.901	194.06
285.132	227.06
285.364	242.06
285.595	226.06
285.826	200.06
286.057	196.06
286.288	180.06
286.52	181.06
286.751	186.06
286.982	186.06
287.213	195.06
287.444	174.06
287.675	189.06
287.906	193.06
288.138	211.06
288.369	196.06
288.6	186.06
288.831	179.06
289.062	187.06
289.293	184.06
289.524	175.06
289.755	177.06
289.986	171.06
290.217	173.06
290.448	190.06
290.679	197.06
290.91	199.06
291.141	199.06
291.371	193.06
291.602	185.06
291.833	196.06
292.064	200.06
292.295	203.06
292.526	204.06
292.757	203.06
292.987	211.06
293.218	232.06
293.449	234.06
293.68	228.06
293.91	204.06
294.141	222.06
294.372	174.06
294.603	203.06
294.833	192.06
295.064	191.06
295.295	186.06
295.525	178.06
295.756	185.06
295.987	190.06
296.217	203.06
296.448	195.06
296.679	193.06
296.909	191.06
297.14	189.06
297.37	195.06
297.601	191.06
297.831	183.06
298.062	203.06
298.292	207.06
298.523	195.06
298.753	191.06
298.984	193.06
299.214	198.06
299.445	184.06
299.675	204.06
299.905	211.06
300.136	185.06
300.366	199.06
300.597	212.06
300.827	208.06
301.057	207.06
301.288	215.06
301.518	215.06
301.748	203.06
301.979	253.06
302.209	223.06
302.439	216.06
302.669	228.06
302.9	229.06
303.13	236.06
303.36	247.06
303.59	243.06
303.82	237.06
304.051	247.06
304.281	252.06
304.511	257.06
304.741	268.06
304.971	293.06
305.201	355.06
305.431	378.06
305.661	409.06
305.891	415.06
306.121	406.06
306.352	374.06
306.582	399.06
306.812	384.06
307.042	362.06
307.272	372.06
307.502	374.06
307.731	469.06
307.961	589.06
308.191	773.06
308.421	913.06
308.651	790.06
308.881	758.06
309.111	886.06
309.341	1091.06
309.571	1090.06
309.8	743.06
310.03	516.06
310.26	428.06
310.49	355.06
310.72	341.06
310.949	318.06
311.179	288.06
311.409	296.06
311.639	277.06
311.868	279.06
312.098	302.06
312.328	276.06
312.557	258.06
312.787	239.06
313.017	256.06
313.246	238.06
313.476	236.06
313.706	246.06
313.935	250.06
314.165	235.06
314.394	241.06
314.624	240.06
314.853	251.06
315.083	224.06
315.312	236.06
315.542	224.06
315.771	226.06
316.001	220.06
316.23	216.06
316.46	212.06
316.689	208.06
316.919	229.06
317.148	208.06
317.377	230.06
317.607	232.06
317.836	222.06
318.065	225.06
318.295	234.06
318.524	218.06
318.753	213.06
318.983	225.06
319.212	228.06
319.441	230.06
319.67	213.06
319.9	218.06
320.129	229.06
320.358	213.06
320.587	233.06
320.816	226.06
321.046	221.06
321.275	228.06
321.504	221.06
321.733	218.06
321.962	237.06
322.191	211.06
322.42	230.06
322.649	222.06
322.878	230.06
323.108	202.06
323.337	233.06
323.566	221.06
323.795	224.06
324.024	216.06
324.253	228.06
324.482	209.06
324.71	222.06
324.939	229.06
325.168	224.06
325.397	224.06
325.626	204.06
325.855	229.06
326.084	218.06
326.313	231.06
326.542	224.06
326.77	236.06
326.999	210.06
327.228	239.06
327.457	248.06
327.686	242.06
327.914	231.06
328.143	227.06
328.372	218.06
328.6	220.06
328.829	203.06
329.058	229.06
329.287	225.06
329.515	224.06
329.744	247.06
329.972	232.06
330.201	238.06
330.43	232.06
330.658	219.06
330.887	232.06
331.115	227.06
331.344	231.06
331.572	248.06
331.801	234.06
332.03	258.06
332.258	240.06
332.486	245.06
332.715	243.06
332.943	247.06
333.172	258.06
333.4	248.06
333.629	258.06
333.857	258.06
334.085	273.06
334.314	266.06
334.542	259.06
334.771	247.06
334.999	253.06
335.227	252.06
335.455	239.06
335.684	271.06
335.912	255.06
336.14	264.06
336.369	262.06
336.597	266.06
336.825	242.06
337.053	242.06
337.281	239.06
337.51	252.06
337.738	250.06
337.966	244.06
338.194	221.06
338.422	244.06
338.65	244.06
338.878	239.06
339.106	227.06
339.334	248.06
339.562	237.06
339.79	244.06
340.018	240.06
340.246	239.06
340.474	234.06
340.702	229.06
340.93	237.06
341.158	243.06
341.386	228.06
341.614	236.06
341.842	248.06
342.07	232.06
342.298	214.06
342.526	231.06
342.754	239.06
342.981	251.06
343.209	244.06
343.437	295.06
343.665	250.06
343.893	252.06
344.12	270.06
344.348	256.06
344.576	259.06
344.804	248.06
345.031	234.06
345.259	250.06
345.487	248.06
345.714	235.06
345.942	241.06
346.17	252.06
346.397	248.06
346.625	248.06
346.853	215.06
347.08	228.06
347.308	226.06
347.535	242.06
347.763	242.06
347.99	245.06
348.218	257.06
348.445	242.06
348.673	243.06
348.9	250.06
349.128	235.06
349.355	212.06
349.583	261.06
349.81	237.06
350.037	239.06
350.265	231.06
350.492	251.06
350.72	254.06
350.947	255.06
351.174	244.06
351.402	230.06
351.629	259.06
351.856	260.06
352.083	242.06
352.311	237.06
352.538	248.06
352.765	242.06
352.992	274.06
353.22	268.06
353.447	257.06
353.674	272.06
353.901	268.06
354.128	294.06
354.355	252.06
354.583	284.06
354.81	281.06
355.037	297.06
355.264	312.06
355.491	285.06
355.718	288.06
355.945	314.06
356.172	323.06
356.399	326.06
356.626	316.06
356.853	327.06
357.08	348.06
357.307	377.06
357.534	385.06
357.761	412.06
357.988	443.06
358.215	522.06
358.441	580.06
358.668	624.06
358.895	605.06
359.122	545.06
359.349	435.06
359.576	414.06
359.802	378.06
360.029	370.06
360.256	370.06
360.483	361.06
360.709	350.06
360.936	355.06
361.163	330.06
361.39	319.06
361.616	307.06
361.843	310.06
362.07	325.06
362.296	320.06
362.523	293.06
362.749	292.06
362.976	284.06
363.203	295.06
363.429	277.06
363.656	273.06
363.882	285.06
364.109	272.06
364.335	271.06
364.562	280.06
364.788	275.06
365.015	270.06
365.241	257.06
365.468	248.06
365.694	261.06
365.92	272.06
366.147	261.06
366.373	283.06
366.599	260.06
366.826	256.06
367.052	256.06
367.278	264.06
367.505	266.06
367.731	274.06
367.957	262.06
368.184	253.06
368.41	257.06
368.636	257.06
368.862	276.06
369.089	250.06
369.315	239.06
369.541	261.06
369.767	240.06
369.993	253.06
370.219	258.06
370.445	276.06
370.672	257.06
370.898	269.06
371.124	262.06
371.35	263.06
371.576	270.06
371.802	267.06
372.028	264.06
372.254	270.06
372.48	260.06
372.706	280.06
372.932	278.06
373.158	277.06
373.384	280.06
373.61	286.06
373.835	272.06
374.061	266.06
374.287	258.06
374.513	266.06
374.739	261.06
374.965	268.06
375.191	280.06
375.416	262.06
375.642	241.06
375.868	267.06
376.094	255.06
376.319	273.06
376.545	250.06
376.771	255.06
376.997	244.06
377.222	261.06
377.448	262.06
377.674	270.06
377.899	248.06
378.125	260.06
378.35	282.06
378.576	268.06
378.802	240.06
379.027	266.06
379.253	274.06
379.478	257.06
379.704	274.06
379.929	262.06
380.155	276.06
380.38	278.06
380.606	265.06
380.831	276.06
381.057	283.06
381.282	292.06
381.507	294.06
381.733	288.06
381.958	295.06
382.184	286.06
382.409	282.06
382.634	305.06
382.86	318.06
383.085	320.06
383.31	322.06
383.535	347.06
383.761	342.06
383.986	340.06
384.211	324.06
384.436	305.06
384.662	288.06
384.887	297.06
385.112	294.06
385.337	302.06
385.562	296.06
385.787	291.06
386.013	299.06
386.238	333.06
386.463	316.06
386.688	325.06
386.913	301.06
387.138	309.06
387.363	315.06
387.588	326.06
387.813	302.06
388.038	323.06
388.263	320.06
388.488	300.06
388.713	307.06
388.938	308.06
389.163	317.06
389.387	316.06
389.612	315.06
389.837	316.06
390.062	315.06
390.287	322.06
390.512	309.06
390.736	322.06
390.961	327.06
391.186	332.06
391.411	330.06
391.636	339.06
391.86	336.06
392.085	344.06
392.31	349.06
392.534	336.06
392.759	357.06
392.984	365.06
393.208	381.06
393.433	397.06
393.658	444.06
393.882	518.06
394.107	762.06
394.331	1182.06
394.556	1519.06
394.78	1119.06
395.005	718.06
395.229	612.06
395.454	648.06
395.678	724.06
395.903	1069.06
396.127	1660.06
396.352	1969.06
396.576	1282.06
396.801	836.06
397.025	668.06
397.249	567.06
397.474	527.06
397.698	473.06
397.922	449.06
398.147	459.06
398.371	460.06
398.595	447.06
398.82	404.06
399.044	395.06
399.268	451.06
399.492	436.06
399.717	465.06
399.941	439.06
400.165	423.06
400.389	388.06
400.613	401.06
400.837	383.06
401.062	359.06
401.286	344.06
401.51	355.06
401.734	352.06
401.958	367.06
402.182	355.06
402.406	347.06
402.63	376.06
402.854	374.06
403.078	359.06
403.302	373.06
403.526	370.06
403.75	396.06
403.974	392.06
404.198	375.06
404.422	364.06
404.645	366.06
404.869	350.06
405.093	397.06
405.317	376.06
405.541	359.06
405.765	361.06
405.988	377.06
406.212	383.06
406.436	385.06
406.66	388.06
406.883	378.06
407.107	381.06
407.331	378.06
407.555	391.06
407.778	402.06
408.002	394.06
408.226	388.06
408.449	391.06
408.673	371.06
408.896	359.06
409.12	367.06
409.344	366.06
409.567	354.06
409.791	367.06
410.014	374.06
410.238	378.06
410.461	355.06
410.685	373.06
410.908	376.06
411.132	379.06
411.355	370.06
411.578	354.06
411.802	354.06
412.025	354.06
412.249	355.06
412.472	351.06
412.695	377.06
412.919	349.06
413.142	361.06
413.365	360.06
413.589	358.06
413.812	341.06
414.035	348.06
414.258	352.06
414.482	362.06
414.705	389.06
414.928	381.06
415.151	371.06
415.374	334.06
415.597	350.06
415.821	341.06
416.044	353.06
416.267	358.06
416.49	350.06
416.713	357.06
416.936	360.06
417.159	349.06
417.382	365.06
417.605	351.06
417.828	383.06
418.051	353.06
418.274	376.06
418.497	343.06
418.72	356.06
418.943	380.06
419.166	385.06
419.389	371.06
419.611	390.06
419.834	363.06
420.057	366.06
420.28	357.06
420.503	351.06
420.726	355.06
420.948	369.06
421.171	375.06
421.394	370.06
421.617	366.06
421.839	374.06
422.062	379.06
422.285	355.06
422.507	379.06
422.73	379.06
422.953	339.06
423.175	357.06
423.398	366.06
423.621	377.06
423.843	372.06
424.066	362.06
424.288	367.06
424.511	366.06
424.733	383.06
424.956	376.06
425.178	366.06
425.401	360.06
425.623	358.06
425.846	328.06
426.068	357.06
426.291	352.06
426.513	344.06
426.735	342.06
426.958	358.06
427.18	336.06
427.402	350.06
427.625	339.06
427.847	325.06
428.069	347.06
428.292	356.06
428.514	335.06
428.736	350.06
428.958	350.06
429.181	349.06
429.403	358.06
429.625	327.06
429.847	339.06
430.069	337.06
430.292	351.06
430.514	318.06
430.736	330.06
430.958	341.06
431.18	351.06
431.402	355.06
431.624	326.06
431.846	291.06
432.068	307.06
432.29	320.06
432.512	316.06
432.734	328.06
432.956	339.06
433.178	358.06
433.4	338.06
433.622	359.06
433.844	326.06
434.066	323.06
434.287	323.06
434.509	328.06
434.731	331.06
434.953	339.06
435.175	371.06
435.397	342.06
435.618	336.06
435.84	322.06
436.062	334.06
436.284	340.06
436.505	358.06
436.727	357.06
436.949	353.06
437.17	322.06
437.392	332.06
437.614	322.06
437.835	299.06
438.057	326.06
438.278	320.06
438.5	326.06
438.721	334.06
438.943	364.06
439.165	365.06
439.386	353.06
439.608	360.06
439.829	359.06
440.05	365.06
440.272	375.06
440.493	359.06
440.715	358.06
440.936	380.06
441.158	357.06
441.379	386.06
441.6	383.06
441.822	384.06
442.043	363.06
442.264	365.06
442.486	359.06
442.707	362.06
442.928	371.06
443.149	368.06
443.371	367.06
443.592	381.06
443.813	348.06
444.034	375.06
444.255	374.06
444.476	385.06
444.698	394.06
444.919	414.06
445.14	555.06
445.361	486.06
445.582	399.06
445.803	377.06
446.024	359.06
446.245	388.06
446.466	373.06
446.687	379.06
446.908	383.06
447.129	373.06
447.35	352.06
447.571	359.06
447.792	349.06
448.013	353.06
448.234	342.06
448.455	358.06
448.675	344.06
448.896	343.06
449.117	344.06
449.338	356.06
449.559	341.06
449.779	333.06
450	343.06
450.221	356.06
450.442	350.06
450.662	314.06
450.883	351.06
451.104	348.06
451.324	327.06
451.545	359.06
451.766	356.06
451.986	338.06
452.207	332.06
452.428	326.06
452.648	312.06
452.869	334.06
453.089	323.06
453.31	327.06
453.53	316.06
453.751	327.06
453.971	313.06
454.192	312.06
454.412	304.06
454.633	316.06
454.853	324.06
455.073	326.06
455.294	304.06
455.514	323.06
455.734	297.06
455.955	300.06
456.175	315.06
456.395	307.06
456.616	304.06
456.836	317.06
457.056	311.06
457.276	281.06
457.497	288.06
457.717	297.06
457.937	308.06
458.157	286.06
458.377	268.06
458.598	294.06
458.818	273.06
459.038	303.06
459.258	290.06
459.478	296.06
459.698	314.06
459.918	308.06
460.138	323.06
460.358	343.06
460.578	341.06
460.798	349.06
461.018	352.06
461.238	347.06
461.458	338.06
461.678	351.06
461.898	351.06
462.118	354.06
462.338	337.06
462.558	361.06
462.777	371.06
462.997	373.06
463.217	374.06
463.437	385.06
463.657	372.06
463.876	380.06
464.096	377.06
464.316	370.06
464.536	369.06
464.755	373.06
464.975	378.06
465.195	351.06
465.414	349.06
465.634	350.06
465.854	363.06
466.073	369.06
466.293	381.06
466.512	390.06
466.732	392.06
466.951	395.06
467.171	368.06
467.391	373.06
467.61	357.06
467.829	384.06
468.049	360.06
468.268	359.06
468.488	355.06
468.707	352.06
468.927	357.06
469.146	335.06
469.365	340.06
469.585	353.06
469.804	338.06
470.023	359.06
470.243	362.06
470.462	360.06
470.681	382.06
470.901	343.06
471.12	350.06
471.339	368.06
471.558	362.06
471.777	337.06
471.997	343.06
472.216	333.06
472.435	352.06
472.654	341.06
472.873	338.06
473.092	327.06
473.311	344.06
473.53	366.06
473.749	398.06
473.968	393.06
474.187	384.06
474.406	370.06
474.625	386.06
474.844	389.06
475.063	376.06
475.282	385.06
475.501	344.06
475.72	348.06
475.939	351.06
476.158	327.06
476.377	353.06
476.596	328.06
476.814	323.06
477.033	337.06
477.252	312.06
477.471	330.06
477.69	358.06
477.908	373.06
478.127	370.06
478.346	351.06
478.564	370.06
478.783	368.06
479.002	367.06
479.22	368.06
479.439	367.06
479.658	351.06
479.876	330.06
480.095	334.06
480.313	360.06
480.532	362.06
480.751	358.06
480.969	321.06
481.188	331.06
481.406	338.06
481.624	320.06
481.843	318.06
482.061	323.06
482.28	335.06
482.498	336.06
482.717	337.06
482.935	340.06
483.153	370.06
483.372	357.06
483.59	381.06
483.808	348.06
484.027	331.06
484.245	359.06
484.463	391.06
484.681	402.06
484.9	397.06
485.118	383.06
485.336	364.06
485.554	389.06
485.772	373.06
485.99	348.06
486.209	362.06
486.427	358.06
486.645	381.06
486.863	383.06
487.081	384.06
487.299	375.06
487.517	385.06
487.735	407.06
487.953	442.06
488.171	435.06
488.389	411.06
488.607	376.06
488.825	368.06
489.043	373.06
489.261	391.06
489.479	376.06
489.696	386.06
489.914	382.06
490.132	399.06
490.35	424.06
490.568	392.06
490.786	438.06
491.003	422.06
491.221	413.06
491.439	437.06
491.657	448.06
491.874	462.06
492.092	465.06
492.31	477.06
492.527	449.06
492.745	457.06
492.963	446.06
493.18	442.06
493.398	447.06
493.615	436.06
493.833	419.06
494.05	428.06
494.268	430.06
494.485	431.06
494.703	413.06
494.92	429.06
495.138	411.06
495.355	400.06
495.573	416.06
495.79	421.06
496.008	404.06
496.225	416.06
496.442	438.06
496.66	408.06
496.877	428.06
497.094	429.06
497.312	406.06
497.529	406.06
497.746	396.06
497.963	412.06
498.181	415.06
498.398	408.06
498.615	438.06
498.832	445.06
499.049	493.06
499.267	497.06
499.484	512.06
499.701	529.06
499.918	561.06
500.135	608.06
500.352	610.06
500.569	632.06
500.786	631.06
501.003	609.06
501.22	566.06
501.437	550.06
501.654	508.06
501.871	510.06
502.088	449.06
502.305	459.06
502.522	434.06
502.739	446.06
502.956	446.06
