Data from SampC_HRD10591_00003.txt Node
Date: Mon Jan 19 11:37:30 EST 2026
User: Yrep
Spectrometer: HR+D1059
Trigger mode: 0
Integration Time (sec): 3.443000E-1
Scans to average: 1
Electric dark correction enabled: true
Nonlinearity correction enabled: false
Boxcar width: 0
XAxis mode: Wavelengths
Number of Pixels in Spectrum: 2048
>>>>>Begin Spectral Data<<<<<
223.165	-40.94
223.4	-40.94
223.635	-40.94
223.869	-12.94
224.104	-12.94
224.338	-7.94
224.573	-25.94
224.808	-17.94
225.042	-9.94
225.277	-17.94
225.511	-7.94
225.746	12.06
225.98	17.06
226.215	31.06
226.449	14.06
226.683	27.06
226.918	18.06
227.152	35.06
227.387	39.06
227.621	33.06
227.856	41.06
228.09	34.06
228.324	54.06
228.559	81.06
228.793	67.06
229.027	80.06
229.262	91.06
229.496	106.06
229.73	88.06
229.964	113.06
230.199	85.06
230.433	97.06
230.667	112.06
230.901	102.06
231.136	105.06
231.37	134.06
231.604	122.06
231.838	114.06
232.072	112.06
232.306	110.06
232.541	122.06
232.775	109.06
233.009	111.06
233.243	112.06
233.477	115.06
233.711	104.06
233.945	113.06
234.179	116.06
234.413	117.06
234.647	122.06
234.881	124.06
235.115	117.06
235.349	120.06
235.583	121.06
235.817	120.06
236.051	135.06
236.285	137.06
236.519	163.06
236.753	174.06
236.987	204.06
237.221	224.06
237.455	258.06
237.689	254.06
237.922	219.06
238.156	175.06
238.39	150.06
238.624	140.06
238.858	133.06
239.091	122.06
239.325	119.06
239.559	118.06
239.793	129.06
240.027	129.06
240.26	115.06
240.494	130.06
240.728	109.06
240.961	116.06
241.195	132.06
241.429	121.06
241.662	111.06
241.896	127.06
242.13	120.06
242.363	126.06
242.597	118.06
242.83	126.06
243.064	129.06
243.298	143.06
243.531	152.06
243.765	135.06
243.998	138.06
244.232	124.06
244.465	118.06
244.699	121.06
244.932	138.06
245.166	132.06
245.399	129.06
245.633	144.06
245.866	152.06
246.099	133.06
246.333	157.06
246.566	131.06
246.8	139.06
247.033	153.06
247.266	153.06
247.5	150.06
247.733	141.06
247.966	142.06
248.2	145.06
248.433	157.06
248.666	137.06
248.899	161.06
249.133	160.06
249.366	149.06
249.599	145.06
249.832	147.06
250.066	150.06
250.299	153.06
250.532	166.06
250.765	135.06
250.998	156.06
251.231	155.06
251.465	161.06
251.698	167.06
251.931	169.06
252.164	157.06
252.397	137.06
252.63	153.06
252.863	140.06
253.096	153.06
253.329	168.06
253.562	162.06
253.795	168.06
254.028	166.06
254.261	157.06
254.494	166.06
254.727	168.06
254.96	160.06
255.193	176.06
255.426	147.06
255.659	172.06
255.892	166.06
256.124	174.06
256.357	185.06
256.59	205.06
256.823	244.06
257.056	296.06
257.289	297.06
257.521	311.06
257.754	365.06
257.987	336.06
258.22	255.06
258.452	225.06
258.685	197.06
258.918	202.06
259.151	199.06
259.383	184.06
259.616	176.06
259.849	185.06
260.081	193.06
260.314	185.06
260.547	199.06
260.779	189.06
261.012	190.06
261.244	174.06
261.477	202.06
261.71	188.06
261.942	184.06
262.175	190.06
262.407	200.06
262.64	214.06
262.872	230.06
263.105	239.06
263.337	288.06
263.57	288.06
263.802	265.06
264.035	249.06
264.267	239.06
264.499	236.06
264.732	224.06
264.964	226.06
265.197	237.06
265.429	288.06
265.661	304.06
265.894	278.06
266.126	331.06
266.358	338.06
266.591	298.06
266.823	244.06
267.055	228.06
267.287	214.06
267.52	216.06
267.752	216.06
267.984	207.06
268.216	209.06
268.448	217.06
268.681	207.06
268.913	196.06
269.145	211.06
269.377	199.06
269.609	197.06
269.841	200.06
270.073	204.06
270.306	192.06
270.538	191.06
270.77	187.06
271.002	210.06
271.234	209.06
271.466	194.06
271.698	202.06
271.93	214.06
272.162	207.06
272.394	212.06
272.626	192.06
272.858	191.06
273.09	217.06
273.322	223.06
273.553	218.06
273.785	223.06
274.017	215.06
274.249	211.06
274.481	227.06
274.713	214.06
274.945	229.06
275.176	233.06
275.408	236.06
275.64	226.06
275.872	223.06
276.104	238.06
276.335	228.06
276.567	232.06
276.799	223.06
277.031	235.06
277.262	232.06
277.494	250.06
277.726	272.06
277.957	278.06
278.189	282.06
278.421	283.06
278.652	302.06
278.884	358.06
279.115	444.06
279.347	611.06
279.579	859.06
279.81	968.06
280.042	796.06
280.273	714.06
280.505	715.06
280.736	496.06
280.968	368.06
281.199	375.06
281.431	458.06
281.662	566.06
281.894	654.06
282.125	508.06
282.356	416.06
282.588	368.06
282.819	322.06
283.051	304.06
283.282	306.06
283.513	285.06
283.745	274.06
283.976	289.06
284.207	280.06
284.439	280.06
284.67	294.06
284.901	298.06
285.132	349.06
285.364	399.06
285.595	364.06
285.826	270.06
286.057	264.06
286.288	251.06
286.52	274.06
286.751	260.06
286.982	264.06
287.213	253.06
287.444	270.06
287.675	267.06
287.906	274.06
288.138	265.06
288.369	267.06
288.6	278.06
288.831	256.06
289.062	249.06
289.293	276.06
289.524	266.06
289.755	264.06
289.986	266.06
290.217	277.06
290.448	266.06
290.679	271.06
290.91	269.06
291.141	264.06
291.371	284.06
291.602	278.06
291.833	285.06
292.064	287.06
292.295	289.06
292.526	313.06
292.757	322.06
292.987	313.06
293.218	308.06
293.449	299.06
293.68	304.06
293.91	312.06
294.141	288.06
294.372	273.06
294.603	289.06
294.833	272.06
295.064	275.06
295.295	272.06
295.525	270.06
295.756	284.06
295.987	286.06
296.217	282.06
296.448	281.06
296.679	271.06
296.909	275.06
297.14	268.06
297.37	291.06
297.601	270.06
297.831	273.06
298.062	277.06
298.292	270.06
298.523	298.06
298.753	286.06
298.984	301.06
299.214	298.06
299.445	281.06
299.675	303.06
299.905	305.06
300.136	288.06
300.366	291.06
300.597	310.06
300.827	308.06
301.057	308.06
301.288	304.06
301.518	312.06
301.748	302.06
301.979	353.06
302.209	333.06
302.439	330.06
302.669	331.06
302.9	358.06
303.13	362.06
303.36	374.06
303.59	372.06
303.82	382.06
304.051	378.06
304.281	393.06
304.511	415.06
304.741	438.06
304.971	512.06
305.201	582.06
305.431	644.06
305.661	744.06
305.891	826.06
306.121	764.06
306.352	681.06
306.582	690.06
306.812	698.06
307.042	606.06
307.272	601.06
307.502	674.06
307.731	872.06
307.961	1260.06
308.191	1770.06
308.421	2075.06
308.651	1756.06
308.881	1628.06
309.111	2038.06
309.341	2534.06
309.571	2418.06
309.8	1549.06
310.03	1016.06
310.26	774.06
310.49	634.06
310.72	590.06
310.949	511.06
311.179	481.06
311.409	462.06
311.639	430.06
311.868	421.06
312.098	412.06
312.328	414.06
312.557	408.06
312.787	378.06
313.017	384.06
313.246	396.06
313.476	351.06
313.706	370.06
313.935	374.06
314.165	366.06
314.394	354.06
314.624	365.06
314.853	342.06
315.083	356.06
315.312	350.06
315.542	351.06
315.771	350.06
316.001	333.06
316.23	341.06
316.46	345.06
316.689	335.06
316.919	319.06
317.148	345.06
317.377	331.06
317.607	338.06
317.836	329.06
318.065	321.06
318.295	337.06
318.524	329.06
318.753	333.06
318.983	324.06
319.212	319.06
319.441	324.06
319.67	341.06
319.9	322.06
320.129	319.06
320.358	331.06
320.587	346.06
320.816	331.06
321.046	348.06
321.275	346.06
321.504	335.06
321.733	305.06
321.962	341.06
322.191	336.06
322.42	321.06
322.649	328.06
322.878	328.06
323.108	354.06
323.337	359.06
323.566	340.06
323.795	343.06
324.024	337.06
324.253	349.06
324.482	351.06
324.71	335.06
324.939	348.06
325.168	347.06
325.397	333.06
325.626	350.06
325.855	320.06
326.084	342.06
326.313	344.06
326.542	352.06
326.77	354.06
326.999	346.06
327.228	327.06
327.457	344.06
327.686	337.06
327.914	361.06
328.143	357.06
328.372	334.06
328.6	325.06
328.829	344.06
329.058	349.06
329.287	338.06
329.515	352.06
329.744	352.06
329.972	347.06
330.201	356.06
330.43	352.06
330.658	361.06
330.887	346.06
331.115	366.06
331.344	357.06
331.572	356.06
331.801	354.06
332.03	359.06
332.258	364.06
332.486	392.06
332.715	394.06
332.943	405.06
333.172	408.06
333.4	406.06
333.629	388.06
333.857	423.06
334.085	375.06
334.314	422.06
334.542	412.06
334.771	405.06
334.999	377.06
335.227	403.06
335.455	395.06
335.684	392.06
335.912	397.06
336.14	377.06
336.369	412.06
336.597	413.06
336.825	389.06
337.053	393.06
337.281	362.06
337.51	355.06
337.738	369.06
337.966	369.06
338.194	368.06
338.422	366.06
338.65	363.06
338.878	366.06
339.106	369.06
339.334	380.06
339.562	358.06
339.79	363.06
340.018	358.06
340.246	346.06
340.474	378.06
340.702	364.06
340.93	358.06
341.158	369.06
341.386	361.06
341.614	356.06
341.842	366.06
342.07	354.06
342.298	364.06
342.526	346.06
342.754	377.06
342.981	361.06
343.209	370.06
343.437	402.06
343.665	400.06
343.893	418.06
344.12	428.06
344.348	424.06
344.576	392.06
344.804	383.06
345.031	381.06
345.259	378.06
345.487	373.06
345.714	362.06
345.942	373.06
346.17	372.06
346.397	354.06
346.625	375.06
346.853	357.06
347.08	348.06
347.308	357.06
347.535	358.06
347.763	361.06
347.99	356.06
348.218	377.06
348.445	363.06
348.673	371.06
348.9	369.06
349.128	363.06
349.355	369.06
349.583	370.06
349.81	349.06
350.037	360.06
350.265	379.06
350.492	378.06
350.72	382.06
350.947	373.06
351.174	359.06
351.402	386.06
351.629	366.06
351.856	365.06
352.083	396.06
352.311	407.06
352.538	402.06
352.765	392.06
352.992	419.06
353.22	428.06
353.447	420.06
353.674	404.06
353.901	417.06
354.128	433.06
354.355	410.06
354.583	411.06
354.81	440.06
355.037	450.06
355.264	445.06
355.491	463.06
355.718	467.06
355.945	474.06
356.172	506.06
356.399	520.06
356.626	526.06
356.853	570.06
357.08	569.06
357.307	618.06
357.534	664.06
357.761	720.06
357.988	810.06
358.215	922.06
358.441	1056.06
358.668	1170.06
358.895	1177.06
359.122	968.06
359.349	791.06
359.576	703.06
359.802	672.06
360.029	625.06
360.256	603.06
360.483	581.06
360.709	557.06
360.936	580.06
361.163	526.06
361.39	514.06
361.616	500.06
361.843	490.06
362.07	493.06
362.296	476.06
362.523	454.06
362.749	461.06
362.976	453.06
363.203	461.06
363.429	419.06
363.656	456.06
363.882	434.06
364.109	440.06
364.335	428.06
364.562	421.06
364.788	431.06
365.015	437.06
365.241	423.06
365.468	397.06
365.694	420.06
365.92	424.06
366.147	395.06
366.373	386.06
366.599	414.06
366.826	382.06
367.052	412.06
367.278	415.06
367.505	389.06
367.731	435.06
367.957	388.06
368.184	399.06
368.41	404.06
368.636	412.06
368.862	411.06
369.089	399.06
369.315	401.06
369.541	389.06
369.767	419.06
369.993	418.06
370.219	404.06
370.445	421.06
370.672	397.06
370.898	381.06
371.124	419.06
371.35	421.06
371.576	432.06
371.802	417.06
372.028	432.06
372.254	414.06
372.48	426.06
372.706	433.06
372.932	428.06
373.158	426.06
373.384	438.06
373.61	414.06
373.835	406.06
374.061	412.06
374.287	437.06
374.513	417.06
374.739	444.06
374.965	427.06
375.191	428.06
375.416	440.06
375.642	434.06
375.868	415.06
376.094	428.06
376.319	432.06
376.545	425.06
376.771	425.06
376.997	410.06
377.222	416.06
377.448	404.06
377.674	406.06
377.899	397.06
378.125	414.06
378.35	425.06
378.576	417.06
378.802	412.06
379.027	416.06
379.253	419.06
379.478	390.06
379.704	413.06
379.929	402.06
380.155	420.06
380.38	400.06
380.606	440.06
380.831	433.06
381.057	442.06
381.282	428.06
381.507	437.06
381.733	437.06
381.958	449.06
382.184	468.06
382.409	458.06
382.634	513.06
382.86	510.06
383.085	551.06
383.31	566.06
383.535	546.06
383.761	569.06
383.986	588.06
384.211	520.06
384.436	473.06
384.662	489.06
384.887	466.06
385.112	475.06
385.337	480.06
385.562	475.06
385.787	473.06
386.013	493.06
386.238	514.06
386.463	505.06
386.688	533.06
386.913	494.06
387.138	479.06
387.363	486.06
387.588	482.06
387.813	485.06
388.038	490.06
388.263	508.06
388.488	509.06
388.713	505.06
388.938	492.06
389.163	506.06
389.387	498.06
389.612	492.06
389.837	502.06
390.062	517.06
390.287	502.06
390.512	504.06
390.736	509.06
390.961	521.06
391.186	512.06
391.411	528.06
391.636	524.06
391.86	559.06
392.085	558.06
392.31	556.06
392.534	565.06
392.759	595.06
392.984	601.06
393.208	679.06
393.433	729.06
393.658	797.06
393.882	1032.06
394.107	1644.06
394.331	2877.06
394.556	3742.06
394.78	2646.06
395.005	1511.06
395.229	1170.06
395.454	1179.06
395.678	1510.06
395.903	2492.06
396.127	4162.06
396.352	4888.06
396.576	2938.06
396.801	1715.06
397.025	1257.06
397.249	1000.06
397.474	924.06
397.698	820.06
397.922	767.06
398.147	749.06
398.371	729.06
398.595	699.06
398.82	685.06
399.044	705.06
399.268	717.06
399.492	736.06
399.717	733.06
399.941	710.06
400.165	684.06
400.389	650.06
400.613	631.06
400.837	619.06
401.062	613.06
401.286	590.06
401.51	584.06
401.734	584.06
401.958	622.06
402.182	591.06
402.406	577.06
402.63	590.06
402.854	564.06
403.078	591.06
403.302	601.06
403.526	597.06
403.75	606.06
403.974	600.06
404.198	610.06
404.422	628.06
404.645	602.06
404.869	626.06
405.093	607.06
405.317	594.06
405.541	588.06
405.765	587.06
405.988	591.06
406.212	592.06
406.436	605.06
406.66	601.06
406.883	606.06
407.107	625.06
407.331	645.06
407.555	658.06
407.778	623.06
408.002	623.06
408.226	635.06
408.449	615.06
408.673	613.06
408.896	605.06
409.12	599.06
409.344	593.06
409.567	584.06
409.791	583.06
410.014	599.06
410.238	599.06
410.461	560.06
410.685	586.06
410.908	595.06
411.132	572.06
411.355	580.06
411.578	585.06
411.802	578.06
412.025	575.06
412.249	593.06
412.472	570.06
412.695	577.06
412.919	573.06
413.142	573.06
413.365	550.06
413.589	565.06
413.812	565.06
414.035	574.06
414.258	598.06
414.482	582.06
414.705	568.06
414.928	575.06
415.151	547.06
415.374	573.06
415.597	574.06
415.821	561.06
416.044	542.06
416.267	558.06
416.49	554.06
416.713	565.06
416.936	566.06
417.159	544.06
417.382	547.06
417.605	566.06
417.828	572.06
418.051	566.06
418.274	574.06
418.497	568.06
418.72	562.06
418.943	560.06
419.166	563.06
419.389	610.06
419.611	593.06
419.834	573.06
420.057	570.06
420.28	589.06
420.503	552.06
420.726	558.06
420.948	560.06
421.171	545.06
421.394	570.06
421.617	563.06
421.839	569.06
422.062	570.06
422.285	542.06
422.507	555.06
422.73	571.06
422.953	564.06
423.175	558.06
423.398	575.06
423.621	566.06
423.843	564.06
424.066	562.06
424.288	574.06
424.511	569.06
424.733	584.06
424.956	559.06
425.178	566.06
425.401	548.06
425.623	588.06
425.846	536.06
426.068	569.06
426.291	552.06
426.513	545.06
426.735	540.06
426.958	557.06
427.18	517.06
427.402	538.06
427.625	551.06
427.847	535.06
428.069	513.06
428.292	526.06
428.514	532.06
428.736	536.06
428.958	546.06
429.181	526.06
429.403	536.06
429.625	502.06
429.847	543.06
430.069	546.06
430.292	558.06
430.514	535.06
430.736	538.06
430.958	534.06
431.18	538.06
431.402	529.06
431.624	502.06
431.846	496.06
432.068	483.06
432.29	524.06
432.512	524.06
432.734	522.06
432.956	543.06
433.178	552.06
433.4	543.06
433.622	546.06
433.844	560.06
434.066	523.06
434.287	530.06
434.509	489.06
434.731	518.06
434.953	557.06
435.175	546.06
435.397	572.06
435.618	519.06
435.84	538.06
436.062	520.06
436.284	529.06
436.505	541.06
436.727	556.06
436.949	536.06
437.17	527.06
437.392	544.06
437.614	520.06
437.835	499.06
438.057	492.06
438.278	519.06
438.5	512.06
438.721	538.06
438.943	528.06
439.165	536.06
439.386	556.06
439.608	576.06
439.829	532.06
440.05	550.06
440.272	547.06
440.493	569.06
440.715	549.06
440.936	585.06
441.158	583.06
441.379	577.06
441.6	582.06
441.822	614.06
442.043	582.06
442.264	569.06
442.486	554.06
442.707	567.06
442.928	549.06
443.149	594.06
443.371	566.06
443.592	568.06
443.813	591.06
444.034	592.06
444.255	598.06
444.476	607.06
444.698	621.06
444.919	624.06
445.14	836.06
445.361	696.06
445.582	622.06
445.803	560.06
446.024	564.06
446.245	581.06
446.466	574.06
446.687	580.06
446.908	577.06
447.129	589.06
447.35	581.06
447.571	569.06
447.792	570.06
448.013	573.06
448.234	568.06
448.455	550.06
448.675	541.06
448.896	548.06
449.117	524.06
449.338	529.06
449.559	526.06
449.779	529.06
450	538.06
450.221	523.06
450.442	513.06
450.662	520.06
450.883	525.06
451.104	540.06
451.324	532.06
451.545	509.06
451.766	519.06
451.986	530.06
452.207	507.06
452.428	526.06
452.648	535.06
452.869	547.06
453.089	511.06
453.31	505.06
453.53	510.06
453.751	481.06
453.971	502.06
454.192	504.06
454.412	481.06
454.633	489.06
454.853	481.06
455.073	483.06
455.294	489.06
455.514	487.06
455.734	482.06
455.955	482.06
456.175	470.06
456.395	476.06
456.616	473.06
456.836	477.06
457.056	488.06
457.276	430.06
457.497	440.06
457.717	449.06
457.937	474.06
458.157	458.06
458.377	458.06
458.598	474.06
458.818	463.06
459.038	462.06
459.258	474.06
459.478	481.06
459.698	492.06
459.918	511.06
460.138	524.06
460.358	552.06
460.578	557.06
460.798	561.06
461.018	582.06
461.238	573.06
461.458	551.06
461.678	548.06
461.898	558.06
462.118	568.06
462.338	575.06
462.558	607.06
462.777	610.06
462.997	651.06
463.217	679.06
463.437	663.06
463.657	626.06
463.876	615.06
464.096	611.06
464.316	611.06
464.536	598.06
464.755	605.06
464.975	588.06
465.195	596.06
465.414	589.06
465.634	599.06
465.854	585.06
466.073	602.06
466.293	660.06
466.512	692.06
466.732	687.06
466.951	644.06
467.171	608.06
467.391	599.06
467.61	588.06
467.829	592.06
468.049	582.06
468.268	534.06
468.488	531.06
468.707	532.06
468.927	559.06
469.146	544.06
469.365	540.06
469.585	550.06
469.804	577.06
470.023	569.06
470.243	552.06
470.462	568.06
470.681	565.06
470.901	525.06
471.12	569.06
471.339	545.06
471.558	549.06
471.777	521.06
471.997	523.06
472.216	542.06
472.435	532.06
472.654	509.06
472.873	526.06
473.092	540.06
473.311	566.06
473.53	589.06
473.749	628.06
473.968	631.06
474.187	611.06
474.406	625.06
474.625	653.06
474.844	671.06
475.063	621.06
475.282	599.06
475.501	545.06
475.72	567.06
475.939	573.06
476.158	542.06
476.377	546.06
476.596	554.06
476.814	504.06
477.033	516.06
477.252	518.06
477.471	547.06
477.69	570.06
477.908	574.06
478.127	584.06
478.346	566.06
478.564	566.06
478.783	571.06
479.002	596.06
479.22	582.06
479.439	584.06
479.658	606.06
479.876	555.06
480.095	568.06
480.313	565.06
480.532	572.06
480.751	575.06
480.969	521.06
481.188	548.06
481.406	514.06
481.624	520.06
481.843	530.06
482.061	529.06
482.28	545.06
482.498	544.06
482.717	521.06
482.935	552.06
483.153	550.06
483.372	565.06
483.59	589.06
483.808	554.06
484.027	563.06
484.245	590.06
484.463	652.06
484.681	646.06
484.9	617.06
485.118	620.06
485.336	610.06
485.554	616.06
485.772	576.06
485.99	564.06
486.209	607.06
486.427	588.06
486.645	591.06
486.863	633.06
487.081	625.06
487.299	626.06
487.517	641.06
487.735	672.06
487.953	692.06
488.171	666.06
488.389	646.06
488.607	622.06
488.825	606.06
489.043	608.06
489.261	623.06
489.479	614.06
489.696	601.06
489.914	609.06
490.132	623.06
490.35	640.06
490.568	629.06
490.786	644.06
491.003	649.06
491.221	664.06
491.439	647.06
491.657	685.06
491.874	698.06
492.092	729.06
492.31	756.06
492.527	718.06
492.745	688.06
492.963	701.06
493.18	668.06
493.398	693.06
493.615	658.06
493.833	649.06
494.05	648.06
494.268	669.06
494.485	650.06
494.703	651.06
494.92	660.06
495.138	628.06
495.355	649.06
495.573	662.06
495.79	642.06
496.008	657.06
496.225	648.06
496.442	672.06
496.66	672.06
496.877	667.06
497.094	675.06
497.312	655.06
497.529	665.06
497.746	685.06
497.963	696.06
498.181	699.06
498.398	697.06
498.615	719.06
498.832	744.06
499.049	783.06
499.267	818.06
499.484	873.06
499.701	929.06
499.918	963.06
500.135	1046.06
500.352	1107.06
500.569	1121.06
500.786	1078.06
501.003	1078.06
501.22	1015.06
501.437	942.06
501.654	864.06
501.871	832.06
502.088	788.06
502.305	777.06
