Data from SampC_HRD10591_00016.txt Node
Date: Mon Jan 19 11:37:34 EST 2026
User: Yrep
Spectrometer: HR+D1059
Trigger mode: 0
Integration Time (sec): 3.443000E-1
Scans to average: 1
Electric dark correction enabled: true
Nonlinearity correction enabled: false
Boxcar width: 0
XAxis mode: Wavelengths
Number of Pixels in Spectrum: 2048
>>>>>Begin Spectral Data<<<<<
223.165	-24.19
223.4	-24.19
223.635	-24.19
223.869	-25.19
224.104	-30.19
224.338	-17.19
224.573	-14.19
224.808	-0.19
225.042	-4.19
225.277	-0.19
225.511	-4.19
225.746	-1.19
225.98	3.81
226.215	8.81
226.449	25.81
226.683	20.81
226.918	23.81
227.152	37.81
227.387	51.81
227.621	24.81
227.856	39.81
228.09	49.81
228.324	55.81
228.559	57.81
228.793	71.81
229.027	86.81
229.262	78.81
229.496	89.81
229.73	94.81
229.964	93.81
230.199	106.81
230.433	97.81
230.667	93.81
230.901	106.81
231.136	107.81
231.37	104.81
231.604	117.81
231.838	134.81
232.072	136.81
232.306	136.81
232.541	117.81
232.775	111.81
233.009	116.81
233.243	117.81
233.477	112.81
233.711	109.81
233.945	107.81
234.179	124.81
234.413	135.81
234.647	120.81
234.881	119.81
235.115	123.81
235.349	111.81
235.583	115.81
235.817	125.81
236.051	139.81
236.285	137.81
236.519	143.81
236.753	172.81
236.987	202.81
237.221	242.81
237.455	260.81
237.689	226.81
237.922	211.81
238.156	160.81
238.39	148.81
238.624	122.81
238.858	122.81
239.091	117.81
239.325	109.81
239.559	115.81
239.793	113.81
240.027	122.81
240.26	122.81
240.494	120.81
240.728	113.81
240.961	112.81
241.195	118.81
241.429	118.81
241.662	119.81
241.896	106.81
242.13	103.81
242.363	107.81
242.597	112.81
242.83	131.81
243.064	143.81
243.298	113.81
243.531	129.81
243.765	117.81
243.998	136.81
244.232	133.81
244.465	125.81
244.699	125.81
244.932	117.81
245.166	141.81
245.399	145.81
245.633	123.81
245.866	132.81
246.099	142.81
246.333	141.81
246.566	153.81
246.8	144.81
247.033	140.81
247.266	133.81
247.5	138.81
247.733	115.81
247.966	136.81
248.2	142.81
248.433	146.81
248.666	141.81
248.899	144.81
249.133	127.81
249.366	154.81
249.599	136.81
249.832	140.81
250.066	136.81
250.299	136.81
250.532	132.81
250.765	158.81
250.998	148.81
251.231	151.81
251.465	146.81
251.698	159.81
251.931	147.81
252.164	164.81
252.397	146.81
252.63	155.81
252.863	163.81
253.096	145.81
253.329	156.81
253.562	156.81
253.795	155.81
254.028	142.81
254.261	148.81
254.494	144.81
254.727	166.81
254.96	157.81
255.193	165.81
255.426	164.81
255.659	167.81
255.892	156.81
256.124	160.81
256.357	172.81
256.59	195.81
256.823	226.81
257.056	267.81
257.289	250.81
257.521	295.81
257.754	317.81
257.987	323.81
258.22	244.81
258.452	206.81
258.685	197.81
258.918	195.81
259.151	169.81
259.383	178.81
259.616	181.81
259.849	187.81
260.081	188.81
260.314	158.81
260.547	164.81
260.779	168.81
261.012	166.81
261.244	172.81
261.477	203.81
261.71	160.81
261.942	186.81
262.175	188.81
262.407	197.81
262.64	190.81
262.872	224.81
263.105	236.81
263.337	252.81
263.57	272.81
263.802	249.81
264.035	232.81
264.267	188.81
264.499	220.81
264.732	206.81
264.964	216.81
265.197	226.81
265.429	257.81
265.661	273.81
265.894	236.81
266.126	277.81
266.358	286.81
266.591	246.81
266.823	227.81
267.055	204.81
267.287	208.81
267.52	183.81
267.752	181.81
267.984	175.81
268.216	201.81
268.448	216.81
268.681	184.81
268.913	184.81
269.145	197.81
269.377	192.81
269.609	184.81
269.841	193.81
270.073	186.81
270.306	174.81
270.538	188.81
270.77	175.81
271.002	179.81
271.234	189.81
271.466	195.81
271.698	194.81
271.93	179.81
272.162	182.81
272.394	204.81
272.626	192.81
272.858	203.81
273.09	210.81
273.322	201.81
273.553	185.81
273.785	201.81
274.017	192.81
274.249	205.81
274.481	198.81
274.713	211.81
274.945	206.81
275.176	200.81
275.408	205.81
275.64	211.81
275.872	197.81
276.104	220.81
276.335	218.81
276.567	216.81
276.799	190.81
277.031	212.81
277.262	215.81
277.494	229.81
277.726	241.81
277.957	268.81
278.189	274.81
278.421	281.81
278.652	278.81
278.884	331.81
279.115	408.81
279.347	593.81
279.579	812.81
279.81	932.81
280.042	732.81
280.273	716.81
280.505	714.81
280.736	477.81
280.968	358.81
281.199	345.81
281.431	417.81
281.662	528.81
281.894	605.81
282.125	472.81
282.356	372.81
282.588	319.81
282.819	295.81
283.051	270.81
283.282	256.81
283.513	284.81
283.745	276.81
283.976	273.81
284.207	264.81
284.439	256.81
284.67	262.81
284.901	268.81
285.132	322.81
285.364	354.81
285.595	305.81
285.826	261.81
286.057	253.81
286.288	221.81
286.52	235.81
286.751	241.81
286.982	232.81
287.213	226.81
287.444	240.81
287.675	232.81
287.906	254.81
288.138	254.81
288.369	252.81
288.6	235.81
288.831	244.81
289.062	240.81
289.293	257.81
289.524	240.81
289.755	239.81
289.986	245.81
290.217	225.81
290.448	245.81
290.679	239.81
290.91	256.81
291.141	229.81
291.371	244.81
291.602	251.81
291.833	253.81
292.064	255.81
292.295	276.81
292.526	274.81
292.757	272.81
292.987	308.81
293.218	289.81
293.449	283.81
293.68	291.81
293.91	273.81
294.141	284.81
294.372	253.81
294.603	252.81
294.833	252.81
295.064	265.81
295.295	255.81
295.525	244.81
295.756	255.81
295.987	264.81
296.217	248.81
296.448	245.81
296.679	255.81
296.909	239.81
297.14	250.81
297.37	253.81
297.601	255.81
297.831	253.81
298.062	246.81
298.292	247.81
298.523	270.81
298.753	271.81
298.984	262.81
299.214	273.81
299.445	244.81
299.675	268.81
299.905	252.81
300.136	264.81
300.366	276.81
300.597	283.81
300.827	264.81
301.057	254.81
301.288	270.81
301.518	286.81
301.748	271.81
301.979	329.81
302.209	307.81
302.439	323.81
302.669	288.81
302.9	310.81
303.13	325.81
303.36	307.81
303.59	331.81
303.82	339.81
304.051	332.81
304.281	370.81
304.511	384.81
304.741	416.81
304.971	431.81
305.201	520.81
305.431	586.81
305.661	677.81
305.891	746.81
306.121	685.81
306.352	597.81
306.582	612.81
306.812	609.81
307.042	547.81
307.272	529.81
307.502	577.81
307.731	790.81
307.961	1068.81
308.191	1547.81
308.421	1808.81
308.651	1468.81
308.881	1386.81
309.111	1738.81
309.341	2174.81
309.571	2056.81
309.8	1353.81
310.03	890.81
310.26	660.81
310.49	594.81
310.72	509.81
310.949	464.81
311.179	422.81
311.409	392.81
311.639	382.81
311.868	382.81
312.098	386.81
312.328	369.81
312.557	372.81
312.787	338.81
313.017	344.81
313.246	340.81
313.476	307.81
313.706	325.81
313.935	337.81
314.165	325.81
314.394	336.81
314.624	325.81
314.853	319.81
315.083	319.81
315.312	317.81
315.542	320.81
315.771	319.81
316.001	321.81
316.23	318.81
316.46	292.81
316.689	294.81
316.919	335.81
317.148	299.81
317.377	298.81
317.607	311.81
317.836	281.81
318.065	299.81
318.295	298.81
318.524	291.81
318.753	307.81
318.983	286.81
319.212	290.81
319.441	295.81
319.67	309.81
319.9	293.81
320.129	284.81
320.358	305.81
320.587	297.81
320.816	284.81
321.046	305.81
321.275	295.81
321.504	306.81
321.733	301.81
321.962	269.81
322.191	288.81
322.42	310.81
322.649	275.81
322.878	319.81
323.108	303.81
323.337	297.81
323.566	298.81
323.795	318.81
324.024	310.81
324.253	292.81
324.482	310.81
324.71	308.81
324.939	318.81
325.168	313.81
325.397	303.81
325.626	304.81
325.855	299.81
326.084	312.81
326.313	308.81
326.542	309.81
326.77	322.81
326.999	306.81
327.228	321.81
327.457	303.81
327.686	308.81
327.914	299.81
328.143	328.81
328.372	301.81
328.6	299.81
328.829	301.81
329.058	315.81
329.287	305.81
329.515	314.81
329.744	306.81
329.972	319.81
330.201	308.81
330.43	325.81
330.658	318.81
330.887	326.81
331.115	320.81
331.344	336.81
331.572	318.81
331.801	325.81
332.03	366.81
332.258	324.81
332.486	324.81
332.715	333.81
332.943	334.81
333.172	339.81
333.4	346.81
333.629	378.81
333.857	368.81
334.085	371.81
334.314	356.81
334.542	360.81
334.771	333.81
334.999	363.81
335.227	352.81
335.455	339.81
335.684	368.81
335.912	352.81
336.14	343.81
336.369	316.81
336.597	334.81
336.825	352.81
337.053	352.81
337.281	335.81
337.51	320.81
337.738	340.81
337.966	322.81
338.194	318.81
338.422	345.81
338.65	336.81
338.878	341.81
339.106	329.81
339.334	334.81
339.562	322.81
339.79	341.81
340.018	318.81
340.246	316.81
340.474	320.81
340.702	319.81
340.93	313.81
341.158	316.81
341.386	319.81
341.614	318.81
341.842	317.81
342.07	325.81
342.298	342.81
342.526	326.81
342.754	332.81
342.981	338.81
343.209	338.81
343.437	374.81
343.665	347.81
343.893	361.81
344.12	389.81
344.348	353.81
344.576	339.81
344.804	325.81
345.031	319.81
345.259	332.81
345.487	341.81
345.714	333.81
345.942	329.81
346.17	331.81
346.397	337.81
346.625	331.81
346.853	318.81
347.08	319.81
347.308	331.81
347.535	322.81
347.763	316.81
347.99	349.81
348.218	352.81
348.445	337.81
348.673	333.81
348.9	337.81
349.128	331.81
349.355	333.81
349.583	342.81
349.81	319.81
350.037	343.81
350.265	340.81
350.492	343.81
350.72	345.81
350.947	347.81
351.174	334.81
351.402	337.81
351.629	338.81
351.856	338.81
352.083	343.81
352.311	345.81
352.538	334.81
352.765	352.81
352.992	367.81
353.22	356.81
353.447	370.81
353.674	363.81
353.901	356.81
354.128	380.81
354.355	379.81
354.583	360.81
354.81	390.81
355.037	393.81
355.264	397.81
355.491	422.81
355.718	417.81
355.945	444.81
356.172	451.81
356.399	446.81
356.626	472.81
356.853	513.81
357.08	529.81
357.307	556.81
357.534	575.81
357.761	652.81
357.988	732.81
358.215	833.81
358.441	965.81
358.668	1079.81
358.895	1069.81
359.122	861.81
359.349	706.81
359.576	621.81
359.802	620.81
360.029	554.81
360.256	514.81
360.483	510.81
360.709	496.81
360.936	490.81
361.163	460.81
361.39	436.81
361.616	448.81
361.843	446.81
362.07	427.81
362.296	433.81
362.523	411.81
362.749	410.81
362.976	392.81
363.203	416.81
363.429	358.81
363.656	385.81
363.882	388.81
364.109	391.81
364.335	398.81
364.562	354.81
364.788	355.81
365.015	368.81
365.241	382.81
365.468	364.81
365.694	376.81
365.92	384.81
366.147	370.81
366.373	356.81
366.599	372.81
366.826	360.81
367.052	363.81
367.278	379.81
367.505	371.81
367.731	386.81
367.957	351.81
368.184	339.81
368.41	356.81
368.636	373.81
368.862	360.81
369.089	336.81
369.315	371.81
369.541	351.81
369.767	357.81
369.993	372.81
370.219	356.81
370.445	356.81
370.672	375.81
370.898	364.81
371.124	372.81
371.35	371.81
371.576	381.81
371.802	364.81
372.028	379.81
372.254	366.81
372.48	372.81
372.706	383.81
372.932	370.81
373.158	353.81
373.384	392.81
373.61	392.81
373.835	356.81
374.061	362.81
374.287	376.81
374.513	370.81
374.739	382.81
374.965	379.81
375.191	378.81
375.416	378.81
375.642	372.81
375.868	404.81
376.094	383.81
376.319	360.81
376.545	383.81
376.771	356.81
376.997	352.81
377.222	366.81
377.448	368.81
377.674	392.81
377.899	380.81
378.125	357.81
378.35	353.81
378.576	336.81
378.802	362.81
379.027	359.81
379.253	368.81
379.478	364.81
379.704	357.81
379.929	383.81
380.155	345.81
380.38	362.81
380.606	346.81
380.831	376.81
381.057	380.81
381.282	339.81
381.507	389.81
381.733	380.81
381.958	388.81
382.184	401.81
382.409	413.81
382.634	434.81
382.86	428.81
383.085	502.81
383.31	489.81
383.535	506.81
383.761	483.81
383.986	514.81
384.211	456.81
384.436	418.81
384.662	420.81
384.887	422.81
385.112	412.81
385.337	427.81
385.562	426.81
385.787	428.81
386.013	457.81
386.238	458.81
386.463	446.81
386.688	464.81
386.913	424.81
387.138	426.81
387.363	437.81
387.588	414.81
387.813	438.81
388.038	427.81
388.263	428.81
388.488	469.81
388.713	441.81
388.938	439.81
389.163	436.81
389.387	429.81
389.612	413.81
389.837	464.81
390.062	470.81
390.287	478.81
390.512	464.81
390.736	424.81
390.961	445.81
391.186	466.81
391.411	444.81
391.636	472.81
391.86	464.81
392.085	510.81
392.31	519.81
392.534	511.81
392.759	485.81
392.984	566.81
393.208	575.81
393.433	649.81
393.658	722.81
393.882	852.81
394.107	1382.81
394.331	2392.81
394.556	3172.81
394.78	2190.81
395.005	1259.81
395.229	996.81
395.454	1007.81
395.678	1294.81
395.903	2074.81
396.127	3596.81
396.352	4179.81
396.576	2544.81
396.801	1469.81
397.025	1074.81
397.249	899.81
397.474	757.81
397.698	689.81
397.922	676.81
398.147	646.81
398.371	652.81
398.595	582.81
398.82	594.81
399.044	597.81
399.268	617.81
399.492	635.81
399.717	655.81
399.941	642.81
400.165	608.81
400.389	590.81
400.613	555.81
400.837	528.81
401.062	496.81
401.286	524.81
401.51	520.81
401.734	528.81
401.958	495.81
402.182	528.81
402.406	548.81
402.63	518.81
402.854	524.81
403.078	515.81
403.302	526.81
403.526	509.81
403.75	521.81
403.974	543.81
404.198	517.81
404.422	517.81
404.645	521.81
404.869	540.81
405.093	520.81
405.317	532.81
405.541	509.81
405.765	529.81
405.988	511.81
406.212	536.81
406.436	527.81
406.66	539.81
406.883	540.81
407.107	550.81
407.331	556.81
407.555	563.81
407.778	549.81
408.002	537.81
408.226	529.81
408.449	549.81
408.673	530.81
408.896	546.81
409.12	524.81
409.344	524.81
409.567	531.81
409.791	512.81
410.014	503.81
410.238	524.81
410.461	513.81
410.685	513.81
410.908	528.81
411.132	531.81
411.355	509.81
411.578	485.81
411.802	517.81
412.025	510.81
412.249	524.81
412.472	500.81
412.695	507.81
412.919	502.81
413.142	514.81
413.365	498.81
413.589	500.81
413.812	490.81
414.035	488.81
414.258	502.81
414.482	493.81
414.705	494.81
414.928	508.81
415.151	526.81
415.374	504.81
415.597	503.81
415.821	493.81
416.044	475.81
416.267	473.81
416.49	481.81
416.713	493.81
416.936	510.81
417.159	499.81
417.382	476.81
417.605	472.81
417.828	481.81
418.051	471.81
418.274	496.81
418.497	482.81
418.72	500.81
418.943	483.81
419.166	509.81
419.389	532.81
419.611	531.81
419.834	544.81
420.057	518.81
420.28	511.81
420.503	502.81
420.726	499.81
420.948	479.81
421.171	509.81
421.394	509.81
421.617	523.81
421.839	518.81
422.062	506.81
422.285	487.81
422.507	497.81
422.73	516.81
422.953	498.81
423.175	497.81
423.398	500.81
423.621	521.81
423.843	526.81
424.066	517.81
424.288	515.81
424.511	517.81
424.733	507.81
424.956	513.81
425.178	502.81
425.401	524.81
425.623	515.81
425.846	513.81
426.068	492.81
426.291	477.81
426.513	466.81
426.735	484.81
426.958	501.81
427.18	497.81
427.402	485.81
427.625	471.81
427.847	488.81
428.069	476.81
428.292	469.81
428.514	479.81
428.736	484.81
428.958	483.81
429.181	469.81
429.403	470.81
429.625	480.81
429.847	450.81
430.069	473.81
430.292	466.81
430.514	440.81
430.736	480.81
430.958	477.81
431.18	480.81
431.402	472.81
431.624	434.81
431.846	441.81
432.068	440.81
432.29	435.81
432.512	458.81
432.734	491.81
432.956	492.81
433.178	494.81
433.4	487.81
433.622	478.81
433.844	490.81
434.066	461.81
434.287	452.81
434.509	449.81
434.731	445.81
434.953	488.81
435.175	491.81
435.397	497.81
435.618	454.81
435.84	450.81
436.062	463.81
436.284	473.81
436.505	478.81
436.727	446.81
436.949	453.81
437.17	478.81
437.392	466.81
437.614	466.81
437.835	456.81
438.057	441.81
438.278	427.81
438.5	456.81
438.721	477.81
438.943	473.81
439.165	488.81
439.386	454.81
439.608	485.81
439.829	496.81
440.05	498.81
440.272	500.81
440.493	490.81
440.715	502.81
440.936	519.81
441.158	520.81
441.379	514.81
441.6	517.81
441.822	523.81
442.043	520.81
442.264	521.81
442.486	493.81
442.707	490.81
442.928	518.81
443.149	493.81
443.371	492.81
443.592	493.81
443.813	527.81
444.034	507.81
444.255	526.81
444.476	536.81
444.698	551.81
444.919	559.81
445.14	805.81
445.361	619.81
445.582	548.81
445.803	509.81
446.024	512.81
446.245	516.81
446.466	518.81
446.687	489.81
446.908	516.81
447.129	509.81
447.35	489.81
447.571	517.81
447.792	470.81
448.013	502.81
448.234	490.81
448.455	501.81
448.675	483.81
448.896	501.81
449.117	476.81
449.338	479.81
449.559	454.81
449.779	460.81
450	457.81
450.221	461.81
450.442	466.81
450.662	460.81
450.883	453.81
451.104	461.81
451.324	447.81
451.545	438.81
451.766	477.81
451.986	461.81
452.207	461.81
452.428	473.81
452.648	460.81
452.869	472.81
453.089	458.81
453.31	465.81
453.53	447.81
453.751	441.81
453.971	458.81
454.192	440.81
454.412	432.81
454.633	450.81
454.853	448.81
455.073	442.81
455.294	422.81
455.514	421.81
455.734	428.81
455.955	413.81
456.175	416.81
456.395	414.81
456.616	417.81
456.836	425.81
457.056	408.81
457.276	414.81
457.497	399.81
457.717	403.81
457.937	408.81
458.157	397.81
458.377	414.81
458.598	407.81
458.818	408.81
459.038	417.81
459.258	424.81
459.478	428.81
459.698	429.81
459.918	451.81
460.138	459.81
460.358	477.81
460.578	475.81
460.798	488.81
461.018	476.81
461.238	481.81
461.458	486.81
461.678	484.81
461.898	515.81
462.118	521.81
462.338	508.81
462.558	532.81
462.777	546.81
462.997	559.81
463.217	579.81
463.437	564.81
463.657	527.81
463.876	536.81
464.096	540.81
464.316	530.81
464.536	536.81
464.755	525.81
464.975	516.81
465.195	526.81
465.414	492.81
465.634	495.81
465.854	502.81
466.073	545.81
466.293	576.81
466.512	622.81
466.732	616.81
466.951	578.81
467.171	546.81
467.391	558.81
467.61	513.81
467.829	508.81
468.049	490.81
468.268	480.81
468.488	488.81
468.707	499.81
468.927	484.81
469.146	470.81
469.365	492.81
469.585	468.81
469.804	487.81
470.023	497.81
470.243	488.81
470.462	497.81
470.681	506.81
470.901	515.81
471.12	497.81
471.339	493.81
471.558	490.81
471.777	485.81
471.997	497.81
472.216	472.81
472.435	465.81
472.654	464.81
472.873	482.81
473.092	489.81
473.311	494.81
473.53	535.81
473.749	559.81
473.968	571.81
474.187	578.81
474.406	535.81
474.625	596.81
474.844	604.81
475.063	561.81
475.282	524.81
475.501	507.81
475.72	499.81
475.939	484.81
476.158	492.81
476.377	501.81
476.596	465.81
476.814	462.81
477.033	459.81
477.252	468.81
477.471	467.81
477.69	508.81
477.908	514.81
478.127	489.81
478.346	502.81
478.564	537.81
478.783	526.81
479.002	507.81
479.22	524.81
479.439	528.81
479.658	508.81
479.876	505.81
480.095	515.81
480.313	513.81
480.532	507.81
480.751	490.81
480.969	454.81
481.188	466.81
481.406	474.81
481.624	449.81
481.843	440.81
482.061	440.81
482.28	480.81
482.498	458.81
482.717	447.81
482.935	486.81
483.153	501.81
483.372	508.81
483.59	505.81
483.808	489.81
484.027	481.81
484.245	534.81
484.463	531.81
484.681	582.81
484.9	525.81
485.118	566.81
485.336	538.81
485.554	522.81
485.772	493.81
485.99	499.81
486.209	510.81
486.427	516.81
486.645	527.81
486.863	570.81
487.081	567.81
487.299	542.81
487.517	544.81
487.735	586.81
487.953	613.81
488.171	594.81
488.389	563.81
488.607	532.81
488.825	525.81
489.043	526.81
489.261	545.81
489.479	529.81
489.696	547.81
489.914	540.81
490.132	554.81
490.35	559.81
490.568	557.81
490.786	545.81
491.003	571.81
491.221	584.81
491.439	590.81
491.657	588.81
491.874	618.81
492.092	617.81
492.31	662.81
492.527	616.81
492.745	599.81
492.963	613.81
493.18	597.81
493.398	605.81
493.615	618.81
493.833	578.81
494.05	577.81
494.268	554.81
494.485	581.81
494.703	582.81
494.92	560.81
495.138	585.81
495.355	587.81
495.573	582.81
495.79	545.81
496.008	601.81
496.225	578.81
496.442	586.81
496.66	578.81
496.877	573.81
497.094	601.81
497.312	555.81
497.529	576.81
497.746	593.81
497.963	586.81
498.181	578.81
498.398	592.81
498.615	624.81
498.832	609.81
499.049	664.81
499.267	702.81
499.484	752.81
499.701	764.81
499.918	876.81
500.135	893.81
500.352	947.81
500.569	929.81
500.786	950.81
501.003	902.81
501.22	845.81
501.437	802.81
501.654	771.81
501.871	709.81
502.088	644.81
502.305	676.81
502.522	632.81
