Data from SampC_HRD10591_00030.txt Node
Date: Mon Jan 19 11:37:39 EST 2026
User: Yrep
Spectrometer: HR+D1059
Trigger mode: 0
Integration Time (sec): 3.443000E-1
Scans to average: 1
Electric dark correction enabled: true
Nonlinearity correction enabled: false
Boxcar width: 0
XAxis mode: Wavelengths
Number of Pixels in Spectrum: 2048
>>>>>Begin Spectral Data<<<<<
223.165	-25.12
223.4	-25.12
223.635	-25.12
223.869	-27.12
224.104	-23.12
224.338	-3.12
224.573	-12.12
224.808	-10.12
225.042	-11.12
225.277	6.88
225.511	-4.12
225.746	0.88
225.98	7.88
226.215	16.88
226.449	13.88
226.683	20.88
226.918	16.88
227.152	31.88
227.387	31.88
227.621	43.88
227.856	43.88
228.09	52.88
228.324	46.88
228.559	57.88
228.793	58.88
229.027	89.88
229.262	79.88
229.496	67.88
229.73	89.88
229.964	82.88
230.199	83.88
230.433	93.88
230.667	111.88
230.901	101.88
231.136	87.88
231.37	107.88
231.604	107.88
231.838	95.88
232.072	109.88
232.306	113.88
232.541	107.88
232.775	92.88
233.009	109.88
233.243	100.88
233.477	108.88
233.711	98.88
233.945	112.88
234.179	91.88
234.413	110.88
234.647	120.88
234.881	105.88
235.115	94.88
235.349	106.88
235.583	113.88
235.817	107.88
236.051	112.88
236.285	110.88
236.519	146.88
236.753	153.88
236.987	187.88
237.221	213.88
237.455	200.88
237.689	220.88
237.922	169.88
238.156	142.88
238.39	143.88
238.624	122.88
238.858	121.88
239.091	104.88
239.325	108.88
239.559	97.88
239.793	100.88
240.027	113.88
240.26	108.88
240.494	109.88
240.728	101.88
240.961	100.88
241.195	110.88
241.429	110.88
241.662	105.88
241.896	114.88
242.13	115.88
242.363	95.88
242.597	108.88
242.83	120.88
243.064	101.88
243.298	105.88
243.531	100.88
243.765	121.88
243.998	122.88
244.232	132.88
244.465	114.88
244.699	111.88
244.932	128.88
245.166	102.88
245.399	120.88
245.633	115.88
245.866	111.88
246.099	117.88
246.333	122.88
246.566	117.88
246.8	117.88
247.033	118.88
247.266	100.88
247.5	117.88
247.733	117.88
247.966	130.88
248.2	135.88
248.433	110.88
248.666	109.88
248.899	118.88
249.133	105.88
249.366	118.88
249.599	121.88
249.832	136.88
250.066	123.88
250.299	114.88
250.532	116.88
250.765	125.88
250.998	124.88
251.231	123.88
251.465	124.88
251.698	136.88
251.931	156.88
252.164	138.88
252.397	126.88
252.63	127.88
252.863	138.88
253.096	121.88
253.329	126.88
253.562	113.88
253.795	132.88
254.028	132.88
254.261	123.88
254.494	139.88
254.727	132.88
254.96	131.88
255.193	130.88
255.426	127.88
255.659	125.88
255.892	142.88
256.124	153.88
256.357	163.88
256.59	176.88
256.823	221.88
257.056	271.88
257.289	258.88
257.521	266.88
257.754	319.88
257.987	277.88
258.22	217.88
258.452	174.88
258.685	157.88
258.918	174.88
259.151	168.88
259.383	154.88
259.616	149.88
259.849	156.88
260.081	160.88
260.314	156.88
260.547	151.88
260.779	152.88
261.012	139.88
261.244	131.88
261.477	159.88
261.71	146.88
261.942	133.88
262.175	152.88
262.407	151.88
262.64	160.88
262.872	156.88
263.105	184.88
263.337	191.88
263.57	191.88
263.802	189.88
264.035	180.88
264.267	160.88
264.499	162.88
264.732	180.88
264.964	179.88
265.197	205.88
265.429	230.88
265.661	246.88
265.894	229.88
266.126	259.88
266.358	276.88
266.591	227.88
266.823	203.88
267.055	172.88
267.287	173.88
267.52	154.88
267.752	168.88
267.984	161.88
268.216	151.88
268.448	170.88
268.681	156.88
268.913	162.88
269.145	151.88
269.377	168.88
269.609	161.88
269.841	169.88
270.073	154.88
270.306	145.88
270.538	147.88
270.77	146.88
271.002	156.88
271.234	154.88
271.466	161.88
271.698	157.88
271.93	154.88
272.162	164.88
272.394	154.88
272.626	153.88
272.858	158.88
273.09	163.88
273.322	160.88
273.553	163.88
273.785	157.88
274.017	157.88
274.249	162.88
274.481	165.88
274.713	174.88
274.945	167.88
275.176	177.88
275.408	174.88
275.64	185.88
275.872	173.88
276.104	184.88
276.335	162.88
276.567	179.88
276.799	176.88
277.031	172.88
277.262	172.88
277.494	199.88
277.726	197.88
277.957	229.88
278.189	214.88
278.421	227.88
278.652	233.88
278.884	252.88
279.115	376.88
279.347	510.88
279.579	674.88
279.81	752.88
280.042	656.88
280.273	599.88
280.505	576.88
280.736	363.88
280.968	269.88
281.199	268.88
281.431	336.88
281.662	382.88
281.894	421.88
282.125	351.88
282.356	293.88
282.588	239.88
282.819	228.88
283.051	218.88
283.282	189.88
283.513	220.88
283.745	206.88
283.976	215.88
284.207	206.88
284.439	195.88
284.67	215.88
284.901	265.88
285.132	291.88
285.364	339.88
285.595	290.88
285.826	233.88
286.057	199.88
286.288	196.88
286.52	204.88
286.751	186.88
286.982	184.88
287.213	179.88
287.444	182.88
287.675	194.88
287.906	210.88
288.138	207.88
288.369	229.88
288.6	212.88
288.831	193.88
289.062	193.88
289.293	180.88
289.524	180.88
289.755	202.88
289.986	189.88
290.217	179.88
290.448	190.88
290.679	170.88
290.91	203.88
291.141	204.88
291.371	204.88
291.602	207.88
291.833	217.88
292.064	202.88
292.295	202.88
292.526	221.88
292.757	218.88
292.987	230.88
293.218	238.88
293.449	236.88
293.68	250.88
293.91	216.88
294.141	220.88
294.372	201.88
294.603	204.88
294.833	191.88
295.064	208.88
295.295	200.88
295.525	203.88
295.756	193.88
295.987	203.88
296.217	197.88
296.448	199.88
296.679	191.88
296.909	191.88
297.14	220.88
297.37	203.88
297.601	194.88
297.831	187.88
298.062	204.88
298.292	193.88
298.523	203.88
298.753	187.88
298.984	204.88
299.214	209.88
299.445	208.88
299.675	218.88
299.905	225.88
300.136	198.88
300.366	221.88
300.597	213.88
300.827	217.88
301.057	217.88
301.288	231.88
301.518	209.88
301.748	216.88
301.979	277.88
302.209	253.88
302.439	249.88
302.669	238.88
302.9	236.88
303.13	255.88
303.36	277.88
303.59	279.88
303.82	287.88
304.051	281.88
304.281	297.88
304.511	313.88
304.741	324.88
304.971	381.88
305.201	441.88
305.431	506.88
305.661	559.88
305.891	577.88
306.121	552.88
306.352	499.88
306.582	538.88
306.812	532.88
307.042	470.88
307.272	436.88
307.502	536.88
307.731	707.88
307.961	1019.88
308.191	1423.88
308.421	1689.88
308.651	1413.88
308.881	1305.88
309.111	1591.88
309.341	2005.88
309.571	1906.88
309.8	1194.88
310.03	772.88
310.26	615.88
310.49	479.88
310.72	439.88
310.949	401.88
311.179	375.88
311.409	340.88
311.639	310.88
311.868	319.88
312.098	322.88
312.328	297.88
312.557	307.88
312.787	274.88
313.017	286.88
313.246	285.88
313.476	289.88
313.706	275.88
313.935	274.88
314.165	271.88
314.394	263.88
314.624	256.88
314.853	246.88
315.083	244.88
315.312	251.88
315.542	246.88
315.771	224.88
316.001	248.88
316.23	256.88
316.46	237.88
316.689	228.88
316.919	219.88
317.148	234.88
317.377	225.88
317.607	235.88
317.836	236.88
318.065	248.88
318.295	230.88
318.524	212.88
318.753	219.88
318.983	231.88
319.212	239.88
319.441	233.88
319.67	247.88
319.9	215.88
320.129	213.88
320.358	235.88
320.587	228.88
320.816	228.88
321.046	222.88
321.275	248.88
321.504	226.88
321.733	213.88
321.962	221.88
322.191	225.88
322.42	236.88
322.649	218.88
322.878	229.88
323.108	216.88
323.337	225.88
323.566	226.88
323.795	224.88
324.024	242.88
324.253	236.88
324.482	245.88
324.71	233.88
324.939	266.88
325.168	247.88
325.397	235.88
325.626	260.88
325.855	229.88
326.084	239.88
326.313	221.88
326.542	224.88
326.77	239.88
326.999	223.88
327.228	216.88
327.457	244.88
327.686	243.88
327.914	247.88
328.143	249.88
328.372	226.88
328.6	227.88
328.829	245.88
329.058	250.88
329.287	239.88
329.515	251.88
329.744	233.88
329.972	234.88
330.201	249.88
330.43	240.88
330.658	238.88
330.887	243.88
331.115	235.88
331.344	238.88
331.572	231.88
331.801	232.88
332.03	241.88
332.258	236.88
332.486	248.88
332.715	244.88
332.943	257.88
333.172	261.88
333.4	265.88
333.629	275.88
333.857	278.88
334.085	259.88
334.314	258.88
334.542	269.88
334.771	267.88
334.999	268.88
335.227	257.88
335.455	271.88
335.684	243.88
335.912	255.88
336.14	260.88
336.369	255.88
336.597	249.88
336.825	257.88
337.053	256.88
337.281	260.88
337.51	257.88
337.738	249.88
337.966	244.88
338.194	237.88
338.422	227.88
338.65	240.88
338.878	251.88
339.106	238.88
339.334	264.88
339.562	246.88
339.79	240.88
340.018	254.88
340.246	246.88
340.474	241.88
340.702	241.88
340.93	254.88
341.158	253.88
341.386	254.88
341.614	235.88
341.842	234.88
342.07	227.88
342.298	261.88
342.526	252.88
342.754	255.88
342.981	257.88
343.209	248.88
343.437	264.88
343.665	257.88
343.893	273.88
344.12	291.88
344.348	260.88
344.576	269.88
344.804	252.88
345.031	241.88
345.259	259.88
345.487	231.88
345.714	253.88
345.942	251.88
346.17	243.88
346.397	244.88
346.625	241.88
346.853	254.88
347.08	256.88
347.308	252.88
347.535	255.88
347.763	251.88
347.99	246.88
348.218	247.88
348.445	245.88
348.673	238.88
348.9	255.88
349.128	271.88
349.355	252.88
349.583	237.88
349.81	236.88
350.037	248.88
350.265	224.88
350.492	251.88
350.72	267.88
350.947	232.88
351.174	255.88
351.402	267.88
351.629	251.88
351.856	258.88
352.083	253.88
352.311	252.88
352.538	260.88
352.765	261.88
352.992	273.88
353.22	274.88
353.447	258.88
353.674	272.88
353.901	284.88
354.128	265.88
354.355	276.88
354.583	265.88
354.81	271.88
355.037	267.88
355.264	296.88
355.491	311.88
355.718	329.88
355.945	299.88
356.172	322.88
356.399	328.88
356.626	328.88
356.853	324.88
357.08	358.88
357.307	391.88
357.534	403.88
357.761	435.88
357.988	477.88
358.215	534.88
358.441	602.88
358.668	668.88
358.895	648.88
359.122	559.88
359.349	483.88
359.576	417.88
359.802	379.88
360.029	372.88
360.256	357.88
360.483	356.88
360.709	335.88
360.936	352.88
361.163	335.88
361.39	312.88
361.616	313.88
361.843	330.88
362.07	321.88
362.296	315.88
362.523	301.88
362.749	302.88
362.976	279.88
363.203	295.88
363.429	289.88
363.656	290.88
363.882	281.88
364.109	279.88
364.335	265.88
364.562	286.88
364.788	260.88
365.015	272.88
365.241	283.88
365.468	291.88
365.694	279.88
365.92	275.88
366.147	276.88
366.373	280.88
366.599	257.88
366.826	262.88
367.052	278.88
367.278	251.88
367.505	256.88
367.731	287.88
367.957	261.88
368.184	274.88
368.41	277.88
368.636	264.88
368.862	264.88
369.089	268.88
369.315	279.88
369.541	263.88
369.767	274.88
369.993	269.88
370.219	270.88
370.445	261.88
370.672	269.88
370.898	266.88
371.124	271.88
371.35	274.88
371.576	273.88
371.802	273.88
372.028	304.88
372.254	285.88
372.48	275.88
372.706	260.88
372.932	281.88
373.158	291.88
373.384	286.88
373.61	292.88
373.835	302.88
374.061	273.88
374.287	259.88
374.513	279.88
374.739	285.88
374.965	293.88
375.191	292.88
375.416	282.88
375.642	289.88
375.868	274.88
376.094	282.88
376.319	282.88
376.545	273.88
376.771	268.88
376.997	281.88
377.222	271.88
377.448	270.88
377.674	273.88
377.899	265.88
378.125	285.88
378.35	278.88
378.576	279.88
378.802	278.88
379.027	273.88
379.253	284.88
379.478	276.88
379.704	288.88
379.929	287.88
380.155	273.88
380.38	289.88
380.606	288.88
380.831	294.88
381.057	304.88
381.282	304.88
381.507	322.88
381.733	301.88
381.958	306.88
382.184	323.88
382.409	322.88
382.634	350.88
382.86	397.88
383.085	445.88
383.31	484.88
383.535	495.88
383.761	500.88
383.986	495.88
384.211	407.88
384.436	331.88
384.662	319.88
384.887	308.88
385.112	319.88
385.337	330.88
385.562	315.88
385.787	330.88
386.013	359.88
386.238	352.88
386.463	339.88
386.688	340.88
386.913	328.88
387.138	312.88
387.363	319.88
387.588	347.88
387.813	354.88
388.038	321.88
388.263	327.88
388.488	337.88
388.713	324.88
388.938	338.88
389.163	329.88
389.387	334.88
389.612	353.88
389.837	345.88
390.062	351.88
390.287	351.88
390.512	356.88
390.736	336.88
390.961	349.88
391.186	364.88
391.411	362.88
391.636	382.88
391.86	379.88
392.085	392.88
392.31	407.88
392.534	391.88
392.759	440.88
392.984	492.88
393.208	616.88
393.433	790.88
393.658	765.88
393.882	831.88
394.107	1393.88
394.331	2484.88
394.556	3293.88
394.78	2137.88
395.005	1180.88
395.229	945.88
395.454	957.88
395.678	1218.88
395.903	2110.88
396.127	3585.88
396.352	4143.88
396.576	2489.88
396.801	1442.88
397.025	1075.88
397.249	791.88
397.474	664.88
397.698	603.88
397.922	547.88
398.147	514.88
398.371	503.88
398.595	472.88
398.82	458.88
399.044	465.88
399.268	484.88
399.492	488.88
399.717	485.88
399.941	479.88
400.165	464.88
400.389	426.88
400.613	430.88
400.837	396.88
401.062	409.88
401.286	408.88
401.51	407.88
401.734	379.88
401.958	375.88
402.182	374.88
402.406	392.88
402.63	379.88
402.854	376.88
403.078	411.88
403.302	380.88
403.526	406.88
403.75	398.88
403.974	412.88
404.198	385.88
404.422	414.88
404.645	393.88
404.869	411.88
405.093	418.88
405.317	392.88
405.541	390.88
405.765	372.88
405.988	378.88
406.212	390.88
406.436	394.88
406.66	389.88
406.883	391.88
407.107	378.88
407.331	417.88
407.555	413.88
407.778	411.88
408.002	402.88
408.226	395.88
408.449	408.88
408.673	399.88
408.896	421.88
409.12	390.88
409.344	369.88
409.567	391.88
409.791	408.88
410.014	397.88
410.238	398.88
410.461	394.88
410.685	388.88
410.908	381.88
411.132	396.88
411.355	362.88
411.578	384.88
411.802	373.88
412.025	379.88
412.249	384.88
412.472	377.88
412.695	372.88
412.919	365.88
413.142	382.88
413.365	375.88
413.589	351.88
413.812	364.88
414.035	389.88
414.258	364.88
414.482	349.88
414.705	380.88
414.928	381.88
415.151	366.88
415.374	361.88
415.597	356.88
415.821	354.88
416.044	363.88
416.267	364.88
416.49	357.88
416.713	350.88
416.936	371.88
417.159	376.88
417.382	359.88
417.605	363.88
417.828	384.88
418.051	369.88
418.274	366.88
418.497	367.88
418.72	373.88
418.943	385.88
419.166	392.88
419.389	397.88
419.611	407.88
419.834	387.88
420.057	381.88
420.28	372.88
420.503	364.88
420.726	376.88
420.948	375.88
421.171	368.88
421.394	372.88
421.617	384.88
421.839	379.88
422.062	373.88
422.285	387.88
422.507	412.88
422.73	408.88
422.953	416.88
423.175	388.88
423.398	377.88
423.621	389.88
423.843	393.88
424.066	375.88
424.288	385.88
424.511	380.88
424.733	379.88
424.956	381.88
425.178	370.88
425.401	379.88
425.623	384.88
425.846	373.88
426.068	391.88
426.291	376.88
426.513	368.88
426.735	365.88
426.958	376.88
427.18	363.88
427.402	368.88
427.625	363.88
427.847	363.88
428.069	357.88
428.292	338.88
428.514	339.88
428.736	369.88
428.958	346.88
429.181	362.88
429.403	347.88
429.625	349.88
429.847	339.88
430.069	349.88
430.292	354.88
430.514	341.88
430.736	368.88
430.958	376.88
431.18	353.88
431.402	339.88
431.624	329.88
431.846	331.88
432.068	332.88
432.29	324.88
432.512	342.88
432.734	341.88
432.956	356.88
433.178	359.88
433.4	377.88
433.622	369.88
433.844	357.88
434.066	352.88
434.287	335.88
434.509	312.88
434.731	331.88
434.953	354.88
435.175	380.88
435.397	369.88
435.618	354.88
435.84	335.88
436.062	345.88
436.284	355.88
436.505	355.88
436.727	345.88
436.949	366.88
437.17	363.88
437.392	341.88
437.614	333.88
437.835	334.88
438.057	317.88
438.278	356.88
438.5	349.88
438.721	353.88
438.943	369.88
439.165	349.88
439.386	365.88
439.608	364.88
439.829	380.88
440.05	369.88
440.272	387.88
440.493	387.88
440.715	384.88
440.936	379.88
441.158	404.88
441.379	395.88
441.6	409.88
441.822	388.88
442.043	398.88
442.264	395.88
442.486	402.88
442.707	372.88
442.928	393.88
443.149	381.88
443.371	409.88
443.592	401.88
443.813	388.88
444.034	403.88
444.255	412.88
444.476	405.88
444.698	409.88
444.919	419.88
445.14	652.88
445.361	530.88
445.582	424.88
445.803	394.88
446.024	401.88
446.245	399.88
446.466	383.88
446.687	389.88
446.908	404.88
447.129	381.88
447.35	378.88
447.571	377.88
447.792	375.88
448.013	384.88
448.234	379.88
448.455	380.88
448.675	359.88
448.896	351.88
449.117	388.88
449.338	357.88
449.559	350.88
449.779	336.88
450	368.88
450.221	363.88
450.442	354.88
450.662	363.88
450.883	352.88
451.104	367.88
451.324	365.88
451.545	364.88
451.766	359.88
451.986	354.88
452.207	348.88
452.428	365.88
452.648	365.88
452.869	376.88
453.089	379.88
453.31	341.88
453.53	353.88
453.751	353.88
453.971	364.88
454.192	368.88
454.412	352.88
454.633	349.88
454.853	334.88
455.073	331.88
455.294	359.88
455.514	349.88
455.734	315.88
455.955	318.88
456.175	320.88
456.395	313.88
456.616	328.88
456.836	320.88
457.056	318.88
457.276	299.88
457.497	309.88
457.717	305.88
457.937	307.88
458.157	301.88
458.377	281.88
458.598	300.88
458.818	307.88
459.038	292.88
459.258	317.88
459.478	303.88
459.698	308.88
459.918	347.88
460.138	340.88
460.358	349.88
460.578	375.88
460.798	360.88
461.018	363.88
461.238	367.88
461.458	378.88
461.678	358.88
461.898	365.88
462.118	405.88
462.338	387.88
462.558	411.88
462.777	410.88
462.997	408.88
463.217	410.88
463.437	412.88
463.657	414.88
463.876	403.88
464.096	391.88
464.316	381.88
464.536	391.88
464.755	388.88
464.975	384.88
465.195	389.88
465.414	386.88
465.634	355.88
465.854	388.88
466.073	391.88
466.293	435.88
466.512	477.88
466.732	453.88
466.951	426.88
467.171	407.88
467.391	419.88
467.61	394.88
467.829	383.88
468.049	393.88
468.268	378.88
468.488	365.88
468.707	375.88
468.927	360.88
469.146	369.88
469.365	370.88
469.585	379.88
469.804	372.88
470.023	381.88
470.243	384.88
470.462	394.88
470.681	377.88
470.901	384.88
471.12	368.88
471.339	370.88
471.558	379.88
471.777	375.88
471.997	373.88
472.216	351.88
472.435	361.88
472.654	353.88
472.873	349.88
473.092	356.88
473.311	374.88
473.53	411.88
473.749	440.88
473.968	455.88
474.187	442.88
474.406	434.88
474.625	450.88
474.844	439.88
475.063	488.88
475.282	415.88
475.501	391.88
475.72	392.88
475.939	382.88
476.158	375.88
476.377	365.88
476.596	367.88
476.814	339.88
477.033	358.88
477.252	364.88
477.471	386.88
477.69	373.88
477.908	385.88
478.127	392.88
478.346	407.88
478.564	388.88
478.783	373.88
479.002	386.88
479.22	386.88
479.439	373.88
479.658	383.88
479.876	412.88
480.095	353.88
480.313	370.88
480.532	359.88
480.751	346.88
480.969	347.88
481.188	344.88
481.406	345.88
481.624	339.88
481.843	354.88
482.061	359.88
482.28	355.88
482.498	349.88
482.717	353.88
482.935	377.88
483.153	395.88
483.372	392.88
483.59	390.88
483.808	374.88
484.027	384.88
484.245	404.88
484.463	450.88
484.681	468.88
484.9	431.88
485.118	444.88
485.336	404.88
485.554	404.88
485.772	392.88
485.99	412.88
486.209	381.88
486.427	402.88
486.645	422.88
486.863	436.88
487.081	448.88
487.299	431.88
487.517	435.88
487.735	476.88
487.953	480.88
488.171	495.88
488.389	443.88
488.607	413.88
488.825	434.88
489.043	410.88
489.261	433.88
489.479	416.88
489.696	425.88
489.914	412.88
490.132	410.88
490.35	419.88
490.568	442.88
490.786	448.88
491.003	466.88
491.221	471.88
491.439	481.88
491.657	475.88
491.874	501.88
492.092	523.88
492.31	511.88
492.527	477.88
492.745	485.88
492.963	458.88
493.18	458.88
493.398	477.88
493.615	431.88
493.833	453.88
494.05	451.88
494.268	445.88
494.485	457.88
494.703	452.88
494.92	434.88
495.138	455.88
495.355	455.88
495.573	433.88
495.79	419.88
496.008	431.88
496.225	435.88
496.442	442.88
496.66	438.88
496.877	447.88
497.094	450.88
497.312	446.88
497.529	461.88
497.746	441.88
497.963	452.88
498.181	453.88
498.398	439.88
498.615	437.88
498.832	456.88
499.049	491.88
499.267	505.88
499.484	523.88
499.701	555.88
499.918	623.88
500.135	622.88
500.352	634.88
500.569	656.88
500.786	651.88
501.003	625.88
501.22	579.88
501.437	553.88
501.654	549.88
501.871	493.88
502.088	491.88
502.305	488.88
502.522	450.88
502.739	465.88
