Data from SampC_HRD10591_00038.txt Node
Date: Mon Jan 19 11:37:42 EST 2026
User: Yrep
Spectrometer: HR+D1059
Trigger mode: 0
Integration Time (sec): 3.443000E-1
Scans to average: 1
Electric dark correction enabled: true
Nonlinearity correction enabled: false
Boxcar width: 0
XAxis mode: Wavelengths
Number of Pixels in Spectrum: 2048
>>>>>Begin Spectral Data<<<<<
223.165	-27.12
223.4	-27.12
223.635	-27.12
223.869	-17.12
224.104	-15.12
224.338	-17.12
224.573	-25.12
224.808	-5.12
225.042	-2.12
225.277	-9.12
225.511	0.88
225.746	9.88
225.98	8.88
226.215	18.88
226.449	4.88
226.683	26.88
226.918	24.88
227.152	22.88
227.387	29.88
227.621	33.88
227.856	48.88
228.09	36.88
228.324	59.88
228.559	65.88
228.793	54.88
229.027	90.88
229.262	84.88
229.496	77.88
229.73	98.88
229.964	90.88
230.199	89.88
230.433	100.88
230.667	90.88
230.901	92.88
231.136	98.88
231.37	105.88
231.604	107.88
231.838	117.88
232.072	103.88
232.306	102.88
232.541	115.88
232.775	98.88
233.009	102.88
233.243	106.88
233.477	114.88
233.711	122.88
233.945	126.88
234.179	115.88
234.413	110.88
234.647	104.88
234.881	113.88
235.115	109.88
235.349	97.88
235.583	110.88
235.817	106.88
236.051	111.88
236.285	104.88
236.519	113.88
236.753	136.88
236.987	163.88
237.221	172.88
237.455	198.88
237.689	194.88
237.922	161.88
238.156	143.88
238.39	138.88
238.624	123.88
238.858	113.88
239.091	113.88
239.325	122.88
239.559	113.88
239.793	104.88
240.027	130.88
240.26	105.88
240.494	101.88
240.728	107.88
240.961	115.88
241.195	114.88
241.429	112.88
241.662	114.88
241.896	112.88
242.13	94.88
242.363	104.88
242.597	105.88
242.83	114.88
243.064	129.88
243.298	116.88
243.531	98.88
243.765	109.88
243.998	105.88
244.232	119.88
244.465	116.88
244.699	116.88
244.932	108.88
245.166	110.88
245.399	108.88
245.633	115.88
245.866	132.88
246.099	112.88
246.333	129.88
246.566	114.88
246.8	124.88
247.033	124.88
247.266	122.88
247.5	117.88
247.733	110.88
247.966	111.88
248.2	124.88
248.433	126.88
248.666	124.88
248.899	141.88
249.133	112.88
249.366	145.88
249.599	125.88
249.832	123.88
250.066	123.88
250.299	115.88
250.532	131.88
250.765	136.88
250.998	130.88
251.231	128.88
251.465	104.88
251.698	112.88
251.931	139.88
252.164	137.88
252.397	128.88
252.63	124.88
252.863	131.88
253.096	132.88
253.329	134.88
253.562	120.88
253.795	125.88
254.028	131.88
254.261	132.88
254.494	118.88
254.727	126.88
254.96	121.88
255.193	133.88
255.426	133.88
255.659	134.88
255.892	156.88
256.124	149.88
256.357	144.88
256.59	166.88
256.823	193.88
257.056	227.88
257.289	216.88
257.521	224.88
257.754	270.88
257.987	245.88
258.22	208.88
258.452	177.88
258.685	166.88
258.918	144.88
259.151	163.88
259.383	147.88
259.616	146.88
259.849	134.88
260.081	146.88
260.314	146.88
260.547	136.88
260.779	149.88
261.012	153.88
261.244	139.88
261.477	148.88
261.71	143.88
261.942	144.88
262.175	147.88
262.407	156.88
262.64	150.88
262.872	162.88
263.105	172.88
263.337	211.88
263.57	197.88
263.802	173.88
264.035	179.88
264.267	181.88
264.499	169.88
264.732	175.88
264.964	170.88
265.197	189.88
265.429	238.88
265.661	200.88
265.894	197.88
266.126	225.88
266.358	239.88
266.591	205.88
266.823	195.88
267.055	167.88
267.287	164.88
267.52	160.88
267.752	157.88
267.984	160.88
268.216	164.88
268.448	163.88
268.681	155.88
268.913	148.88
269.145	154.88
269.377	170.88
269.609	169.88
269.841	153.88
270.073	155.88
270.306	148.88
270.538	150.88
270.77	142.88
271.002	148.88
271.234	150.88
271.466	170.88
271.698	159.88
271.93	156.88
272.162	156.88
272.394	157.88
272.626	147.88
272.858	157.88
273.09	165.88
273.322	157.88
273.553	160.88
273.785	160.88
274.017	171.88
274.249	169.88
274.481	158.88
274.713	154.88
274.945	168.88
275.176	176.88
275.408	159.88
275.64	171.88
275.872	157.88
276.104	179.88
276.335	176.88
276.567	171.88
276.799	158.88
277.031	186.88
277.262	184.88
277.494	192.88
277.726	185.88
277.957	207.88
278.189	201.88
278.421	204.88
278.652	214.88
278.884	229.88
279.115	294.88
279.347	400.88
279.579	549.88
279.81	606.88
280.042	505.88
280.273	458.88
280.505	452.88
280.736	334.88
280.968	248.88
281.199	269.88
281.431	298.88
281.662	340.88
281.894	403.88
282.125	321.88
282.356	281.88
282.588	260.88
282.819	235.88
283.051	224.88
283.282	198.88
283.513	213.88
283.745	200.88
283.976	187.88
284.207	180.88
284.439	204.88
284.67	208.88
284.901	228.88
285.132	258.88
285.364	290.88
285.595	235.88
285.826	202.88
286.057	195.88
286.288	186.88
286.52	181.88
286.751	187.88
286.982	197.88
287.213	188.88
287.444	188.88
287.675	179.88
287.906	194.88
288.138	190.88
288.369	197.88
288.6	210.88
288.831	194.88
289.062	193.88
289.293	181.88
289.524	191.88
289.755	193.88
289.986	209.88
290.217	197.88
290.448	200.88
290.679	191.88
290.91	207.88
291.141	196.88
291.371	188.88
291.602	197.88
291.833	202.88
292.064	194.88
292.295	191.88
292.526	224.88
292.757	215.88
292.987	218.88
293.218	216.88
293.449	213.88
293.68	216.88
293.91	218.88
294.141	220.88
294.372	193.88
294.603	190.88
294.833	192.88
295.064	193.88
295.295	201.88
295.525	197.88
295.756	196.88
295.987	191.88
296.217	201.88
296.448	194.88
296.679	201.88
296.909	202.88
297.14	204.88
297.37	191.88
297.601	178.88
297.831	211.88
298.062	210.88
298.292	186.88
298.523	210.88
298.753	202.88
298.984	195.88
299.214	198.88
299.445	214.88
299.675	213.88
299.905	213.88
300.136	221.88
300.366	203.88
300.597	200.88
300.827	215.88
301.057	210.88
301.288	216.88
301.518	222.88
301.748	220.88
301.979	268.88
302.209	234.88
302.439	218.88
302.669	226.88
302.9	220.88
303.13	258.88
303.36	258.88
303.59	253.88
303.82	242.88
304.051	272.88
304.281	260.88
304.511	280.88
304.741	286.88
304.971	335.88
305.201	399.88
305.431	427.88
305.661	501.88
305.891	511.88
306.121	481.88
306.352	444.88
306.582	458.88
306.812	432.88
307.042	383.88
307.272	389.88
307.502	437.88
307.731	580.88
307.961	825.88
308.191	1080.88
308.421	1278.88
308.651	1081.88
308.881	993.88
309.111	1212.88
309.341	1562.88
309.571	1462.88
309.8	936.88
310.03	632.88
310.26	510.88
310.49	430.88
310.72	374.88
310.949	344.88
311.179	336.88
311.409	315.88
311.639	302.88
311.868	303.88
312.098	270.88
312.328	278.88
312.557	273.88
312.787	240.88
313.017	281.88
313.246	252.88
313.476	264.88
313.706	244.88
313.935	245.88
314.165	245.88
314.394	233.88
314.624	234.88
314.853	245.88
315.083	252.88
315.312	243.88
315.542	237.88
315.771	233.88
316.001	258.88
316.23	219.88
316.46	225.88
316.689	235.88
316.919	242.88
317.148	233.88
317.377	240.88
317.607	241.88
317.836	229.88
318.065	207.88
318.295	233.88
318.524	220.88
318.753	216.88
318.983	210.88
319.212	227.88
319.441	232.88
319.67	233.88
319.9	214.88
320.129	209.88
320.358	233.88
320.587	228.88
320.816	227.88
321.046	235.88
321.275	232.88
321.504	224.88
321.733	229.88
321.962	227.88
322.191	221.88
322.42	202.88
322.649	234.88
322.878	214.88
323.108	225.88
323.337	235.88
323.566	220.88
323.795	236.88
324.024	254.88
324.253	230.88
324.482	228.88
324.71	231.88
324.939	238.88
325.168	214.88
325.397	222.88
325.626	238.88
325.855	233.88
326.084	234.88
326.313	230.88
326.542	222.88
326.77	227.88
326.999	217.88
327.228	236.88
327.457	236.88
327.686	230.88
327.914	207.88
328.143	237.88
328.372	249.88
328.6	221.88
328.829	245.88
329.058	231.88
329.287	247.88
329.515	222.88
329.744	240.88
329.972	234.88
330.201	241.88
330.43	233.88
330.658	232.88
330.887	229.88
331.115	241.88
331.344	238.88
331.572	238.88
331.801	245.88
332.03	255.88
332.258	242.88
332.486	249.88
332.715	239.88
332.943	238.88
333.172	268.88
333.4	267.88
333.629	266.88
333.857	271.88
334.085	261.88
334.314	271.88
334.542	255.88
334.771	238.88
334.999	263.88
335.227	268.88
335.455	251.88
335.684	266.88
335.912	256.88
336.14	256.88
336.369	247.88
336.597	250.88
336.825	229.88
337.053	250.88
337.281	246.88
337.51	230.88
337.738	262.88
337.966	254.88
338.194	238.88
338.422	234.88
338.65	240.88
338.878	249.88
339.106	239.88
339.334	254.88
339.562	224.88
339.79	228.88
340.018	237.88
340.246	232.88
340.474	230.88
340.702	253.88
340.93	242.88
341.158	245.88
341.386	240.88
341.614	242.88
341.842	236.88
342.07	225.88
342.298	243.88
342.526	244.88
342.754	245.88
342.981	254.88
343.209	235.88
343.437	249.88
343.665	251.88
343.893	256.88
344.12	270.88
344.348	259.88
344.576	260.88
344.804	248.88
345.031	251.88
345.259	248.88
345.487	252.88
345.714	244.88
345.942	239.88
346.17	245.88
346.397	256.88
346.625	250.88
346.853	243.88
347.08	241.88
347.308	237.88
347.535	246.88
347.763	234.88
347.99	245.88
348.218	246.88
348.445	253.88
348.673	239.88
348.9	239.88
349.128	256.88
349.355	244.88
349.583	230.88
349.81	250.88
350.037	259.88
350.265	255.88
350.492	237.88
350.72	237.88
350.947	248.88
351.174	255.88
351.402	254.88
351.629	249.88
351.856	245.88
352.083	255.88
352.311	249.88
352.538	247.88
352.765	257.88
352.992	267.88
353.22	257.88
353.447	264.88
353.674	265.88
353.901	276.88
354.128	267.88
354.355	266.88
354.583	262.88
354.81	269.88
355.037	308.88
355.264	286.88
355.491	280.88
355.718	290.88
355.945	306.88
356.172	287.88
356.399	310.88
356.626	307.88
356.853	337.88
357.08	357.88
357.307	367.88
357.534	370.88
357.761	414.88
357.988	453.88
358.215	514.88
358.441	586.88
358.668	645.88
358.895	600.88
359.122	531.88
359.349	468.88
359.576	420.88
359.802	384.88
360.029	367.88
360.256	353.88
360.483	346.88
360.709	334.88
360.936	358.88
361.163	331.88
361.39	317.88
361.616	324.88
361.843	306.88
362.07	301.88
362.296	304.88
362.523	281.88
362.749	296.88
362.976	284.88
363.203	270.88
363.429	268.88
363.656	272.88
363.882	270.88
364.109	278.88
364.335	273.88
364.562	270.88
364.788	286.88
365.015	262.88
365.241	260.88
365.468	276.88
365.694	260.88
365.92	268.88
366.147	268.88
366.373	251.88
366.599	242.88
366.826	251.88
367.052	264.88
367.278	272.88
367.505	266.88
367.731	272.88
367.957	254.88
368.184	254.88
368.41	258.88
368.636	253.88
368.862	252.88
369.089	268.88
369.315	276.88
369.541	283.88
369.767	259.88
369.993	268.88
370.219	264.88
370.445	267.88
370.672	252.88
370.898	257.88
371.124	267.88
371.35	262.88
371.576	258.88
371.802	268.88
372.028	274.88
372.254	288.88
372.48	266.88
372.706	291.88
372.932	280.88
373.158	276.88
373.384	283.88
373.61	286.88
373.835	259.88
374.061	274.88
374.287	269.88
374.513	271.88
374.739	257.88
374.965	276.88
375.191	289.88
375.416	264.88
375.642	276.88
375.868	271.88
376.094	272.88
376.319	273.88
376.545	276.88
376.771	270.88
376.997	266.88
377.222	275.88
377.448	268.88
377.674	259.88
377.899	266.88
378.125	253.88
378.35	258.88
378.576	272.88
378.802	256.88
379.027	276.88
379.253	270.88
379.478	282.88
379.704	274.88
379.929	285.88
380.155	261.88
380.38	272.88
380.606	276.88
380.831	280.88
381.057	288.88
381.282	274.88
381.507	275.88
381.733	298.88
381.958	282.88
382.184	283.88
382.409	277.88
382.634	331.88
382.86	322.88
383.085	376.88
383.31	365.88
383.535	370.88
383.761	360.88
383.986	354.88
384.211	307.88
384.436	320.88
384.662	309.88
384.887	299.88
385.112	294.88
385.337	308.88
385.562	312.88
385.787	321.88
386.013	324.88
386.238	322.88
386.463	332.88
386.688	357.88
386.913	317.88
387.138	308.88
387.363	312.88
387.588	305.88
387.813	298.88
388.038	312.88
388.263	321.88
388.488	319.88
388.713	305.88
388.938	299.88
389.163	307.88
389.387	309.88
389.612	324.88
389.837	322.88
390.062	324.88
390.287	323.88
390.512	328.88
390.736	320.88
390.961	353.88
391.186	352.88
391.411	334.88
391.636	331.88
391.86	366.88
392.085	356.88
392.31	353.88
392.534	360.88
392.759	388.88
392.984	396.88
393.208	428.88
393.433	464.88
393.658	520.88
393.882	613.88
394.107	1001.88
394.331	1724.88
394.556	2286.88
394.78	1596.88
395.005	925.88
395.229	737.88
395.454	744.88
395.678	958.88
395.903	1512.88
396.127	2512.88
396.352	2885.88
396.576	1777.88
396.801	1066.88
397.025	791.88
397.249	636.88
397.474	568.88
397.698	513.88
397.922	492.88
398.147	454.88
398.371	469.88
398.595	452.88
398.82	435.88
399.044	434.88
399.268	448.88
399.492	445.88
399.717	466.88
399.941	454.88
400.165	433.88
400.389	417.88
400.613	399.88
400.837	386.88
401.062	377.88
401.286	379.88
401.51	380.88
401.734	374.88
401.958	372.88
402.182	363.88
402.406	368.88
402.63	373.88
402.854	365.88
403.078	372.88
403.302	374.88
403.526	396.88
403.75	382.88
403.974	394.88
404.198	387.88
404.422	392.88
404.645	392.88
404.869	375.88
405.093	371.88
405.317	357.88
405.541	360.88
405.765	376.88
405.988	379.88
406.212	362.88
406.436	373.88
406.66	388.88
406.883	382.88
407.107	403.88
407.331	366.88
407.555	378.88
407.778	395.88
408.002	396.88
408.226	367.88
408.449	402.88
408.673	372.88
408.896	379.88
409.12	389.88
409.344	387.88
409.567	390.88
409.791	355.88
410.014	358.88
410.238	373.88
410.461	375.88
410.685	364.88
410.908	374.88
411.132	361.88
411.355	331.88
411.578	380.88
411.802	366.88
412.025	368.88
412.249	350.88
412.472	368.88
412.695	380.88
412.919	351.88
413.142	373.88
413.365	348.88
413.589	355.88
413.812	353.88
414.035	358.88
414.258	360.88
414.482	366.88
414.705	360.88
414.928	356.88
415.151	365.88
415.374	350.88
415.597	346.88
415.821	354.88
416.044	363.88
416.267	376.88
416.49	361.88
416.713	371.88
416.936	346.88
417.159	360.88
417.382	365.88
417.605	357.88
417.828	338.88
418.051	366.88
418.274	356.88
418.497	344.88
418.72	385.88
418.943	386.88
419.166	386.88
419.389	388.88
419.611	393.88
419.834	380.88
420.057	388.88
420.28	371.88
420.503	357.88
420.726	351.88
420.948	363.88
421.171	364.88
421.394	365.88
421.617	385.88
421.839	389.88
422.062	383.88
422.285	352.88
422.507	362.88
422.73	370.88
422.953	358.88
423.175	369.88
423.398	372.88
423.621	382.88
423.843	361.88
424.066	374.88
424.288	371.88
424.511	368.88
424.733	389.88
424.956	395.88
425.178	381.88
425.401	357.88
425.623	370.88
425.846	367.88
426.068	361.88
426.291	345.88
426.513	355.88
426.735	372.88
426.958	359.88
427.18	367.88
427.402	363.88
427.625	347.88
427.847	352.88
428.069	336.88
428.292	346.88
428.514	341.88
428.736	342.88
428.958	369.88
429.181	345.88
429.403	335.88
429.625	343.88
429.847	333.88
430.069	348.88
430.292	371.88
430.514	361.88
430.736	349.88
430.958	346.88
431.18	343.88
431.402	350.88
431.624	338.88
431.846	292.88
432.068	325.88
432.29	313.88
432.512	319.88
432.734	360.88
432.956	362.88
433.178	372.88
433.4	334.88
433.622	371.88
433.844	350.88
434.066	356.88
434.287	323.88
434.509	315.88
434.731	340.88
434.953	342.88
435.175	360.88
435.397	358.88
435.618	359.88
435.84	331.88
436.062	346.88
436.284	362.88
436.505	358.88
436.727	344.88
436.949	352.88
437.17	355.88
437.392	347.88
437.614	352.88
437.835	319.88
438.057	329.88
438.278	333.88
438.5	330.88
438.721	340.88
438.943	353.88
439.165	334.88
439.386	369.88
439.608	370.88
439.829	366.88
440.05	368.88
440.272	357.88
440.493	343.88
440.715	379.88
440.936	378.88
441.158	406.88
441.379	385.88
441.6	392.88
441.822	392.88
442.043	389.88
442.264	380.88
442.486	387.88
442.707	374.88
442.928	380.88
443.149	365.88
443.371	373.88
443.592	364.88
443.813	373.88
444.034	387.88
444.255	386.88
444.476	406.88
444.698	413.88
444.919	414.88
445.14	643.88
445.361	515.88
445.582	390.88
445.803	373.88
446.024	353.88
446.245	366.88
446.466	378.88
446.687	379.88
446.908	416.88
447.129	371.88
447.35	381.88
447.571	359.88
447.792	348.88
448.013	372.88
448.234	356.88
448.455	372.88
448.675	360.88
448.896	346.88
449.117	348.88
449.338	331.88
449.559	339.88
449.779	337.88
450	354.88
450.221	342.88
450.442	355.88
450.662	344.88
450.883	333.88
451.104	340.88
451.324	359.88
451.545	355.88
451.766	343.88
451.986	349.88
452.207	362.88
452.428	344.88
452.648	344.88
452.869	339.88
453.089	324.88
453.31	321.88
453.53	329.88
453.751	333.88
453.971	334.88
454.192	335.88
454.412	302.88
454.633	326.88
454.853	322.88
455.073	344.88
455.294	325.88
455.514	326.88
455.734	319.88
455.955	313.88
456.175	320.88
456.395	302.88
456.616	306.88
456.836	295.88
457.056	293.88
457.276	269.88
457.497	289.88
457.717	294.88
457.937	312.88
458.157	301.88
458.377	300.88
458.598	293.88
458.818	295.88
459.038	285.88
459.258	284.88
459.478	313.88
459.698	297.88
459.918	314.88
460.138	328.88
460.358	341.88
460.578	348.88
460.798	370.88
461.018	367.88
461.238	345.88
461.458	366.88
461.678	357.88
461.898	369.88
462.118	357.88
462.338	377.88
462.558	378.88
462.777	386.88
462.997	406.88
463.217	397.88
463.437	404.88
463.657	388.88
463.876	374.88
464.096	371.88
464.316	389.88
464.536	408.88
464.755	388.88
464.975	367.88
465.195	372.88
465.414	357.88
465.634	368.88
465.854	375.88
466.073	382.88
466.293	393.88
466.512	434.88
466.732	417.88
466.951	412.88
467.171	383.88
467.391	384.88
467.61	372.88
467.829	369.88
468.049	367.88
468.268	352.88
468.488	338.88
468.707	344.88
468.927	351.88
469.146	359.88
469.365	358.88
469.585	361.88
469.804	362.88
470.023	378.88
470.243	354.88
470.462	363.88
470.681	379.88
470.901	370.88
471.12	360.88
471.339	383.88
471.558	358.88
471.777	385.88
471.997	366.88
472.216	324.88
472.435	331.88
472.654	340.88
472.873	349.88
473.092	343.88
473.311	367.88
473.53	383.88
473.749	411.88
473.968	395.88
474.187	410.88
474.406	392.88
474.625	402.88
474.844	417.88
475.063	412.88
475.282	386.88
475.501	357.88
475.72	374.88
475.939	359.88
476.158	340.88
476.377	359.88
476.596	338.88
476.814	346.88
477.033	337.88
477.252	342.88
477.471	324.88
477.69	349.88
477.908	351.88
478.127	358.88
478.346	380.88
478.564	371.88
478.783	365.88
479.002	384.88
479.22	392.88
479.439	378.88
479.658	368.88
479.876	349.88
480.095	338.88
480.313	352.88
480.532	382.88
480.751	347.88
480.969	341.88
481.188	328.88
481.406	325.88
481.624	304.88
481.843	307.88
482.061	333.88
482.28	345.88
482.498	341.88
482.717	338.88
482.935	362.88
483.153	374.88
483.372	386.88
483.59	375.88
483.808	340.88
484.027	365.88
484.245	373.88
484.463	416.88
484.681	413.88
484.9	394.88
485.118	387.88
485.336	375.88
485.554	356.88
485.772	361.88
485.99	348.88
486.209	380.88
486.427	355.88
486.645	381.88
486.863	403.88
487.081	397.88
487.299	388.88
487.517	404.88
487.735	420.88
487.953	423.88
488.171	460.88
488.389	414.88
488.607	412.88
488.825	396.88
489.043	377.88
489.261	395.88
489.479	382.88
489.696	378.88
489.914	392.88
490.132	407.88
490.35	385.88
490.568	414.88
490.786	438.88
491.003	443.88
491.221	438.88
491.439	441.88
491.657	434.88
491.874	461.88
492.092	481.88
492.31	484.88
492.527	461.88
492.745	448.88
492.963	466.88
493.18	450.88
493.398	452.88
493.615	448.88
493.833	429.88
494.05	420.88
494.268	436.88
494.485	443.88
494.703	437.88
494.92	428.88
495.138	426.88
495.355	444.88
495.573	428.88
495.79	429.88
496.008	423.88
496.225	423.88
496.442	398.88
496.66	392.88
496.877	438.88
497.094	456.88
497.312	421.88
497.529	416.88
497.746	438.88
497.963	430.88
498.181	427.88
498.398	430.88
498.615	426.88
498.832	470.88
499.049	478.88
499.267	490.88
499.484	496.88
499.701	550.88
499.918	565.88
500.135	610.88
500.352	637.88
500.569	651.88
500.786	638.88
501.003	613.88
501.22	585.88
501.437	544.88
501.654	517.88
501.871	507.88
502.088	463.88
502.305	472.88
502.522	438.88
502.739	447.88
