Data from SampC_HRD10591_00082.txt Node
Date: Mon Jan 19 11:37:57 EST 2026
User: Yrep
Spectrometer: HR+D1059
Trigger mode: 0
Integration Time (sec): 3.443000E-1
Scans to average: 1
Electric dark correction enabled: true
Nonlinearity correction enabled: false
Boxcar width: 0
XAxis mode: Wavelengths
Number of Pixels in Spectrum: 2048
>>>>>Begin Spectral Data<<<<<
223.165	-24.69
223.4	-24.69
223.635	-24.69
223.869	-19.69
224.104	-43.69
224.338	-4.69
224.573	-25.69
224.808	-20.69
225.042	-5.69
225.277	3.31
225.511	2.31
225.746	2.31
225.98	0.31
226.215	22.31
226.449	16.31
226.683	24.31
226.918	29.31
227.152	44.31
227.387	44.31
227.621	32.31
227.856	54.31
228.09	42.31
228.324	60.31
228.559	63.31
228.793	55.31
229.027	97.31
229.262	84.31
229.496	98.31
229.73	96.31
229.964	77.31
230.199	101.31
230.433	98.31
230.667	111.31
230.901	111.31
231.136	105.31
231.37	108.31
231.604	149.31
231.838	130.31
232.072	127.31
232.306	136.31
232.541	132.31
232.775	120.31
233.009	121.31
233.243	116.31
233.477	109.31
233.711	130.31
233.945	118.31
234.179	118.31
234.413	107.31
234.647	115.31
234.881	131.31
235.115	124.31
235.349	116.31
235.583	140.31
235.817	136.31
236.051	130.31
236.285	148.31
236.519	150.31
236.753	189.31
236.987	234.31
237.221	242.31
237.455	259.31
237.689	236.31
237.922	212.31
238.156	166.31
238.39	143.31
238.624	144.31
238.858	124.31
239.091	125.31
239.325	120.31
239.559	123.31
239.793	138.31
240.027	146.31
240.26	122.31
240.494	126.31
240.728	109.31
240.961	119.31
241.195	127.31
241.429	120.31
241.662	140.31
241.896	127.31
242.13	116.31
242.363	128.31
242.597	122.31
242.83	124.31
243.064	126.31
243.298	131.31
243.531	116.31
243.765	138.31
243.998	136.31
244.232	138.31
244.465	137.31
244.699	124.31
244.932	113.31
245.166	135.31
245.399	138.31
245.633	125.31
245.866	140.31
246.099	149.31
246.333	147.31
246.566	158.31
246.8	147.31
247.033	136.31
247.266	140.31
247.5	140.31
247.733	129.31
247.966	142.31
248.2	152.31
248.433	146.31
248.666	137.31
248.899	159.31
249.133	157.31
249.366	156.31
249.599	155.31
249.832	148.31
250.066	151.31
250.299	146.31
250.532	148.31
250.765	165.31
250.998	158.31
251.231	140.31
251.465	138.31
251.698	157.31
251.931	160.31
252.164	164.31
252.397	147.31
252.63	160.31
252.863	165.31
253.096	160.31
253.329	168.31
253.562	145.31
253.795	161.31
254.028	166.31
254.261	163.31
254.494	145.31
254.727	176.31
254.96	154.31
255.193	163.31
255.426	166.31
255.659	176.31
255.892	194.31
256.124	179.31
256.357	185.31
256.59	203.31
256.823	241.31
257.056	312.31
257.289	284.31
257.521	333.31
257.754	355.31
257.987	344.31
258.22	264.31
258.452	225.31
258.685	195.31
258.918	191.31
259.151	192.31
259.383	176.31
259.616	175.31
259.849	178.31
260.081	185.31
260.314	200.31
260.547	168.31
260.779	195.31
261.012	185.31
261.244	169.31
261.477	195.31
261.71	196.31
261.942	191.31
262.175	177.31
262.407	190.31
262.64	209.31
262.872	240.31
263.105	236.31
263.337	274.31
263.57	298.31
263.802	266.31
264.035	250.31
264.267	218.31
264.499	230.31
264.732	241.31
264.964	240.31
265.197	246.31
265.429	277.31
265.661	284.31
265.894	278.31
266.126	324.31
266.358	322.31
266.591	281.31
266.823	228.31
267.055	227.31
267.287	209.31
267.52	208.31
267.752	221.31
267.984	197.31
268.216	200.31
268.448	205.31
268.681	210.31
268.913	206.31
269.145	201.31
269.377	194.31
269.609	200.31
269.841	190.31
270.073	210.31
270.306	194.31
270.538	207.31
270.77	179.31
271.002	191.31
271.234	194.31
271.466	204.31
271.698	198.31
271.93	201.31
272.162	203.31
272.394	195.31
272.626	209.31
272.858	210.31
273.09	229.31
273.322	202.31
273.553	208.31
273.785	223.31
274.017	220.31
274.249	241.31
274.481	234.31
274.713	229.31
274.945	237.31
275.176	209.31
275.408	210.31
275.64	222.31
275.872	208.31
276.104	226.31
276.335	230.31
276.567	221.31
276.799	235.31
277.031	214.31
277.262	237.31
277.494	240.31
277.726	248.31
277.957	264.31
278.189	291.31
278.421	276.31
278.652	291.31
278.884	330.31
279.115	441.31
279.347	603.31
279.579	856.31
279.81	970.31
280.042	773.31
280.273	742.31
280.505	704.31
280.736	456.31
280.968	351.31
281.199	383.31
281.431	450.31
281.662	575.31
281.894	666.31
282.125	526.31
282.356	406.31
282.588	360.31
282.819	316.31
283.051	289.31
283.282	278.31
283.513	296.31
283.745	291.31
283.976	276.31
284.207	269.31
284.439	276.31
284.67	290.31
284.901	291.31
285.132	345.31
285.364	366.31
285.595	330.31
285.826	266.31
286.057	274.31
286.288	244.31
286.52	254.31
286.751	272.31
286.982	248.31
287.213	246.31
287.444	249.31
287.675	257.31
287.906	264.31
288.138	274.31
288.369	274.31
288.6	278.31
288.831	267.31
289.062	284.31
289.293	250.31
289.524	252.31
289.755	244.31
289.986	252.31
290.217	250.31
290.448	257.31
290.679	260.31
290.91	261.31
291.141	237.31
291.371	253.31
291.602	266.31
291.833	272.31
292.064	272.31
292.295	290.31
292.526	312.31
292.757	313.31
292.987	313.31
293.218	285.31
293.449	302.31
293.68	315.31
293.91	300.31
294.141	292.31
294.372	269.31
294.603	278.31
294.833	272.31
295.064	285.31
295.295	270.31
295.525	266.31
295.756	260.31
295.987	237.31
296.217	270.31
296.448	263.31
296.679	256.31
296.909	262.31
297.14	268.31
297.37	256.31
297.601	246.31
297.831	268.31
298.062	275.31
298.292	272.31
298.523	285.31
298.753	275.31
298.984	275.31
299.214	285.31
299.445	275.31
299.675	278.31
299.905	292.31
300.136	283.31
300.366	278.31
300.597	292.31
300.827	289.31
301.057	287.31
301.288	306.31
301.518	309.31
301.748	311.31
301.979	363.31
302.209	325.31
302.439	304.31
302.669	321.31
302.9	340.31
303.13	356.31
303.36	357.31
303.59	354.31
303.82	373.31
304.051	373.31
304.281	404.31
304.511	406.31
304.741	435.31
304.971	473.31
305.201	602.31
305.431	655.31
305.661	773.31
305.891	812.31
306.121	746.31
306.352	676.31
306.582	697.31
306.812	672.31
307.042	618.31
307.272	590.31
307.502	656.31
307.731	899.31
307.961	1265.31
308.191	1770.31
308.421	2053.31
308.651	1751.31
308.881	1588.31
309.111	1997.31
309.341	2493.31
309.571	2414.31
309.8	1544.31
310.03	1021.31
310.26	763.31
310.49	669.31
310.72	570.31
310.949	514.31
311.179	477.31
311.409	441.31
311.639	434.31
311.868	429.31
312.098	431.31
312.328	383.31
312.557	392.31
312.787	378.31
313.017	385.31
313.246	373.31
313.476	360.31
313.706	345.31
313.935	374.31
314.165	379.31
314.394	369.31
314.624	348.31
314.853	337.31
315.083	340.31
315.312	307.31
315.542	324.31
315.771	326.31
316.001	326.31
316.23	337.31
316.46	320.31
316.689	324.31
316.919	352.31
317.148	323.31
317.377	330.31
317.607	326.31
317.836	325.31
318.065	319.31
318.295	323.31
318.524	329.31
318.753	331.31
318.983	303.31
319.212	312.31
319.441	311.31
319.67	318.31
319.9	300.31
320.129	318.31
320.358	322.31
320.587	313.31
320.816	308.31
321.046	301.31
321.275	296.31
321.504	302.31
321.733	324.31
321.962	315.31
322.191	301.31
322.42	306.31
322.649	305.31
322.878	296.31
323.108	325.31
323.337	325.31
323.566	334.31
323.795	330.31
324.024	339.31
324.253	325.31
324.482	330.31
324.71	325.31
324.939	336.31
325.168	334.31
325.397	308.31
325.626	338.31
325.855	330.31
326.084	341.31
326.313	348.31
326.542	344.31
326.77	354.31
326.999	349.31
327.228	326.31
327.457	324.31
327.686	338.31
327.914	319.31
328.143	337.31
328.372	330.31
328.6	334.31
328.829	337.31
329.058	328.31
329.287	336.31
329.515	328.31
329.744	333.31
329.972	331.31
330.201	336.31
330.43	344.31
330.658	323.31
330.887	336.31
331.115	342.31
331.344	356.31
331.572	376.31
331.801	345.31
332.03	362.31
332.258	354.31
332.486	345.31
332.715	366.31
332.943	369.31
333.172	377.31
333.4	370.31
333.629	397.31
333.857	390.31
334.085	399.31
334.314	384.31
334.542	363.31
334.771	397.31
334.999	384.31
335.227	386.31
335.455	375.31
335.684	380.31
335.912	376.31
336.14	385.31
336.369	368.31
336.597	365.31
336.825	379.31
337.053	358.31
337.281	351.31
337.51	361.31
337.738	343.31
337.966	352.31
338.194	350.31
338.422	361.31
338.65	347.31
338.878	369.31
339.106	342.31
339.334	369.31
339.562	343.31
339.79	357.31
340.018	336.31
340.246	354.31
340.474	342.31
340.702	351.31
340.93	352.31
341.158	357.31
341.386	337.31
341.614	321.31
341.842	353.31
342.07	333.31
342.298	340.31
342.526	333.31
342.754	346.31
342.981	346.31
343.209	356.31
343.437	368.31
343.665	376.31
343.893	381.31
344.12	399.31
344.348	378.31
344.576	354.31
344.804	368.31
345.031	358.31
345.259	368.31
345.487	346.31
345.714	354.31
345.942	361.31
346.17	361.31
346.397	352.31
346.625	354.31
346.853	350.31
347.08	356.31
347.308	343.31
347.535	361.31
347.763	376.31
347.99	381.31
348.218	353.31
348.445	353.31
348.673	342.31
348.9	366.31
349.128	333.31
349.355	346.31
349.583	353.31
349.81	363.31
350.037	357.31
350.265	358.31
350.492	355.31
350.72	356.31
350.947	347.31
351.174	360.31
351.402	355.31
351.629	353.31
351.856	364.31
352.083	357.31
352.311	376.31
352.538	378.31
352.765	380.31
352.992	409.31
353.22	382.31
353.447	387.31
353.674	430.31
353.901	412.31
354.128	417.31
354.355	403.31
354.583	427.31
354.81	429.31
355.037	431.31
355.264	425.31
355.491	448.31
355.718	439.31
355.945	450.31
356.172	483.31
356.399	477.31
356.626	508.31
356.853	520.31
357.08	542.31
357.307	586.31
357.534	607.31
357.761	677.31
357.988	790.31
358.215	904.31
358.441	1058.31
358.668	1187.31
358.895	1145.31
359.122	935.31
359.349	785.31
359.576	686.31
359.802	636.31
360.029	576.31
360.256	586.31
360.483	552.31
360.709	540.31
360.936	548.31
361.163	505.31
361.39	497.31
361.616	490.31
361.843	498.31
362.07	465.31
362.296	464.31
362.523	442.31
362.749	442.31
362.976	428.31
363.203	433.31
363.429	416.31
363.656	411.31
363.882	409.31
364.109	400.31
364.335	416.31
364.562	389.31
364.788	395.31
365.015	387.31
365.241	380.31
365.468	393.31
365.694	386.31
365.92	393.31
366.147	369.31
366.373	372.31
366.599	401.31
366.826	387.31
367.052	378.31
367.278	394.31
367.505	388.31
367.731	396.31
367.957	362.31
368.184	361.31
368.41	380.31
368.636	378.31
368.862	366.31
369.089	369.31
369.315	373.31
369.541	360.31
369.767	377.31
369.993	366.31
370.219	379.31
370.445	375.31
370.672	395.31
370.898	406.31
371.124	383.31
371.35	399.31
371.576	378.31
371.802	379.31
372.028	402.31
372.254	400.31
372.48	411.31
372.706	406.31
372.932	408.31
373.158	395.31
373.384	416.31
373.61	414.31
373.835	413.31
374.061	394.31
374.287	395.31
374.513	390.31
374.739	412.31
374.965	437.31
375.191	417.31
375.416	412.31
375.642	419.31
375.868	379.31
376.094	400.31
376.319	397.31
376.545	371.31
376.771	397.31
376.997	373.31
377.222	389.31
377.448	387.31
377.674	383.31
377.899	377.31
378.125	393.31
378.35	378.31
378.576	381.31
378.802	381.31
379.027	379.31
379.253	370.31
379.478	383.31
379.704	376.31
379.929	372.31
380.155	390.31
380.38	394.31
380.606	389.31
380.831	390.31
381.057	393.31
381.282	416.31
381.507	413.31
381.733	409.31
381.958	428.31
382.184	423.31
382.409	456.31
382.634	464.31
382.86	469.31
383.085	520.31
383.31	528.31
383.535	533.31
383.761	535.31
383.986	540.31
384.211	496.31
384.436	458.31
384.662	446.31
384.887	428.31
385.112	435.31
385.337	452.31
385.562	472.31
385.787	466.31
386.013	462.31
386.238	481.31
386.463	480.31
386.688	485.31
386.913	474.31
387.138	435.31
387.363	465.31
387.588	462.31
387.813	466.31
388.038	490.31
388.263	466.31
388.488	453.31
388.713	451.31
388.938	468.31
389.163	480.31
389.387	461.31
389.612	458.31
389.837	463.31
390.062	478.31
390.287	468.31
390.512	507.31
390.736	501.31
390.961	501.31
391.186	494.31
391.411	501.31
391.636	493.31
391.86	506.31
392.085	524.31
392.31	522.31
392.534	564.31
392.759	566.31
392.984	581.31
393.208	646.31
393.433	706.31
393.658	782.31
393.882	952.31
394.107	1604.31
394.331	2930.31
394.556	3864.31
394.78	2616.31
395.005	1443.31
395.229	1180.31
395.454	1195.31
395.678	1459.31
395.903	2447.31
396.127	4289.31
396.352	4977.31
396.576	2979.31
396.801	1645.31
397.025	1227.31
397.249	970.31
397.474	856.31
397.698	750.31
397.922	757.31
398.147	714.31
398.371	698.31
398.595	651.31
398.82	635.31
399.044	648.31
399.268	652.31
399.492	699.31
399.717	690.31
399.941	680.31
400.165	645.31
400.389	617.31
400.613	614.31
400.837	558.31
401.062	571.31
401.286	553.31
401.51	565.31
401.734	528.31
401.958	553.31
402.182	545.31
402.406	550.31
402.63	557.31
402.854	574.31
403.078	539.31
403.302	558.31
403.526	558.31
403.75	553.31
403.974	546.31
404.198	562.31
404.422	559.31
404.645	554.31
404.869	538.31
405.093	556.31
405.317	536.31
405.541	538.31
405.765	556.31
405.988	564.31
406.212	559.31
406.436	549.31
406.66	564.31
406.883	564.31
407.107	590.31
407.331	598.31
407.555	580.31
407.778	576.31
408.002	574.31
408.226	571.31
408.449	540.31
408.673	584.31
408.896	581.31
409.12	555.31
409.344	546.31
409.567	540.31
409.791	545.31
410.014	547.31
410.238	551.31
410.461	562.31
410.685	530.31
410.908	545.31
411.132	548.31
411.355	515.31
411.578	531.31
411.802	546.31
412.025	515.31
412.249	531.31
412.472	536.31
412.695	521.31
412.919	523.31
413.142	528.31
413.365	520.31
413.589	522.31
413.812	514.31
414.035	533.31
414.258	528.31
414.482	535.31
414.705	505.31
414.928	516.31
415.151	517.31
415.374	526.31
415.597	525.31
415.821	532.31
416.044	514.31
416.267	512.31
416.49	520.31
416.713	524.31
416.936	509.31
417.159	526.31
417.382	517.31
417.605	513.31
417.828	536.31
418.051	529.31
418.274	520.31
418.497	509.31
418.72	531.31
418.943	529.31
419.166	551.31
419.389	568.31
419.611	561.31
419.834	568.31
420.057	540.31
420.28	547.31
420.503	529.31
420.726	524.31
420.948	530.31
421.171	517.31
421.394	513.31
421.617	539.31
421.839	515.31
422.062	542.31
422.285	516.31
422.507	530.31
422.73	534.31
422.953	528.31
423.175	535.31
423.398	524.31
423.621	543.31
423.843	546.31
424.066	554.31
424.288	533.31
424.511	554.31
424.733	538.31
424.956	522.31
425.178	540.31
425.401	530.31
425.623	568.31
425.846	522.31
426.068	510.31
426.291	524.31
426.513	511.31
426.735	523.31
426.958	492.31
427.18	523.31
427.402	497.31
427.625	502.31
427.847	488.31
428.069	501.31
428.292	510.31
428.514	505.31
428.736	504.31
428.958	477.31
429.181	476.31
429.403	487.31
429.625	479.31
429.847	476.31
430.069	498.31
430.292	488.31
430.514	500.31
430.736	491.31
430.958	503.31
431.18	481.31
431.402	508.31
431.624	472.31
431.846	455.31
432.068	436.31
432.29	474.31
432.512	484.31
432.734	502.31
432.956	483.31
433.178	492.31
433.4	502.31
433.622	517.31
433.844	538.31
434.066	479.31
434.287	507.31
434.509	498.31
434.731	478.31
434.953	508.31
435.175	509.31
435.397	522.31
435.618	500.31
435.84	465.31
436.062	491.31
436.284	497.31
436.505	491.31
436.727	502.31
436.949	510.31
437.17	494.31
437.392	489.31
437.614	469.31
437.835	455.31
438.057	466.31
438.278	469.31
438.5	493.31
438.721	512.31
438.943	502.31
439.165	520.31
439.386	521.31
439.608	504.31
439.829	523.31
440.05	521.31
440.272	496.31
440.493	522.31
440.715	520.31
440.936	525.31
441.158	557.31
441.379	537.31
441.6	554.31
441.822	564.31
442.043	547.31
442.264	526.31
442.486	551.31
442.707	528.31
442.928	536.31
443.149	536.31
443.371	553.31
443.592	540.31
443.813	550.31
444.034	544.31
444.255	568.31
444.476	552.31
444.698	569.31
444.919	569.31
445.14	749.31
445.361	656.31
445.582	563.31
445.803	532.31
446.024	549.31
446.245	563.31
446.466	553.31
446.687	546.31
446.908	538.31
447.129	530.31
447.35	529.31
447.571	555.31
447.792	529.31
448.013	532.31
448.234	528.31
448.455	515.31
448.675	496.31
448.896	490.31
449.117	522.31
449.338	499.31
449.559	517.31
449.779	492.31
450	508.31
450.221	481.31
450.442	510.31
450.662	501.31
450.883	498.31
451.104	509.31
451.324	490.31
451.545	486.31
451.766	500.31
451.986	487.31
452.207	491.31
452.428	474.31
452.648	502.31
452.869	496.31
453.089	465.31
453.31	477.31
453.53	477.31
453.751	472.31
453.971	486.31
454.192	494.31
454.412	479.31
454.633	484.31
454.853	475.31
455.073	486.31
455.294	472.31
455.514	466.31
455.734	453.31
455.955	448.31
456.175	451.31
456.395	419.31
456.616	453.31
456.836	430.31
457.056	458.31
457.276	428.31
457.497	440.31
457.717	421.31
457.937	437.31
458.157	445.31
458.377	430.31
458.598	440.31
458.818	453.31
459.038	437.31
459.258	446.31
459.478	452.31
459.698	470.31
459.918	455.31
460.138	483.31
460.358	511.31
460.578	504.31
460.798	510.31
461.018	521.31
461.238	521.31
461.458	541.31
461.678	526.31
461.898	530.31
462.118	540.31
462.338	563.31
462.558	571.31
462.777	584.31
462.997	598.31
463.217	584.31
463.437	598.31
463.657	562.31
463.876	551.31
464.096	582.31
464.316	563.31
464.536	570.31
464.755	584.31
464.975	563.31
465.195	540.31
465.414	531.31
465.634	543.31
465.854	536.31
466.073	544.31
466.293	620.31
466.512	675.31
466.732	643.31
466.951	602.31
467.171	588.31
467.391	564.31
467.61	573.31
467.829	544.31
468.049	556.31
468.268	510.31
468.488	518.31
468.707	530.31
468.927	530.31
469.146	531.31
469.365	524.31
469.585	509.31
469.804	518.31
470.023	552.31
470.243	537.31
470.462	524.31
470.681	517.31
470.901	517.31
471.12	531.31
471.339	528.31
471.558	522.31
471.777	537.31
471.997	526.31
472.216	518.31
472.435	496.31
472.654	484.31
472.873	485.31
473.092	516.31
473.311	528.31
473.53	562.31
473.749	610.31
473.968	613.31
474.187	590.31
474.406	603.31
474.625	617.31
474.844	632.31
475.063	608.31
475.282	552.31
475.501	532.31
475.72	524.31
475.939	514.31
476.158	532.31
476.377	520.31
476.596	477.31
476.814	498.31
477.033	480.31
477.252	499.31
477.471	520.31
477.69	529.31
477.908	526.31
478.127	525.31
478.346	543.31
478.564	523.31
478.783	539.31
479.002	558.31
479.22	550.31
479.439	538.31
479.658	524.31
479.876	488.31
480.095	509.31
480.313	512.31
480.532	525.31
480.751	516.31
480.969	492.31
481.188	489.31
481.406	502.31
481.624	486.31
481.843	468.31
482.061	493.31
482.28	500.31
482.498	484.31
482.717	490.31
482.935	505.31
483.153	538.31
483.372	543.31
483.59	525.31
483.808	557.31
484.027	526.31
484.245	565.31
484.463	626.31
484.681	631.31
484.9	596.31
485.118	613.31
485.336	576.31
485.554	550.31
485.772	569.31
485.99	531.31
486.209	564.31
486.427	550.31
486.645	617.31
486.863	638.31
487.081	606.31
487.299	589.31
487.517	593.31
487.735	635.31
487.953	651.31
488.171	633.31
488.389	600.31
488.607	596.31
488.825	562.31
489.043	558.31
489.261	593.31
489.479	574.31
489.696	607.31
489.914	593.31
490.132	594.31
490.35	611.31
490.568	580.31
490.786	600.31
491.003	619.31
491.221	623.31
491.439	653.31
491.657	642.31
491.874	672.31
492.092	694.31
492.31	708.31
492.527	651.31
492.745	640.31
492.963	618.31
493.18	658.31
493.398	634.31
493.615	607.31
493.833	616.31
494.05	641.31
494.268	610.31
494.485	606.31
494.703	639.31
494.92	614.31
495.138	606.31
495.355	623.31
495.573	609.31
495.79	599.31
496.008	602.31
496.225	614.31
496.442	618.31
496.66	622.31
496.877	625.31
497.094	633.31
497.312	614.31
497.529	617.31
497.746	651.31
497.963	626.31
498.181	625.31
498.398	626.31
498.615	657.31
498.832	688.31
499.049	700.31
499.267	747.31
499.484	775.31
499.701	812.31
499.918	870.31
500.135	934.31
500.352	970.31
500.569	976.31
500.786	981.31
501.003	962.31
501.22	880.31
501.437	841.31
501.654	792.31
501.871	735.31
502.088	714.31
502.305	685.31
502.522	651.31
