Data from SampC_HRD10591_00008.txt Node
Date: Mon Jan 19 11:37:32 EST 2026
User: Yrep
Spectrometer: HR+D1059
Trigger mode: 0
Integration Time (sec): 3.443000E-1
Scans to average: 1
Electric dark correction enabled: true
Nonlinearity correction enabled: false
Boxcar width: 0
XAxis mode: Wavelengths
Number of Pixels in Spectrum: 2048
>>>>>Begin Spectral Data<<<<<
223.165	-12.81
223.4	-12.81
223.635	-12.81
223.869	-25.81
224.104	-20.81
224.338	-25.81
224.573	1.19
224.808	-12.81
225.042	-12.81
225.277	-13.81
225.511	-9.81
225.746	6.19
225.98	25.19
226.215	11.19
226.449	20.19
226.683	20.19
226.918	23.19
227.152	27.19
227.387	29.19
227.621	39.19
227.856	51.19
228.09	48.19
228.324	57.19
228.559	58.19
228.793	81.19
229.027	89.19
229.262	87.19
229.496	100.19
229.73	92.19
229.964	101.19
230.199	101.19
230.433	95.19
230.667	109.19
230.901	102.19
231.136	115.19
231.37	122.19
231.604	137.19
231.838	134.19
232.072	129.19
232.306	129.19
232.541	127.19
232.775	135.19
233.009	143.19
233.243	123.19
233.477	125.19
233.711	143.19
233.945	120.19
234.179	136.19
234.413	118.19
234.647	119.19
234.881	130.19
235.115	112.19
235.349	128.19
235.583	127.19
235.817	149.19
236.051	129.19
236.285	131.19
236.519	173.19
236.753	199.19
236.987	228.19
237.221	264.19
237.455	289.19
237.689	274.19
237.922	229.19
238.156	196.19
238.39	156.19
238.624	155.19
238.858	132.19
239.091	124.19
239.325	127.19
239.559	139.19
239.793	141.19
240.027	138.19
240.26	115.19
240.494	130.19
240.728	132.19
240.961	123.19
241.195	125.19
241.429	133.19
241.662	127.19
241.896	115.19
242.13	140.19
242.363	119.19
242.597	132.19
242.83	134.19
243.064	134.19
243.298	132.19
243.531	153.19
243.765	139.19
243.998	137.19
244.232	154.19
244.465	154.19
244.699	125.19
244.932	142.19
245.166	137.19
245.399	156.19
245.633	135.19
245.866	145.19
246.099	137.19
246.333	158.19
246.566	165.19
246.8	160.19
247.033	140.19
247.266	136.19
247.5	140.19
247.733	153.19
247.966	147.19
248.2	140.19
248.433	156.19
248.666	148.19
248.899	137.19
249.133	159.19
249.366	179.19
249.599	154.19
249.832	152.19
250.066	164.19
250.299	154.19
250.532	151.19
250.765	162.19
250.998	154.19
251.231	163.19
251.465	169.19
251.698	156.19
251.931	165.19
252.164	178.19
252.397	179.19
252.63	172.19
252.863	169.19
253.096	182.19
253.329	175.19
253.562	159.19
253.795	166.19
254.028	182.19
254.261	170.19
254.494	165.19
254.727	187.19
254.96	177.19
255.193	172.19
255.426	172.19
255.659	174.19
255.892	189.19
256.124	190.19
256.357	197.19
256.59	226.19
256.823	268.19
257.056	321.19
257.289	320.19
257.521	338.19
257.754	375.19
257.987	363.19
258.22	271.19
258.452	237.19
258.685	217.19
258.918	194.19
259.151	199.19
259.383	213.19
259.616	181.19
259.849	201.19
260.081	202.19
260.314	222.19
260.547	195.19
260.779	189.19
261.012	197.19
261.244	192.19
261.477	225.19
261.71	187.19
261.942	195.19
262.175	196.19
262.407	207.19
262.64	225.19
262.872	229.19
263.105	248.19
263.337	307.19
263.57	315.19
263.802	293.19
264.035	264.19
264.267	266.19
264.499	228.19
264.732	259.19
264.964	257.19
265.197	275.19
265.429	304.19
265.661	317.19
265.894	279.19
266.126	320.19
266.358	342.19
266.591	273.19
266.823	244.19
267.055	222.19
267.287	217.19
267.52	212.19
267.752	229.19
267.984	218.19
268.216	219.19
268.448	222.19
268.681	202.19
268.913	235.19
269.145	219.19
269.377	217.19
269.609	217.19
269.841	211.19
270.073	225.19
270.306	211.19
270.538	193.19
270.77	223.19
271.002	218.19
271.234	229.19
271.466	221.19
271.698	219.19
271.93	240.19
272.162	220.19
272.394	211.19
272.626	228.19
272.858	227.19
273.09	221.19
273.322	230.19
273.553	235.19
273.785	220.19
274.017	235.19
274.249	221.19
274.481	225.19
274.713	212.19
274.945	253.19
275.176	218.19
275.408	235.19
275.64	222.19
275.872	241.19
276.104	220.19
276.335	245.19
276.567	229.19
276.799	240.19
277.031	236.19
277.262	249.19
277.494	273.19
277.726	254.19
277.957	292.19
278.189	303.19
278.421	311.19
278.652	321.19
278.884	377.19
279.115	463.19
279.347	674.19
279.579	959.19
279.81	1114.19
280.042	885.19
280.273	799.19
280.505	791.19
280.736	515.19
280.968	396.19
281.199	399.19
281.431	500.19
281.662	663.19
281.894	718.19
282.125	587.19
282.356	447.19
282.588	391.19
282.819	355.19
283.051	328.19
283.282	316.19
283.513	322.19
283.745	308.19
283.976	295.19
284.207	298.19
284.439	281.19
284.67	292.19
284.901	326.19
285.132	347.19
285.364	396.19
285.595	358.19
285.826	295.19
286.057	292.19
286.288	258.19
286.52	267.19
286.751	273.19
286.982	268.19
287.213	282.19
287.444	262.19
287.675	271.19
287.906	285.19
288.138	270.19
288.369	281.19
288.6	291.19
288.831	285.19
289.062	291.19
289.293	282.19
289.524	276.19
289.755	280.19
289.986	274.19
290.217	267.19
290.448	278.19
290.679	300.19
290.91	289.19
291.141	299.19
291.371	290.19
291.602	325.19
291.833	280.19
292.064	283.19
292.295	322.19
292.526	326.19
292.757	327.19
292.987	343.19
293.218	327.19
293.449	322.19
293.68	339.19
293.91	327.19
294.141	303.19
294.372	286.19
294.603	315.19
294.833	301.19
295.064	314.19
295.295	276.19
295.525	287.19
295.756	278.19
295.987	279.19
296.217	292.19
296.448	275.19
296.679	302.19
296.909	306.19
297.14	275.19
297.37	297.19
297.601	299.19
297.831	277.19
298.062	300.19
298.292	289.19
298.523	275.19
298.753	277.19
298.984	303.19
299.214	302.19
299.445	310.19
299.675	307.19
299.905	284.19
300.136	302.19
300.366	309.19
300.597	315.19
300.827	321.19
301.057	315.19
301.288	338.19
301.518	326.19
301.748	340.19
301.979	345.19
302.209	345.19
302.439	345.19
302.669	346.19
302.9	344.19
303.13	370.19
303.36	377.19
303.59	356.19
303.82	383.19
304.051	401.19
304.281	416.19
304.511	445.19
304.741	474.19
304.971	530.19
305.201	629.19
305.431	701.19
305.661	817.19
305.891	875.19
306.121	800.19
306.352	757.19
306.582	741.19
306.812	744.19
307.042	661.19
307.272	637.19
307.502	708.19
307.731	907.19
307.961	1338.19
308.191	1889.19
308.421	2249.19
308.651	1882.19
308.881	1722.19
309.111	2190.19
309.341	2798.19
309.571	2673.19
309.8	1609.19
310.03	1064.19
310.26	811.19
310.49	678.19
310.72	593.19
310.949	531.19
311.179	510.19
311.409	505.19
311.639	461.19
311.868	460.19
312.098	426.19
312.328	427.19
312.557	411.19
312.787	414.19
313.017	416.19
313.246	405.19
313.476	396.19
313.706	388.19
313.935	363.19
314.165	372.19
314.394	356.19
314.624	384.19
314.853	370.19
315.083	375.19
315.312	368.19
315.542	362.19
315.771	371.19
316.001	365.19
316.23	374.19
316.46	338.19
316.689	345.19
316.919	334.19
317.148	346.19
317.377	363.19
317.607	371.19
317.836	357.19
318.065	340.19
318.295	348.19
318.524	352.19
318.753	352.19
318.983	368.19
319.212	329.19
319.441	333.19
319.67	355.19
319.9	349.19
320.129	336.19
320.358	358.19
320.587	339.19
320.816	345.19
321.046	343.19
321.275	338.19
321.504	350.19
321.733	338.19
321.962	346.19
322.191	356.19
322.42	326.19
322.649	353.19
322.878	356.19
323.108	352.19
323.337	371.19
323.566	357.19
323.795	353.19
324.024	358.19
324.253	363.19
324.482	351.19
324.71	362.19
324.939	340.19
325.168	358.19
325.397	359.19
325.626	354.19
325.855	352.19
326.084	370.19
326.313	372.19
326.542	370.19
326.77	345.19
326.999	349.19
327.228	362.19
327.457	356.19
327.686	380.19
327.914	362.19
328.143	358.19
328.372	379.19
328.6	346.19
328.829	343.19
329.058	361.19
329.287	365.19
329.515	363.19
329.744	365.19
329.972	364.19
330.201	367.19
330.43	358.19
330.658	374.19
330.887	353.19
331.115	381.19
331.344	361.19
331.572	385.19
331.801	362.19
332.03	400.19
332.258	393.19
332.486	398.19
332.715	403.19
332.943	410.19
333.172	408.19
333.4	427.19
333.629	403.19
333.857	409.19
334.085	418.19
334.314	433.19
334.542	433.19
334.771	413.19
334.999	397.19
335.227	413.19
335.455	422.19
335.684	400.19
335.912	409.19
336.14	420.19
336.369	399.19
336.597	394.19
336.825	410.19
337.053	387.19
337.281	383.19
337.51	379.19
337.738	397.19
337.966	400.19
338.194	386.19
338.422	370.19
338.65	385.19
338.878	397.19
339.106	359.19
339.334	396.19
339.562	383.19
339.79	376.19
340.018	380.19
340.246	372.19
340.474	375.19
340.702	383.19
340.93	381.19
341.158	383.19
341.386	386.19
341.614	370.19
341.842	385.19
342.07	365.19
342.298	379.19
342.526	370.19
342.754	356.19
342.981	401.19
343.209	385.19
343.437	443.19
343.665	419.19
343.893	412.19
344.12	436.19
344.348	420.19
344.576	394.19
344.804	394.19
345.031	391.19
345.259	389.19
345.487	383.19
345.714	400.19
345.942	380.19
346.17	390.19
346.397	399.19
346.625	388.19
346.853	378.19
347.08	385.19
347.308	408.19
347.535	372.19
347.763	388.19
347.99	406.19
348.218	393.19
348.445	398.19
348.673	394.19
348.9	382.19
349.128	416.19
349.355	393.19
349.583	406.19
349.81	393.19
350.037	383.19
350.265	402.19
350.492	382.19
350.72	390.19
350.947	379.19
351.174	394.19
351.402	408.19
351.629	403.19
351.856	409.19
352.083	431.19
352.311	429.19
352.538	412.19
352.765	425.19
352.992	445.19
353.22	429.19
353.447	412.19
353.674	412.19
353.901	427.19
354.128	454.19
354.355	453.19
354.583	434.19
354.81	478.19
355.037	469.19
355.264	465.19
355.491	492.19
355.718	491.19
355.945	518.19
356.172	519.19
356.399	545.19
356.626	567.19
356.853	617.19
357.08	614.19
357.307	677.19
357.534	719.19
357.761	798.19
357.988	883.19
358.215	1051.19
358.441	1187.19
358.668	1387.19
358.895	1332.19
359.122	1079.19
359.349	880.19
359.576	792.19
359.802	734.19
360.029	680.19
360.256	679.19
360.483	614.19
360.709	585.19
360.936	593.19
361.163	582.19
361.39	552.19
361.616	531.19
361.843	523.19
362.07	531.19
362.296	519.19
362.523	480.19
362.749	484.19
362.976	486.19
363.203	486.19
363.429	467.19
363.656	453.19
363.882	433.19
364.109	445.19
364.335	428.19
364.562	454.19
364.788	454.19
365.015	451.19
365.241	430.19
365.468	438.19
365.694	425.19
365.92	436.19
366.147	439.19
366.373	422.19
366.599	403.19
366.826	433.19
367.052	440.19
367.278	417.19
367.505	414.19
367.731	424.19
367.957	423.19
368.184	422.19
368.41	423.19
368.636	430.19
368.862	428.19
369.089	414.19
369.315	410.19
369.541	426.19
369.767	429.19
369.993	432.19
370.219	427.19
370.445	426.19
370.672	418.19
370.898	407.19
371.124	443.19
371.35	418.19
371.576	449.19
371.802	446.19
372.028	434.19
372.254	447.19
372.48	437.19
372.706	436.19
372.932	422.19
373.158	437.19
373.384	435.19
373.61	446.19
373.835	441.19
374.061	440.19
374.287	430.19
374.513	439.19
374.739	447.19
374.965	448.19
375.191	434.19
375.416	453.19
375.642	433.19
375.868	441.19
376.094	445.19
376.319	429.19
376.545	439.19
376.771	424.19
376.997	430.19
377.222	404.19
377.448	435.19
377.674	424.19
377.899	431.19
378.125	427.19
378.35	422.19
378.576	433.19
378.802	433.19
379.027	442.19
379.253	437.19
379.478	422.19
379.704	416.19
379.929	461.19
380.155	427.19
380.38	435.19
380.606	438.19
380.831	451.19
381.057	453.19
381.282	430.19
381.507	457.19
381.733	453.19
381.958	477.19
382.184	491.19
382.409	488.19
382.634	496.19
382.86	499.19
383.085	541.19
383.31	567.19
383.535	591.19
383.761	573.19
383.986	579.19
384.211	507.19
384.436	511.19
384.662	491.19
384.887	487.19
385.112	485.19
385.337	499.19
385.562	486.19
385.787	530.19
386.013	518.19
386.238	503.19
386.463	494.19
386.688	526.19
386.913	509.19
387.138	492.19
387.363	524.19
387.588	516.19
387.813	500.19
388.038	507.19
388.263	505.19
388.488	492.19
388.713	499.19
388.938	501.19
389.163	521.19
389.387	510.19
389.612	532.19
389.837	528.19
390.062	548.19
390.287	535.19
390.512	514.19
390.736	517.19
390.961	548.19
391.186	533.19
391.411	550.19
391.636	566.19
391.86	571.19
392.085	597.19
392.31	594.19
392.534	572.19
392.759	614.19
392.984	646.19
393.208	696.19
393.433	742.19
393.658	847.19
393.882	1042.19
394.107	1695.19
394.331	3059.19
394.556	4061.19
394.78	2723.19
395.005	1534.19
395.229	1221.19
395.454	1239.19
395.678	1577.19
395.903	2609.19
396.127	4547.19
396.352	5297.19
396.576	3163.19
396.801	1775.19
397.025	1284.19
397.249	1035.19
397.474	931.19
397.698	843.19
397.922	819.19
398.147	757.19
398.371	742.19
398.595	725.19
398.82	698.19
399.044	697.19
399.268	711.19
399.492	750.19
399.717	758.19
399.941	782.19
400.165	720.19
400.389	671.19
400.613	625.19
400.837	602.19
401.062	613.19
401.286	598.19
401.51	604.19
401.734	582.19
401.958	595.19
402.182	599.19
402.406	596.19
402.63	615.19
402.854	590.19
403.078	626.19
403.302	623.19
403.526	616.19
403.75	606.19
403.974	613.19
404.198	625.19
404.422	629.19
404.645	634.19
404.869	621.19
405.093	623.19
405.317	606.19
405.541	618.19
405.765	613.19
405.988	622.19
406.212	598.19
406.436	626.19
406.66	634.19
406.883	611.19
407.107	641.19
407.331	670.19
407.555	645.19
407.778	669.19
408.002	646.19
408.226	652.19
408.449	630.19
408.673	626.19
408.896	606.19
409.12	613.19
409.344	610.19
409.567	598.19
409.791	593.19
410.014	621.19
410.238	581.19
410.461	585.19
410.685	605.19
410.908	584.19
411.132	590.19
411.355	591.19
411.578	592.19
411.802	569.19
412.025	585.19
412.249	580.19
412.472	585.19
412.695	586.19
412.919	588.19
413.142	576.19
413.365	597.19
413.589	581.19
413.812	571.19
414.035	579.19
414.258	589.19
414.482	563.19
414.705	583.19
414.928	585.19
415.151	593.19
415.374	569.19
415.597	601.19
415.821	581.19
416.044	567.19
416.267	558.19
416.49	548.19
416.713	577.19
416.936	572.19
417.159	574.19
417.382	566.19
417.605	572.19
417.828	563.19
418.051	571.19
418.274	577.19
418.497	583.19
418.72	575.19
418.943	582.19
419.166	596.19
419.389	629.19
419.611	621.19
419.834	621.19
420.057	611.19
420.28	590.19
420.503	586.19
420.726	576.19
420.948	568.19
421.171	582.19
421.394	580.19
421.617	571.19
421.839	593.19
422.062	582.19
422.285	589.19
422.507	592.19
422.73	567.19
422.953	577.19
423.175	576.19
423.398	585.19
423.621	581.19
423.843	604.19
424.066	607.19
424.288	593.19
424.511	588.19
424.733	629.19
424.956	570.19
425.178	596.19
425.401	585.19
425.623	605.19
425.846	580.19
426.068	567.19
426.291	577.19
426.513	574.19
426.735	578.19
426.958	549.19
427.18	564.19
427.402	558.19
427.625	579.19
427.847	559.19
428.069	557.19
428.292	550.19
428.514	562.19
428.736	547.19
428.958	556.19
429.181	563.19
429.403	535.19
429.625	542.19
429.847	528.19
430.069	555.19
430.292	561.19
430.514	522.19
430.736	555.19
430.958	562.19
431.18	555.19
431.402	544.19
431.624	518.19
431.846	526.19
432.068	493.19
432.29	521.19
432.512	538.19
432.734	551.19
432.956	543.19
433.178	588.19
433.4	578.19
433.622	571.19
433.844	565.19
434.066	546.19
434.287	511.19
434.509	521.19
434.731	557.19
434.953	560.19
435.175	558.19
435.397	567.19
435.618	572.19
435.84	536.19
436.062	525.19
436.284	531.19
436.505	553.19
436.727	548.19
436.949	541.19
437.17	551.19
437.392	530.19
437.614	535.19
437.835	513.19
438.057	529.19
438.278	514.19
438.5	549.19
438.721	525.19
438.943	560.19
439.165	552.19
439.386	536.19
439.608	563.19
439.829	544.19
440.05	566.19
440.272	579.19
440.493	569.19
440.715	559.19
440.936	582.19
441.158	593.19
441.379	589.19
441.6	602.19
441.822	607.19
442.043	568.19
442.264	617.19
442.486	608.19
442.707	596.19
442.928	592.19
443.149	598.19
443.371	599.19
443.592	593.19
443.813	603.19
444.034	625.19
444.255	621.19
444.476	626.19
444.698	614.19
444.919	642.19
445.14	832.19
445.361	721.19
445.582	597.19
445.803	604.19
446.024	594.19
446.245	581.19
446.466	604.19
446.687	569.19
446.908	600.19
447.129	583.19
447.35	566.19
447.571	568.19
447.792	568.19
448.013	584.19
448.234	581.19
448.455	561.19
448.675	555.19
448.896	559.19
449.117	549.19
449.338	541.19
449.559	557.19
449.779	557.19
450	540.19
450.221	554.19
450.442	548.19
450.662	538.19
450.883	539.19
451.104	550.19
451.324	530.19
451.545	541.19
451.766	535.19
451.986	526.19
452.207	534.19
452.428	533.19
452.648	547.19
452.869	555.19
453.089	543.19
453.31	533.19
453.53	523.19
453.751	531.19
453.971	540.19
454.192	539.19
454.412	538.19
454.633	510.19
454.853	537.19
455.073	509.19
455.294	525.19
455.514	499.19
455.734	498.19
455.955	480.19
456.175	489.19
456.395	485.19
456.616	503.19
456.836	487.19
457.056	484.19
457.276	464.19
457.497	471.19
457.717	478.19
457.937	482.19
458.157	474.19
458.377	476.19
458.598	495.19
458.818	484.19
459.038	484.19
459.258	484.19
459.478	479.19
459.698	522.19
459.918	513.19
460.138	523.19
460.358	565.19
460.578	581.19
460.798	572.19
461.018	579.19
461.238	577.19
461.458	577.19
461.678	570.19
461.898	608.19
462.118	606.19
462.338	607.19
462.558	607.19
462.777	637.19
462.997	666.19
463.217	674.19
463.437	685.19
463.657	653.19
463.876	645.19
464.096	653.19
464.316	644.19
464.536	649.19
464.755	634.19
464.975	638.19
465.195	598.19
465.414	596.19
465.634	598.19
465.854	630.19
466.073	636.19
466.293	674.19
466.512	748.19
466.732	726.19
466.951	686.19
467.171	658.19
467.391	645.19
467.61	603.19
467.829	591.19
468.049	596.19
468.268	577.19
468.488	572.19
468.707	555.19
468.927	556.19
469.146	544.19
469.365	578.19
469.585	559.19
469.804	591.19
470.023	572.19
470.243	597.19
470.462	589.19
470.681	589.19
470.901	582.19
471.12	563.19
471.339	571.19
471.558	585.19
471.777	591.19
471.997	562.19
472.216	533.19
472.435	533.19
472.654	523.19
472.873	529.19
473.092	570.19
473.311	573.19
473.53	649.19
473.749	687.19
473.968	692.19
474.187	673.19
474.406	647.19
474.625	695.19
474.844	685.19
475.063	693.19
475.282	616.19
475.501	592.19
475.72	589.19
475.939	573.19
476.158	581.19
476.377	561.19
476.596	556.19
476.814	536.19
477.033	539.19
477.252	569.19
477.471	547.19
477.69	580.19
477.908	585.19
478.127	573.19
478.346	597.19
478.564	600.19
478.783	601.19
479.002	627.19
479.22	587.19
479.439	601.19
479.658	594.19
479.876	599.19
480.095	581.19
480.313	609.19
480.532	599.19
480.751	595.19
480.969	563.19
481.188	543.19
481.406	541.19
481.624	527.19
481.843	531.19
482.061	549.19
482.28	541.19
482.498	539.19
482.717	559.19
482.935	576.19
483.153	583.19
483.372	615.19
483.59	608.19
483.808	563.19
484.027	604.19
484.245	617.19
484.463	674.19
484.681	670.19
484.9	633.19
485.118	639.19
485.336	635.19
485.554	619.19
485.772	616.19
485.99	614.19
486.209	610.19
486.427	590.19
486.645	642.19
486.863	669.19
487.081	655.19
487.299	624.19
487.517	639.19
487.735	678.19
487.953	693.19
488.171	674.19
488.389	675.19
488.607	646.19
488.825	636.19
489.043	591.19
489.261	613.19
489.479	632.19
489.696	619.19
489.914	631.19
490.132	637.19
490.35	646.19
490.568	645.19
490.786	679.19
491.003	687.19
491.221	680.19
491.439	698.19
491.657	674.19
491.874	719.19
492.092	725.19
492.31	752.19
492.527	714.19
492.745	705.19
492.963	717.19
493.18	695.19
493.398	689.19
493.615	698.19
493.833	682.19
494.05	671.19
494.268	683.19
494.485	654.19
494.703	682.19
494.92	674.19
495.138	689.19
495.355	645.19
495.573	671.19
495.79	668.19
496.008	696.19
496.225	669.19
496.442	651.19
496.66	688.19
496.877	711.19
497.094	697.19
497.312	714.19
497.529	683.19
497.746	694.19
497.963	695.19
498.181	708.19
498.398	708.19
498.615	738.19
498.832	761.19
499.049	807.19
499.267	834.19
499.484	852.19
499.701	940.19
499.918	1004.19
500.135	1075.19
500.352	1143.19
500.569	1107.19
500.786	1137.19
501.003	1084.19
501.22	1026.19
501.437	952.19
501.654	888.19
501.871	854.19
502.088	810.19
502.305	764.19
