Data from SampC_HRD10591_00063.txt Node
Date: Mon Jan 19 11:37:51 EST 2026
User: Yrep
Spectrometer: HR+D1059
Trigger mode: 0
Integration Time (sec): 3.443000E-1
Scans to average: 1
Electric dark correction enabled: true
Nonlinearity correction enabled: false
Boxcar width: 0
XAxis mode: Wavelengths
Number of Pixels in Spectrum: 2048
>>>>>Begin Spectral Data<<<<<
223.165	-15.81
223.4	-15.81
223.635	-15.81
223.869	-17.81
224.104	-27.81
224.338	-23.81
224.573	-11.81
224.808	-9.81
225.042	6.19
225.277	0.19
225.511	-6.81
225.746	1.19
225.98	7.19
226.215	8.19
226.449	17.19
226.683	24.19
226.918	21.19
227.152	28.19
227.387	45.19
227.621	46.19
227.856	53.19
228.09	58.19
228.324	55.19
228.559	65.19
228.793	55.19
229.027	86.19
229.262	89.19
229.496	96.19
229.73	90.19
229.964	93.19
230.199	111.19
230.433	94.19
230.667	105.19
230.901	122.19
231.136	98.19
231.37	123.19
231.604	113.19
231.838	120.19
232.072	123.19
232.306	122.19
232.541	138.19
232.775	126.19
233.009	115.19
233.243	112.19
233.477	128.19
233.711	117.19
233.945	108.19
234.179	106.19
234.413	119.19
234.647	116.19
234.881	113.19
235.115	121.19
235.349	118.19
235.583	104.19
235.817	127.19
236.051	128.19
236.285	134.19
236.519	155.19
236.753	162.19
236.987	203.19
237.221	229.19
237.455	242.19
237.689	213.19
237.922	193.19
238.156	155.19
238.39	125.19
238.624	135.19
238.858	145.19
239.091	119.19
239.325	119.19
239.559	117.19
239.793	135.19
240.027	117.19
240.26	113.19
240.494	125.19
240.728	123.19
240.961	125.19
241.195	126.19
241.429	122.19
241.662	123.19
241.896	99.19
242.13	123.19
242.363	126.19
242.597	109.19
242.83	131.19
243.064	122.19
243.298	124.19
243.531	119.19
243.765	110.19
243.998	111.19
244.232	122.19
244.465	126.19
244.699	119.19
244.932	126.19
245.166	118.19
245.399	106.19
245.633	131.19
245.866	120.19
246.099	142.19
246.333	132.19
246.566	124.19
246.8	132.19
247.033	127.19
247.266	140.19
247.5	131.19
247.733	126.19
247.966	130.19
248.2	134.19
248.433	133.19
248.666	139.19
248.899	145.19
249.133	159.19
249.366	154.19
249.599	140.19
249.832	128.19
250.066	130.19
250.299	131.19
250.532	146.19
250.765	142.19
250.998	130.19
251.231	131.19
251.465	155.19
251.698	146.19
251.931	138.19
252.164	152.19
252.397	157.19
252.63	150.19
252.863	134.19
253.096	137.19
253.329	160.19
253.562	149.19
253.795	156.19
254.028	134.19
254.261	165.19
254.494	146.19
254.727	143.19
254.96	149.19
255.193	154.19
255.426	148.19
255.659	146.19
255.892	164.19
256.124	168.19
256.357	167.19
256.59	207.19
256.823	234.19
257.056	297.19
257.289	298.19
257.521	275.19
257.754	335.19
257.987	325.19
258.22	251.19
258.452	210.19
258.685	200.19
258.918	186.19
259.151	186.19
259.383	187.19
259.616	183.19
259.849	171.19
260.081	167.19
260.314	164.19
260.547	168.19
260.779	175.19
261.012	163.19
261.244	162.19
261.477	184.19
261.71	150.19
261.942	170.19
262.175	156.19
262.407	178.19
262.64	176.19
262.872	215.19
263.105	207.19
263.337	240.19
263.57	223.19
263.802	241.19
264.035	204.19
264.267	195.19
264.499	193.19
264.732	212.19
264.964	205.19
265.197	242.19
265.429	269.19
265.661	270.19
265.894	256.19
266.126	297.19
266.358	294.19
266.591	246.19
266.823	216.19
267.055	208.19
267.287	188.19
267.52	181.19
267.752	183.19
267.984	184.19
268.216	188.19
268.448	177.19
268.681	190.19
268.913	181.19
269.145	163.19
269.377	189.19
269.609	186.19
269.841	179.19
270.073	167.19
270.306	168.19
270.538	179.19
270.77	158.19
271.002	168.19
271.234	184.19
271.466	180.19
271.698	187.19
271.93	187.19
272.162	176.19
272.394	189.19
272.626	196.19
272.858	178.19
273.09	179.19
273.322	190.19
273.553	179.19
273.785	180.19
274.017	181.19
274.249	214.19
274.481	180.19
274.713	182.19
274.945	187.19
275.176	178.19
275.408	206.19
275.64	203.19
275.872	193.19
276.104	214.19
276.335	198.19
276.567	191.19
276.799	208.19
277.031	199.19
277.262	211.19
277.494	239.19
277.726	250.19
277.957	277.19
278.189	292.19
278.421	285.19
278.652	308.19
278.884	354.19
279.115	462.19
279.347	694.19
279.579	936.19
279.81	1012.19
280.042	872.19
280.273	775.19
280.505	760.19
280.736	488.19
280.968	363.19
281.199	322.19
281.431	375.19
281.662	471.19
281.894	513.19
282.125	424.19
282.356	336.19
282.588	296.19
282.819	255.19
283.051	247.19
283.282	243.19
283.513	256.19
283.745	254.19
283.976	232.19
284.207	230.19
284.439	248.19
284.67	254.19
284.901	292.19
285.132	372.19
285.364	424.19
285.595	350.19
285.826	256.19
286.057	264.19
286.288	220.19
286.52	221.19
286.751	226.19
286.982	209.19
287.213	228.19
287.444	227.19
287.675	219.19
287.906	230.19
288.138	238.19
288.369	252.19
288.6	240.19
288.831	219.19
289.062	241.19
289.293	215.19
289.524	225.19
289.755	229.19
289.986	207.19
290.217	221.19
290.448	229.19
290.679	225.19
290.91	231.19
291.141	212.19
291.371	223.19
291.602	229.19
291.833	245.19
292.064	240.19
292.295	229.19
292.526	259.19
292.757	265.19
292.987	292.19
293.218	282.19
293.449	284.19
293.68	296.19
293.91	302.19
294.141	276.19
294.372	254.19
294.603	242.19
294.833	219.19
295.064	221.19
295.295	227.19
295.525	234.19
295.756	249.19
295.987	222.19
296.217	211.19
296.448	240.19
296.679	238.19
296.909	240.19
297.14	241.19
297.37	245.19
297.601	230.19
297.831	232.19
298.062	236.19
298.292	231.19
298.523	235.19
298.753	246.19
298.984	229.19
299.214	251.19
299.445	234.19
299.675	244.19
299.905	247.19
300.136	251.19
300.366	239.19
300.597	243.19
300.827	255.19
301.057	264.19
301.288	287.19
301.518	270.19
301.748	273.19
301.979	310.19
302.209	267.19
302.439	290.19
302.669	276.19
302.9	302.19
303.13	301.19
303.36	300.19
303.59	319.19
303.82	317.19
304.051	331.19
304.281	373.19
304.511	372.19
304.741	394.19
304.971	462.19
305.201	534.19
305.431	569.19
305.661	645.19
305.891	718.19
306.121	642.19
306.352	586.19
306.582	628.19
306.812	604.19
307.042	537.19
307.272	528.19
307.502	613.19
307.731	796.19
307.961	1139.19
308.191	1638.19
308.421	1840.19
308.651	1599.19
308.881	1492.19
309.111	1768.19
309.341	2156.19
309.571	2114.19
309.8	1390.19
310.03	933.19
310.26	700.19
310.49	575.19
310.72	507.19
310.949	473.19
311.179	435.19
311.409	398.19
311.639	420.19
311.868	410.19
312.098	375.19
312.328	350.19
312.557	348.19
312.787	335.19
313.017	334.19
313.246	339.19
313.476	293.19
313.706	310.19
313.935	319.19
314.165	302.19
314.394	296.19
314.624	281.19
314.853	298.19
315.083	290.19
315.312	288.19
315.542	290.19
315.771	291.19
316.001	303.19
316.23	312.19
316.46	293.19
316.689	297.19
316.919	295.19
317.148	282.19
317.377	293.19
317.607	291.19
317.836	314.19
318.065	316.19
318.295	307.19
318.524	280.19
318.753	273.19
318.983	272.19
319.212	276.19
319.441	274.19
319.67	274.19
319.9	256.19
320.129	266.19
320.358	266.19
320.587	264.19
320.816	288.19
321.046	285.19
321.275	284.19
321.504	262.19
321.733	254.19
321.962	266.19
322.191	272.19
322.42	277.19
322.649	273.19
322.878	274.19
323.108	280.19
323.337	276.19
323.566	289.19
323.795	283.19
324.024	290.19
324.253	280.19
324.482	305.19
324.71	283.19
324.939	284.19
325.168	286.19
325.397	282.19
325.626	280.19
325.855	278.19
326.084	270.19
326.313	291.19
326.542	290.19
326.77	281.19
326.999	278.19
327.228	280.19
327.457	285.19
327.686	277.19
327.914	262.19
328.143	282.19
328.372	270.19
328.6	287.19
328.829	276.19
329.058	270.19
329.287	275.19
329.515	282.19
329.744	281.19
329.972	274.19
330.201	286.19
330.43	287.19
330.658	270.19
330.887	276.19
331.115	290.19
331.344	285.19
331.572	276.19
331.801	287.19
332.03	298.19
332.258	282.19
332.486	292.19
332.715	284.19
332.943	321.19
333.172	305.19
333.4	311.19
333.629	310.19
333.857	317.19
334.085	343.19
334.314	311.19
334.542	336.19
334.771	328.19
334.999	331.19
335.227	306.19
335.455	290.19
335.684	305.19
335.912	300.19
336.14	313.19
336.369	307.19
336.597	307.19
336.825	307.19
337.053	303.19
337.281	306.19
337.51	296.19
337.738	287.19
337.966	275.19
338.194	282.19
338.422	288.19
338.65	305.19
338.878	302.19
339.106	286.19
339.334	296.19
339.562	274.19
339.79	290.19
340.018	293.19
340.246	277.19
340.474	276.19
340.702	294.19
340.93	297.19
341.158	274.19
341.386	276.19
341.614	288.19
341.842	295.19
342.07	285.19
342.298	288.19
342.526	291.19
342.754	288.19
342.981	288.19
343.209	292.19
343.437	326.19
343.665	321.19
343.893	304.19
344.12	325.19
344.348	313.19
344.576	311.19
344.804	302.19
345.031	292.19
345.259	297.19
345.487	298.19
345.714	300.19
345.942	282.19
346.17	299.19
346.397	283.19
346.625	279.19
346.853	291.19
347.08	281.19
347.308	292.19
347.535	288.19
347.763	296.19
347.99	283.19
348.218	296.19
348.445	284.19
348.673	283.19
348.9	300.19
349.128	286.19
349.355	303.19
349.583	299.19
349.81	282.19
350.037	316.19
350.265	292.19
350.492	286.19
350.72	304.19
350.947	287.19
351.174	299.19
351.402	305.19
351.629	295.19
351.856	303.19
352.083	311.19
352.311	307.19
352.538	297.19
352.765	293.19
352.992	334.19
353.22	318.19
353.447	300.19
353.674	330.19
353.901	311.19
354.128	347.19
354.355	340.19
354.583	335.19
354.81	359.19
355.037	346.19
355.264	333.19
355.491	338.19
355.718	363.19
355.945	345.19
356.172	361.19
356.399	395.19
356.626	395.19
356.853	417.19
357.08	430.19
357.307	435.19
357.534	466.19
357.761	526.19
357.988	591.19
358.215	689.19
358.441	782.19
358.668	862.19
358.895	840.19
359.122	704.19
359.349	596.19
359.576	541.19
359.802	503.19
360.029	466.19
360.256	444.19
360.483	432.19
360.709	414.19
360.936	416.19
361.163	407.19
361.39	383.19
361.616	375.19
361.843	380.19
362.07	379.19
362.296	361.19
362.523	367.19
362.749	347.19
362.976	333.19
363.203	348.19
363.429	326.19
363.656	328.19
363.882	318.19
364.109	326.19
364.335	332.19
364.562	324.19
364.788	306.19
365.015	313.19
365.241	317.19
365.468	320.19
365.694	296.19
365.92	315.19
366.147	311.19
366.373	297.19
366.599	310.19
366.826	309.19
367.052	306.19
367.278	324.19
367.505	323.19
367.731	335.19
367.957	323.19
368.184	324.19
368.41	292.19
368.636	321.19
368.862	312.19
369.089	316.19
369.315	318.19
369.541	320.19
369.767	307.19
369.993	318.19
370.219	321.19
370.445	332.19
370.672	340.19
370.898	294.19
371.124	328.19
371.35	324.19
371.576	334.19
371.802	327.19
372.028	346.19
372.254	343.19
372.48	323.19
372.706	316.19
372.932	338.19
373.158	335.19
373.384	359.19
373.61	364.19
373.835	357.19
374.061	340.19
374.287	340.19
374.513	358.19
374.739	355.19
374.965	346.19
375.191	322.19
375.416	340.19
375.642	351.19
375.868	345.19
376.094	323.19
376.319	341.19
376.545	332.19
376.771	314.19
376.997	306.19
377.222	319.19
377.448	324.19
377.674	309.19
377.899	331.19
378.125	325.19
378.35	320.19
378.576	331.19
378.802	314.19
379.027	323.19
379.253	317.19
379.478	311.19
379.704	326.19
379.929	340.19
380.155	348.19
380.38	327.19
380.606	320.19
380.831	316.19
381.057	350.19
381.282	353.19
381.507	349.19
381.733	376.19
381.958	386.19
382.184	396.19
382.409	391.19
382.634	445.19
382.86	465.19
383.085	575.19
383.31	626.19
383.535	618.19
383.761	643.19
383.986	659.19
384.211	496.19
384.436	407.19
384.662	385.19
384.887	370.19
385.112	383.19
385.337	386.19
385.562	375.19
385.787	389.19
386.013	397.19
386.238	415.19
386.463	414.19
386.688	426.19
386.913	391.19
387.138	401.19
387.363	394.19
387.588	412.19
387.813	407.19
388.038	398.19
388.263	385.19
388.488	406.19
388.713	384.19
388.938	405.19
389.163	385.19
389.387	399.19
389.612	390.19
389.837	387.19
390.062	417.19
390.287	428.19
390.512	430.19
390.736	413.19
390.961	424.19
391.186	429.19
391.411	436.19
391.636	442.19
391.86	463.19
392.085	460.19
392.31	480.19
392.534	495.19
392.759	546.19
392.984	626.19
393.208	872.19
393.433	1140.19
393.658	1055.19
393.882	1005.19
394.107	1575.19
394.331	2822.19
394.556	3621.19
394.78	2444.19
395.005	1429.19
395.229	1082.19
395.454	1134.19
395.678	1440.19
395.903	2396.19
396.127	4072.19
396.352	4572.19
396.576	2904.19
396.801	1771.19
397.025	1396.19
397.249	973.19
397.474	789.19
397.698	702.19
397.922	647.19
398.147	618.19
398.371	605.19
398.595	578.19
398.82	556.19
399.044	547.19
399.268	567.19
399.492	581.19
399.717	590.19
399.941	550.19
400.165	550.19
400.389	507.19
400.613	514.19
400.837	486.19
401.062	503.19
401.286	477.19
401.51	466.19
401.734	460.19
401.958	459.19
402.182	444.19
402.406	453.19
402.63	448.19
402.854	472.19
403.078	467.19
403.302	474.19
403.526	487.19
403.75	458.19
403.974	484.19
404.198	467.19
404.422	466.19
404.645	478.19
404.869	472.19
405.093	494.19
405.317	442.19
405.541	461.19
405.765	461.19
405.988	474.19
406.212	488.19
406.436	466.19
406.66	479.19
406.883	454.19
407.107	466.19
407.331	483.19
407.555	509.19
407.778	496.19
408.002	491.19
408.226	469.19
408.449	455.19
408.673	464.19
408.896	429.19
409.12	449.19
409.344	453.19
409.567	460.19
409.791	464.19
410.014	460.19
410.238	456.19
410.461	461.19
410.685	460.19
410.908	454.19
411.132	453.19
411.355	441.19
411.578	446.19
411.802	462.19
412.025	435.19
412.249	423.19
412.472	445.19
412.695	419.19
412.919	403.19
413.142	452.19
413.365	456.19
413.589	429.19
413.812	436.19
414.035	445.19
414.258	420.19
414.482	436.19
414.705	449.19
414.928	443.19
415.151	450.19
415.374	429.19
415.597	423.19
415.821	420.19
416.044	419.19
416.267	447.19
416.49	419.19
416.713	437.19
416.936	443.19
417.159	432.19
417.382	427.19
417.605	438.19
417.828	438.19
418.051	449.19
418.274	421.19
418.497	455.19
418.72	414.19
418.943	432.19
419.166	468.19
419.389	470.19
419.611	451.19
419.834	473.19
420.057	436.19
420.28	430.19
420.503	453.19
420.726	425.19
420.948	440.19
421.171	447.19
421.394	446.19
421.617	448.19
421.839	453.19
422.062	455.19
422.285	443.19
422.507	477.19
422.73	549.19
422.953	531.19
423.175	446.19
423.398	424.19
423.621	465.19
423.843	434.19
424.066	434.19
424.288	450.19
424.511	447.19
424.733	455.19
424.956	459.19
425.178	453.19
425.401	460.19
425.623	461.19
425.846	438.19
426.068	440.19
426.291	444.19
426.513	439.19
426.735	444.19
426.958	443.19
427.18	429.19
427.402	436.19
427.625	421.19
427.847	433.19
428.069	414.19
428.292	400.19
428.514	399.19
428.736	429.19
428.958	428.19
429.181	406.19
429.403	434.19
429.625	411.19
429.847	408.19
430.069	431.19
430.292	435.19
430.514	429.19
430.736	421.19
430.958	424.19
431.18	392.19
431.402	428.19
431.624	389.19
431.846	398.19
432.068	365.19
432.29	380.19
432.512	405.19
432.734	406.19
432.956	415.19
433.178	430.19
433.4	432.19
433.622	442.19
433.844	403.19
434.066	412.19
434.287	393.19
434.509	384.19
434.731	406.19
434.953	417.19
435.175	424.19
435.397	440.19
435.618	419.19
435.84	388.19
436.062	418.19
436.284	422.19
436.505	410.19
436.727	418.19
436.949	425.19
437.17	426.19
437.392	395.19
437.614	391.19
437.835	378.19
438.057	388.19
438.278	398.19
438.5	412.19
438.721	445.19
438.943	436.19
439.165	429.19
439.386	443.19
439.608	451.19
439.829	422.19
440.05	439.19
440.272	448.19
440.493	434.19
440.715	453.19
440.936	454.19
441.158	470.19
441.379	466.19
441.6	490.19
441.822	455.19
442.043	462.19
442.264	463.19
442.486	463.19
442.707	477.19
442.928	465.19
443.149	460.19
443.371	458.19
443.592	482.19
443.813	454.19
444.034	469.19
444.255	464.19
444.476	455.19
444.698	508.19
444.919	493.19
445.14	674.19
445.361	538.19
445.582	484.19
445.803	487.19
446.024	447.19
446.245	460.19
446.466	466.19
446.687	453.19
446.908	477.19
447.129	472.19
447.35	462.19
447.571	469.19
447.792	456.19
448.013	450.19
448.234	465.19
448.455	446.19
448.675	436.19
448.896	438.19
449.117	434.19
449.338	414.19
449.559	425.19
449.779	419.19
450	418.19
450.221	441.19
450.442	436.19
450.662	428.19
450.883	418.19
451.104	413.19
451.324	428.19
451.545	430.19
451.766	404.19
451.986	413.19
452.207	414.19
452.428	413.19
452.648	431.19
452.869	410.19
453.089	387.19
453.31	400.19
453.53	410.19
453.751	420.19
453.971	399.19
454.192	392.19
454.412	416.19
454.633	431.19
454.853	416.19
455.073	376.19
455.294	391.19
455.514	427.19
455.734	381.19
455.955	378.19
456.175	371.19
456.395	382.19
456.616	373.19
456.836	386.19
457.056	378.19
457.276	370.19
457.497	369.19
457.717	359.19
457.937	364.19
458.157	374.19
458.377	379.19
458.598	357.19
458.818	373.19
459.038	367.19
459.258	356.19
459.478	369.19
459.698	379.19
459.918	374.19
460.138	420.19
460.358	426.19
460.578	421.19
460.798	438.19
461.018	432.19
461.238	455.19
461.458	443.19
461.678	446.19
461.898	451.19
462.118	439.19
462.338	454.19
462.558	469.19
462.777	460.19
462.997	489.19
463.217	490.19
463.437	500.19
463.657	484.19
463.876	457.19
464.096	472.19
464.316	452.19
464.536	493.19
464.755	454.19
464.975	460.19
465.195	452.19
465.414	458.19
465.634	428.19
465.854	447.19
466.073	454.19
466.293	505.19
466.512	522.19
466.732	514.19
466.951	516.19
467.171	477.19
467.391	469.19
467.61	492.19
467.829	460.19
468.049	469.19
468.268	464.19
468.488	456.19
468.707	451.19
468.927	440.19
469.146	403.19
469.365	464.19
469.585	455.19
469.804	446.19
470.023	465.19
470.243	459.19
470.462	440.19
470.681	470.19
470.901	442.19
471.12	440.19
471.339	448.19
471.558	423.19
471.777	446.19
471.997	431.19
472.216	450.19
472.435	429.19
472.654	438.19
472.873	409.19
473.092	421.19
473.311	472.19
473.53	488.19
473.749	516.19
473.968	478.19
474.187	512.19
474.406	494.19
474.625	523.19
474.844	523.19
475.063	496.19
475.282	466.19
475.501	449.19
475.72	477.19
475.939	452.19
476.158	445.19
476.377	453.19
476.596	422.19
476.814	425.19
477.033	406.19
477.252	412.19
477.471	417.19
477.69	434.19
477.908	460.19
478.127	447.19
478.346	459.19
478.564	441.19
478.783	461.19
479.002	454.19
479.22	462.19
479.439	450.19
479.658	445.19
479.876	435.19
480.095	424.19
480.313	470.19
480.532	462.19
480.751	438.19
480.969	422.19
481.188	438.19
481.406	417.19
481.624	403.19
481.843	414.19
482.061	402.19
482.28	421.19
482.498	416.19
482.717	418.19
482.935	424.19
483.153	428.19
483.372	465.19
483.59	455.19
483.808	437.19
484.027	447.19
484.245	478.19
484.463	560.19
484.681	579.19
484.9	519.19
485.118	532.19
485.336	498.19
485.554	510.19
485.772	492.19
485.99	483.19
486.209	513.19
486.427	477.19
486.645	512.19
486.863	524.19
487.081	530.19
487.299	532.19
487.517	550.19
487.735	566.19
487.953	575.19
488.171	561.19
488.389	549.19
488.607	511.19
488.825	494.19
489.043	496.19
489.261	519.19
489.479	515.19
489.696	509.19
489.914	501.19
490.132	508.19
490.35	523.19
490.568	524.19
490.786	538.19
491.003	539.19
491.221	541.19
491.439	551.19
491.657	567.19
491.874	570.19
492.092	602.19
492.31	617.19
492.527	562.19
492.745	561.19
492.963	547.19
493.18	571.19
493.398	559.19
493.615	526.19
493.833	539.19
494.05	534.19
494.268	536.19
494.485	527.19
494.703	517.19
494.92	511.19
495.138	535.19
495.355	517.19
495.573	518.19
495.79	526.19
496.008	516.19
496.225	517.19
496.442	523.19
496.66	530.19
496.877	533.19
497.094	545.19
497.312	515.19
497.529	526.19
497.746	524.19
497.963	513.19
498.181	505.19
498.398	526.19
498.615	556.19
498.832	553.19
499.049	574.19
499.267	592.19
499.484	622.19
499.701	657.19
499.918	703.19
500.135	749.19
500.352	784.19
500.569	775.19
500.786	778.19
501.003	753.19
501.22	705.19
501.437	657.19
501.654	631.19
501.871	600.19
502.088	550.19
502.305	568.19
502.522	541.19
