Data from SampC_HRD10591_00010.txt Node
Date: Mon Jan 19 11:37:32 EST 2026
User: Yrep
Spectrometer: HR+D1059
Trigger mode: 0
Integration Time (sec): 3.443000E-1
Scans to average: 1
Electric dark correction enabled: true
Nonlinearity correction enabled: false
Boxcar width: 0
XAxis mode: Wavelengths
Number of Pixels in Spectrum: 2048
>>>>>Begin Spectral Data<<<<<
223.165	-20.88
223.4	-20.88
223.635	-20.88
223.869	-25.88
224.104	-37.88
224.338	-10.88
224.573	-9.88
224.808	-21.88
225.042	-0.88
225.277	0.12
225.511	-4.88
225.746	11.12
225.98	19.12
226.215	1.12
226.449	16.12
226.683	30.12
226.918	22.12
227.152	33.12
227.387	40.12
227.621	47.12
227.856	43.12
228.09	35.12
228.324	46.12
228.559	41.12
228.793	73.12
229.027	87.12
229.262	105.12
229.496	93.12
229.73	105.12
229.964	102.12
230.199	91.12
230.433	100.12
230.667	123.12
230.901	96.12
231.136	100.12
231.37	121.12
231.604	119.12
231.838	123.12
232.072	134.12
232.306	135.12
232.541	120.12
232.775	128.12
233.009	134.12
233.243	119.12
233.477	107.12
233.711	136.12
233.945	109.12
234.179	111.12
234.413	134.12
234.647	127.12
234.881	134.12
235.115	127.12
235.349	117.12
235.583	120.12
235.817	134.12
236.051	135.12
236.285	130.12
236.519	148.12
236.753	177.12
236.987	204.12
237.221	239.12
237.455	245.12
237.689	241.12
237.922	202.12
238.156	172.12
238.39	163.12
238.624	150.12
238.858	130.12
239.091	124.12
239.325	129.12
239.559	118.12
239.793	114.12
240.027	142.12
240.26	120.12
240.494	122.12
240.728	114.12
240.961	114.12
241.195	125.12
241.429	116.12
241.662	119.12
241.896	129.12
242.13	112.12
242.363	118.12
242.597	120.12
242.83	140.12
243.064	127.12
243.298	132.12
243.531	134.12
243.765	147.12
243.998	138.12
244.232	135.12
244.465	126.12
244.699	128.12
244.932	139.12
245.166	124.12
245.399	125.12
245.633	134.12
245.866	148.12
246.099	148.12
246.333	129.12
246.566	141.12
246.8	143.12
247.033	150.12
247.266	120.12
247.5	141.12
247.733	140.12
247.966	137.12
248.2	140.12
248.433	147.12
248.666	129.12
248.899	130.12
249.133	161.12
249.366	162.12
249.599	156.12
249.832	145.12
250.066	137.12
250.299	130.12
250.532	144.12
250.765	147.12
250.998	151.12
251.231	154.12
251.465	139.12
251.698	164.12
251.931	167.12
252.164	137.12
252.397	148.12
252.63	164.12
252.863	158.12
253.096	156.12
253.329	154.12
253.562	154.12
253.795	171.12
254.028	161.12
254.261	166.12
254.494	155.12
254.727	160.12
254.96	150.12
255.193	166.12
255.426	176.12
255.659	161.12
255.892	175.12
256.124	170.12
256.357	192.12
256.59	211.12
256.823	240.12
257.056	291.12
257.289	304.12
257.521	306.12
257.754	339.12
257.987	319.12
258.22	254.12
258.452	193.12
258.685	198.12
258.918	200.12
259.151	186.12
259.383	188.12
259.616	196.12
259.849	190.12
260.081	195.12
260.314	196.12
260.547	194.12
260.779	175.12
261.012	186.12
261.244	189.12
261.477	184.12
261.71	191.12
261.942	188.12
262.175	195.12
262.407	189.12
262.64	196.12
262.872	221.12
263.105	252.12
263.337	282.12
263.57	288.12
263.802	277.12
264.035	252.12
264.267	243.12
264.499	232.12
264.732	230.12
264.964	246.12
265.197	246.12
265.429	273.12
265.661	294.12
265.894	289.12
266.126	315.12
266.358	328.12
266.591	250.12
266.823	213.12
267.055	212.12
267.287	205.12
267.52	191.12
267.752	192.12
267.984	207.12
268.216	195.12
268.448	198.12
268.681	201.12
268.913	200.12
269.145	198.12
269.377	202.12
269.609	190.12
269.841	203.12
270.073	209.12
270.306	210.12
270.538	215.12
270.77	202.12
271.002	202.12
271.234	191.12
271.466	211.12
271.698	201.12
271.93	202.12
272.162	220.12
272.394	211.12
272.626	210.12
272.858	198.12
273.09	217.12
273.322	214.12
273.553	201.12
273.785	234.12
274.017	213.12
274.249	206.12
274.481	224.12
274.713	223.12
274.945	236.12
275.176	206.12
275.408	225.12
275.64	230.12
275.872	220.12
276.104	224.12
276.335	241.12
276.567	218.12
276.799	230.12
277.031	244.12
277.262	227.12
277.494	240.12
277.726	248.12
277.957	256.12
278.189	271.12
278.421	286.12
278.652	284.12
278.884	324.12
279.115	433.12
279.347	622.12
279.579	881.12
279.81	974.12
280.042	770.12
280.273	746.12
280.505	722.12
280.736	506.12
280.968	354.12
281.199	399.12
281.431	425.12
281.662	580.12
281.894	670.12
282.125	526.12
282.356	392.12
282.588	383.12
282.819	329.12
283.051	308.12
283.282	305.12
283.513	307.12
283.745	290.12
283.976	290.12
284.207	274.12
284.439	287.12
284.67	271.12
284.901	289.12
285.132	345.12
285.364	380.12
285.595	356.12
285.826	272.12
286.057	272.12
286.288	257.12
286.52	278.12
286.751	250.12
286.982	257.12
287.213	267.12
287.444	267.12
287.675	257.12
287.906	260.12
288.138	277.12
288.369	283.12
288.6	270.12
288.831	257.12
289.062	250.12
289.293	251.12
289.524	252.12
289.755	259.12
289.986	256.12
290.217	278.12
290.448	264.12
290.679	252.12
290.91	258.12
291.141	277.12
291.371	274.12
291.602	268.12
291.833	275.12
292.064	279.12
292.295	279.12
292.526	280.12
292.757	289.12
292.987	312.12
293.218	302.12
293.449	280.12
293.68	302.12
293.91	289.12
294.141	302.12
294.372	286.12
294.603	285.12
294.833	282.12
295.064	254.12
295.295	264.12
295.525	264.12
295.756	270.12
295.987	250.12
296.217	261.12
296.448	291.12
296.679	266.12
296.909	268.12
297.14	279.12
297.37	285.12
297.601	267.12
297.831	258.12
298.062	272.12
298.292	270.12
298.523	280.12
298.753	272.12
298.984	278.12
299.214	268.12
299.445	284.12
299.675	283.12
299.905	270.12
300.136	270.12
300.366	296.12
300.597	307.12
300.827	302.12
301.057	293.12
301.288	290.12
301.518	304.12
301.748	312.12
301.979	365.12
302.209	337.12
302.439	339.12
302.669	329.12
302.9	329.12
303.13	347.12
303.36	345.12
303.59	339.12
303.82	349.12
304.051	378.12
304.281	394.12
304.511	402.12
304.741	410.12
304.971	487.12
305.201	561.12
305.431	641.12
305.661	726.12
305.891	762.12
306.121	721.12
306.352	658.12
306.582	646.12
306.812	648.12
307.042	600.12
307.272	567.12
307.502	643.12
307.731	859.12
307.961	1179.12
308.191	1659.12
308.421	1942.12
308.651	1630.12
308.881	1516.12
309.111	1875.12
309.341	2403.12
309.571	2294.12
309.8	1432.12
310.03	959.12
310.26	735.12
310.49	619.12
310.72	564.12
310.949	491.12
311.179	486.12
311.409	459.12
311.639	432.12
311.868	406.12
312.098	414.12
312.328	397.12
312.557	402.12
312.787	382.12
313.017	382.12
313.246	345.12
313.476	365.12
313.706	348.12
313.935	339.12
314.165	349.12
314.394	339.12
314.624	338.12
314.853	322.12
315.083	329.12
315.312	345.12
315.542	330.12
315.771	337.12
316.001	328.12
316.23	334.12
316.46	321.12
316.689	337.12
316.919	315.12
317.148	344.12
317.377	330.12
317.607	305.12
317.836	324.12
318.065	331.12
318.295	325.12
318.524	326.12
318.753	320.12
318.983	319.12
319.212	323.12
319.441	328.12
319.67	330.12
319.9	317.12
320.129	300.12
320.358	326.12
320.587	308.12
320.816	330.12
321.046	321.12
321.275	344.12
321.504	304.12
321.733	324.12
321.962	314.12
322.191	297.12
322.42	323.12
322.649	322.12
322.878	312.12
323.108	338.12
323.337	322.12
323.566	344.12
323.795	332.12
324.024	334.12
324.253	322.12
324.482	340.12
324.71	342.12
324.939	350.12
325.168	343.12
325.397	341.12
325.626	326.12
325.855	329.12
326.084	335.12
326.313	338.12
326.542	346.12
326.77	350.12
326.999	329.12
327.228	338.12
327.457	340.12
327.686	339.12
327.914	333.12
328.143	348.12
328.372	348.12
328.6	338.12
328.829	350.12
329.058	339.12
329.287	318.12
329.515	351.12
329.744	332.12
329.972	333.12
330.201	339.12
330.43	338.12
330.658	324.12
330.887	341.12
331.115	348.12
331.344	360.12
331.572	347.12
331.801	357.12
332.03	365.12
332.258	366.12
332.486	354.12
332.715	369.12
332.943	376.12
333.172	372.12
333.4	380.12
333.629	388.12
333.857	384.12
334.085	407.12
334.314	389.12
334.542	385.12
334.771	402.12
334.999	374.12
335.227	383.12
335.455	383.12
335.684	396.12
335.912	390.12
336.14	392.12
336.369	354.12
336.597	361.12
336.825	369.12
337.053	365.12
337.281	347.12
337.51	376.12
337.738	373.12
337.966	347.12
338.194	362.12
338.422	379.12
338.65	366.12
338.878	368.12
339.106	355.12
339.334	362.12
339.562	349.12
339.79	354.12
340.018	336.12
340.246	375.12
340.474	345.12
340.702	347.12
340.93	346.12
341.158	366.12
341.386	360.12
341.614	349.12
341.842	347.12
342.07	347.12
342.298	343.12
342.526	336.12
342.754	352.12
342.981	367.12
343.209	364.12
343.437	392.12
343.665	375.12
343.893	390.12
344.12	413.12
344.348	394.12
344.576	379.12
344.804	380.12
345.031	363.12
345.259	365.12
345.487	365.12
345.714	362.12
345.942	349.12
346.17	358.12
346.397	343.12
346.625	373.12
346.853	367.12
347.08	361.12
347.308	365.12
347.535	363.12
347.763	367.12
347.99	358.12
348.218	364.12
348.445	362.12
348.673	363.12
348.9	361.12
349.128	353.12
349.355	379.12
349.583	369.12
349.81	355.12
350.037	344.12
350.265	346.12
350.492	350.12
350.72	398.12
350.947	356.12
351.174	390.12
351.402	365.12
351.629	360.12
351.856	372.12
352.083	379.12
352.311	384.12
352.538	390.12
352.765	404.12
352.992	409.12
353.22	374.12
353.447	375.12
353.674	399.12
353.901	430.12
354.128	408.12
354.355	428.12
354.583	432.12
354.81	442.12
355.037	472.12
355.264	437.12
355.491	451.12
355.718	475.12
355.945	470.12
356.172	502.12
356.399	533.12
356.626	521.12
356.853	541.12
357.08	595.12
357.307	644.12
357.534	666.12
357.761	710.12
357.988	840.12
358.215	947.12
358.441	1068.12
358.668	1188.12
358.895	1178.12
359.122	980.12
359.349	802.12
359.576	724.12
359.802	674.12
360.029	626.12
360.256	602.12
360.483	604.12
360.709	556.12
360.936	575.12
361.163	538.12
361.39	504.12
361.616	508.12
361.843	490.12
362.07	483.12
362.296	478.12
362.523	467.12
362.749	432.12
362.976	448.12
363.203	444.12
363.429	417.12
363.656	431.12
363.882	422.12
364.109	419.12
364.335	429.12
364.562	438.12
364.788	405.12
365.015	412.12
365.241	395.12
365.468	415.12
365.694	400.12
365.92	399.12
366.147	408.12
366.373	391.12
366.599	391.12
366.826	381.12
367.052	394.12
367.278	368.12
367.505	383.12
367.731	407.12
367.957	384.12
368.184	405.12
368.41	402.12
368.636	390.12
368.862	392.12
369.089	391.12
369.315	394.12
369.541	388.12
369.767	388.12
369.993	401.12
370.219	376.12
370.445	384.12
370.672	396.12
370.898	390.12
371.124	404.12
371.35	382.12
371.576	402.12
371.802	414.12
372.028	406.12
372.254	401.12
372.48	391.12
372.706	424.12
372.932	403.12
373.158	412.12
373.384	433.12
373.61	430.12
373.835	434.12
374.061	405.12
374.287	420.12
374.513	393.12
374.739	422.12
374.965	426.12
375.191	406.12
375.416	430.12
375.642	420.12
375.868	426.12
376.094	420.12
376.319	414.12
376.545	396.12
376.771	419.12
376.997	393.12
377.222	379.12
377.448	391.12
377.674	383.12
377.899	394.12
378.125	387.12
378.35	393.12
378.576	387.12
378.802	394.12
379.027	414.12
379.253	401.12
379.478	410.12
379.704	390.12
379.929	418.12
380.155	411.12
380.38	398.12
380.606	396.12
380.831	426.12
381.057	435.12
381.282	422.12
381.507	440.12
381.733	423.12
381.958	422.12
382.184	464.12
382.409	472.12
382.634	499.12
382.86	508.12
383.085	543.12
383.31	569.12
383.535	561.12
383.761	556.12
383.986	566.12
384.211	488.12
384.436	474.12
384.662	472.12
384.887	451.12
385.112	488.12
385.337	456.12
385.562	460.12
385.787	482.12
386.013	482.12
386.238	467.12
386.463	483.12
386.688	520.12
386.913	467.12
387.138	474.12
387.363	466.12
387.588	472.12
387.813	479.12
388.038	476.12
388.263	472.12
388.488	472.12
388.713	482.12
388.938	473.12
389.163	487.12
389.387	483.12
389.612	472.12
389.837	478.12
390.062	501.12
390.287	495.12
390.512	490.12
390.736	494.12
390.961	494.12
391.186	498.12
391.411	485.12
391.636	516.12
391.86	542.12
392.085	536.12
392.31	560.12
392.534	558.12
392.759	562.12
392.984	582.12
393.208	650.12
393.433	770.12
393.658	797.12
393.882	995.12
394.107	1554.12
394.331	2714.12
394.556	3594.12
394.78	2444.12
395.005	1448.12
395.229	1128.12
395.454	1114.12
395.678	1409.12
395.903	2346.12
396.127	4047.12
396.352	4710.12
396.576	2846.12
396.801	1651.12
397.025	1186.12
397.249	966.12
397.474	852.12
397.698	791.12
397.922	728.12
398.147	718.12
398.371	695.12
398.595	652.12
398.82	652.12
399.044	675.12
399.268	686.12
399.492	712.12
399.717	706.12
399.941	674.12
400.165	641.12
400.389	630.12
400.613	616.12
400.837	591.12
401.062	591.12
401.286	570.12
401.51	561.12
401.734	555.12
401.958	556.12
402.182	557.12
402.406	570.12
402.63	561.12
402.854	560.12
403.078	571.12
403.302	589.12
403.526	584.12
403.75	566.12
403.974	583.12
404.198	558.12
404.422	561.12
404.645	560.12
404.869	555.12
405.093	555.12
405.317	566.12
405.541	567.12
405.765	568.12
405.988	569.12
406.212	570.12
406.436	568.12
406.66	572.12
406.883	593.12
407.107	606.12
407.331	602.12
407.555	606.12
407.778	596.12
408.002	583.12
408.226	585.12
408.449	596.12
408.673	591.12
408.896	569.12
409.12	564.12
409.344	578.12
409.567	548.12
409.791	555.12
410.014	558.12
410.238	559.12
410.461	553.12
410.685	569.12
410.908	564.12
411.132	592.12
411.355	559.12
411.578	555.12
411.802	559.12
412.025	552.12
412.249	544.12
412.472	536.12
412.695	537.12
412.919	537.12
413.142	543.12
413.365	546.12
413.589	534.12
413.812	540.12
414.035	549.12
414.258	525.12
414.482	542.12
414.705	550.12
414.928	558.12
415.151	559.12
415.374	538.12
415.597	539.12
415.821	539.12
416.044	528.12
416.267	536.12
416.49	529.12
416.713	524.12
416.936	544.12
417.159	530.12
417.382	526.12
417.605	519.12
417.828	543.12
418.051	535.12
418.274	539.12
418.497	542.12
418.72	540.12
418.943	534.12
419.166	584.12
419.389	602.12
419.611	569.12
419.834	572.12
420.057	558.12
420.28	515.12
420.503	514.12
420.726	527.12
420.948	525.12
421.171	538.12
421.394	523.12
421.617	557.12
421.839	564.12
422.062	554.12
422.285	527.12
422.507	562.12
422.73	562.12
422.953	565.12
423.175	551.12
423.398	556.12
423.621	531.12
423.843	544.12
424.066	566.12
424.288	546.12
424.511	574.12
424.733	557.12
424.956	549.12
425.178	548.12
425.401	560.12
425.623	524.12
425.846	530.12
426.068	534.12
426.291	513.12
426.513	532.12
426.735	545.12
426.958	514.12
427.18	528.12
427.402	527.12
427.625	530.12
427.847	500.12
428.069	512.12
428.292	528.12
428.514	516.12
428.736	499.12
428.958	527.12
429.181	525.12
429.403	495.12
429.625	506.12
429.847	497.12
430.069	508.12
430.292	515.12
430.514	494.12
430.736	533.12
430.958	518.12
431.18	506.12
431.402	497.12
431.624	488.12
431.846	454.12
432.068	475.12
432.29	477.12
432.512	505.12
432.734	492.12
432.956	521.12
433.178	520.12
433.4	513.12
433.622	522.12
433.844	538.12
434.066	504.12
434.287	493.12
434.509	482.12
434.731	501.12
434.953	520.12
435.175	528.12
435.397	531.12
435.618	527.12
435.84	499.12
436.062	509.12
436.284	496.12
436.505	506.12
436.727	523.12
436.949	504.12
437.17	484.12
437.392	503.12
437.614	474.12
437.835	487.12
438.057	471.12
438.278	477.12
438.5	507.12
438.721	529.12
438.943	524.12
439.165	522.12
439.386	526.12
439.608	527.12
439.829	536.12
440.05	522.12
440.272	541.12
440.493	526.12
440.715	543.12
440.936	561.12
441.158	558.12
441.379	556.12
441.6	571.12
441.822	574.12
442.043	562.12
442.264	535.12
442.486	519.12
442.707	544.12
442.928	544.12
443.149	559.12
443.371	571.12
443.592	544.12
443.813	560.12
444.034	563.12
444.255	578.12
444.476	563.12
444.698	600.12
444.919	624.12
445.14	765.12
445.361	651.12
445.582	570.12
445.803	553.12
446.024	563.12
446.245	585.12
446.466	551.12
446.687	567.12
446.908	559.12
447.129	544.12
447.35	536.12
447.571	534.12
447.792	536.12
448.013	523.12
448.234	544.12
448.455	523.12
448.675	513.12
448.896	518.12
449.117	509.12
449.338	510.12
449.559	541.12
449.779	506.12
450	500.12
450.221	512.12
450.442	507.12
450.662	503.12
450.883	497.12
451.104	520.12
451.324	510.12
451.545	511.12
451.766	495.12
451.986	512.12
452.207	505.12
452.428	518.12
452.648	502.12
452.869	506.12
453.089	468.12
453.31	493.12
453.53	490.12
453.751	495.12
453.971	511.12
454.192	486.12
454.412	481.12
454.633	467.12
454.853	503.12
455.073	490.12
455.294	484.12
455.514	479.12
455.734	456.12
455.955	450.12
456.175	480.12
456.395	436.12
456.616	443.12
456.836	461.12
457.056	438.12
457.276	451.12
457.497	442.12
457.717	458.12
457.937	452.12
458.157	468.12
458.377	476.12
458.598	432.12
458.818	441.12
459.038	442.12
459.258	464.12
459.478	466.12
459.698	469.12
459.918	472.12
460.138	513.12
460.358	514.12
460.578	548.12
460.798	539.12
461.018	531.12
461.238	535.12
461.458	542.12
461.678	530.12
461.898	563.12
462.118	554.12
462.338	568.12
462.558	579.12
462.777	594.12
462.997	623.12
463.217	612.12
463.437	614.12
463.657	593.12
463.876	588.12
464.096	609.12
464.316	581.12
464.536	593.12
464.755	604.12
464.975	548.12
465.195	583.12
465.414	566.12
465.634	571.12
465.854	540.12
466.073	577.12
466.293	658.12
466.512	683.12
466.732	684.12
466.951	623.12
467.171	603.12
467.391	596.12
467.61	598.12
467.829	530.12
468.049	568.12
468.268	552.12
468.488	527.12
468.707	554.12
468.927	532.12
469.146	519.12
469.365	521.12
469.585	513.12
469.804	538.12
470.023	547.12
470.243	540.12
470.462	536.12
470.681	578.12
470.901	520.12
471.12	558.12
471.339	539.12
471.558	534.12
471.777	538.12
471.997	523.12
472.216	509.12
472.435	506.12
472.654	482.12
472.873	524.12
473.092	530.12
473.311	553.12
473.53	600.12
473.749	582.12
473.968	594.12
474.187	575.12
474.406	592.12
474.625	618.12
474.844	642.12
475.063	602.12
475.282	583.12
475.501	526.12
475.72	542.12
475.939	529.12
476.158	532.12
476.377	530.12
476.596	522.12
476.814	499.12
477.033	501.12
477.252	506.12
477.471	509.12
477.69	550.12
477.908	524.12
478.127	562.12
478.346	566.12
478.564	594.12
478.783	540.12
479.002	557.12
479.22	564.12
479.439	572.12
479.658	560.12
479.876	529.12
480.095	539.12
480.313	562.12
480.532	570.12
480.751	557.12
480.969	532.12
481.188	528.12
481.406	502.12
481.624	494.12
481.843	484.12
482.061	491.12
482.28	519.12
482.498	518.12
482.717	532.12
482.935	536.12
483.153	570.12
483.372	578.12
483.59	541.12
483.808	542.12
484.027	567.12
484.245	559.12
484.463	632.12
484.681	635.12
484.9	603.12
485.118	597.12
485.336	584.12
485.554	569.12
485.772	568.12
485.99	579.12
486.209	584.12
486.427	586.12
486.645	576.12
486.863	603.12
487.081	634.12
487.299	579.12
487.517	623.12
487.735	648.12
487.953	650.12
488.171	638.12
488.389	644.12
488.607	596.12
488.825	584.12
489.043	576.12
489.261	602.12
489.479	600.12
489.696	593.12
489.914	596.12
490.132	603.12
490.35	634.12
490.568	624.12
490.786	638.12
491.003	630.12
491.221	643.12
491.439	650.12
491.657	661.12
491.874	662.12
492.092	705.12
492.31	721.12
492.527	656.12
492.745	663.12
492.963	677.12
493.18	640.12
493.398	647.12
493.615	652.12
493.833	643.12
494.05	621.12
494.268	627.12
494.485	649.12
494.703	650.12
494.92	614.12
495.138	646.12
495.355	627.12
495.573	643.12
495.79	647.12
496.008	641.12
496.225	621.12
496.442	633.12
496.66	651.12
496.877	643.12
497.094	668.12
497.312	629.12
497.529	654.12
497.746	644.12
497.963	646.12
498.181	656.12
498.398	666.12
498.615	678.12
498.832	679.12
499.049	751.12
499.267	806.12
499.484	829.12
499.701	880.12
499.918	913.12
500.135	966.12
500.352	1018.12
500.569	1061.12
500.786	1027.12
501.003	994.12
501.22	959.12
501.437	882.12
501.654	824.12
501.871	780.12
502.088	751.12
502.305	714.12
