Data from SampC_HRD10591_00028.txt Node
Date: Mon Jan 19 11:37:39 EST 2026
User: Yrep
Spectrometer: HR+D1059
Trigger mode: 0
Integration Time (sec): 3.443000E-1
Scans to average: 1
Electric dark correction enabled: true
Nonlinearity correction enabled: false
Boxcar width: 0
XAxis mode: Wavelengths
Number of Pixels in Spectrum: 2048
>>>>>Begin Spectral Data<<<<<
223.165	-29.69
223.4	-29.69
223.635	-29.69
223.869	-17.69
224.104	-25.69
224.338	-12.69
224.573	-3.69
224.808	-1.69
225.042	-5.69
225.277	-1.69
225.511	-15.69
225.746	18.31
225.98	3.31
226.215	21.31
226.449	2.31
226.683	17.31
226.918	17.31
227.152	34.31
227.387	51.31
227.621	41.31
227.856	65.31
228.09	34.31
228.324	58.31
228.559	65.31
228.793	75.31
229.027	85.31
229.262	86.31
229.496	96.31
229.73	87.31
229.964	92.31
230.199	94.31
230.433	90.31
230.667	108.31
230.901	91.31
231.136	105.31
231.37	99.31
231.604	101.31
231.838	110.31
232.072	107.31
232.306	115.31
232.541	107.31
232.775	108.31
233.009	104.31
233.243	91.31
233.477	106.31
233.711	110.31
233.945	103.31
234.179	103.31
234.413	107.31
234.647	113.31
234.881	112.31
235.115	110.31
235.349	123.31
235.583	117.31
235.817	118.31
236.051	109.31
236.285	125.31
236.519	133.31
236.753	157.31
236.987	169.31
237.221	190.31
237.455	198.31
237.689	190.31
237.922	169.31
238.156	137.31
238.39	130.31
238.624	118.31
238.858	128.31
239.091	117.31
239.325	118.31
239.559	106.31
239.793	102.31
240.027	105.31
240.26	122.31
240.494	98.31
240.728	109.31
240.961	109.31
241.195	114.31
241.429	98.31
241.662	110.31
241.896	103.31
242.13	107.31
242.363	107.31
242.597	109.31
242.83	123.31
243.064	109.31
243.298	106.31
243.531	106.31
243.765	113.31
243.998	101.31
244.232	116.31
244.465	106.31
244.699	108.31
244.932	131.31
245.166	120.31
245.399	117.31
245.633	130.31
245.866	116.31
246.099	130.31
246.333	119.31
246.566	113.31
246.8	114.31
247.033	105.31
247.266	93.31
247.5	122.31
247.733	109.31
247.966	114.31
248.2	101.31
248.433	121.31
248.666	121.31
248.899	124.31
249.133	133.31
249.366	134.31
249.599	126.31
249.832	118.31
250.066	134.31
250.299	128.31
250.532	117.31
250.765	129.31
250.998	139.31
251.231	134.31
251.465	128.31
251.698	119.31
251.931	123.31
252.164	138.31
252.397	129.31
252.63	99.31
252.863	139.31
253.096	136.31
253.329	128.31
253.562	126.31
253.795	119.31
254.028	137.31
254.261	131.31
254.494	134.31
254.727	133.31
254.96	129.31
255.193	123.31
255.426	127.31
255.659	140.31
255.892	139.31
256.124	141.31
256.357	165.31
256.59	151.31
256.823	200.31
257.056	225.31
257.289	225.31
257.521	224.31
257.754	277.31
257.987	252.31
258.22	187.31
258.452	167.31
258.685	170.31
258.918	155.31
259.151	137.31
259.383	127.31
259.616	142.31
259.849	136.31
260.081	141.31
260.314	143.31
260.547	141.31
260.779	149.31
261.012	124.31
261.244	158.31
261.477	147.31
261.71	122.31
261.942	139.31
262.175	153.31
262.407	154.31
262.64	150.31
262.872	163.31
263.105	179.31
263.337	198.31
263.57	190.31
263.802	188.31
264.035	178.31
264.267	185.31
264.499	160.31
264.732	156.31
264.964	178.31
265.197	182.31
265.429	217.31
265.661	209.31
265.894	221.31
266.126	227.31
266.358	256.31
266.591	217.31
266.823	189.31
267.055	161.31
267.287	180.31
267.52	138.31
267.752	155.31
267.984	155.31
268.216	150.31
268.448	163.31
268.681	145.31
268.913	141.31
269.145	170.31
269.377	145.31
269.609	133.31
269.841	159.31
270.073	142.31
270.306	146.31
270.538	148.31
270.77	139.31
271.002	142.31
271.234	140.31
271.466	165.31
271.698	155.31
271.93	163.31
272.162	158.31
272.394	163.31
272.626	165.31
272.858	174.31
273.09	171.31
273.322	172.31
273.553	157.31
273.785	145.31
274.017	146.31
274.249	172.31
274.481	165.31
274.713	159.31
274.945	183.31
275.176	165.31
275.408	160.31
275.64	175.31
275.872	155.31
276.104	175.31
276.335	168.31
276.567	162.31
276.799	160.31
277.031	172.31
277.262	178.31
277.494	196.31
277.726	188.31
277.957	204.31
278.189	209.31
278.421	208.31
278.652	210.31
278.884	247.31
279.115	305.31
279.347	435.31
279.579	561.31
279.81	650.31
280.042	529.31
280.273	524.31
280.505	505.31
280.736	316.31
280.968	244.31
281.199	239.31
281.431	271.31
281.662	341.31
281.894	377.31
282.125	339.31
282.356	262.31
282.588	234.31
282.819	204.31
283.051	210.31
283.282	197.31
283.513	199.31
283.745	204.31
283.976	207.31
284.207	194.31
284.439	193.31
284.67	203.31
284.901	217.31
285.132	268.31
285.364	283.31
285.595	247.31
285.826	213.31
286.057	191.31
286.288	186.31
286.52	176.31
286.751	180.31
286.982	180.31
287.213	185.31
287.444	187.31
287.675	187.31
287.906	182.31
288.138	205.31
288.369	203.31
288.6	207.31
288.831	198.31
289.062	182.31
289.293	188.31
289.524	187.31
289.755	180.31
289.986	189.31
290.217	178.31
290.448	191.31
290.679	202.31
290.91	219.31
291.141	196.31
291.371	193.31
291.602	192.31
291.833	202.31
292.064	185.31
292.295	208.31
292.526	205.31
292.757	202.31
292.987	216.31
293.218	211.31
293.449	209.31
293.68	209.31
293.91	217.31
294.141	219.31
294.372	202.31
294.603	195.31
294.833	190.31
295.064	184.31
295.295	185.31
295.525	199.31
295.756	196.31
295.987	185.31
296.217	188.31
296.448	180.31
296.679	193.31
296.909	185.31
297.14	195.31
297.37	195.31
297.601	188.31
297.831	191.31
298.062	207.31
298.292	203.31
298.523	207.31
298.753	199.31
298.984	191.31
299.214	188.31
299.445	196.31
299.675	202.31
299.905	212.31
300.136	206.31
300.366	223.31
300.597	220.31
300.827	202.31
301.057	198.31
301.288	201.31
301.518	200.31
301.748	225.31
301.979	252.31
302.209	209.31
302.439	213.31
302.669	239.31
302.9	248.31
303.13	238.31
303.36	259.31
303.59	254.31
303.82	258.31
304.051	276.31
304.281	279.31
304.511	317.31
304.741	310.31
304.971	349.31
305.201	400.31
305.431	422.31
305.661	491.31
305.891	525.31
306.121	494.31
306.352	446.31
306.582	436.31
306.812	433.31
307.042	397.31
307.272	388.31
307.502	433.31
307.731	580.31
307.961	825.31
308.191	1109.31
308.421	1299.31
308.651	1125.31
308.881	1029.31
309.111	1240.31
309.341	1574.31
309.571	1517.31
309.8	971.31
310.03	647.31
310.26	515.31
310.49	443.31
310.72	375.31
310.949	342.31
311.179	317.31
311.409	306.31
311.639	297.31
311.868	293.31
312.098	289.31
312.328	275.31
312.557	284.31
312.787	265.31
313.017	267.31
313.246	257.31
313.476	258.31
313.706	248.31
313.935	238.31
314.165	247.31
314.394	254.31
314.624	251.31
314.853	230.31
315.083	221.31
315.312	230.31
315.542	227.31
315.771	217.31
316.001	246.31
316.23	224.31
316.46	236.31
316.689	232.31
316.919	235.31
317.148	237.31
317.377	214.31
317.607	222.31
317.836	210.31
318.065	232.31
318.295	234.31
318.524	230.31
318.753	226.31
318.983	223.31
319.212	214.31
319.441	240.31
319.67	213.31
319.9	219.31
320.129	211.31
320.358	224.31
320.587	213.31
320.816	198.31
321.046	234.31
321.275	228.31
321.504	207.31
321.733	204.31
321.962	226.31
322.191	222.31
322.42	226.31
322.649	218.31
322.878	235.31
323.108	220.31
323.337	230.31
323.566	235.31
323.795	216.31
324.024	215.31
324.253	235.31
324.482	231.31
324.71	230.31
324.939	236.31
325.168	241.31
325.397	202.31
325.626	228.31
325.855	234.31
326.084	233.31
326.313	219.31
326.542	223.31
326.77	210.31
326.999	218.31
327.228	223.31
327.457	241.31
327.686	239.31
327.914	249.31
328.143	242.31
328.372	237.31
328.6	224.31
328.829	231.31
329.058	224.31
329.287	231.31
329.515	219.31
329.744	235.31
329.972	219.31
330.201	234.31
330.43	240.31
330.658	237.31
330.887	225.31
331.115	225.31
331.344	250.31
331.572	242.31
331.801	231.31
332.03	218.31
332.258	227.31
332.486	222.31
332.715	239.31
332.943	241.31
333.172	252.31
333.4	251.31
333.629	240.31
333.857	267.31
334.085	245.31
334.314	273.31
334.542	268.31
334.771	247.31
334.999	273.31
335.227	252.31
335.455	261.31
335.684	237.31
335.912	233.31
336.14	241.31
336.369	239.31
336.597	239.31
336.825	239.31
337.053	239.31
337.281	243.31
337.51	208.31
337.738	246.31
337.966	222.31
338.194	249.31
338.422	241.31
338.65	237.31
338.878	227.31
339.106	227.31
339.334	229.31
339.562	225.31
339.79	228.31
340.018	238.31
340.246	232.31
340.474	237.31
340.702	240.31
340.93	223.31
341.158	224.31
341.386	223.31
341.614	238.31
341.842	240.31
342.07	234.31
342.298	225.31
342.526	237.31
342.754	220.31
342.981	210.31
343.209	228.31
343.437	268.31
343.665	253.31
343.893	237.31
344.12	279.31
344.348	269.31
344.576	255.31
344.804	235.31
345.031	235.31
345.259	240.31
345.487	228.31
345.714	250.31
345.942	236.31
346.17	228.31
346.397	213.31
346.625	242.31
346.853	230.31
347.08	241.31
347.308	235.31
347.535	217.31
347.763	229.31
347.99	235.31
348.218	243.31
348.445	231.31
348.673	234.31
348.9	226.31
349.128	226.31
349.355	235.31
349.583	249.31
349.81	245.31
350.037	242.31
350.265	238.31
350.492	227.31
350.72	239.31
350.947	245.31
351.174	245.31
351.402	234.31
351.629	213.31
351.856	242.31
352.083	242.31
352.311	239.31
352.538	233.31
352.765	250.31
352.992	268.31
353.22	249.31
353.447	257.31
353.674	238.31
353.901	239.31
354.128	263.31
354.355	266.31
354.583	273.31
354.81	279.31
355.037	268.31
355.264	293.31
355.491	276.31
355.718	287.31
355.945	292.31
356.172	291.31
356.399	284.31
356.626	302.31
356.853	341.31
357.08	337.31
357.307	354.31
357.534	384.31
357.761	407.31
357.988	449.31
358.215	522.31
358.441	561.31
358.668	609.31
358.895	619.31
359.122	521.31
359.349	430.31
359.576	393.31
359.802	369.31
360.029	355.31
360.256	356.31
360.483	335.31
360.709	326.31
360.936	345.31
361.163	321.31
361.39	317.31
361.616	291.31
361.843	295.31
362.07	298.31
362.296	279.31
362.523	287.31
362.749	283.31
362.976	266.31
363.203	293.31
363.429	265.31
363.656	255.31
363.882	249.31
364.109	250.31
364.335	269.31
364.562	245.31
364.788	253.31
365.015	273.31
365.241	273.31
365.468	278.31
365.694	239.31
365.92	254.31
366.147	245.31
366.373	269.31
366.599	253.31
366.826	269.31
367.052	247.31
367.278	268.31
367.505	268.31
367.731	257.31
367.957	241.31
368.184	253.31
368.41	256.31
368.636	265.31
368.862	272.31
369.089	261.31
369.315	265.31
369.541	253.31
369.767	241.31
369.993	252.31
370.219	251.31
370.445	245.31
370.672	248.31
370.898	252.31
371.124	245.31
371.35	245.31
371.576	261.31
371.802	242.31
372.028	276.31
372.254	287.31
372.48	268.31
372.706	262.31
372.932	270.31
373.158	275.31
373.384	275.31
373.61	262.31
373.835	277.31
374.061	273.31
374.287	275.31
374.513	250.31
374.739	276.31
374.965	254.31
375.191	264.31
375.416	261.31
375.642	267.31
375.868	257.31
376.094	257.31
376.319	255.31
376.545	258.31
376.771	259.31
376.997	238.31
377.222	259.31
377.448	249.31
377.674	257.31
377.899	261.31
378.125	251.31
378.35	260.31
378.576	263.31
378.802	262.31
379.027	247.31
379.253	276.31
379.478	271.31
379.704	280.31
379.929	255.31
380.155	253.31
380.38	274.31
380.606	259.31
380.831	271.31
381.057	262.31
381.282	262.31
381.507	266.31
381.733	283.31
381.958	299.31
382.184	300.31
382.409	304.31
382.634	332.31
382.86	329.31
383.085	358.31
383.31	389.31
383.535	388.31
383.761	404.31
383.986	399.31
384.211	343.31
384.436	323.31
384.662	279.31
384.887	294.31
385.112	284.31
385.337	302.31
385.562	279.31
385.787	282.31
386.013	297.31
386.238	312.31
386.463	309.31
386.688	337.31
386.913	301.31
387.138	302.31
387.363	308.31
387.588	315.31
387.813	323.31
388.038	291.31
388.263	314.31
388.488	310.31
388.713	315.31
388.938	295.31
389.163	299.31
389.387	302.31
389.612	304.31
389.837	323.31
390.062	318.31
390.287	332.31
390.512	305.31
390.736	328.31
390.961	311.31
391.186	337.31
391.411	322.31
391.636	351.31
391.86	329.31
392.085	355.31
392.31	351.31
392.534	373.31
392.759	371.31
392.984	407.31
393.208	479.31
393.433	573.31
393.658	581.31
393.882	674.31
394.107	1073.31
394.331	1872.31
394.556	2469.31
394.78	1687.31
395.005	959.31
395.229	766.31
395.454	778.31
395.678	979.31
395.903	1600.31
396.127	2700.31
396.352	3114.31
396.576	1913.31
396.801	1103.31
397.025	851.31
397.249	673.31
397.474	580.31
397.698	530.31
397.922	497.31
398.147	481.31
398.371	462.31
398.595	433.31
398.82	432.31
399.044	414.31
399.268	435.31
399.492	453.31
399.717	466.31
399.941	439.31
400.165	409.31
400.389	415.31
400.613	394.31
400.837	382.31
401.062	372.31
401.286	362.31
401.51	371.31
401.734	349.31
401.958	359.31
402.182	341.31
402.406	364.31
402.63	359.31
402.854	349.31
403.078	372.31
403.302	370.31
403.526	345.31
403.75	357.31
403.974	386.31
404.198	355.31
404.422	358.31
404.645	358.31
404.869	354.31
405.093	353.31
405.317	366.31
405.541	375.31
405.765	375.31
405.988	361.31
406.212	363.31
406.436	349.31
406.66	370.31
406.883	370.31
407.107	383.31
407.331	378.31
407.555	389.31
407.778	363.31
408.002	387.31
408.226	388.31
408.449	359.31
408.673	359.31
408.896	388.31
409.12	357.31
409.344	380.31
409.567	348.31
409.791	343.31
410.014	365.31
410.238	364.31
410.461	359.31
410.685	371.31
410.908	380.31
411.132	363.31
411.355	349.31
411.578	360.31
411.802	350.31
412.025	355.31
412.249	359.31
412.472	348.31
412.695	370.31
412.919	336.31
413.142	349.31
413.365	349.31
413.589	341.31
413.812	352.31
414.035	362.31
414.258	348.31
414.482	342.31
414.705	352.31
414.928	345.31
415.151	337.31
415.374	334.31
415.597	357.31
415.821	345.31
416.044	349.31
416.267	366.31
416.49	339.31
416.713	360.31
416.936	358.31
417.159	356.31
417.382	336.31
417.605	305.31
417.828	356.31
418.051	352.31
418.274	349.31
418.497	355.31
418.72	357.31
418.943	339.31
419.166	367.31
419.389	366.31
419.611	366.31
419.834	371.31
420.057	367.31
420.28	350.31
420.503	354.31
420.726	331.31
420.948	346.31
421.171	364.31
421.394	356.31
421.617	346.31
421.839	382.31
422.062	356.31
422.285	335.31
422.507	356.31
422.73	369.31
422.953	365.31
423.175	361.31
423.398	364.31
423.621	384.31
423.843	365.31
424.066	374.31
424.288	352.31
424.511	369.31
424.733	366.31
424.956	367.31
425.178	345.31
425.401	347.31
425.623	357.31
425.846	347.31
426.068	349.31
426.291	349.31
426.513	336.31
426.735	334.31
426.958	362.31
427.18	346.31
427.402	335.31
427.625	331.31
427.847	338.31
428.069	358.31
428.292	341.31
428.514	324.31
428.736	334.31
428.958	345.31
429.181	339.31
429.403	331.31
429.625	346.31
429.847	322.31
430.069	341.31
430.292	339.31
430.514	341.31
430.736	339.31
430.958	330.31
431.18	323.31
431.402	325.31
431.624	317.31
431.846	316.31
432.068	286.31
432.29	322.31
432.512	322.31
432.734	334.31
432.956	326.31
433.178	341.31
433.4	353.31
433.622	359.31
433.844	353.31
434.066	318.31
434.287	313.31
434.509	318.31
434.731	309.31
434.953	324.31
435.175	322.31
435.397	354.31
435.618	353.31
435.84	314.31
436.062	341.31
436.284	336.31
436.505	354.31
436.727	356.31
436.949	351.31
437.17	329.31
437.392	329.31
437.614	324.31
437.835	309.31
438.057	310.31
438.278	317.31
438.5	323.31
438.721	339.31
438.943	349.31
439.165	336.31
439.386	350.31
439.608	356.31
439.829	367.31
440.05	354.31
440.272	358.31
440.493	351.31
440.715	356.31
440.936	364.31
441.158	382.31
441.379	365.31
441.6	359.31
441.822	391.31
442.043	366.31
442.264	366.31
442.486	365.31
442.707	356.31
442.928	372.31
443.149	366.31
443.371	386.31
443.592	363.31
443.813	362.31
444.034	371.31
444.255	369.31
444.476	368.31
444.698	377.31
444.919	386.31
445.14	665.31
445.361	517.31
445.582	364.31
445.803	360.31
446.024	373.31
446.245	353.31
446.466	370.31
446.687	366.31
446.908	355.31
447.129	363.31
447.35	360.31
447.571	361.31
447.792	354.31
448.013	376.31
448.234	351.31
448.455	367.31
448.675	362.31
448.896	346.31
449.117	350.31
449.338	340.31
449.559	344.31
449.779	325.31
450	337.31
450.221	330.31
450.442	332.31
450.662	335.31
450.883	334.31
451.104	347.31
451.324	329.31
451.545	325.31
451.766	333.31
451.986	335.31
452.207	322.31
452.428	351.31
452.648	323.31
452.869	338.31
453.089	317.31
453.31	329.31
453.53	320.31
453.751	333.31
453.971	335.31
454.192	317.31
454.412	305.31
454.633	306.31
454.853	323.31
455.073	314.31
455.294	298.31
455.514	327.31
455.734	302.31
455.955	302.31
456.175	321.31
456.395	282.31
456.616	281.31
456.836	302.31
457.056	305.31
457.276	284.31
457.497	304.31
457.717	296.31
457.937	306.31
458.157	301.31
458.377	290.31
458.598	288.31
458.818	282.31
459.038	273.31
459.258	276.31
459.478	296.31
459.698	285.31
459.918	319.31
460.138	316.31
460.358	323.31
460.578	342.31
460.798	337.31
461.018	335.31
461.238	336.31
461.458	342.31
461.678	335.31
461.898	373.31
462.118	341.31
462.338	354.31
462.558	355.31
462.777	376.31
462.997	373.31
463.217	388.31
463.437	371.31
463.657	373.31
463.876	360.31
464.096	371.31
464.316	352.31
464.536	379.31
464.755	374.31
464.975	367.31
465.195	388.31
465.414	346.31
465.634	343.31
465.854	370.31
466.073	385.31
466.293	392.31
466.512	429.31
466.732	399.31
466.951	380.31
467.171	368.31
467.391	368.31
467.61	373.31
467.829	348.31
468.049	367.31
468.268	315.31
468.488	371.31
468.707	351.31
468.927	354.31
469.146	339.31
469.365	351.31
469.585	341.31
469.804	347.31
470.023	365.31
470.243	339.31
470.462	341.31
470.681	342.31
470.901	340.31
471.12	360.31
471.339	349.31
471.558	334.31
471.777	353.31
471.997	350.31
472.216	356.31
472.435	329.31
472.654	319.31
472.873	342.31
473.092	347.31
473.311	362.31
473.53	379.31
473.749	390.31
473.968	399.31
474.187	381.31
474.406	354.31
474.625	382.31
474.844	421.31
475.063	399.31
475.282	364.31
475.501	372.31
475.72	342.31
475.939	355.31
476.158	352.31
476.377	345.31
476.596	345.31
476.814	317.31
477.033	329.31
477.252	333.31
477.471	337.31
477.69	348.31
477.908	371.31
478.127	363.31
478.346	354.31
478.564	357.31
478.783	366.31
479.002	366.31
479.22	369.31
479.439	372.31
479.658	350.31
479.876	321.31
480.095	326.31
480.313	353.31
480.532	372.31
480.751	354.31
480.969	332.31
481.188	337.31
481.406	342.31
481.624	306.31
481.843	308.31
482.061	322.31
482.28	330.31
482.498	331.31
482.717	304.31
482.935	343.31
483.153	344.31
483.372	354.31
483.59	355.31
483.808	372.31
484.027	362.31
484.245	378.31
484.463	422.31
484.681	426.31
484.9	374.31
485.118	401.31
485.336	379.31
485.554	371.31
485.772	366.31
485.99	356.31
486.209	345.31
486.427	380.31
486.645	382.31
486.863	398.31
487.081	411.31
487.299	381.31
487.517	388.31
487.735	409.31
487.953	445.31
488.171	418.31
488.389	417.31
488.607	404.31
488.825	382.31
489.043	351.31
489.261	389.31
489.479	390.31
489.696	394.31
489.914	386.31
490.132	381.31
490.35	384.31
490.568	399.31
490.786	413.31
491.003	424.31
491.221	409.31
491.439	418.31
491.657	424.31
491.874	478.31
492.092	473.31
492.31	469.31
492.527	454.31
492.745	458.31
492.963	435.31
493.18	433.31
493.398	426.31
493.615	438.31
493.833	428.31
494.05	414.31
494.268	396.31
494.485	399.31
494.703	405.31
494.92	406.31
495.138	421.31
495.355	408.31
495.573	395.31
495.79	399.31
496.008	413.31
496.225	419.31
496.442	414.31
496.66	442.31
496.877	404.31
497.094	426.31
497.312	411.31
497.529	420.31
497.746	429.31
497.963	417.31
498.181	420.31
498.398	412.31
498.615	433.31
498.832	441.31
499.049	442.31
499.267	465.31
499.484	489.31
499.701	491.31
499.918	548.31
500.135	568.31
500.352	641.31
500.569	622.31
500.786	615.31
501.003	583.31
501.22	558.31
501.437	526.31
501.654	495.31
501.871	460.31
502.088	454.31
502.305	459.31
502.522	404.31
502.739	420.31
