Data from SampC_HRD10591_00022.txt Node
Date: Mon Jan 19 11:37:36 EST 2026
User: Yrep
Spectrometer: HR+D1059
Trigger mode: 0
Integration Time (sec): 3.443000E-1
Scans to average: 1
Electric dark correction enabled: true
Nonlinearity correction enabled: false
Boxcar width: 0
XAxis mode: Wavelengths
Number of Pixels in Spectrum: 2048
>>>>>Begin Spectral Data<<<<<
223.165	-38.75
223.4	-38.75
223.635	-38.75
223.869	-24.75
224.104	-24.75
224.338	-3.75
224.573	-26.75
224.808	-16.75
225.042	-5.75
225.277	-3.75
225.511	-7.75
225.746	13.25
225.98	14.25
226.215	12.25
226.449	15.25
226.683	26.25
226.918	26.25
227.152	45.25
227.387	44.25
227.621	42.25
227.856	34.25
228.09	47.25
228.324	54.25
228.559	56.25
228.793	55.25
229.027	70.25
229.262	72.25
229.496	80.25
229.73	77.25
229.964	80.25
230.199	78.25
230.433	66.25
230.667	86.25
230.901	90.25
231.136	70.25
231.37	73.25
231.604	106.25
231.838	97.25
232.072	92.25
232.306	94.25
232.541	96.25
232.775	93.25
233.009	93.25
233.243	100.25
233.477	92.25
233.711	84.25
233.945	89.25
234.179	100.25
234.413	96.25
234.647	106.25
234.881	100.25
235.115	91.25
235.349	97.25
235.583	94.25
235.817	95.25
236.051	96.25
236.285	105.25
236.519	102.25
236.753	112.25
236.987	113.25
237.221	133.25
237.455	119.25
237.689	137.25
237.922	115.25
238.156	100.25
238.39	96.25
238.624	101.25
238.858	117.25
239.091	100.25
239.325	91.25
239.559	83.25
239.793	91.25
240.027	100.25
240.26	91.25
240.494	88.25
240.728	88.25
240.961	98.25
241.195	90.25
241.429	94.25
241.662	72.25
241.896	90.25
242.13	81.25
242.363	83.25
242.597	105.25
242.83	88.25
243.064	86.25
243.298	85.25
243.531	80.25
243.765	91.25
243.998	85.25
244.232	98.25
244.465	110.25
244.699	91.25
244.932	100.25
245.166	88.25
245.399	106.25
245.633	91.25
245.866	94.25
246.099	86.25
246.333	126.25
246.566	106.25
246.8	107.25
247.033	92.25
247.266	93.25
247.5	104.25
247.733	93.25
247.966	99.25
248.2	94.25
248.433	103.25
248.666	100.25
248.899	104.25
249.133	102.25
249.366	102.25
249.599	91.25
249.832	102.25
250.066	122.25
250.299	92.25
250.532	108.25
250.765	106.25
250.998	111.25
251.231	120.25
251.465	109.25
251.698	106.25
251.931	107.25
252.164	86.25
252.397	104.25
252.63	106.25
252.863	105.25
253.096	104.25
253.329	119.25
253.562	87.25
253.795	118.25
254.028	127.25
254.261	121.25
254.494	103.25
254.727	107.25
254.96	107.25
255.193	109.25
255.426	114.25
255.659	110.25
255.892	117.25
256.124	112.25
256.357	103.25
256.59	128.25
256.823	130.25
257.056	141.25
257.289	150.25
257.521	182.25
257.754	171.25
257.987	136.25
258.22	151.25
258.452	114.25
258.685	114.25
258.918	128.25
259.151	121.25
259.383	134.25
259.616	115.25
259.849	111.25
260.081	97.25
260.314	110.25
260.547	112.25
260.779	119.25
261.012	118.25
261.244	127.25
261.477	124.25
261.71	113.25
261.942	128.25
262.175	126.25
262.407	118.25
262.64	125.25
262.872	131.25
263.105	139.25
263.337	152.25
263.57	156.25
263.802	144.25
264.035	135.25
264.267	126.25
264.499	127.25
264.732	134.25
264.964	126.25
265.197	130.25
265.429	151.25
265.661	157.25
265.894	150.25
266.126	178.25
266.358	171.25
266.591	151.25
266.823	123.25
267.055	122.25
267.287	110.25
267.52	131.25
267.752	128.25
267.984	131.25
268.216	123.25
268.448	125.25
268.681	143.25
268.913	134.25
269.145	117.25
269.377	124.25
269.609	131.25
269.841	129.25
270.073	120.25
270.306	126.25
270.538	115.25
270.77	116.25
271.002	121.25
271.234	140.25
271.466	138.25
271.698	125.25
271.93	128.25
272.162	135.25
272.394	148.25
272.626	136.25
272.858	148.25
273.09	115.25
273.322	126.25
273.553	120.25
273.785	135.25
274.017	128.25
274.249	127.25
274.481	130.25
274.713	129.25
274.945	143.25
275.176	124.25
275.408	141.25
275.64	144.25
275.872	139.25
276.104	147.25
276.335	127.25
276.567	135.25
276.799	136.25
277.031	137.25
277.262	147.25
277.494	154.25
277.726	154.25
277.957	156.25
278.189	146.25
278.421	165.25
278.652	161.25
278.884	189.25
279.115	226.25
279.347	301.25
279.579	402.25
279.81	443.25
280.042	384.25
280.273	355.25
280.505	342.25
280.736	257.25
280.968	200.25
281.199	198.25
281.431	229.25
281.662	273.25
281.894	272.25
282.125	261.25
282.356	201.25
282.588	176.25
282.819	174.25
283.051	163.25
283.282	175.25
283.513	150.25
283.745	162.25
283.976	155.25
284.207	157.25
284.439	156.25
284.67	168.25
284.901	156.25
285.132	192.25
285.364	206.25
285.595	190.25
285.826	154.25
286.057	162.25
286.288	137.25
286.52	154.25
286.751	142.25
286.982	135.25
287.213	138.25
287.444	146.25
287.675	151.25
287.906	141.25
288.138	161.25
288.369	152.25
288.6	150.25
288.831	150.25
289.062	139.25
289.293	137.25
289.524	145.25
289.755	132.25
289.986	141.25
290.217	138.25
290.448	159.25
290.679	136.25
290.91	156.25
291.141	142.25
291.371	150.25
291.602	145.25
291.833	154.25
292.064	162.25
292.295	160.25
292.526	170.25
292.757	140.25
292.987	172.25
293.218	157.25
293.449	168.25
293.68	181.25
293.91	165.25
294.141	170.25
294.372	160.25
294.603	154.25
294.833	157.25
295.064	140.25
295.295	148.25
295.525	160.25
295.756	158.25
295.987	161.25
296.217	143.25
296.448	155.25
296.679	133.25
296.909	160.25
297.14	152.25
297.37	143.25
297.601	152.25
297.831	154.25
298.062	146.25
298.292	157.25
298.523	157.25
298.753	144.25
298.984	169.25
299.214	168.25
299.445	154.25
299.675	171.25
299.905	155.25
300.136	155.25
300.366	146.25
300.597	157.25
300.827	154.25
301.057	153.25
301.288	160.25
301.518	169.25
301.748	172.25
301.979	198.25
302.209	164.25
302.439	148.25
302.669	179.25
302.9	168.25
303.13	198.25
303.36	174.25
303.59	172.25
303.82	187.25
304.051	190.25
304.281	198.25
304.511	214.25
304.741	189.25
304.971	206.25
305.201	253.25
305.431	260.25
305.661	284.25
305.891	316.25
306.121	297.25
306.352	300.25
306.582	283.25
306.812	273.25
307.042	262.25
307.272	256.25
307.502	270.25
307.731	315.25
307.961	417.25
308.191	579.25
308.421	681.25
308.651	572.25
308.881	560.25
309.111	613.25
309.341	814.25
309.571	767.25
309.8	516.25
310.03	370.25
310.26	300.25
310.49	280.25
310.72	252.25
310.949	234.25
311.179	215.25
311.409	214.25
311.639	206.25
311.868	194.25
312.098	210.25
312.328	203.25
312.557	200.25
312.787	176.25
313.017	187.25
313.246	175.25
313.476	183.25
313.706	179.25
313.935	185.25
314.165	185.25
314.394	186.25
314.624	181.25
314.853	187.25
315.083	179.25
315.312	174.25
315.542	167.25
315.771	189.25
316.001	172.25
316.23	168.25
316.46	162.25
316.689	179.25
316.919	158.25
317.148	170.25
317.377	186.25
317.607	192.25
317.836	178.25
318.065	185.25
318.295	159.25
318.524	170.25
318.753	166.25
318.983	164.25
319.212	171.25
319.441	186.25
319.67	171.25
319.9	161.25
320.129	165.25
320.358	178.25
320.587	175.25
320.816	170.25
321.046	154.25
321.275	172.25
321.504	188.25
321.733	188.25
321.962	173.25
322.191	177.25
322.42	171.25
322.649	175.25
322.878	191.25
323.108	171.25
323.337	184.25
323.566	173.25
323.795	178.25
324.024	192.25
324.253	189.25
324.482	163.25
324.71	175.25
324.939	176.25
325.168	173.25
325.397	163.25
325.626	167.25
325.855	168.25
326.084	175.25
326.313	173.25
326.542	158.25
326.77	178.25
326.999	175.25
327.228	142.25
327.457	179.25
327.686	170.25
327.914	169.25
328.143	179.25
328.372	173.25
328.6	176.25
328.829	170.25
329.058	169.25
329.287	170.25
329.515	180.25
329.744	184.25
329.972	180.25
330.201	185.25
330.43	170.25
330.658	162.25
330.887	183.25
331.115	172.25
331.344	184.25
331.572	207.25
331.801	172.25
332.03	193.25
332.258	180.25
332.486	187.25
332.715	177.25
332.943	180.25
333.172	206.25
333.4	189.25
333.629	198.25
333.857	192.25
334.085	201.25
334.314	182.25
334.542	202.25
334.771	194.25
334.999	200.25
335.227	192.25
335.455	199.25
335.684	184.25
335.912	184.25
336.14	189.25
336.369	181.25
336.597	215.25
336.825	177.25
337.053	201.25
337.281	203.25
337.51	174.25
337.738	200.25
337.966	178.25
338.194	174.25
338.422	184.25
338.65	184.25
338.878	199.25
339.106	190.25
339.334	201.25
339.562	185.25
339.79	190.25
340.018	178.25
340.246	179.25
340.474	189.25
340.702	191.25
340.93	180.25
341.158	172.25
341.386	181.25
341.614	173.25
341.842	172.25
342.07	189.25
342.298	181.25
342.526	176.25
342.754	189.25
342.981	191.25
343.209	200.25
343.437	226.25
343.665	174.25
343.893	190.25
344.12	200.25
344.348	202.25
344.576	204.25
344.804	191.25
345.031	188.25
345.259	163.25
345.487	194.25
345.714	180.25
345.942	164.25
346.17	168.25
346.397	187.25
346.625	183.25
346.853	190.25
347.08	184.25
347.308	183.25
347.535	188.25
347.763	186.25
347.99	184.25
348.218	186.25
348.445	177.25
348.673	205.25
348.9	180.25
349.128	208.25
349.355	196.25
349.583	191.25
349.81	170.25
350.037	181.25
350.265	182.25
350.492	188.25
350.72	185.25
350.947	198.25
351.174	195.25
351.402	192.25
351.629	186.25
351.856	185.25
352.083	188.25
352.311	187.25
352.538	199.25
352.765	199.25
352.992	221.25
353.22	200.25
353.447	210.25
353.674	220.25
353.901	195.25
354.128	196.25
354.355	191.25
354.583	204.25
354.81	209.25
355.037	211.25
355.264	218.25
355.491	216.25
355.718	216.25
355.945	213.25
356.172	234.25
356.399	246.25
356.626	226.25
356.853	249.25
357.08	262.25
357.307	275.25
357.534	280.25
357.761	326.25
357.988	345.25
358.215	377.25
358.441	435.25
358.668	450.25
358.895	452.25
359.122	367.25
359.349	355.25
359.576	314.25
359.802	292.25
360.029	274.25
360.256	271.25
360.483	254.25
360.709	268.25
360.936	272.25
361.163	259.25
361.39	243.25
361.616	230.25
361.843	225.25
362.07	232.25
362.296	222.25
362.523	202.25
362.749	214.25
362.976	211.25
363.203	222.25
363.429	222.25
363.656	193.25
363.882	188.25
364.109	204.25
364.335	214.25
364.562	202.25
364.788	199.25
365.015	195.25
365.241	208.25
365.468	217.25
365.694	204.25
365.92	198.25
366.147	190.25
366.373	194.25
366.599	186.25
366.826	192.25
367.052	193.25
367.278	183.25
367.505	181.25
367.731	206.25
367.957	191.25
368.184	201.25
368.41	198.25
368.636	216.25
368.862	189.25
369.089	186.25
369.315	195.25
369.541	206.25
369.767	185.25
369.993	173.25
370.219	169.25
370.445	189.25
370.672	195.25
370.898	214.25
371.124	206.25
371.35	203.25
371.576	195.25
371.802	200.25
372.028	204.25
372.254	210.25
372.48	198.25
372.706	203.25
372.932	211.25
373.158	200.25
373.384	216.25
373.61	212.25
373.835	207.25
374.061	196.25
374.287	206.25
374.513	210.25
374.739	203.25
374.965	208.25
375.191	203.25
375.416	200.25
375.642	203.25
375.868	215.25
376.094	206.25
376.319	187.25
376.545	210.25
376.771	193.25
376.997	202.25
377.222	193.25
377.448	179.25
377.674	193.25
377.899	203.25
378.125	190.25
378.35	193.25
378.576	201.25
378.802	188.25
379.027	192.25
379.253	204.25
379.478	187.25
379.704	186.25
379.929	198.25
380.155	206.25
380.38	200.25
380.606	189.25
380.831	227.25
381.057	219.25
381.282	205.25
381.507	190.25
381.733	203.25
381.958	226.25
382.184	221.25
382.409	214.25
382.634	235.25
382.86	224.25
383.085	252.25
383.31	258.25
383.535	248.25
383.761	263.25
383.986	262.25
384.211	233.25
384.436	232.25
384.662	222.25
384.887	233.25
385.112	227.25
385.337	232.25
385.562	223.25
385.787	234.25
386.013	244.25
386.238	224.25
386.463	224.25
386.688	257.25
386.913	228.25
387.138	224.25
387.363	228.25
387.588	242.25
387.813	232.25
388.038	230.25
388.263	239.25
388.488	227.25
388.713	215.25
388.938	228.25
389.163	232.25
389.387	223.25
389.612	227.25
389.837	233.25
390.062	237.25
390.287	242.25
390.512	236.25
390.736	233.25
390.961	247.25
391.186	232.25
391.411	238.25
391.636	248.25
391.86	236.25
392.085	240.25
392.31	240.25
392.534	238.25
392.759	270.25
392.984	258.25
393.208	291.25
393.433	317.25
393.658	324.25
393.882	375.25
394.107	534.25
394.331	864.25
394.556	1128.25
394.78	792.25
395.005	525.25
395.229	405.25
395.454	432.25
395.678	524.25
395.903	750.25
396.127	1224.25
396.352	1415.25
396.576	923.25
396.801	584.25
397.025	499.25
397.249	392.25
397.474	361.25
397.698	328.25
397.922	315.25
398.147	304.25
398.371	322.25
398.595	306.25
398.82	282.25
399.044	284.25
399.268	298.25
399.492	320.25
399.717	321.25
399.941	300.25
400.165	313.25
400.389	283.25
400.613	261.25
400.837	276.25
401.062	269.25
401.286	272.25
401.51	269.25
401.734	271.25
401.958	278.25
402.182	266.25
402.406	254.25
402.63	270.25
402.854	257.25
403.078	246.25
403.302	261.25
403.526	271.25
403.75	274.25
403.974	266.25
404.198	267.25
404.422	273.25
404.645	266.25
404.869	262.25
405.093	270.25
405.317	259.25
405.541	266.25
405.765	262.25
405.988	264.25
406.212	276.25
406.436	275.25
406.66	281.25
406.883	250.25
407.107	271.25
407.331	280.25
407.555	265.25
407.778	278.25
408.002	272.25
408.226	257.25
408.449	270.25
408.673	267.25
408.896	262.25
409.12	263.25
409.344	287.25
409.567	256.25
409.791	256.25
410.014	249.25
410.238	255.25
410.461	270.25
410.685	257.25
410.908	250.25
411.132	270.25
411.355	269.25
411.578	249.25
411.802	233.25
412.025	255.25
412.249	262.25
412.472	247.25
412.695	260.25
412.919	263.25
413.142	252.25
413.365	267.25
413.589	251.25
413.812	246.25
414.035	260.25
414.258	249.25
414.482	250.25
414.705	257.25
414.928	261.25
415.151	246.25
415.374	246.25
415.597	258.25
415.821	240.25
416.044	246.25
416.267	253.25
416.49	259.25
416.713	250.25
416.936	252.25
417.159	263.25
417.382	243.25
417.605	250.25
417.828	257.25
418.051	261.25
418.274	249.25
418.497	258.25
418.72	258.25
418.943	262.25
419.166	256.25
419.389	266.25
419.611	268.25
419.834	257.25
420.057	271.25
420.28	257.25
420.503	247.25
420.726	250.25
420.948	243.25
421.171	264.25
421.394	272.25
421.617	253.25
421.839	259.25
422.062	265.25
422.285	253.25
422.507	262.25
422.73	251.25
422.953	262.25
423.175	258.25
423.398	257.25
423.621	253.25
423.843	264.25
424.066	268.25
424.288	269.25
424.511	258.25
424.733	240.25
424.956	253.25
425.178	266.25
425.401	262.25
425.623	262.25
425.846	244.25
426.068	251.25
426.291	257.25
426.513	243.25
426.735	270.25
426.958	240.25
427.18	234.25
427.402	246.25
427.625	249.25
427.847	232.25
428.069	256.25
428.292	247.25
428.514	235.25
428.736	233.25
428.958	235.25
429.181	258.25
429.403	228.25
429.625	255.25
429.847	238.25
430.069	247.25
430.292	264.25
430.514	261.25
430.736	233.25
430.958	253.25
431.18	231.25
431.402	229.25
431.624	251.25
431.846	220.25
432.068	220.25
432.29	216.25
432.512	247.25
432.734	220.25
432.956	231.25
433.178	233.25
433.4	242.25
433.622	255.25
433.844	252.25
434.066	242.25
434.287	246.25
434.509	217.25
434.731	228.25
434.953	239.25
435.175	257.25
435.397	263.25
435.618	255.25
435.84	233.25
436.062	250.25
436.284	250.25
436.505	230.25
436.727	228.25
436.949	248.25
437.17	251.25
437.392	252.25
437.614	259.25
437.835	225.25
438.057	237.25
438.278	236.25
438.5	238.25
438.721	259.25
438.943	260.25
439.165	252.25
439.386	238.25
439.608	257.25
439.829	238.25
440.05	263.25
440.272	257.25
440.493	245.25
440.715	276.25
440.936	265.25
441.158	258.25
441.379	256.25
441.6	279.25
441.822	288.25
442.043	258.25
442.264	270.25
442.486	263.25
442.707	247.25
442.928	265.25
443.149	248.25
443.371	264.25
443.592	239.25
443.813	270.25
444.034	270.25
444.255	265.25
444.476	277.25
444.698	285.25
444.919	285.25
445.14	528.25
445.361	395.25
445.582	280.25
445.803	254.25
446.024	251.25
446.245	280.25
446.466	279.25
446.687	249.25
446.908	266.25
447.129	246.25
447.35	263.25
447.571	263.25
447.792	247.25
448.013	266.25
448.234	259.25
448.455	263.25
448.675	239.25
448.896	260.25
449.117	243.25
449.338	242.25
449.559	233.25
449.779	227.25
450	230.25
450.221	246.25
450.442	241.25
450.662	247.25
450.883	256.25
451.104	250.25
451.324	235.25
451.545	246.25
451.766	238.25
451.986	233.25
452.207	245.25
452.428	243.25
452.648	243.25
452.869	223.25
453.089	222.25
453.31	228.25
453.53	254.25
453.751	247.25
453.971	233.25
454.192	234.25
454.412	235.25
454.633	224.25
454.853	234.25
455.073	227.25
455.294	237.25
455.514	222.25
455.734	219.25
455.955	217.25
456.175	215.25
456.395	214.25
456.616	224.25
456.836	206.25
457.056	217.25
457.276	214.25
457.497	223.25
457.717	202.25
457.937	212.25
458.157	236.25
458.377	204.25
458.598	223.25
458.818	207.25
459.038	209.25
459.258	215.25
459.478	208.25
459.698	228.25
459.918	228.25
460.138	248.25
460.358	244.25
460.578	248.25
460.798	240.25
461.018	255.25
461.238	251.25
461.458	262.25
461.678	268.25
461.898	256.25
462.118	252.25
462.338	270.25
462.558	271.25
462.777	263.25
462.997	281.25
463.217	274.25
463.437	276.25
463.657	251.25
463.876	272.25
464.096	263.25
464.316	276.25
464.536	260.25
464.755	274.25
464.975	256.25
465.195	278.25
465.414	271.25
465.634	243.25
465.854	261.25
466.073	269.25
466.293	281.25
466.512	289.25
466.732	285.25
466.951	278.25
467.171	265.25
467.391	272.25
467.61	247.25
467.829	266.25
468.049	258.25
468.268	246.25
468.488	245.25
468.707	248.25
468.927	246.25
469.146	257.25
469.365	247.25
469.585	232.25
469.804	263.25
470.023	247.25
470.243	251.25
470.462	259.25
470.681	269.25
470.901	252.25
471.12	242.25
471.339	245.25
471.558	251.25
471.777	248.25
471.997	249.25
472.216	247.25
472.435	233.25
472.654	234.25
472.873	232.25
473.092	250.25
473.311	243.25
473.53	256.25
473.749	275.25
473.968	280.25
474.187	265.25
474.406	258.25
474.625	259.25
474.844	286.25
475.063	273.25
475.282	253.25
475.501	262.25
475.72	265.25
475.939	233.25
476.158	253.25
476.377	246.25
476.596	234.25
476.814	245.25
477.033	235.25
477.252	237.25
477.471	252.25
477.69	255.25
477.908	251.25
478.127	270.25
478.346	262.25
478.564	275.25
478.783	246.25
479.002	263.25
479.22	268.25
479.439	266.25
479.658	253.25
479.876	240.25
480.095	254.25
480.313	279.25
480.532	266.25
480.751	258.25
480.969	242.25
481.188	246.25
481.406	244.25
481.624	231.25
481.843	236.25
482.061	238.25
482.28	241.25
482.498	242.25
482.717	235.25
482.935	254.25
483.153	268.25
483.372	281.25
483.59	296.25
483.808	259.25
484.027	258.25
484.245	249.25
484.463	281.25
484.681	284.25
484.9	280.25
485.118	291.25
485.336	278.25
485.554	248.25
485.772	253.25
485.99	257.25
486.209	279.25
486.427	266.25
486.645	276.25
486.863	275.25
487.081	283.25
487.299	270.25
487.517	286.25
487.735	296.25
487.953	289.25
488.171	295.25
488.389	282.25
488.607	272.25
488.825	271.25
489.043	274.25
489.261	285.25
489.479	282.25
489.696	284.25
489.914	270.25
490.132	284.25
490.35	283.25
490.568	276.25
490.786	284.25
491.003	285.25
491.221	304.25
491.439	298.25
491.657	306.25
491.874	316.25
492.092	315.25
492.31	340.25
492.527	310.25
492.745	321.25
492.963	294.25
493.18	306.25
493.398	309.25
493.615	298.25
493.833	288.25
494.05	293.25
494.268	285.25
494.485	305.25
494.703	296.25
494.92	300.25
495.138	283.25
495.355	292.25
495.573	299.25
495.79	286.25
496.008	300.25
496.225	306.25
496.442	310.25
496.66	307.25
496.877	283.25
497.094	296.25
497.312	293.25
497.529	290.25
497.746	284.25
497.963	292.25
498.181	299.25
498.398	301.25
498.615	301.25
498.832	315.25
499.049	315.25
499.267	337.25
499.484	361.25
499.701	367.25
499.918	403.25
500.135	430.25
500.352	428.25
500.569	437.25
500.786	421.25
501.003	404.25
501.22	412.25
501.437	391.25
501.654	370.25
501.871	353.25
502.088	330.25
502.305	317.25
502.522	311.25
502.739	330.25
502.956	299.25
503.172	301.25
503.389	272.25
503.606	275.25
