Data from SampC_HRD10591_00019.txt Node
Date: Mon Jan 19 11:37:35 EST 2026
User: Yrep
Spectrometer: HR+D1059
Trigger mode: 0
Integration Time (sec): 3.443000E-1
Scans to average: 1
Electric dark correction enabled: true
Nonlinearity correction enabled: false
Boxcar width: 0
XAxis mode: Wavelengths
Number of Pixels in Spectrum: 2048
>>>>>Begin Spectral Data<<<<<
223.165	-19.19
223.4	-19.19
223.635	-19.19
223.869	-23.19
224.104	-29.19
224.338	-17.19
224.573	-13.19
224.808	-17.19
225.042	-5.19
225.277	2.81
225.511	-4.19
225.746	10.81
225.98	8.81
226.215	19.81
226.449	14.81
226.683	11.81
226.918	34.81
227.152	24.81
227.387	43.81
227.621	30.81
227.856	50.81
228.09	41.81
228.324	41.81
228.559	48.81
228.793	58.81
229.027	86.81
229.262	83.81
229.496	96.81
229.73	81.81
229.964	96.81
230.199	103.81
230.433	100.81
230.667	101.81
230.901	119.81
231.136	111.81
231.37	110.81
231.604	119.81
231.838	111.81
232.072	123.81
232.306	112.81
232.541	124.81
232.775	125.81
233.009	104.81
233.243	114.81
233.477	99.81
233.711	101.81
233.945	108.81
234.179	102.81
234.413	108.81
234.647	120.81
234.881	127.81
235.115	128.81
235.349	132.81
235.583	115.81
235.817	115.81
236.051	126.81
236.285	149.81
236.519	144.81
236.753	159.81
236.987	208.81
237.221	232.81
237.455	251.81
237.689	247.81
237.922	194.81
238.156	164.81
238.39	141.81
238.624	118.81
238.858	128.81
239.091	123.81
239.325	126.81
239.559	125.81
239.793	124.81
240.027	122.81
240.26	123.81
240.494	123.81
240.728	112.81
240.961	117.81
241.195	115.81
241.429	131.81
241.662	106.81
241.896	109.81
242.13	127.81
242.363	117.81
242.597	118.81
242.83	116.81
243.064	123.81
243.298	122.81
243.531	128.81
243.765	127.81
243.998	127.81
244.232	128.81
244.465	123.81
244.699	130.81
244.932	131.81
245.166	130.81
245.399	124.81
245.633	134.81
245.866	142.81
246.099	150.81
246.333	143.81
246.566	131.81
246.8	143.81
247.033	153.81
247.266	135.81
247.5	140.81
247.733	111.81
247.966	131.81
248.2	128.81
248.433	139.81
248.666	156.81
248.899	135.81
249.133	129.81
249.366	140.81
249.599	137.81
249.832	125.81
250.066	148.81
250.299	150.81
250.532	145.81
250.765	131.81
250.998	160.81
251.231	152.81
251.465	143.81
251.698	163.81
251.931	158.81
252.164	162.81
252.397	137.81
252.63	160.81
252.863	146.81
253.096	164.81
253.329	162.81
253.562	156.81
253.795	147.81
254.028	155.81
254.261	146.81
254.494	161.81
254.727	146.81
254.96	148.81
255.193	149.81
255.426	152.81
255.659	153.81
255.892	164.81
256.124	160.81
256.357	171.81
256.59	187.81
256.823	229.81
257.056	272.81
257.289	278.81
257.521	296.81
257.754	340.81
257.987	313.81
258.22	247.81
258.452	204.81
258.685	186.81
258.918	186.81
259.151	167.81
259.383	171.81
259.616	160.81
259.849	167.81
260.081	183.81
260.314	182.81
260.547	180.81
260.779	200.81
261.012	182.81
261.244	177.81
261.477	186.81
261.71	174.81
261.942	180.81
262.175	180.81
262.407	199.81
262.64	194.81
262.872	211.81
263.105	240.81
263.337	276.81
263.57	294.81
263.802	270.81
264.035	258.81
264.267	235.81
264.499	211.81
264.732	219.81
264.964	227.81
265.197	231.81
265.429	271.81
265.661	276.81
265.894	238.81
266.126	307.81
266.358	320.81
266.591	263.81
266.823	238.81
267.055	214.81
267.287	203.81
267.52	182.81
267.752	190.81
267.984	188.81
268.216	172.81
268.448	184.81
268.681	187.81
268.913	193.81
269.145	195.81
269.377	202.81
269.609	193.81
269.841	188.81
270.073	207.81
270.306	180.81
270.538	179.81
270.77	190.81
271.002	190.81
271.234	195.81
271.466	189.81
271.698	196.81
271.93	203.81
272.162	211.81
272.394	190.81
272.626	194.81
272.858	195.81
273.09	190.81
273.322	189.81
273.553	190.81
273.785	189.81
274.017	198.81
274.249	210.81
274.481	214.81
274.713	211.81
274.945	210.81
275.176	213.81
275.408	214.81
275.64	217.81
275.872	200.81
276.104	217.81
276.335	216.81
276.567	208.81
276.799	219.81
277.031	235.81
277.262	223.81
277.494	249.81
277.726	240.81
277.957	268.81
278.189	276.81
278.421	283.81
278.652	288.81
278.884	324.81
279.115	447.81
279.347	606.81
279.579	873.81
279.81	1000.81
280.042	779.81
280.273	730.81
280.505	746.81
280.736	488.81
280.968	356.81
281.199	385.81
281.431	456.81
281.662	586.81
281.894	640.81
282.125	516.81
282.356	408.81
282.588	316.81
282.819	310.81
283.051	289.81
283.282	275.81
283.513	277.81
283.745	267.81
283.976	270.81
284.207	269.81
284.439	253.81
284.67	262.81
284.901	278.81
285.132	322.81
285.364	364.81
285.595	332.81
285.826	276.81
286.057	274.81
286.288	241.81
286.52	234.81
286.751	247.81
286.982	251.81
287.213	240.81
287.444	248.81
287.675	237.81
287.906	251.81
288.138	256.81
288.369	280.81
288.6	248.81
288.831	232.81
289.062	249.81
289.293	248.81
289.524	251.81
289.755	239.81
289.986	245.81
290.217	228.81
290.448	249.81
290.679	252.81
290.91	248.81
291.141	245.81
291.371	266.81
291.602	271.81
291.833	256.81
292.064	259.81
292.295	270.81
292.526	294.81
292.757	276.81
292.987	286.81
293.218	273.81
293.449	298.81
293.68	291.81
293.91	303.81
294.141	279.81
294.372	250.81
294.603	251.81
294.833	274.81
295.064	264.81
295.295	251.81
295.525	251.81
295.756	246.81
295.987	271.81
296.217	253.81
296.448	256.81
296.679	279.81
296.909	251.81
297.14	266.81
297.37	255.81
297.601	235.81
297.831	263.81
298.062	258.81
298.292	262.81
298.523	253.81
298.753	255.81
298.984	266.81
299.214	265.81
299.445	281.81
299.675	254.81
299.905	271.81
300.136	278.81
300.366	276.81
300.597	284.81
300.827	277.81
301.057	280.81
301.288	281.81
301.518	262.81
301.748	287.81
301.979	346.81
302.209	299.81
302.439	298.81
302.669	328.81
302.9	318.81
303.13	315.81
303.36	316.81
303.59	342.81
303.82	347.81
304.051	360.81
304.281	361.81
304.511	394.81
304.741	412.81
304.971	476.81
305.201	577.81
305.431	608.81
305.661	721.81
305.891	790.81
306.121	714.81
306.352	662.81
306.582	660.81
306.812	666.81
307.042	575.81
307.272	538.81
307.502	625.81
307.731	801.81
307.961	1131.81
308.191	1644.81
308.421	1929.81
308.651	1620.81
308.881	1448.81
309.111	1834.81
309.341	2322.81
309.571	2270.81
309.8	1422.81
310.03	944.81
310.26	714.81
310.49	599.81
310.72	537.81
310.949	482.81
311.179	434.81
311.409	443.81
311.639	420.81
311.868	426.81
312.098	404.81
312.328	380.81
312.557	370.81
312.787	362.81
313.017	345.81
313.246	343.81
313.476	336.81
313.706	332.81
313.935	321.81
314.165	334.81
314.394	341.81
314.624	314.81
314.853	332.81
315.083	314.81
315.312	322.81
315.542	328.81
315.771	324.81
316.001	323.81
316.23	333.81
316.46	311.81
316.689	313.81
316.919	318.81
317.148	280.81
317.377	318.81
317.607	322.81
317.836	314.81
318.065	307.81
318.295	323.81
318.524	304.81
318.753	306.81
318.983	294.81
319.212	300.81
319.441	312.81
319.67	302.81
319.9	288.81
320.129	298.81
320.358	304.81
320.587	290.81
320.816	298.81
321.046	297.81
321.275	315.81
321.504	292.81
321.733	300.81
321.962	305.81
322.191	300.81
322.42	306.81
322.649	318.81
322.878	323.81
323.108	296.81
323.337	305.81
323.566	305.81
323.795	322.81
324.024	329.81
324.253	316.81
324.482	312.81
324.71	314.81
324.939	342.81
325.168	307.81
325.397	329.81
325.626	308.81
325.855	318.81
326.084	309.81
326.313	312.81
326.542	313.81
326.77	323.81
326.999	306.81
327.228	310.81
327.457	327.81
327.686	330.81
327.914	302.81
328.143	319.81
328.372	306.81
328.6	312.81
328.829	299.81
329.058	290.81
329.287	304.81
329.515	306.81
329.744	311.81
329.972	320.81
330.201	307.81
330.43	323.81
330.658	320.81
330.887	320.81
331.115	335.81
331.344	347.81
331.572	335.81
331.801	330.81
332.03	325.81
332.258	349.81
332.486	341.81
332.715	354.81
332.943	365.81
333.172	378.81
333.4	370.81
333.629	374.81
333.857	354.81
334.085	378.81
334.314	372.81
334.542	367.81
334.771	373.81
334.999	380.81
335.227	373.81
335.455	350.81
335.684	365.81
335.912	367.81
336.14	352.81
336.369	331.81
336.597	356.81
336.825	346.81
337.053	355.81
337.281	328.81
337.51	352.81
337.738	351.81
337.966	333.81
338.194	337.81
338.422	320.81
338.65	342.81
338.878	336.81
339.106	334.81
339.334	342.81
339.562	351.81
339.79	334.81
340.018	328.81
340.246	330.81
340.474	316.81
340.702	338.81
340.93	312.81
341.158	329.81
341.386	346.81
341.614	336.81
341.842	327.81
342.07	327.81
342.298	334.81
342.526	337.81
342.754	333.81
342.981	342.81
343.209	353.81
343.437	374.81
343.665	375.81
343.893	361.81
344.12	376.81
344.348	369.81
344.576	351.81
344.804	339.81
345.031	320.81
345.259	345.81
345.487	316.81
345.714	342.81
345.942	326.81
346.17	339.81
346.397	336.81
346.625	319.81
346.853	344.81
347.08	313.81
347.308	346.81
347.535	331.81
347.763	351.81
347.99	350.81
348.218	360.81
348.445	335.81
348.673	344.81
348.9	345.81
349.128	344.81
349.355	340.81
349.583	344.81
349.81	337.81
350.037	336.81
350.265	351.81
350.492	343.81
350.72	321.81
350.947	351.81
351.174	343.81
351.402	362.81
351.629	379.81
351.856	364.81
352.083	353.81
352.311	364.81
352.538	362.81
352.765	376.81
352.992	374.81
353.22	375.81
353.447	386.81
353.674	412.81
353.901	394.81
354.128	387.81
354.355	404.81
354.583	390.81
354.81	415.81
355.037	446.81
355.264	408.81
355.491	432.81
355.718	448.81
355.945	460.81
356.172	482.81
356.399	467.81
356.626	496.81
356.853	514.81
357.08	559.81
357.307	584.81
357.534	634.81
357.761	704.81
357.988	776.81
358.215	889.81
358.441	1060.81
358.668	1180.81
358.895	1134.81
359.122	928.81
359.349	806.81
359.576	678.81
359.802	656.81
360.029	592.81
360.256	552.81
360.483	538.81
360.709	539.81
360.936	517.81
361.163	477.81
361.39	482.81
361.616	458.81
361.843	473.81
362.07	450.81
362.296	429.81
362.523	440.81
362.749	439.81
362.976	412.81
363.203	425.81
363.429	393.81
363.656	390.81
363.882	404.81
364.109	374.81
364.335	385.81
364.562	378.81
364.788	393.81
365.015	383.81
365.241	378.81
365.468	371.81
365.694	374.81
365.92	363.81
366.147	367.81
366.373	354.81
366.599	379.81
366.826	375.81
367.052	350.81
367.278	363.81
367.505	360.81
367.731	376.81
367.957	378.81
368.184	374.81
368.41	372.81
368.636	380.81
368.862	357.81
369.089	368.81
369.315	372.81
369.541	365.81
369.767	380.81
369.993	359.81
370.219	379.81
370.445	368.81
370.672	374.81
370.898	369.81
371.124	366.81
371.35	373.81
371.576	371.81
371.802	376.81
372.028	395.81
372.254	378.81
372.48	384.81
372.706	380.81
372.932	377.81
373.158	367.81
373.384	377.81
373.61	407.81
373.835	393.81
374.061	396.81
374.287	386.81
374.513	369.81
374.739	393.81
374.965	415.81
375.191	397.81
375.416	392.81
375.642	411.81
375.868	414.81
376.094	380.81
376.319	392.81
376.545	396.81
376.771	372.81
376.997	393.81
377.222	378.81
377.448	372.81
377.674	360.81
377.899	362.81
378.125	374.81
378.35	382.81
378.576	367.81
378.802	363.81
379.027	374.81
379.253	398.81
379.478	363.81
379.704	380.81
379.929	383.81
380.155	372.81
380.38	397.81
380.606	378.81
380.831	373.81
381.057	399.81
381.282	382.81
381.507	388.81
381.733	392.81
381.958	414.81
382.184	433.81
382.409	440.81
382.634	457.81
382.86	467.81
383.085	524.81
383.31	537.81
383.535	518.81
383.761	528.81
383.986	544.81
384.211	471.81
384.436	440.81
384.662	434.81
384.887	422.81
385.112	419.81
385.337	428.81
385.562	437.81
385.787	470.81
386.013	454.81
386.238	463.81
386.463	457.81
386.688	486.81
386.913	420.81
387.138	433.81
387.363	468.81
387.588	455.81
387.813	444.81
388.038	468.81
388.263	454.81
388.488	446.81
388.713	451.81
388.938	427.81
389.163	438.81
389.387	446.81
389.612	452.81
389.837	451.81
390.062	450.81
390.287	481.81
390.512	464.81
390.736	460.81
390.961	458.81
391.186	460.81
391.411	485.81
391.636	495.81
391.86	505.81
392.085	498.81
392.31	507.81
392.534	516.81
392.759	561.81
392.984	570.81
393.208	628.81
393.433	715.81
393.658	788.81
393.882	907.81
394.107	1471.81
394.331	2584.81
394.556	3374.81
394.78	2286.81
395.005	1352.81
395.229	1056.81
395.454	1078.81
395.678	1368.81
395.903	2226.81
396.127	3759.81
396.352	4445.81
396.576	2705.81
396.801	1596.81
397.025	1153.81
397.249	924.81
397.474	819.81
397.698	751.81
397.922	735.81
398.147	676.81
398.371	655.81
398.595	609.81
398.82	626.81
399.044	632.81
399.268	639.81
399.492	675.81
399.717	679.81
399.941	673.81
400.165	606.81
400.389	590.81
400.613	546.81
400.837	537.81
401.062	549.81
401.286	526.81
401.51	536.81
401.734	536.81
401.958	524.81
402.182	510.81
402.406	520.81
402.63	552.81
402.854	513.81
403.078	549.81
403.302	524.81
403.526	538.81
403.75	538.81
403.974	534.81
404.198	536.81
404.422	543.81
404.645	540.81
404.869	525.81
405.093	534.81
405.317	548.81
405.541	540.81
405.765	523.81
405.988	555.81
406.212	566.81
406.436	529.81
406.66	549.81
406.883	568.81
407.107	562.81
407.331	570.81
407.555	557.81
407.778	587.81
408.002	546.81
408.226	538.81
408.449	553.81
408.673	531.81
408.896	546.81
409.12	549.81
409.344	543.81
409.567	534.81
409.791	547.81
410.014	525.81
410.238	528.81
410.461	544.81
410.685	525.81
410.908	529.81
411.132	538.81
411.355	506.81
411.578	512.81
411.802	502.81
412.025	516.81
412.249	518.81
412.472	536.81
412.695	503.81
412.919	520.81
413.142	507.81
413.365	522.81
413.589	510.81
413.812	515.81
414.035	505.81
414.258	485.81
414.482	505.81
414.705	513.81
414.928	523.81
415.151	502.81
415.374	511.81
415.597	519.81
415.821	492.81
416.044	482.81
416.267	533.81
416.49	505.81
416.713	523.81
416.936	512.81
417.159	486.81
417.382	517.81
417.605	470.81
417.828	515.81
418.051	505.81
418.274	512.81
418.497	516.81
418.72	506.81
418.943	526.81
419.166	522.81
419.389	578.81
419.611	543.81
419.834	523.81
420.057	511.81
420.28	522.81
420.503	504.81
420.726	526.81
420.948	510.81
421.171	515.81
421.394	524.81
421.617	521.81
421.839	518.81
422.062	535.81
422.285	524.81
422.507	526.81
422.73	527.81
422.953	541.81
423.175	511.81
423.398	527.81
423.621	512.81
423.843	537.81
424.066	530.81
424.288	532.81
424.511	536.81
424.733	529.81
424.956	497.81
425.178	517.81
425.401	538.81
425.623	523.81
425.846	523.81
426.068	481.81
426.291	482.81
426.513	513.81
426.735	488.81
426.958	489.81
427.18	486.81
427.402	502.81
427.625	484.81
427.847	485.81
428.069	489.81
428.292	491.81
428.514	480.81
428.736	472.81
428.958	493.81
429.181	474.81
429.403	482.81
429.625	473.81
429.847	465.81
430.069	471.81
430.292	473.81
430.514	460.81
430.736	473.81
430.958	484.81
431.18	473.81
431.402	475.81
431.624	464.81
431.846	450.81
432.068	446.81
432.29	461.81
432.512	472.81
432.734	481.81
432.956	469.81
433.178	492.81
433.4	509.81
433.622	525.81
433.844	496.81
434.066	482.81
434.287	466.81
434.509	454.81
434.731	458.81
434.953	483.81
435.175	482.81
435.397	479.81
435.618	473.81
435.84	450.81
436.062	462.81
436.284	486.81
436.505	474.81
436.727	482.81
436.949	487.81
437.17	477.81
437.392	465.81
437.614	491.81
437.835	435.81
438.057	443.81
438.278	450.81
438.5	477.81
438.721	461.81
438.943	501.81
439.165	487.81
439.386	502.81
439.608	494.81
439.829	478.81
440.05	523.81
440.272	530.81
440.493	538.81
440.715	507.81
440.936	515.81
441.158	515.81
441.379	518.81
441.6	548.81
441.822	525.81
442.043	536.81
442.264	535.81
442.486	508.81
442.707	542.81
442.928	521.81
443.149	518.81
443.371	552.81
443.592	510.81
443.813	534.81
444.034	518.81
444.255	543.81
444.476	583.81
444.698	576.81
444.919	552.81
445.14	792.81
445.361	658.81
445.582	548.81
445.803	522.81
446.024	521.81
446.245	546.81
446.466	531.81
446.687	525.81
446.908	503.81
447.129	516.81
447.35	514.81
447.571	501.81
447.792	489.81
448.013	492.81
448.234	524.81
448.455	525.81
448.675	511.81
448.896	483.81
449.117	508.81
449.338	483.81
449.559	498.81
449.779	478.81
450	488.81
450.221	487.81
450.442	492.81
450.662	483.81
450.883	472.81
451.104	469.81
451.324	479.81
451.545	470.81
451.766	489.81
451.986	497.81
452.207	464.81
452.428	474.81
452.648	473.81
452.869	492.81
453.089	475.81
453.31	466.81
453.53	464.81
453.751	455.81
453.971	484.81
454.192	460.81
454.412	468.81
454.633	467.81
454.853	472.81
455.073	436.81
455.294	446.81
455.514	454.81
455.734	444.81
455.955	453.81
456.175	418.81
456.395	433.81
456.616	432.81
456.836	435.81
457.056	423.81
457.276	423.81
457.497	430.81
457.717	402.81
457.937	438.81
458.157	432.81
458.377	412.81
458.598	425.81
458.818	410.81
459.038	409.81
459.258	422.81
459.478	444.81
459.698	446.81
459.918	471.81
460.138	463.81
460.358	483.81
460.578	513.81
460.798	500.81
461.018	514.81
461.238	516.81
461.458	518.81
461.678	499.81
461.898	512.81
462.118	508.81
462.338	528.81
462.558	553.81
462.777	553.81
462.997	587.81
463.217	571.81
463.437	580.81
463.657	567.81
463.876	563.81
464.096	568.81
464.316	550.81
464.536	577.81
464.755	568.81
464.975	549.81
465.195	518.81
465.414	528.81
465.634	504.81
465.854	546.81
466.073	553.81
466.293	591.81
466.512	659.81
466.732	625.81
466.951	601.81
467.171	574.81
467.391	569.81
467.61	553.81
467.829	530.81
468.049	544.81
468.268	522.81
468.488	524.81
468.707	502.81
468.927	511.81
469.146	515.81
469.365	529.81
469.585	529.81
469.804	516.81
470.023	498.81
470.243	508.81
470.462	498.81
470.681	511.81
470.901	497.81
471.12	515.81
471.339	522.81
471.558	494.81
471.777	513.81
471.997	496.81
472.216	503.81
472.435	474.81
472.654	479.81
472.873	486.81
473.092	492.81
473.311	515.81
473.53	548.81
473.749	574.81
473.968	585.81
474.187	600.81
474.406	568.81
474.625	596.81
474.844	623.81
475.063	595.81
475.282	568.81
475.501	513.81
475.72	527.81
475.939	518.81
476.158	501.81
476.377	518.81
476.596	488.81
476.814	475.81
477.033	481.81
477.252	479.81
477.471	487.81
477.69	501.81
477.908	534.81
478.127	523.81
478.346	527.81
478.564	516.81
478.783	514.81
479.002	536.81
479.22	534.81
479.439	520.81
479.658	510.81
479.876	504.81
480.095	508.81
480.313	531.81
480.532	528.81
480.751	503.81
480.969	479.81
481.188	487.81
481.406	485.81
481.624	459.81
481.843	451.81
482.061	480.81
482.28	481.81
482.498	480.81
482.717	473.81
482.935	489.81
483.153	512.81
483.372	540.81
483.59	519.81
483.808	526.81
484.027	538.81
484.245	534.81
484.463	579.81
484.681	606.81
484.9	568.81
485.118	590.81
485.336	575.81
485.554	540.81
485.772	551.81
485.99	546.81
486.209	528.81
486.427	537.81
486.645	547.81
486.863	585.81
487.081	578.81
487.299	569.81
487.517	572.81
487.735	601.81
487.953	606.81
488.171	606.81
488.389	607.81
488.607	571.81
488.825	568.81
489.043	546.81
489.261	558.81
489.479	554.81
489.696	546.81
489.914	560.81
490.132	582.81
490.35	559.81
490.568	581.81
490.786	587.81
491.003	598.81
491.221	613.81
491.439	630.81
491.657	624.81
491.874	646.81
492.092	672.81
492.31	675.81
492.527	661.81
492.745	616.81
492.963	613.81
493.18	600.81
493.398	614.81
493.615	609.81
493.833	616.81
494.05	584.81
494.268	604.81
494.485	594.81
494.703	598.81
494.92	611.81
495.138	590.81
495.355	600.81
495.573	603.81
495.79	594.81
496.008	616.81
496.225	607.81
496.442	569.81
496.66	594.81
496.877	600.81
497.094	625.81
497.312	598.81
497.529	598.81
497.746	586.81
497.963	595.81
498.181	611.81
498.398	641.81
498.615	667.81
498.832	667.81
499.049	675.81
499.267	729.81
499.484	733.81
499.701	803.81
499.918	850.81
500.135	916.81
500.352	953.81
500.569	978.81
500.786	962.81
501.003	918.81
501.22	880.81
501.437	827.81
501.654	744.81
501.871	745.81
502.088	700.81
502.305	669.81
502.522	659.81
