Data from SampC_HRD10591_00099.txt Node
Date: Mon Jan 19 11:38:03 EST 2026
User: Yrep
Spectrometer: HR+D1059
Trigger mode: 0
Integration Time (sec): 3.443000E-1
Scans to average: 1
Electric dark correction enabled: true
Nonlinearity correction enabled: false
Boxcar width: 0
XAxis mode: Wavelengths
Number of Pixels in Spectrum: 2048
>>>>>Begin Spectral Data<<<<<
223.165	-19.44
223.4	-19.44
223.635	-19.44
223.869	-12.44
224.104	-25.44
224.338	-12.44
224.573	-13.44
224.808	-19.44
225.042	-13.44
225.277	1.56
225.511	-0.44
225.746	23.56
225.98	1.56
226.215	15.56
226.449	6.56
226.683	16.56
226.918	28.56
227.152	22.56
227.387	37.56
227.621	41.56
227.856	45.56
228.09	58.56
228.324	46.56
228.559	58.56
228.793	67.56
229.027	84.56
229.262	95.56
229.496	92.56
229.73	102.56
229.964	96.56
230.199	103.56
230.433	107.56
230.667	105.56
230.901	111.56
231.136	95.56
231.37	117.56
231.604	110.56
231.838	115.56
232.072	127.56
232.306	124.56
232.541	121.56
232.775	105.56
233.009	107.56
233.243	109.56
233.477	122.56
233.711	117.56
233.945	119.56
234.179	108.56
234.413	115.56
234.647	113.56
234.881	104.56
235.115	110.56
235.349	115.56
235.583	123.56
235.817	130.56
236.051	119.56
236.285	126.56
236.519	147.56
236.753	149.56
236.987	196.56
237.221	217.56
237.455	222.56
237.689	220.56
237.922	190.56
238.156	161.56
238.39	136.56
238.624	120.56
238.858	116.56
239.091	121.56
239.325	100.56
239.559	115.56
239.793	119.56
240.027	117.56
240.26	117.56
240.494	117.56
240.728	112.56
240.961	99.56
241.195	110.56
241.429	105.56
241.662	101.56
241.896	100.56
242.13	91.56
242.363	127.56
242.597	124.56
242.83	123.56
243.064	108.56
243.298	117.56
243.531	122.56
243.765	122.56
243.998	114.56
244.232	125.56
244.465	132.56
244.699	130.56
244.932	128.56
245.166	125.56
245.399	121.56
245.633	127.56
245.866	127.56
246.099	124.56
246.333	140.56
246.566	129.56
246.8	130.56
247.033	131.56
247.266	120.56
247.5	112.56
247.733	131.56
247.966	117.56
248.2	141.56
248.433	152.56
248.666	127.56
248.899	139.56
249.133	131.56
249.366	133.56
249.599	143.56
249.832	126.56
250.066	129.56
250.299	136.56
250.532	145.56
250.765	147.56
250.998	147.56
251.231	144.56
251.465	139.56
251.698	119.56
251.931	160.56
252.164	140.56
252.397	146.56
252.63	153.56
252.863	156.56
253.096	140.56
253.329	146.56
253.562	139.56
253.795	146.56
254.028	152.56
254.261	141.56
254.494	143.56
254.727	146.56
254.96	162.56
255.193	164.56
255.426	144.56
255.659	144.56
255.892	168.56
256.124	161.56
256.357	171.56
256.59	187.56
256.823	226.56
257.056	277.56
257.289	290.56
257.521	289.56
257.754	319.56
257.987	294.56
258.22	243.56
258.452	185.56
258.685	184.56
258.918	163.56
259.151	174.56
259.383	168.56
259.616	169.56
259.849	163.56
260.081	181.56
260.314	163.56
260.547	168.56
260.779	173.56
261.012	160.56
261.244	163.56
261.477	172.56
261.71	163.56
261.942	179.56
262.175	190.56
262.407	171.56
262.64	176.56
262.872	201.56
263.105	188.56
263.337	229.56
263.57	215.56
263.802	203.56
264.035	187.56
264.267	196.56
264.499	189.56
264.732	194.56
264.964	212.56
265.197	220.56
265.429	255.56
265.661	260.56
265.894	256.56
266.126	289.56
266.358	295.56
266.591	249.56
266.823	214.56
267.055	202.56
267.287	199.56
267.52	180.56
267.752	184.56
267.984	192.56
268.216	177.56
268.448	169.56
268.681	170.56
268.913	167.56
269.145	171.56
269.377	189.56
269.609	179.56
269.841	176.56
270.073	160.56
270.306	171.56
270.538	169.56
270.77	178.56
271.002	175.56
271.234	163.56
271.466	188.56
271.698	183.56
271.93	176.56
272.162	175.56
272.394	181.56
272.626	188.56
272.858	185.56
273.09	179.56
273.322	200.56
273.553	182.56
273.785	182.56
274.017	193.56
274.249	206.56
274.481	203.56
274.713	197.56
274.945	195.56
275.176	203.56
275.408	204.56
275.64	205.56
275.872	194.56
276.104	179.56
276.335	200.56
276.567	210.56
276.799	200.56
277.031	201.56
277.262	205.56
277.494	219.56
277.726	225.56
277.957	254.56
278.189	256.56
278.421	255.56
278.652	271.56
278.884	303.56
279.115	394.56
279.347	579.56
279.579	764.56
279.81	859.56
280.042	699.56
280.273	633.56
280.505	636.56
280.736	395.56
280.968	305.56
281.199	320.56
281.431	371.56
281.662	456.56
281.894	492.56
282.125	442.56
282.356	331.56
282.588	290.56
282.819	279.56
283.051	266.56
283.282	248.56
283.513	263.56
283.745	221.56
283.976	228.56
284.207	238.56
284.439	233.56
284.67	219.56
284.901	268.56
285.132	312.56
285.364	340.56
285.595	313.56
285.826	248.56
286.057	238.56
286.288	215.56
286.52	226.56
286.751	218.56
286.982	220.56
287.213	228.56
287.444	217.56
287.675	224.56
287.906	232.56
288.138	227.56
288.369	225.56
288.6	233.56
288.831	209.56
289.062	223.56
289.293	223.56
289.524	216.56
289.755	229.56
289.986	215.56
290.217	226.56
290.448	225.56
290.679	230.56
290.91	229.56
291.141	245.56
291.371	225.56
291.602	244.56
291.833	242.56
292.064	230.56
292.295	239.56
292.526	241.56
292.757	251.56
292.987	253.56
293.218	251.56
293.449	260.56
293.68	250.56
293.91	270.56
294.141	265.56
294.372	235.56
294.603	243.56
294.833	235.56
295.064	228.56
295.295	228.56
295.525	233.56
295.756	234.56
295.987	221.56
296.217	243.56
296.448	233.56
296.679	222.56
296.909	234.56
297.14	241.56
297.37	255.56
297.601	230.56
297.831	228.56
298.062	237.56
298.292	240.56
298.523	233.56
298.753	248.56
298.984	235.56
299.214	240.56
299.445	249.56
299.675	248.56
299.905	241.56
300.136	236.56
300.366	238.56
300.597	249.56
300.827	237.56
301.057	261.56
301.288	262.56
301.518	267.56
301.748	260.56
301.979	322.56
302.209	297.56
302.439	276.56
302.669	271.56
302.9	293.56
303.13	311.56
303.36	304.56
303.59	319.56
303.82	336.56
304.051	345.56
304.281	347.56
304.511	368.56
304.741	384.56
304.971	420.56
305.201	515.56
305.431	544.56
305.661	626.56
305.891	683.56
306.121	640.56
306.352	587.56
306.582	587.56
306.812	589.56
307.042	525.56
307.272	503.56
307.502	568.56
307.731	759.56
307.961	1046.56
308.191	1487.56
308.421	1775.56
308.651	1471.56
308.881	1360.56
309.111	1642.56
309.341	2131.56
309.571	2018.56
309.8	1311.56
310.03	842.56
310.26	643.56
310.49	533.56
310.72	507.56
310.949	480.56
311.179	412.56
311.409	408.56
311.639	381.56
311.868	374.56
312.098	359.56
312.328	348.56
312.557	353.56
312.787	321.56
313.017	333.56
313.246	329.56
313.476	316.56
313.706	279.56
313.935	293.56
314.165	303.56
314.394	287.56
314.624	299.56
314.853	275.56
315.083	282.56
315.312	293.56
315.542	286.56
315.771	279.56
316.001	288.56
316.23	265.56
316.46	281.56
316.689	284.56
316.919	291.56
317.148	283.56
317.377	277.56
317.607	291.56
317.836	283.56
318.065	284.56
318.295	286.56
318.524	274.56
318.753	258.56
318.983	273.56
319.212	283.56
319.441	271.56
319.67	272.56
319.9	265.56
320.129	282.56
320.358	285.56
320.587	254.56
320.816	273.56
321.046	265.56
321.275	265.56
321.504	273.56
321.733	263.56
321.962	265.56
322.191	276.56
322.42	281.56
322.649	270.56
322.878	268.56
323.108	283.56
323.337	283.56
323.566	286.56
323.795	288.56
324.024	298.56
324.253	283.56
324.482	276.56
324.71	297.56
324.939	277.56
325.168	276.56
325.397	269.56
325.626	272.56
325.855	279.56
326.084	260.56
326.313	269.56
326.542	267.56
326.77	278.56
326.999	274.56
327.228	255.56
327.457	295.56
327.686	277.56
327.914	280.56
328.143	284.56
328.372	285.56
328.6	265.56
328.829	273.56
329.058	280.56
329.287	299.56
329.515	298.56
329.744	301.56
329.972	271.56
330.201	262.56
330.43	276.56
330.658	290.56
330.887	278.56
331.115	281.56
331.344	284.56
331.572	298.56
331.801	287.56
332.03	305.56
332.258	293.56
332.486	309.56
332.715	313.56
332.943	298.56
333.172	293.56
333.4	316.56
333.629	327.56
333.857	318.56
334.085	336.56
334.314	329.56
334.542	332.56
334.771	313.56
334.999	351.56
335.227	326.56
335.455	302.56
335.684	305.56
335.912	307.56
336.14	307.56
336.369	309.56
336.597	317.56
336.825	294.56
337.053	266.56
337.281	304.56
337.51	298.56
337.738	303.56
337.966	280.56
338.194	290.56
338.422	291.56
338.65	290.56
338.878	302.56
339.106	279.56
339.334	294.56
339.562	281.56
339.79	281.56
340.018	300.56
340.246	291.56
340.474	283.56
340.702	293.56
340.93	269.56
341.158	286.56
341.386	284.56
341.614	279.56
341.842	286.56
342.07	281.56
342.298	282.56
342.526	288.56
342.754	287.56
342.981	287.56
343.209	290.56
343.437	320.56
343.665	296.56
343.893	303.56
344.12	336.56
344.348	320.56
344.576	307.56
344.804	317.56
345.031	302.56
345.259	293.56
345.487	283.56
345.714	286.56
345.942	306.56
346.17	316.56
346.397	281.56
346.625	297.56
346.853	300.56
347.08	282.56
347.308	295.56
347.535	282.56
347.763	283.56
347.99	286.56
348.218	295.56
348.445	301.56
348.673	304.56
348.9	290.56
349.128	295.56
349.355	293.56
349.583	288.56
349.81	289.56
350.037	296.56
350.265	308.56
350.492	290.56
350.72	304.56
350.947	307.56
351.174	278.56
351.402	289.56
351.629	300.56
351.856	305.56
352.083	297.56
352.311	320.56
352.538	302.56
352.765	304.56
352.992	316.56
353.22	305.56
353.447	299.56
353.674	327.56
353.901	335.56
354.128	324.56
354.355	330.56
354.583	325.56
354.81	339.56
355.037	333.56
355.264	357.56
355.491	353.56
355.718	377.56
355.945	380.56
356.172	367.56
356.399	382.56
356.626	396.56
356.853	410.56
357.08	439.56
357.307	464.56
357.534	490.56
357.761	541.56
357.988	585.56
358.215	675.56
358.441	760.56
358.668	862.56
358.895	835.56
359.122	726.56
359.349	593.56
359.576	533.56
359.802	489.56
360.029	473.56
360.256	443.56
360.483	440.56
360.709	444.56
360.936	438.56
361.163	418.56
361.39	399.56
361.616	373.56
361.843	362.56
362.07	370.56
362.296	376.56
362.523	372.56
362.749	331.56
362.976	353.56
363.203	361.56
363.429	340.56
363.656	347.56
363.882	321.56
364.109	334.56
364.335	337.56
364.562	324.56
364.788	308.56
365.015	331.56
365.241	323.56
365.468	317.56
365.694	335.56
365.92	319.56
366.147	305.56
366.373	317.56
366.599	329.56
366.826	314.56
367.052	293.56
367.278	317.56
367.505	315.56
367.731	317.56
367.957	324.56
368.184	311.56
368.41	315.56
368.636	327.56
368.862	311.56
369.089	301.56
369.315	319.56
369.541	325.56
369.767	317.56
369.993	316.56
370.219	316.56
370.445	326.56
370.672	325.56
370.898	331.56
371.124	317.56
371.35	322.56
371.576	327.56
371.802	332.56
372.028	343.56
372.254	338.56
372.48	322.56
372.706	349.56
372.932	336.56
373.158	328.56
373.384	343.56
373.61	332.56
373.835	343.56
374.061	318.56
374.287	321.56
374.513	335.56
374.739	337.56
374.965	353.56
375.191	350.56
375.416	357.56
375.642	333.56
375.868	347.56
376.094	338.56
376.319	336.56
376.545	334.56
376.771	327.56
376.997	335.56
377.222	328.56
377.448	338.56
377.674	333.56
377.899	326.56
378.125	303.56
378.35	307.56
378.576	316.56
378.802	324.56
379.027	322.56
379.253	318.56
379.478	337.56
379.704	323.56
379.929	343.56
380.155	321.56
380.38	333.56
380.606	322.56
380.831	329.56
381.057	354.56
381.282	341.56
381.507	351.56
381.733	360.56
381.958	369.56
382.184	358.56
382.409	373.56
382.634	402.56
382.86	389.56
383.085	469.56
383.31	509.56
383.535	497.56
383.761	492.56
383.986	493.56
384.211	439.56
384.436	394.56
384.662	386.56
384.887	367.56
385.112	388.56
385.337	366.56
385.562	358.56
385.787	369.56
386.013	391.56
386.238	401.56
386.463	392.56
386.688	397.56
386.913	400.56
387.138	392.56
387.363	405.56
387.588	380.56
387.813	395.56
388.038	393.56
388.263	384.56
388.488	379.56
388.713	410.56
388.938	389.56
389.163	369.56
389.387	387.56
389.612	393.56
389.837	386.56
390.062	421.56
390.287	394.56
390.512	407.56
390.736	417.56
390.961	418.56
391.186	409.56
391.411	420.56
391.636	435.56
391.86	444.56
392.085	482.56
392.31	464.56
392.534	466.56
392.759	475.56
392.984	513.56
393.208	609.56
393.433	753.56
393.658	766.56
393.882	855.56
394.107	1399.56
394.331	2517.56
394.556	3283.56
394.78	2256.56
395.005	1264.56
395.229	1011.56
395.454	1025.56
395.678	1256.56
395.903	2123.56
396.127	3671.56
396.352	4310.56
396.576	2617.56
396.801	1503.56
397.025	1081.56
397.249	827.56
397.474	790.56
397.698	666.56
397.922	636.56
398.147	598.56
398.371	579.56
398.595	563.56
398.82	533.56
399.044	547.56
399.268	553.56
399.492	575.56
399.717	606.56
399.941	571.56
400.165	549.56
400.389	511.56
400.613	491.56
400.837	479.56
401.062	457.56
401.286	455.56
401.51	466.56
401.734	469.56
401.958	458.56
402.182	444.56
402.406	455.56
402.63	449.56
402.854	446.56
403.078	459.56
403.302	462.56
403.526	479.56
403.75	465.56
403.974	475.56
404.198	453.56
404.422	499.56
404.645	475.56
404.869	463.56
405.093	469.56
405.317	452.56
405.541	455.56
405.765	455.56
405.988	461.56
406.212	481.56
406.436	454.56
406.66	491.56
406.883	462.56
407.107	479.56
407.331	495.56
407.555	488.56
407.778	470.56
408.002	484.56
408.226	467.56
408.449	465.56
408.673	477.56
408.896	471.56
409.12	432.56
409.344	458.56
409.567	451.56
409.791	473.56
410.014	480.56
410.238	452.56
410.461	470.56
410.685	475.56
410.908	433.56
411.132	453.56
411.355	417.56
411.578	469.56
411.802	441.56
412.025	448.56
412.249	449.56
412.472	450.56
412.695	442.56
412.919	441.56
413.142	451.56
413.365	439.56
413.589	436.56
413.812	425.56
414.035	436.56
414.258	463.56
414.482	440.56
414.705	427.56
414.928	440.56
415.151	464.56
415.374	426.56
415.597	445.56
415.821	447.56
416.044	432.56
416.267	421.56
416.49	447.56
416.713	441.56
416.936	454.56
417.159	440.56
417.382	435.56
417.605	415.56
417.828	427.56
418.051	435.56
418.274	456.56
418.497	425.56
418.72	449.56
418.943	438.56
419.166	463.56
419.389	482.56
419.611	461.56
419.834	474.56
420.057	448.56
420.28	447.56
420.503	449.56
420.726	434.56
420.948	452.56
421.171	430.56
421.394	444.56
421.617	447.56
421.839	475.56
422.062	467.56
422.285	430.56
422.507	450.56
422.73	494.56
422.953	484.56
423.175	457.56
423.398	436.56
423.621	452.56
423.843	443.56
424.066	475.56
424.288	466.56
424.511	455.56
424.733	463.56
424.956	450.56
425.178	460.56
425.401	451.56
425.623	453.56
425.846	432.56
426.068	452.56
426.291	428.56
426.513	436.56
426.735	434.56
426.958	433.56
427.18	417.56
427.402	447.56
427.625	430.56
427.847	424.56
428.069	412.56
428.292	407.56
428.514	428.56
428.736	432.56
428.958	418.56
429.181	432.56
429.403	426.56
429.625	418.56
429.847	429.56
430.069	435.56
430.292	425.56
430.514	426.56
430.736	413.56
430.958	415.56
431.18	424.56
431.402	399.56
431.624	375.56
431.846	370.56
432.068	365.56
432.29	381.56
432.512	387.56
432.734	414.56
432.956	431.56
433.178	449.56
433.4	424.56
433.622	436.56
433.844	436.56
434.066	425.56
434.287	399.56
434.509	388.56
434.731	394.56
434.953	418.56
435.175	449.56
435.397	430.56
435.618	411.56
435.84	405.56
436.062	405.56
436.284	414.56
436.505	407.56
436.727	419.56
436.949	437.56
437.17	439.56
437.392	418.56
437.614	418.56
437.835	387.56
438.057	388.56
438.278	374.56
438.5	405.56
438.721	423.56
438.943	411.56
439.165	450.56
439.386	429.56
439.608	442.56
439.829	427.56
440.05	431.56
440.272	433.56
440.493	436.56
440.715	433.56
440.936	450.56
441.158	443.56
441.379	465.56
441.6	475.56
441.822	476.56
442.043	492.56
442.264	448.56
442.486	431.56
442.707	460.56
442.928	457.56
443.149	466.56
443.371	451.56
443.592	454.56
443.813	465.56
444.034	457.56
444.255	481.56
444.476	468.56
444.698	484.56
444.919	493.56
445.14	699.56
445.361	564.56
445.582	482.56
445.803	443.56
446.024	469.56
446.245	473.56
446.466	491.56
446.687	448.56
446.908	471.56
447.129	463.56
447.35	457.56
447.571	455.56
447.792	451.56
448.013	453.56
448.234	444.56
448.455	440.56
448.675	440.56
448.896	421.56
449.117	422.56
449.338	407.56
449.559	441.56
449.779	415.56
450	407.56
450.221	423.56
450.442	422.56
450.662	407.56
450.883	440.56
451.104	424.56
451.324	414.56
451.545	409.56
451.766	417.56
451.986	421.56
452.207	408.56
452.428	419.56
452.648	411.56
452.869	427.56
453.089	400.56
453.31	404.56
453.53	391.56
453.751	399.56
453.971	400.56
454.192	383.56
454.412	411.56
454.633	422.56
454.853	391.56
455.073	392.56
455.294	385.56
455.514	373.56
455.734	367.56
455.955	384.56
456.175	372.56
456.395	357.56
456.616	356.56
456.836	370.56
457.056	365.56
457.276	360.56
457.497	366.56
457.717	364.56
457.937	364.56
458.157	376.56
458.377	378.56
458.598	352.56
458.818	353.56
459.038	380.56
459.258	355.56
459.478	372.56
459.698	381.56
459.918	396.56
460.138	396.56
460.358	432.56
460.578	435.56
460.798	433.56
461.018	436.56
461.238	431.56
461.458	432.56
461.678	426.56
461.898	451.56
462.118	452.56
462.338	459.56
462.558	474.56
462.777	480.56
462.997	492.56
463.217	490.56
463.437	503.56
463.657	475.56
463.876	473.56
464.096	472.56
464.316	446.56
464.536	497.56
464.755	469.56
464.975	473.56
465.195	425.56
465.414	467.56
465.634	439.56
465.854	454.56
466.073	471.56
466.293	494.56
466.512	530.56
466.732	531.56
466.951	517.56
467.171	458.56
467.391	462.56
467.61	465.56
467.829	444.56
468.049	444.56
468.268	442.56
468.488	438.56
468.707	426.56
468.927	440.56
469.146	435.56
469.365	441.56
469.585	442.56
469.804	453.56
470.023	428.56
470.243	455.56
470.462	452.56
470.681	445.56
470.901	442.56
471.12	446.56
471.339	457.56
471.558	447.56
471.777	467.56
471.997	435.56
472.216	432.56
472.435	411.56
472.654	401.56
472.873	410.56
473.092	424.56
473.311	458.56
473.53	479.56
473.749	489.56
473.968	509.56
474.187	500.56
474.406	495.56
474.625	523.56
474.844	553.56
475.063	506.56
475.282	483.56
475.501	442.56
475.72	463.56
475.939	452.56
476.158	443.56
476.377	428.56
476.596	418.56
476.814	428.56
477.033	396.56
477.252	416.56
477.471	424.56
477.69	448.56
477.908	442.56
478.127	459.56
478.346	459.56
478.564	447.56
478.783	458.56
479.002	435.56
479.22	468.56
479.439	467.56
479.658	451.56
479.876	455.56
480.095	408.56
480.313	428.56
480.532	430.56
480.751	464.56
480.969	424.56
481.188	411.56
481.406	398.56
481.624	410.56
481.843	386.56
482.061	411.56
482.28	414.56
482.498	399.56
482.717	417.56
482.935	430.56
483.153	431.56
483.372	446.56
483.59	455.56
483.808	427.56
484.027	436.56
484.245	467.56
484.463	531.56
484.681	552.56
484.9	520.56
485.118	518.56
485.336	480.56
485.554	486.56
485.772	474.56
485.99	469.56
486.209	477.56
486.427	442.56
486.645	483.56
486.863	523.56
487.081	529.56
487.299	491.56
487.517	505.56
487.735	553.56
487.953	544.56
488.171	544.56
488.389	542.56
488.607	506.56
488.825	492.56
489.043	502.56
489.261	492.56
489.479	483.56
489.696	473.56
489.914	484.56
490.132	488.56
490.35	489.56
490.568	509.56
490.786	516.56
491.003	520.56
491.221	531.56
491.439	535.56
491.657	559.56
491.874	540.56
492.092	599.56
492.31	588.56
492.527	574.56
492.745	559.56
492.963	539.56
493.18	554.56
493.398	559.56
493.615	529.56
493.833	531.56
494.05	522.56
494.268	497.56
494.485	513.56
494.703	518.56
494.92	514.56
495.138	521.56
495.355	534.56
495.573	507.56
495.79	493.56
496.008	525.56
496.225	521.56
496.442	530.56
496.66	528.56
496.877	513.56
497.094	529.56
497.312	532.56
497.529	524.56
497.746	523.56
497.963	534.56
498.181	524.56
498.398	514.56
498.615	545.56
498.832	560.56
499.049	579.56
499.267	596.56
499.484	611.56
499.701	670.56
499.918	717.56
500.135	749.56
500.352	785.56
500.569	809.56
500.786	789.56
501.003	759.56
501.22	742.56
501.437	681.56
501.654	642.56
501.871	599.56
502.088	595.56
502.305	569.56
502.522	539.56
