Data from SampC_HRD10591_00023.txt Node
Date: Mon Jan 19 11:37:37 EST 2026
User: Yrep
Spectrometer: HR+D1059
Trigger mode: 0
Integration Time (sec): 3.443000E-1
Scans to average: 1
Electric dark correction enabled: true
Nonlinearity correction enabled: false
Boxcar width: 0
XAxis mode: Wavelengths
Number of Pixels in Spectrum: 2048
>>>>>Begin Spectral Data<<<<<
223.165	-17.94
223.4	-17.94
223.635	-17.94
223.869	-24.94
224.104	-18.94
224.338	-18.94
224.573	-11.94
224.808	-17.94
225.042	-11.94
225.277	-9.94
225.511	-4.94
225.746	14.06
225.98	19.06
226.215	4.06
226.449	29.06
226.683	23.06
226.918	25.06
227.152	23.06
227.387	44.06
227.621	29.06
227.856	59.06
228.09	42.06
228.324	46.06
228.559	71.06
228.793	65.06
229.027	77.06
229.262	80.06
229.496	76.06
229.73	93.06
229.964	99.06
230.199	94.06
230.433	101.06
230.667	95.06
230.901	90.06
231.136	97.06
231.37	105.06
231.604	121.06
231.838	121.06
232.072	94.06
232.306	102.06
232.541	120.06
232.775	107.06
233.009	103.06
233.243	96.06
233.477	102.06
233.711	108.06
233.945	102.06
234.179	109.06
234.413	102.06
234.647	108.06
234.881	115.06
235.115	111.06
235.349	103.06
235.583	120.06
235.817	118.06
236.051	104.06
236.285	133.06
236.519	125.06
236.753	148.06
236.987	169.06
237.221	167.06
237.455	167.06
237.689	180.06
237.922	161.06
238.156	125.06
238.39	132.06
238.624	122.06
238.858	110.06
239.091	104.06
239.325	99.06
239.559	97.06
239.793	101.06
240.027	118.06
240.26	111.06
240.494	95.06
240.728	107.06
240.961	118.06
241.195	93.06
241.429	95.06
241.662	114.06
241.896	114.06
242.13	101.06
242.363	100.06
242.597	106.06
242.83	109.06
243.064	110.06
243.298	114.06
243.531	109.06
243.765	113.06
243.998	115.06
244.232	123.06
244.465	113.06
244.699	109.06
244.932	117.06
245.166	131.06
245.399	114.06
245.633	126.06
245.866	121.06
246.099	129.06
246.333	121.06
246.566	113.06
246.8	111.06
247.033	117.06
247.266	110.06
247.5	117.06
247.733	118.06
247.966	110.06
248.2	117.06
248.433	122.06
248.666	124.06
248.899	110.06
249.133	127.06
249.366	137.06
249.599	112.06
249.832	112.06
250.066	125.06
250.299	126.06
250.532	122.06
250.765	128.06
250.998	131.06
251.231	115.06
251.465	133.06
251.698	117.06
251.931	148.06
252.164	144.06
252.397	141.06
252.63	126.06
252.863	137.06
253.096	124.06
253.329	131.06
253.562	131.06
253.795	130.06
254.028	130.06
254.261	131.06
254.494	138.06
254.727	120.06
254.96	137.06
255.193	145.06
255.426	138.06
255.659	141.06
255.892	148.06
256.124	122.06
256.357	132.06
256.59	163.06
256.823	189.06
257.056	216.06
257.289	210.06
257.521	232.06
257.754	252.06
257.987	229.06
258.22	198.06
258.452	173.06
258.685	162.06
258.918	145.06
259.151	163.06
259.383	167.06
259.616	154.06
259.849	151.06
260.081	161.06
260.314	153.06
260.547	131.06
260.779	157.06
261.012	147.06
261.244	149.06
261.477	165.06
261.71	166.06
261.942	157.06
262.175	143.06
262.407	162.06
262.64	149.06
262.872	179.06
263.105	194.06
263.337	210.06
263.57	214.06
263.802	206.06
264.035	191.06
264.267	185.06
264.499	171.06
264.732	182.06
264.964	177.06
265.197	190.06
265.429	203.06
265.661	203.06
265.894	209.06
266.126	221.06
266.358	219.06
266.591	192.06
266.823	183.06
267.055	177.06
267.287	174.06
267.52	167.06
267.752	164.06
267.984	162.06
268.216	156.06
268.448	178.06
268.681	162.06
268.913	170.06
269.145	178.06
269.377	174.06
269.609	146.06
269.841	148.06
270.073	152.06
270.306	180.06
270.538	156.06
270.77	166.06
271.002	150.06
271.234	167.06
271.466	165.06
271.698	178.06
271.93	172.06
272.162	166.06
272.394	181.06
272.626	155.06
272.858	165.06
273.09	160.06
273.322	185.06
273.553	161.06
273.785	177.06
274.017	174.06
274.249	172.06
274.481	165.06
274.713	164.06
274.945	183.06
275.176	165.06
275.408	175.06
275.64	177.06
275.872	182.06
276.104	175.06
276.335	172.06
276.567	185.06
276.799	186.06
277.031	178.06
277.262	188.06
277.494	206.06
277.726	191.06
277.957	233.06
278.189	225.06
278.421	229.06
278.652	229.06
278.884	268.06
279.115	345.06
279.347	506.06
279.579	673.06
279.81	750.06
280.042	628.06
280.273	591.06
280.505	564.06
280.736	387.06
280.968	297.06
281.199	287.06
281.431	319.06
281.662	404.06
281.894	453.06
282.125	366.06
282.356	316.06
282.588	273.06
282.819	265.06
283.051	236.06
283.282	239.06
283.513	231.06
283.745	220.06
283.976	197.06
284.207	211.06
284.439	226.06
284.67	227.06
284.901	213.06
285.132	262.06
285.364	294.06
285.595	274.06
285.826	240.06
286.057	208.06
286.288	195.06
286.52	201.06
286.751	191.06
286.982	198.06
287.213	194.06
287.444	204.06
287.675	191.06
287.906	206.06
288.138	217.06
288.369	223.06
288.6	209.06
288.831	203.06
289.062	203.06
289.293	208.06
289.524	211.06
289.755	229.06
289.986	196.06
290.217	195.06
290.448	214.06
290.679	205.06
290.91	209.06
291.141	231.06
291.371	206.06
291.602	197.06
291.833	203.06
292.064	229.06
292.295	221.06
292.526	198.06
292.757	223.06
292.987	230.06
293.218	229.06
293.449	223.06
293.68	237.06
293.91	223.06
294.141	241.06
294.372	205.06
294.603	229.06
294.833	213.06
295.064	212.06
295.295	204.06
295.525	208.06
295.756	212.06
295.987	213.06
296.217	208.06
296.448	202.06
296.679	210.06
296.909	191.06
297.14	199.06
297.37	210.06
297.601	216.06
297.831	206.06
298.062	199.06
298.292	213.06
298.523	214.06
298.753	218.06
298.984	224.06
299.214	203.06
299.445	213.06
299.675	220.06
299.905	205.06
300.136	213.06
300.366	222.06
300.597	236.06
300.827	219.06
301.057	219.06
301.288	221.06
301.518	221.06
301.748	218.06
301.979	287.06
302.209	245.06
302.439	217.06
302.669	239.06
302.9	251.06
303.13	253.06
303.36	269.06
303.59	249.06
303.82	272.06
304.051	273.06
304.281	259.06
304.511	300.06
304.741	311.06
304.971	355.06
305.201	381.06
305.431	439.06
305.661	486.06
305.891	501.06
306.121	496.06
306.352	433.06
306.582	449.06
306.812	448.06
307.042	397.06
307.272	381.06
307.502	425.06
307.731	571.06
307.961	734.06
308.191	998.06
308.421	1154.06
308.651	949.06
308.881	927.06
309.111	1107.06
309.341	1431.06
309.571	1368.06
309.8	892.06
310.03	607.06
310.26	494.06
310.49	414.06
310.72	368.06
310.949	375.06
311.179	338.06
311.409	321.06
311.639	305.06
311.868	292.06
312.098	304.06
312.328	302.06
312.557	285.06
312.787	280.06
313.017	277.06
313.246	256.06
313.476	277.06
313.706	267.06
313.935	250.06
314.165	258.06
314.394	249.06
314.624	260.06
314.853	265.06
315.083	255.06
315.312	238.06
315.542	230.06
315.771	257.06
316.001	265.06
316.23	239.06
316.46	241.06
316.689	249.06
316.919	260.06
317.148	251.06
317.377	255.06
317.607	253.06
317.836	247.06
318.065	256.06
318.295	243.06
318.524	249.06
318.753	248.06
318.983	240.06
319.212	238.06
319.441	228.06
319.67	228.06
319.9	224.06
320.129	237.06
320.358	239.06
320.587	241.06
320.816	231.06
321.046	229.06
321.275	239.06
321.504	254.06
321.733	234.06
321.962	229.06
322.191	241.06
322.42	258.06
322.649	251.06
322.878	244.06
323.108	261.06
323.337	244.06
323.566	253.06
323.795	246.06
324.024	260.06
324.253	249.06
324.482	250.06
324.71	255.06
324.939	261.06
325.168	243.06
325.397	249.06
325.626	244.06
325.855	243.06
326.084	255.06
326.313	270.06
326.542	250.06
326.77	266.06
326.999	243.06
327.228	245.06
327.457	252.06
327.686	246.06
327.914	243.06
328.143	268.06
328.372	236.06
328.6	240.06
328.829	260.06
329.058	231.06
329.287	250.06
329.515	256.06
329.744	242.06
329.972	245.06
330.201	256.06
330.43	254.06
330.658	242.06
330.887	245.06
331.115	274.06
331.344	261.06
331.572	262.06
331.801	279.06
332.03	274.06
332.258	273.06
332.486	268.06
332.715	265.06
332.943	275.06
333.172	286.06
333.4	275.06
333.629	294.06
333.857	281.06
334.085	295.06
334.314	285.06
334.542	288.06
334.771	271.06
334.999	287.06
335.227	287.06
335.455	274.06
335.684	287.06
335.912	263.06
336.14	268.06
336.369	278.06
336.597	260.06
336.825	277.06
337.053	267.06
337.281	278.06
337.51	282.06
337.738	273.06
337.966	265.06
338.194	251.06
338.422	251.06
338.65	270.06
338.878	269.06
339.106	247.06
339.334	257.06
339.562	273.06
339.79	260.06
340.018	250.06
340.246	271.06
340.474	261.06
340.702	255.06
340.93	261.06
341.158	243.06
341.386	267.06
341.614	254.06
341.842	273.06
342.07	269.06
342.298	263.06
342.526	269.06
342.754	258.06
342.981	271.06
343.209	267.06
343.437	288.06
343.665	291.06
343.893	295.06
344.12	317.06
344.348	279.06
344.576	292.06
344.804	270.06
345.031	261.06
345.259	285.06
345.487	274.06
345.714	262.06
345.942	259.06
346.17	259.06
346.397	275.06
346.625	256.06
346.853	261.06
347.08	270.06
347.308	272.06
347.535	259.06
347.763	285.06
347.99	269.06
348.218	265.06
348.445	257.06
348.673	273.06
348.9	269.06
349.128	271.06
349.355	247.06
349.583	281.06
349.81	279.06
350.037	242.06
350.265	245.06
350.492	260.06
350.72	272.06
350.947	284.06
351.174	285.06
351.402	284.06
351.629	275.06
351.856	291.06
352.083	273.06
352.311	294.06
352.538	275.06
352.765	272.06
352.992	302.06
353.22	272.06
353.447	303.06
353.674	287.06
353.901	293.06
354.128	301.06
354.355	306.06
354.583	294.06
354.81	323.06
355.037	324.06
355.264	331.06
355.491	326.06
355.718	330.06
355.945	360.06
356.172	350.06
356.399	364.06
356.626	370.06
356.853	390.06
357.08	411.06
357.307	418.06
357.534	463.06
357.761	483.06
357.988	546.06
358.215	623.06
358.441	689.06
358.668	764.06
358.895	733.06
359.122	625.06
359.349	527.06
359.576	470.06
359.802	451.06
360.029	435.06
360.256	417.06
360.483	399.06
360.709	385.06
360.936	387.06
361.163	373.06
361.39	370.06
361.616	330.06
361.843	344.06
362.07	339.06
362.296	336.06
362.523	321.06
362.749	301.06
362.976	305.06
363.203	318.06
363.429	299.06
363.656	306.06
363.882	308.06
364.109	301.06
364.335	307.06
364.562	280.06
364.788	275.06
365.015	294.06
365.241	287.06
365.468	287.06
365.694	284.06
365.92	289.06
366.147	285.06
366.373	282.06
366.599	299.06
366.826	286.06
367.052	291.06
367.278	302.06
367.505	277.06
367.731	301.06
367.957	284.06
368.184	274.06
368.41	281.06
368.636	294.06
368.862	298.06
369.089	286.06
369.315	285.06
369.541	278.06
369.767	294.06
369.993	284.06
370.219	275.06
370.445	279.06
370.672	295.06
370.898	302.06
371.124	301.06
371.35	293.06
371.576	290.06
371.802	299.06
372.028	310.06
372.254	301.06
372.48	300.06
372.706	291.06
372.932	302.06
373.158	308.06
373.384	293.06
373.61	293.06
373.835	291.06
374.061	308.06
374.287	297.06
374.513	311.06
374.739	323.06
374.965	304.06
375.191	313.06
375.416	316.06
375.642	314.06
375.868	300.06
376.094	317.06
376.319	300.06
376.545	316.06
376.771	290.06
376.997	301.06
377.222	286.06
377.448	301.06
377.674	293.06
377.899	290.06
378.125	283.06
378.35	294.06
378.576	301.06
378.802	283.06
379.027	284.06
379.253	289.06
379.478	297.06
379.704	283.06
379.929	306.06
380.155	302.06
380.38	314.06
380.606	293.06
380.831	303.06
381.057	315.06
381.282	300.06
381.507	311.06
381.733	317.06
381.958	321.06
382.184	327.06
382.409	341.06
382.634	351.06
382.86	371.06
383.085	409.06
383.31	404.06
383.535	414.06
383.761	432.06
383.986	428.06
384.211	380.06
384.436	349.06
384.662	331.06
384.887	337.06
385.112	333.06
385.337	349.06
385.562	325.06
385.787	348.06
386.013	342.06
386.238	351.06
386.463	345.06
386.688	354.06
386.913	350.06
387.138	355.06
387.363	337.06
387.588	337.06
387.813	340.06
388.038	338.06
388.263	362.06
388.488	344.06
388.713	349.06
388.938	355.06
389.163	349.06
389.387	350.06
389.612	338.06
389.837	368.06
390.062	353.06
390.287	358.06
390.512	361.06
390.736	365.06
390.961	358.06
391.186	362.06
391.411	353.06
391.636	364.06
391.86	370.06
392.085	357.06
392.31	378.06
392.534	389.06
392.759	404.06
392.984	443.06
393.208	480.06
393.433	573.06
393.658	570.06
393.882	658.06
394.107	903.06
394.331	1540.06
394.556	2004.06
394.78	1451.06
395.005	877.06
395.229	716.06
395.454	725.06
395.678	845.06
395.903	1343.06
396.127	2228.06
396.352	2601.06
396.576	1644.06
396.801	1053.06
397.025	808.06
397.249	679.06
397.474	613.06
397.698	537.06
397.922	509.06
398.147	499.06
398.371	480.06
398.595	499.06
398.82	446.06
399.044	453.06
399.268	469.06
399.492	512.06
399.717	509.06
399.941	500.06
400.165	475.06
400.389	461.06
400.613	428.06
400.837	413.06
401.062	429.06
401.286	405.06
401.51	413.06
401.734	410.06
401.958	428.06
402.182	415.06
402.406	395.06
402.63	402.06
402.854	422.06
403.078	389.06
403.302	406.06
403.526	422.06
403.75	428.06
403.974	419.06
404.198	417.06
404.422	418.06
404.645	417.06
404.869	413.06
405.093	412.06
405.317	413.06
405.541	421.06
405.765	413.06
405.988	417.06
406.212	414.06
406.436	421.06
406.66	424.06
406.883	428.06
407.107	434.06
407.331	427.06
407.555	454.06
407.778	454.06
408.002	437.06
408.226	435.06
408.449	392.06
408.673	420.06
408.896	433.06
409.12	430.06
409.344	427.06
409.567	420.06
409.791	414.06
410.014	414.06
410.238	400.06
410.461	418.06
410.685	401.06
410.908	395.06
411.132	416.06
411.355	411.06
411.578	407.06
411.802	416.06
412.025	410.06
412.249	417.06
412.472	384.06
412.695	367.06
412.919	371.06
413.142	389.06
413.365	390.06
413.589	391.06
413.812	405.06
414.035	415.06
414.258	391.06
414.482	404.06
414.705	385.06
414.928	410.06
415.151	404.06
415.374	405.06
415.597	409.06
415.821	401.06
416.044	384.06
416.267	402.06
416.49	402.06
416.713	396.06
416.936	413.06
417.159	397.06
417.382	394.06
417.605	397.06
417.828	403.06
418.051	382.06
418.274	389.06
418.497	415.06
418.72	401.06
418.943	413.06
419.166	405.06
419.389	415.06
419.611	424.06
419.834	409.06
420.057	417.06
420.28	398.06
420.503	401.06
420.726	386.06
420.948	373.06
421.171	382.06
421.394	398.06
421.617	396.06
421.839	409.06
422.062	404.06
422.285	398.06
422.507	409.06
422.73	427.06
422.953	413.06
423.175	391.06
423.398	416.06
423.621	415.06
423.843	404.06
424.066	396.06
424.288	408.06
424.511	439.06
424.733	422.06
424.956	410.06
425.178	429.06
425.401	416.06
425.623	401.06
425.846	392.06
426.068	411.06
426.291	384.06
426.513	401.06
426.735	391.06
426.958	401.06
427.18	369.06
427.402	398.06
427.625	389.06
427.847	396.06
428.069	378.06
428.292	379.06
428.514	373.06
428.736	384.06
428.958	368.06
429.181	366.06
429.403	369.06
429.625	364.06
429.847	360.06
430.069	380.06
430.292	391.06
430.514	390.06
430.736	399.06
430.958	389.06
431.18	352.06
431.402	373.06
431.624	356.06
431.846	351.06
432.068	324.06
432.29	341.06
432.512	348.06
432.734	373.06
432.956	377.06
433.178	387.06
433.4	402.06
433.622	401.06
433.844	396.06
434.066	365.06
434.287	355.06
434.509	349.06
434.731	340.06
434.953	383.06
435.175	390.06
435.397	389.06
435.618	380.06
435.84	359.06
436.062	373.06
436.284	385.06
436.505	384.06
436.727	393.06
436.949	375.06
437.17	373.06
437.392	372.06
437.614	366.06
437.835	323.06
438.057	345.06
438.278	356.06
438.5	380.06
438.721	383.06
438.943	369.06
439.165	395.06
439.386	393.06
439.608	414.06
439.829	405.06
440.05	382.06
440.272	386.06
440.493	401.06
440.715	405.06
440.936	411.06
441.158	409.06
441.379	410.06
441.6	454.06
441.822	430.06
442.043	388.06
442.264	400.06
442.486	412.06
442.707	409.06
442.928	401.06
443.149	423.06
443.371	426.06
443.592	407.06
443.813	412.06
444.034	452.06
444.255	422.06
444.476	431.06
444.698	438.06
444.919	450.06
445.14	676.06
445.361	545.06
445.582	447.06
445.803	421.06
446.024	394.06
446.245	416.06
446.466	415.06
446.687	418.06
446.908	408.06
447.129	420.06
447.35	402.06
447.571	413.06
447.792	409.06
448.013	417.06
448.234	398.06
448.455	379.06
448.675	386.06
448.896	399.06
449.117	403.06
449.338	373.06
449.559	384.06
449.779	374.06
450	375.06
450.221	378.06
450.442	388.06
450.662	370.06
450.883	356.06
451.104	367.06
451.324	396.06
451.545	361.06
451.766	375.06
451.986	379.06
452.207	370.06
452.428	369.06
452.648	394.06
452.869	367.06
453.089	369.06
453.31	355.06
453.53	358.06
453.751	338.06
453.971	355.06
454.192	366.06
454.412	343.06
454.633	344.06
454.853	347.06
455.073	353.06
455.294	350.06
455.514	347.06
455.734	341.06
455.955	330.06
456.175	345.06
456.395	331.06
456.616	344.06
456.836	326.06
457.056	353.06
457.276	315.06
457.497	350.06
457.717	331.06
457.937	336.06
458.157	319.06
458.377	319.06
458.598	322.06
458.818	333.06
459.038	326.06
459.258	309.06
459.478	293.06
459.698	348.06
459.918	334.06
460.138	357.06
460.358	368.06
460.578	386.06
460.798	384.06
461.018	389.06
461.238	418.06
461.458	398.06
461.678	377.06
461.898	373.06
462.118	388.06
462.338	417.06
462.558	424.06
462.777	432.06
462.997	439.06
463.217	454.06
463.437	451.06
463.657	414.06
463.876	407.06
464.096	423.06
464.316	438.06
464.536	422.06
464.755	424.06
464.975	399.06
465.195	417.06
465.414	404.06
465.634	396.06
465.854	405.06
466.073	413.06
466.293	438.06
466.512	462.06
466.732	469.06
466.951	449.06
467.171	442.06
467.391	424.06
467.61	394.06
467.829	403.06
468.049	414.06
468.268	377.06
468.488	386.06
468.707	367.06
468.927	390.06
469.146	381.06
469.365	387.06
469.585	402.06
469.804	405.06
470.023	394.06
470.243	412.06
470.462	405.06
470.681	415.06
470.901	414.06
471.12	390.06
471.339	408.06
471.558	389.06
471.777	375.06
471.997	397.06
472.216	360.06
472.435	358.06
472.654	349.06
472.873	359.06
473.092	356.06
473.311	393.06
473.53	428.06
473.749	442.06
473.968	449.06
474.187	418.06
474.406	432.06
474.625	430.06
474.844	457.06
475.063	447.06
475.282	422.06
475.501	396.06
475.72	417.06
475.939	378.06
476.158	378.06
476.377	388.06
476.596	382.06
476.814	366.06
477.033	347.06
477.252	362.06
477.471	377.06
477.69	396.06
477.908	394.06
478.127	405.06
478.346	400.06
478.564	408.06
478.783	386.06
479.002	403.06
479.22	397.06
479.439	415.06
479.658	393.06
479.876	393.06
480.095	391.06
480.313	414.06
480.532	423.06
480.751	393.06
480.969	394.06
481.188	371.06
481.406	357.06
481.624	347.06
481.843	356.06
482.061	371.06
482.28	381.06
482.498	378.06
482.717	385.06
482.935	393.06
483.153	423.06
483.372	390.06
483.59	414.06
483.808	402.06
484.027	406.06
484.245	420.06
484.463	448.06
484.681	459.06
484.9	453.06
485.118	446.06
485.336	416.06
485.554	391.06
485.772	404.06
485.99	408.06
486.209	403.06
486.427	402.06
486.645	441.06
486.863	432.06
487.081	436.06
487.299	419.06
487.517	434.06
487.735	479.06
487.953	484.06
488.171	475.06
488.389	489.06
488.607	445.06
488.825	434.06
489.043	428.06
489.261	435.06
489.479	415.06
489.696	433.06
489.914	434.06
490.132	437.06
490.35	428.06
490.568	462.06
490.786	459.06
491.003	469.06
491.221	489.06
491.439	469.06
491.657	500.06
491.874	490.06
492.092	542.06
492.31	535.06
492.527	500.06
492.745	490.06
492.963	494.06
493.18	487.06
493.398	497.06
493.615	487.06
493.833	471.06
494.05	475.06
494.268	482.06
494.485	457.06
494.703	473.06
494.92	480.06
495.138	477.06
495.355	477.06
495.573	470.06
495.79	460.06
496.008	459.06
496.225	461.06
496.442	496.06
496.66	497.06
496.877	480.06
497.094	495.06
497.312	466.06
497.529	472.06
497.746	471.06
497.963	461.06
498.181	472.06
498.398	486.06
498.615	486.06
498.832	484.06
499.049	529.06
499.267	550.06
499.484	561.06
499.701	601.06
499.918	652.06
500.135	679.06
500.352	719.06
500.569	710.06
500.786	731.06
501.003	704.06
501.22	641.06
501.437	615.06
501.654	580.06
501.871	552.06
502.088	506.06
502.305	515.06
502.522	481.06
502.739	498.06
