Data from SampC_HRD10591_00014.txt Node
Date: Mon Jan 19 11:37:34 EST 2026
User: Yrep
Spectrometer: HR+D1059
Trigger mode: 0
Integration Time (sec): 3.443000E-1
Scans to average: 1
Electric dark correction enabled: true
Nonlinearity correction enabled: false
Boxcar width: 0
XAxis mode: Wavelengths
Number of Pixels in Spectrum: 2048
>>>>>Begin Spectral Data<<<<<
223.165	-18.31
223.4	-18.31
223.635	-18.31
223.869	-4.31
224.104	-27.31
224.338	-10.31
224.573	-13.31
224.808	-12.31
225.042	-4.31
225.277	-8.31
225.511	-16.31
225.746	17.69
225.98	-2.31
226.215	17.69
226.449	8.69
226.683	18.69
226.918	28.69
227.152	25.69
227.387	35.69
227.621	29.69
227.856	34.69
228.09	36.69
228.324	51.69
228.559	61.69
228.793	65.69
229.027	81.69
229.262	97.69
229.496	97.69
229.73	91.69
229.964	90.69
230.199	90.69
230.433	93.69
230.667	98.69
230.901	106.69
231.136	108.69
231.37	107.69
231.604	126.69
231.838	110.69
232.072	129.69
232.306	125.69
232.541	110.69
232.775	122.69
233.009	127.69
233.243	118.69
233.477	106.69
233.711	112.69
233.945	114.69
234.179	91.69
234.413	112.69
234.647	95.69
234.881	118.69
235.115	109.69
235.349	114.69
235.583	108.69
235.817	134.69
236.051	115.69
236.285	127.69
236.519	143.69
236.753	152.69
236.987	166.69
237.221	200.69
237.455	180.69
237.689	186.69
237.922	161.69
238.156	140.69
238.39	146.69
238.624	130.69
238.858	131.69
239.091	97.69
239.325	111.69
239.559	106.69
239.793	123.69
240.027	122.69
240.26	125.69
240.494	127.69
240.728	104.69
240.961	111.69
241.195	115.69
241.429	110.69
241.662	106.69
241.896	113.69
242.13	121.69
242.363	112.69
242.597	115.69
242.83	115.69
243.064	109.69
243.298	113.69
243.531	91.69
243.765	122.69
243.998	117.69
244.232	136.69
244.465	110.69
244.699	118.69
244.932	122.69
245.166	134.69
245.399	127.69
245.633	127.69
245.866	116.69
246.099	126.69
246.333	129.69
246.566	139.69
246.8	131.69
247.033	139.69
247.266	126.69
247.5	126.69
247.733	121.69
247.966	122.69
248.2	137.69
248.433	137.69
248.666	149.69
248.899	142.69
249.133	136.69
249.366	149.69
249.599	131.69
249.832	119.69
250.066	129.69
250.299	119.69
250.532	138.69
250.765	124.69
250.998	122.69
251.231	139.69
251.465	143.69
251.698	123.69
251.931	128.69
252.164	144.69
252.397	133.69
252.63	157.69
252.863	137.69
253.096	145.69
253.329	152.69
253.562	126.69
253.795	123.69
254.028	138.69
254.261	149.69
254.494	138.69
254.727	146.69
254.96	154.69
255.193	141.69
255.426	145.69
255.659	157.69
255.892	168.69
256.124	162.69
256.357	170.69
256.59	176.69
256.823	185.69
257.056	220.69
257.289	234.69
257.521	233.69
257.754	281.69
257.987	234.69
258.22	208.69
258.452	180.69
258.685	192.69
258.918	178.69
259.151	168.69
259.383	176.69
259.616	191.69
259.849	178.69
260.081	192.69
260.314	161.69
260.547	166.69
260.779	170.69
261.012	181.69
261.244	168.69
261.477	198.69
261.71	162.69
261.942	164.69
262.175	184.69
262.407	176.69
262.64	183.69
262.872	202.69
263.105	238.69
263.337	241.69
263.57	265.69
263.802	254.69
264.035	234.69
264.267	215.69
264.499	220.69
264.732	197.69
264.964	213.69
265.197	226.69
265.429	239.69
265.661	239.69
265.894	228.69
266.126	252.69
266.358	232.69
266.591	206.69
266.823	214.69
267.055	199.69
267.287	183.69
267.52	185.69
267.752	191.69
267.984	188.69
268.216	186.69
268.448	179.69
268.681	173.69
268.913	198.69
269.145	201.69
269.377	184.69
269.609	178.69
269.841	198.69
270.073	179.69
270.306	180.69
270.538	174.69
270.77	163.69
271.002	185.69
271.234	182.69
271.466	202.69
271.698	176.69
271.93	178.69
272.162	201.69
272.394	199.69
272.626	185.69
272.858	201.69
273.09	203.69
273.322	206.69
273.553	190.69
273.785	195.69
274.017	194.69
274.249	206.69
274.481	185.69
274.713	198.69
274.945	208.69
275.176	201.69
275.408	201.69
275.64	219.69
275.872	210.69
276.104	202.69
276.335	187.69
276.567	200.69
276.799	191.69
277.031	224.69
277.262	220.69
277.494	232.69
277.726	239.69
277.957	258.69
278.189	254.69
278.421	271.69
278.652	292.69
278.884	320.69
279.115	423.69
279.347	608.69
279.579	817.69
279.81	912.69
280.042	761.69
280.273	701.69
280.505	671.69
280.736	464.69
280.968	355.69
281.199	338.69
281.431	395.69
281.662	491.69
281.894	541.69
282.125	454.69
282.356	366.69
282.588	324.69
282.819	282.69
283.051	272.69
283.282	273.69
283.513	258.69
283.745	260.69
283.976	257.69
284.207	260.69
284.439	256.69
284.67	242.69
284.901	272.69
285.132	294.69
285.364	322.69
285.595	308.69
285.826	240.69
286.057	241.69
286.288	235.69
286.52	224.69
286.751	238.69
286.982	243.69
287.213	231.69
287.444	237.69
287.675	224.69
287.906	247.69
288.138	235.69
288.369	267.69
288.6	249.69
288.831	230.69
289.062	243.69
289.293	235.69
289.524	236.69
289.755	227.69
289.986	251.69
290.217	219.69
290.448	242.69
290.679	261.69
290.91	235.69
291.141	238.69
291.371	244.69
291.602	264.69
291.833	255.69
292.064	249.69
292.295	253.69
292.526	256.69
292.757	273.69
292.987	296.69
293.218	270.69
293.449	277.69
293.68	266.69
293.91	290.69
294.141	274.69
294.372	257.69
294.603	251.69
294.833	255.69
295.064	247.69
295.295	246.69
295.525	249.69
295.756	252.69
295.987	231.69
296.217	247.69
296.448	252.69
296.679	230.69
296.909	248.69
297.14	252.69
297.37	256.69
297.601	264.69
297.831	245.69
298.062	256.69
298.292	253.69
298.523	257.69
298.753	233.69
298.984	256.69
299.214	253.69
299.445	252.69
299.675	249.69
299.905	273.69
300.136	250.69
300.366	260.69
300.597	258.69
300.827	267.69
301.057	282.69
301.288	279.69
301.518	277.69
301.748	278.69
301.979	324.69
302.209	274.69
302.439	267.69
302.669	267.69
302.9	286.69
303.13	275.69
303.36	295.69
303.59	290.69
303.82	312.69
304.051	330.69
304.281	317.69
304.511	334.69
304.741	349.69
304.971	379.69
305.201	451.69
305.431	497.69
305.661	555.69
305.891	583.69
306.121	539.69
306.352	494.69
306.582	526.69
306.812	492.69
307.042	488.69
307.272	459.69
307.502	484.69
307.731	610.69
307.961	803.69
308.191	1106.69
308.421	1300.69
308.651	1082.69
308.881	1023.69
309.111	1253.69
309.341	1553.69
309.571	1506.69
309.8	995.69
310.03	688.69
310.26	546.69
310.49	494.69
310.72	445.69
310.949	402.69
311.179	398.69
311.409	373.69
311.639	367.69
311.868	347.69
312.098	331.69
312.328	334.69
312.557	330.69
312.787	320.69
313.017	321.69
313.246	314.69
313.476	306.69
313.706	336.69
313.935	293.69
314.165	310.69
314.394	305.69
314.624	296.69
314.853	288.69
315.083	305.69
315.312	294.69
315.542	287.69
315.771	331.69
316.001	297.69
316.23	312.69
316.46	305.69
316.689	298.69
316.919	300.69
317.148	301.69
317.377	292.69
317.607	301.69
317.836	283.69
318.065	289.69
318.295	284.69
318.524	291.69
318.753	298.69
318.983	290.69
319.212	288.69
319.441	285.69
319.67	299.69
319.9	285.69
320.129	275.69
320.358	290.69
320.587	298.69
320.816	293.69
321.046	286.69
321.275	299.69
321.504	288.69
321.733	308.69
321.962	294.69
322.191	299.69
322.42	280.69
322.649	296.69
322.878	318.69
323.108	301.69
323.337	299.69
323.566	294.69
323.795	292.69
324.024	309.69
324.253	305.69
324.482	296.69
324.71	310.69
324.939	326.69
325.168	314.69
325.397	301.69
325.626	293.69
325.855	305.69
326.084	293.69
326.313	319.69
326.542	296.69
326.77	306.69
326.999	300.69
327.228	296.69
327.457	311.69
327.686	312.69
327.914	291.69
328.143	312.69
328.372	292.69
328.6	298.69
328.829	313.69
329.058	296.69
329.287	302.69
329.515	308.69
329.744	299.69
329.972	301.69
330.201	316.69
330.43	316.69
330.658	304.69
330.887	315.69
331.115	309.69
331.344	307.69
331.572	312.69
331.801	322.69
332.03	329.69
332.258	334.69
332.486	316.69
332.715	346.69
332.943	344.69
333.172	333.69
333.4	333.69
333.629	343.69
333.857	350.69
334.085	350.69
334.314	343.69
334.542	365.69
334.771	354.69
334.999	332.69
335.227	342.69
335.455	346.69
335.684	356.69
335.912	345.69
336.14	306.69
336.369	342.69
336.597	348.69
336.825	334.69
337.053	338.69
337.281	338.69
337.51	335.69
337.738	319.69
337.966	313.69
338.194	323.69
338.422	330.69
338.65	303.69
338.878	340.69
339.106	336.69
339.334	328.69
339.562	306.69
339.79	329.69
340.018	328.69
340.246	329.69
340.474	326.69
340.702	330.69
340.93	325.69
341.158	308.69
341.386	324.69
341.614	334.69
341.842	334.69
342.07	318.69
342.298	337.69
342.526	310.69
342.754	333.69
342.981	327.69
343.209	319.69
343.437	379.69
343.665	330.69
343.893	360.69
344.12	358.69
344.348	364.69
344.576	356.69
344.804	339.69
345.031	321.69
345.259	330.69
345.487	327.69
345.714	304.69
345.942	314.69
346.17	328.69
346.397	332.69
346.625	318.69
346.853	311.69
347.08	330.69
347.308	323.69
347.535	328.69
347.763	341.69
347.99	346.69
348.218	329.69
348.445	317.69
348.673	312.69
348.9	325.69
349.128	310.69
349.355	319.69
349.583	320.69
349.81	339.69
350.037	339.69
350.265	330.69
350.492	346.69
350.72	342.69
350.947	319.69
351.174	337.69
351.402	332.69
351.629	328.69
351.856	343.69
352.083	349.69
352.311	353.69
352.538	348.69
352.765	335.69
352.992	362.69
353.22	363.69
353.447	351.69
353.674	352.69
353.901	395.69
354.128	368.69
354.355	371.69
354.583	382.69
354.81	387.69
355.037	402.69
355.264	419.69
355.491	405.69
355.718	430.69
355.945	439.69
356.172	442.69
356.399	440.69
356.626	491.69
356.853	495.69
357.08	516.69
357.307	529.69
357.534	545.69
357.761	636.69
357.988	690.69
358.215	774.69
358.441	938.69
358.668	1035.69
358.895	982.69
359.122	826.69
359.349	718.69
359.576	646.69
359.802	578.69
360.029	556.69
360.256	556.69
360.483	526.69
360.709	495.69
360.936	500.69
361.163	455.69
361.39	459.69
361.616	461.69
361.843	457.69
362.07	437.69
362.296	421.69
362.523	419.69
362.749	417.69
362.976	402.69
363.203	402.69
363.429	376.69
363.656	394.69
363.882	374.69
364.109	386.69
364.335	371.69
364.562	358.69
364.788	339.69
365.015	363.69
365.241	367.69
365.468	370.69
365.694	367.69
365.92	376.69
366.147	363.69
366.373	351.69
366.599	375.69
366.826	336.69
367.052	350.69
367.278	359.69
367.505	353.69
367.731	369.69
367.957	351.69
368.184	357.69
368.41	352.69
368.636	335.69
368.862	366.69
369.089	365.69
369.315	330.69
369.541	361.69
369.767	359.69
369.993	375.69
370.219	355.69
370.445	367.69
370.672	370.69
370.898	349.69
371.124	363.69
371.35	367.69
371.576	364.69
371.802	368.69
372.028	361.69
372.254	362.69
372.48	360.69
372.706	368.69
372.932	378.69
373.158	392.69
373.384	375.69
373.61	398.69
373.835	386.69
374.061	361.69
374.287	378.69
374.513	381.69
374.739	378.69
374.965	363.69
375.191	387.69
375.416	378.69
375.642	372.69
375.868	382.69
376.094	353.69
376.319	367.69
376.545	376.69
376.771	384.69
376.997	372.69
377.222	365.69
377.448	358.69
377.674	374.69
377.899	382.69
378.125	356.69
378.35	360.69
378.576	356.69
378.802	361.69
379.027	361.69
379.253	368.69
379.478	354.69
379.704	360.69
379.929	365.69
380.155	359.69
380.38	363.69
380.606	378.69
380.831	379.69
381.057	385.69
381.282	379.69
381.507	400.69
381.733	386.69
381.958	385.69
382.184	406.69
382.409	391.69
382.634	420.69
382.86	425.69
383.085	449.69
383.31	482.69
383.535	462.69
383.761	465.69
383.986	483.69
384.211	417.69
384.436	399.69
384.662	424.69
384.887	431.69
385.112	406.69
385.337	438.69
385.562	410.69
385.787	424.69
386.013	446.69
386.238	423.69
386.463	420.69
386.688	469.69
386.913	435.69
387.138	432.69
387.363	416.69
387.588	439.69
387.813	420.69
388.038	430.69
388.263	432.69
388.488	429.69
388.713	431.69
388.938	420.69
389.163	429.69
389.387	429.69
389.612	413.69
389.837	431.69
390.062	437.69
390.287	436.69
390.512	429.69
390.736	420.69
390.961	447.69
391.186	431.69
391.411	441.69
391.636	461.69
391.86	450.69
392.085	483.69
392.31	479.69
392.534	480.69
392.759	482.69
392.984	492.69
393.208	545.69
393.433	632.69
393.658	623.69
393.882	714.69
394.107	1044.69
394.331	1708.69
394.556	2218.69
394.78	1622.69
395.005	985.69
395.229	821.69
395.454	814.69
395.678	984.69
395.903	1486.69
396.127	2504.69
396.352	2936.69
396.576	1885.69
396.801	1175.69
397.025	900.69
397.249	767.69
397.474	670.69
397.698	640.69
397.922	616.69
398.147	574.69
398.371	597.69
398.595	558.69
398.82	555.69
399.044	563.69
399.268	577.69
399.492	621.69
399.717	635.69
399.941	627.69
400.165	591.69
400.389	569.69
400.613	532.69
400.837	520.69
401.062	514.69
401.286	498.69
401.51	501.69
401.734	509.69
401.958	492.69
402.182	504.69
402.406	498.69
402.63	520.69
402.854	495.69
403.078	502.69
403.302	502.69
403.526	514.69
403.75	507.69
403.974	512.69
404.198	514.69
404.422	516.69
404.645	506.69
404.869	502.69
405.093	499.69
405.317	516.69
405.541	507.69
405.765	511.69
405.988	540.69
406.212	527.69
406.436	511.69
406.66	523.69
406.883	518.69
407.107	560.69
407.331	567.69
407.555	553.69
407.778	543.69
408.002	546.69
408.226	540.69
408.449	539.69
408.673	545.69
408.896	519.69
409.12	503.69
409.344	525.69
409.567	514.69
409.791	516.69
410.014	527.69
410.238	528.69
410.461	516.69
410.685	532.69
410.908	511.69
411.132	509.69
411.355	499.69
411.578	501.69
411.802	504.69
412.025	475.69
412.249	494.69
412.472	488.69
412.695	511.69
412.919	497.69
413.142	502.69
413.365	482.69
413.589	485.69
413.812	481.69
414.035	511.69
414.258	495.69
414.482	491.69
414.705	488.69
414.928	489.69
415.151	489.69
415.374	499.69
415.597	464.69
415.821	488.69
416.044	482.69
416.267	499.69
416.49	492.69
416.713	491.69
416.936	489.69
417.159	502.69
417.382	486.69
417.605	487.69
417.828	493.69
418.051	481.69
418.274	500.69
418.497	478.69
418.72	506.69
418.943	503.69
419.166	529.69
419.389	536.69
419.611	529.69
419.834	508.69
420.057	508.69
420.28	496.69
420.503	486.69
420.726	478.69
420.948	492.69
421.171	514.69
421.394	512.69
421.617	498.69
421.839	495.69
422.062	504.69
422.285	503.69
422.507	504.69
422.73	511.69
422.953	481.69
423.175	515.69
423.398	497.69
423.621	500.69
423.843	483.69
424.066	498.69
424.288	524.69
424.511	521.69
424.733	500.69
424.956	488.69
425.178	487.69
425.401	503.69
425.623	518.69
425.846	498.69
426.068	490.69
426.291	467.69
426.513	445.69
426.735	478.69
426.958	470.69
427.18	482.69
427.402	474.69
427.625	475.69
427.847	451.69
428.069	466.69
428.292	476.69
428.514	451.69
428.736	457.69
428.958	476.69
429.181	454.69
429.403	454.69
429.625	446.69
429.847	456.69
430.069	479.69
430.292	468.69
430.514	450.69
430.736	484.69
430.958	481.69
431.18	442.69
431.402	453.69
431.624	455.69
431.846	423.69
432.068	428.69
432.29	436.69
432.512	437.69
432.734	450.69
432.956	482.69
433.178	485.69
433.4	462.69
433.622	503.69
433.844	489.69
434.066	452.69
434.287	458.69
434.509	433.69
434.731	479.69
434.953	446.69
435.175	503.69
435.397	482.69
435.618	473.69
435.84	454.69
436.062	444.69
436.284	460.69
436.505	472.69
436.727	462.69
436.949	491.69
437.17	458.69
437.392	458.69
437.614	456.69
437.835	429.69
438.057	424.69
438.278	440.69
438.5	454.69
438.721	458.69
438.943	489.69
439.165	451.69
439.386	462.69
439.608	489.69
439.829	453.69
440.05	484.69
440.272	488.69
440.493	493.69
440.715	493.69
440.936	511.69
441.158	516.69
441.379	502.69
441.6	506.69
441.822	528.69
442.043	526.69
442.264	504.69
442.486	512.69
442.707	509.69
442.928	511.69
443.149	487.69
443.371	483.69
443.592	498.69
443.813	498.69
444.034	511.69
444.255	551.69
444.476	541.69
444.698	531.69
444.919	545.69
445.14	801.69
445.361	647.69
445.582	526.69
445.803	527.69
446.024	516.69
446.245	511.69
446.466	507.69
446.687	503.69
446.908	493.69
447.129	492.69
447.35	493.69
447.571	521.69
447.792	489.69
448.013	480.69
448.234	480.69
448.455	472.69
448.675	496.69
448.896	468.69
449.117	471.69
449.338	444.69
449.559	470.69
449.779	462.69
450	466.69
450.221	472.69
450.442	459.69
450.662	479.69
450.883	441.69
451.104	455.69
451.324	445.69
451.545	435.69
451.766	477.69
451.986	442.69
452.207	449.69
452.428	471.69
452.648	444.69
452.869	457.69
453.089	442.69
453.31	460.69
453.53	446.69
453.751	423.69
453.971	431.69
454.192	423.69
454.412	406.69
454.633	440.69
454.853	439.69
455.073	456.69
455.294	434.69
455.514	446.69
455.734	401.69
455.955	418.69
456.175	428.69
456.395	406.69
456.616	410.69
456.836	406.69
457.056	418.69
457.276	381.69
457.497	392.69
457.717	395.69
457.937	382.69
458.157	380.69
458.377	411.69
458.598	400.69
458.818	399.69
459.038	393.69
459.258	393.69
459.478	400.69
459.698	406.69
459.918	430.69
460.138	448.69
460.358	463.69
460.578	487.69
460.798	503.69
461.018	478.69
461.238	498.69
461.458	474.69
461.678	485.69
461.898	484.69
462.118	521.69
462.338	492.69
462.558	525.69
462.777	524.69
462.997	565.69
463.217	557.69
463.437	561.69
463.657	527.69
463.876	557.69
464.096	543.69
464.316	514.69
464.536	544.69
464.755	564.69
464.975	496.69
465.195	500.69
465.414	484.69
465.634	490.69
465.854	498.69
466.073	523.69
466.293	553.69
466.512	574.69
466.732	577.69
466.951	563.69
467.171	525.69
467.391	526.69
467.61	508.69
467.829	479.69
468.049	494.69
468.268	482.69
468.488	463.69
468.707	465.69
468.927	484.69
469.146	469.69
469.365	462.69
469.585	496.69
469.804	495.69
470.023	481.69
470.243	496.69
470.462	492.69
470.681	483.69
470.901	456.69
471.12	470.69
471.339	474.69
471.558	459.69
471.777	470.69
471.997	472.69
472.216	448.69
472.435	433.69
472.654	441.69
472.873	433.69
473.092	460.69
473.311	448.69
473.53	486.69
473.749	518.69
473.968	534.69
474.187	521.69
474.406	499.69
474.625	507.69
474.844	543.69
475.063	493.69
475.282	510.69
475.501	457.69
475.72	465.69
475.939	475.69
476.158	481.69
476.377	455.69
476.596	443.69
476.814	462.69
477.033	432.69
477.252	455.69
477.471	455.69
477.69	487.69
477.908	502.69
478.127	513.69
478.346	502.69
478.564	504.69
478.783	501.69
479.002	515.69
479.22	514.69
479.439	529.69
479.658	514.69
479.876	479.69
480.095	476.69
480.313	505.69
480.532	516.69
480.751	491.69
480.969	458.69
481.188	477.69
481.406	471.69
481.624	441.69
481.843	462.69
482.061	446.69
482.28	461.69
482.498	471.69
482.717	475.69
482.935	470.69
483.153	490.69
483.372	506.69
483.59	502.69
483.808	477.69
484.027	467.69
484.245	494.69
484.463	538.69
484.681	584.69
484.9	544.69
485.118	538.69
485.336	511.69
485.554	521.69
485.772	510.69
485.99	536.69
486.209	530.69
486.427	511.69
486.645	502.69
486.863	534.69
487.081	546.69
487.299	538.69
487.517	541.69
487.735	562.69
487.953	622.69
488.171	599.69
488.389	562.69
488.607	559.69
488.825	510.69
489.043	506.69
489.261	526.69
489.479	524.69
489.696	532.69
489.914	530.69
490.132	541.69
490.35	547.69
490.568	566.69
490.786	566.69
491.003	565.69
491.221	569.69
491.439	594.69
491.657	598.69
491.874	617.69
492.092	632.69
492.31	628.69
492.527	601.69
492.745	622.69
492.963	590.69
493.18	601.69
493.398	594.69
493.615	574.69
493.833	589.69
494.05	588.69
494.268	598.69
494.485	564.69
494.703	558.69
494.92	559.69
495.138	588.69
495.355	598.69
495.573	587.69
495.79	568.69
496.008	585.69
496.225	574.69
496.442	584.69
496.66	569.69
496.877	584.69
497.094	604.69
497.312	569.69
497.529	571.69
497.746	592.69
497.963	582.69
498.181	578.69
498.398	604.69
498.615	624.69
498.832	651.69
499.049	670.69
499.267	689.69
499.484	748.69
499.701	754.69
499.918	851.69
500.135	906.69
500.352	963.69
500.569	951.69
500.786	946.69
501.003	919.69
501.22	834.69
501.437	779.69
501.654	729.69
501.871	705.69
502.088	664.69
502.305	678.69
502.522	625.69
502.739	602.69
