Data from SampC_HRD10591_00056.txt Node
Date: Mon Jan 19 11:37:48 EST 2026
User: Yrep
Spectrometer: HR+D1059
Trigger mode: 0
Integration Time (sec): 3.443000E-1
Scans to average: 1
Electric dark correction enabled: true
Nonlinearity correction enabled: false
Boxcar width: 0
XAxis mode: Wavelengths
Number of Pixels in Spectrum: 2048
>>>>>Begin Spectral Data<<<<<
223.165	-12
223.4	-12
223.635	-12
223.869	-31
224.104	-26
224.338	-17
224.573	-9
224.808	-6
225.042	-17
225.277	-2
225.511	-6
225.746	16
225.98	13
226.215	14
226.449	6
226.683	17
226.918	35
227.152	25
227.387	41
227.621	44
227.856	58
228.09	43
228.324	50
228.559	56
228.793	72
229.027	96
229.262	94
229.496	93
229.73	79
229.964	98
230.199	105
230.433	119
230.667	95
230.901	116
231.136	115
231.37	126
231.604	118
231.838	129
232.072	118
232.306	120
232.541	110
232.775	113
233.009	98
233.243	104
233.477	114
233.711	121
233.945	106
234.179	101
234.413	100
234.647	125
234.881	112
235.115	134
235.349	115
235.583	121
235.817	121
236.051	117
236.285	129
236.519	151
236.753	159
236.987	195
237.221	213
237.455	237
237.689	218
237.922	190
238.156	168
238.39	149
238.624	146
238.858	151
239.091	123
239.325	114
239.559	128
239.793	121
240.027	129
240.26	114
240.494	121
240.728	121
240.961	119
241.195	127
241.429	121
241.662	116
241.896	124
242.13	113
242.363	132
242.597	105
242.83	117
243.064	123
243.298	133
243.531	127
243.765	117
243.998	136
244.232	123
244.465	112
244.699	122
244.932	128
245.166	135
245.399	114
245.633	135
245.866	135
246.099	139
246.333	126
246.566	135
246.8	121
247.033	133
247.266	122
247.5	114
247.733	125
247.966	131
248.2	137
248.433	143
248.666	136
248.899	141
249.133	128
249.366	162
249.599	141
249.832	144
250.066	162
250.299	149
250.532	129
250.765	131
250.998	147
251.231	146
251.465	146
251.698	162
251.931	173
252.164	147
252.397	138
252.63	157
252.863	153
253.096	136
253.329	157
253.562	147
253.795	149
254.028	155
254.261	155
254.494	145
254.727	168
254.96	145
255.193	143
255.426	138
255.659	152
255.892	165
256.124	171
256.357	163
256.59	186
256.823	223
257.056	276
257.289	274
257.521	274
257.754	301
257.987	298
258.22	232
258.452	217
258.685	185
258.918	172
259.151	165
259.383	185
259.616	187
259.849	177
260.081	165
260.314	170
260.547	171
260.779	176
261.012	162
261.244	167
261.477	185
261.71	172
261.942	175
262.175	191
262.407	196
262.64	186
262.872	205
263.105	209
263.337	256
263.57	240
263.802	221
264.035	205
264.267	194
264.499	209
264.732	201
264.964	210
265.197	210
265.429	249
265.661	261
265.894	262
266.126	286
266.358	281
266.591	264
266.823	220
267.055	197
267.287	181
267.52	170
267.752	183
267.984	188
268.216	186
268.448	177
268.681	198
268.913	187
269.145	167
269.377	189
269.609	165
269.841	193
270.073	166
270.306	190
270.538	193
270.77	187
271.002	183
271.234	173
271.466	191
271.698	172
271.93	190
272.162	196
272.394	201
272.626	194
272.858	196
273.09	194
273.322	180
273.553	189
273.785	191
274.017	188
274.249	206
274.481	193
274.713	197
274.945	215
275.176	201
275.408	213
275.64	208
275.872	206
276.104	208
276.335	205
276.567	191
276.799	193
277.031	208
277.262	201
277.494	232
277.726	252
277.957	257
278.189	267
278.421	267
278.652	281
278.884	321
279.115	414
279.347	579
279.579	792
279.81	929
280.042	739
280.273	694
280.505	669
280.736	426
280.968	337
281.199	323
281.431	383
281.662	463
281.894	543
282.125	455
282.356	375
282.588	307
282.819	267
283.051	248
283.282	251
283.513	257
283.745	254
283.976	245
284.207	241
284.439	246
284.67	242
284.901	274
285.132	343
285.364	370
285.595	342
285.826	263
286.057	238
286.288	235
286.52	226
286.751	243
286.982	222
287.213	217
287.444	238
287.675	237
287.906	245
288.138	238
288.369	253
288.6	229
288.831	214
289.062	230
289.293	233
289.524	219
289.755	221
289.986	223
290.217	225
290.448	213
290.679	238
290.91	237
291.141	251
291.371	229
291.602	239
291.833	245
292.064	247
292.295	247
292.526	256
292.757	273
292.987	269
293.218	269
293.449	289
293.68	285
293.91	263
294.141	272
294.372	255
294.603	260
294.833	238
295.064	247
295.295	247
295.525	229
295.756	242
295.987	237
296.217	246
296.448	241
296.679	237
296.909	227
297.14	234
297.37	238
297.601	242
297.831	240
298.062	255
298.292	246
298.523	251
298.753	251
298.984	265
299.214	228
299.445	240
299.675	248
299.905	242
300.136	256
300.366	260
300.597	253
300.827	253
301.057	242
301.288	253
301.518	251
301.748	277
301.979	315
302.209	310
302.439	291
302.669	285
302.9	303
303.13	314
303.36	310
303.59	306
303.82	339
304.051	333
304.281	358
304.511	376
304.741	353
304.971	427
305.201	505
305.431	545
305.661	618
305.891	663
306.121	605
306.352	552
306.582	591
306.812	554
307.042	539
307.272	517
307.502	559
307.731	747
307.961	1065
308.191	1490
308.421	1750
308.651	1483
308.881	1378
309.111	1672
309.341	2134
309.571	2003
309.8	1327
310.03	830
310.26	631
310.49	562
310.72	504
310.949	455
311.179	403
311.409	391
311.639	365
311.868	376
312.098	358
312.328	354
312.557	331
312.787	339
313.017	316
313.246	322
313.476	308
313.706	312
313.935	327
314.165	316
314.394	299
314.624	283
314.853	302
315.083	290
315.312	311
315.542	289
315.771	296
316.001	284
316.23	290
316.46	284
316.689	280
316.919	300
317.148	290
317.377	276
317.607	289
317.836	297
318.065	304
318.295	291
318.524	270
318.753	292
318.983	287
319.212	275
319.441	289
319.67	275
319.9	289
320.129	278
320.358	279
320.587	267
320.816	269
321.046	268
321.275	265
321.504	276
321.733	276
321.962	277
322.191	273
322.42	283
322.649	275
322.878	291
323.108	315
323.337	295
323.566	289
323.795	303
324.024	288
324.253	284
324.482	313
324.71	290
324.939	312
325.168	281
325.397	276
325.626	287
325.855	279
326.084	289
326.313	295
326.542	286
326.77	284
326.999	286
327.228	281
327.457	300
327.686	273
327.914	292
328.143	288
328.372	285
328.6	288
328.829	294
329.058	306
329.287	301
329.515	288
329.744	290
329.972	286
330.201	292
330.43	288
330.658	286
330.887	302
331.115	291
331.344	303
331.572	289
331.801	304
332.03	298
332.258	286
332.486	300
332.715	305
332.943	333
333.172	334
333.4	334
333.629	331
333.857	339
334.085	333
334.314	322
334.542	327
334.771	324
334.999	326
335.227	318
335.455	339
335.684	328
335.912	313
336.14	326
336.369	322
336.597	318
336.825	307
337.053	314
337.281	299
337.51	322
337.738	316
337.966	305
338.194	303
338.422	300
338.65	327
338.878	328
339.106	296
339.334	306
339.562	289
339.79	305
340.018	283
340.246	291
340.474	302
340.702	281
340.93	299
341.158	294
341.386	297
341.614	275
341.842	304
342.07	285
342.298	294
342.526	309
342.754	315
342.981	310
343.209	299
343.437	349
343.665	324
343.893	343
344.12	337
344.348	337
344.576	312
344.804	304
345.031	312
345.259	316
345.487	305
345.714	299
345.942	299
346.17	306
346.397	306
346.625	286
346.853	301
347.08	292
347.308	288
347.535	294
347.763	315
347.99	313
348.218	291
348.445	289
348.673	304
348.9	309
349.128	322
349.355	321
349.583	315
349.81	304
350.037	307
350.265	295
350.492	287
350.72	309
350.947	322
351.174	309
351.402	305
351.629	325
351.856	320
352.083	314
352.311	314
352.538	313
352.765	323
352.992	333
353.22	342
353.447	338
353.674	342
353.901	345
354.128	351
354.355	343
354.583	350
354.81	357
355.037	363
355.264	378
355.491	347
355.718	394
355.945	421
356.172	413
356.399	408
356.626	429
356.853	451
357.08	455
357.307	494
357.534	520
357.761	554
357.988	640
358.215	701
358.441	826
358.668	906
358.895	858
359.122	746
359.349	610
359.576	577
359.802	506
360.029	494
360.256	472
360.483	456
360.709	448
360.936	471
361.163	448
361.39	429
361.616	415
361.843	397
362.07	395
362.296	398
362.523	378
362.749	365
362.976	370
363.203	381
363.429	355
363.656	364
363.882	346
364.109	345
364.335	342
364.562	347
364.788	338
365.015	342
365.241	322
365.468	339
365.694	339
365.92	333
366.147	334
366.373	335
366.599	329
366.826	341
367.052	325
367.278	325
367.505	334
367.731	337
367.957	340
368.184	316
368.41	347
368.636	345
368.862	345
369.089	345
369.315	331
369.541	335
369.767	327
369.993	324
370.219	334
370.445	320
370.672	329
370.898	340
371.124	344
371.35	338
371.576	347
371.802	347
372.028	351
372.254	342
372.48	361
372.706	357
372.932	342
373.158	347
373.384	383
373.61	367
373.835	362
374.061	344
374.287	338
374.513	347
374.739	369
374.965	361
375.191	350
375.416	371
375.642	316
375.868	341
376.094	350
376.319	342
376.545	338
376.771	336
376.997	324
377.222	324
377.448	320
377.674	337
377.899	351
378.125	327
378.35	349
378.576	324
378.802	322
379.027	333
379.253	351
379.478	341
379.704	348
379.929	333
380.155	342
380.38	342
380.606	349
380.831	353
381.057	357
381.282	349
381.507	368
381.733	365
381.958	353
382.184	381
382.409	401
382.634	424
382.86	477
383.085	536
383.31	548
383.535	584
383.761	574
383.986	587
384.211	480
384.436	419
384.662	386
384.887	405
385.112	377
385.337	393
385.562	387
385.787	390
386.013	397
386.238	407
386.463	399
386.688	446
386.913	396
387.138	419
387.363	383
387.588	413
387.813	418
388.038	394
388.263	413
388.488	394
388.713	390
388.938	420
389.163	402
389.387	400
389.612	385
389.837	433
390.062	397
390.287	407
390.512	419
390.736	406
390.961	420
391.186	413
391.411	430
391.636	422
391.86	447
392.085	484
392.31	469
392.534	469
392.759	509
392.984	586
393.208	714
393.433	895
393.658	871
393.882	931
394.107	1461
394.331	2533
394.556	3330
394.78	2256
395.005	1287
395.229	986
395.454	1049
395.678	1334
395.903	2190
396.127	3745
396.352	4288
396.576	2628
396.801	1552
397.025	1178
397.249	873
397.474	721
397.698	665
397.922	627
398.147	601
398.371	584
398.595	565
398.82	557
399.044	553
399.268	568
399.492	566
399.717	575
399.941	564
400.165	574
400.389	539
400.613	481
400.837	502
401.062	483
401.286	484
401.51	443
401.734	459
401.958	448
402.182	452
402.406	459
402.63	466
402.854	486
403.078	485
403.302	487
403.526	483
403.75	480
403.974	470
404.198	487
404.422	473
404.645	486
404.869	489
405.093	507
405.317	474
405.541	466
405.765	467
405.988	460
406.212	466
406.436	487
406.66	490
406.883	498
407.107	482
407.331	494
407.555	506
407.778	496
408.002	501
408.226	480
408.449	490
408.673	473
408.896	467
409.12	473
409.344	468
409.567	465
409.791	463
410.014	473
410.238	490
410.461	464
410.685	473
410.908	463
411.132	447
411.355	452
411.578	461
411.802	459
412.025	454
412.249	453
412.472	477
412.695	470
412.919	457
413.142	459
413.365	449
413.589	435
413.812	435
414.035	447
414.258	441
414.482	440
414.705	467
414.928	449
415.151	454
415.374	436
415.597	449
415.821	444
416.044	454
416.267	468
416.49	436
416.713	456
416.936	450
417.159	432
417.382	431
417.605	437
417.828	451
418.051	458
418.274	469
418.497	454
418.72	471
418.943	461
419.166	467
419.389	490
419.611	499
419.834	469
420.057	461
420.28	466
420.503	447
420.726	440
420.948	445
421.171	448
421.394	477
421.617	462
421.839	481
422.062	443
422.285	448
422.507	489
422.73	537
422.953	510
423.175	467
423.398	457
423.621	483
423.843	461
424.066	473
424.288	475
424.511	476
424.733	487
424.956	457
425.178	461
425.401	481
425.623	448
425.846	431
426.068	440
426.291	441
426.513	456
426.735	440
426.958	442
427.18	462
427.402	454
427.625	478
427.847	439
428.069	428
428.292	422
428.514	449
428.736	437
428.958	427
429.181	442
429.403	418
429.625	431
429.847	426
430.069	439
430.292	423
430.514	416
430.736	446
430.958	437
431.18	413
431.402	408
431.624	393
431.846	398
432.068	385
432.29	399
432.512	433
432.734	443
432.956	455
433.178	440
433.4	443
433.622	448
433.844	431
434.066	432
434.287	419
434.509	399
434.731	424
434.953	426
435.175	449
435.397	451
435.618	448
435.84	407
436.062	428
436.284	404
436.505	448
436.727	439
436.949	458
437.17	438
437.392	425
437.614	425
437.835	397
438.057	397
438.278	425
438.5	434
438.721	433
438.943	447
439.165	431
439.386	456
439.608	461
439.829	441
440.05	458
440.272	466
440.493	453
440.715	482
440.936	479
441.158	475
441.379	455
441.6	474
441.822	474
442.043	499
442.264	475
442.486	464
442.707	471
442.928	479
443.149	468
443.371	461
443.592	467
443.813	469
444.034	461
444.255	475
444.476	474
444.698	506
444.919	489
445.14	667
445.361	561
445.582	499
445.803	489
446.024	467
446.245	506
446.466	459
446.687	483
446.908	473
447.129	488
447.35	461
447.571	488
447.792	463
448.013	477
448.234	458
448.455	445
448.675	461
448.896	455
449.117	441
449.338	431
449.559	452
449.779	436
450	443
450.221	430
450.442	442
450.662	442
450.883	441
451.104	448
451.324	427
451.545	417
451.766	435
451.986	431
452.207	438
452.428	416
452.648	429
452.869	438
453.089	414
453.31	417
453.53	405
453.751	421
453.971	431
454.192	424
454.412	387
454.633	410
454.853	415
455.073	410
455.294	408
455.514	413
455.734	410
455.955	419
456.175	379
456.395	390
456.616	370
456.836	370
457.056	380
457.276	362
457.497	387
457.717	387
457.937	376
458.157	364
458.377	371
458.598	385
458.818	360
459.038	348
459.258	395
459.478	385
459.698	392
459.918	399
460.138	438
460.358	427
460.578	454
460.798	454
461.018	465
461.238	439
461.458	450
461.678	454
461.898	466
462.118	458
462.338	470
462.558	496
462.777	461
462.997	505
463.217	513
463.437	527
463.657	483
463.876	471
464.096	504
464.316	480
464.536	503
464.755	504
464.975	486
465.195	475
465.414	477
465.634	441
465.854	475
466.073	464
466.293	507
466.512	537
466.732	549
466.951	535
467.171	490
467.391	491
467.61	474
467.829	462
468.049	458
468.268	447
468.488	445
468.707	454
468.927	447
469.146	430
469.365	466
469.585	449
469.804	454
470.023	448
470.243	467
470.462	469
470.681	474
470.901	461
471.12	450
471.339	468
471.558	453
471.777	465
471.997	435
472.216	448
472.435	439
472.654	429
472.873	426
473.092	441
473.311	450
473.53	485
473.749	500
473.968	515
474.187	496
474.406	501
474.625	549
474.844	565
475.063	511
475.282	490
475.501	473
475.72	450
475.939	445
476.158	459
476.377	468
476.596	422
476.814	422
477.033	437
477.252	438
477.471	435
477.69	472
477.908	455
478.127	483
478.346	473
478.564	462
478.783	489
479.002	471
479.22	482
479.439	460
479.658	482
479.876	441
480.095	452
480.313	464
480.532	469
480.751	462
480.969	428
481.188	434
481.406	425
481.624	420
481.843	396
482.061	426
482.28	422
482.498	431
482.717	427
482.935	449
483.153	466
483.372	481
483.59	481
483.808	461
484.027	472
484.245	485
484.463	543
484.681	543
484.9	529
485.118	533
485.336	520
485.554	497
485.772	472
485.99	482
486.209	490
486.427	506
486.645	493
486.863	552
487.081	537
487.299	531
487.517	534
487.735	535
487.953	583
488.171	572
488.389	559
488.607	516
488.825	496
489.043	485
489.261	511
489.479	498
489.696	512
489.914	503
490.132	518
490.35	507
490.568	526
490.786	533
491.003	544
491.221	559
491.439	579
491.657	571
491.874	593
492.092	595
492.31	624
492.527	610
492.745	575
492.963	549
493.18	584
493.398	566
493.615	561
493.833	559
494.05	537
494.268	524
494.485	543
494.703	545
494.92	539
495.138	519
495.355	545
495.573	537
495.79	528
496.008	551
496.225	533
496.442	559
496.66	525
496.877	544
497.094	539
497.312	535
497.529	523
497.746	530
497.963	529
498.181	563
498.398	565
498.615	554
498.832	585
499.049	583
499.267	641
499.484	642
499.701	707
499.918	742
500.135	783
500.352	866
500.569	851
500.786	833
501.003	784
501.22	743
501.437	729
501.654	635
501.871	630
502.088	605
502.305	600
502.522	567
502.739	549
502.956	532
503.172	555
503.389	520
503.606	503
503.823	499
504.04	501
504.256	527
504.473	503
504.69	501
504.907	481
505.123	488
505.34	460
505.557	478
505.773	471
505.99	454
506.207	449
506.423	446
506.64	433
506.856	419
507.073	437
507.289	464
507.506	431
507.722	403
507.939	437
508.155	456
508.372	434
508.588	434
508.805	429
509.021	424
509.238	415
509.454	417
509.67	401
509.887	399
510.103	395
510.319	423
510.536	433
510.752	416
510.968	420
511.184	401
511.401	410
511.617	399
511.833	411
512.049	390
512.265	405
512.481	433
512.698	434
512.914	420
513.13	433
513.346	417
513.562	437
513.778	453
513.994	458
514.21	451
514.426	445
514.642	438
514.858	466
515.074	475
515.29	518
515.506	499
515.721	476
515.937	465
516.153	452
516.369	443
516.585	441
516.801	497
517.016	515
517.232	545
517.448	639
517.664	565
517.879	496
518.095	489
518.311	531
518.527	733
518.742	610
518.958	483
519.173	454
519.389	457
519.605	447
519.82	432
520.036	443
520.251	435
520.467	415
520.682	421
520.898	414
521.113	397
521.329	399
521.544	386
521.76	380
521.975	372
522.19	395
522.406	370
522.621	391
522.836	405
523.052	365
523.267	388
523.482	360
523.698	379
523.913	402
524.128	379
524.343	400
524.559	413
524.774	371
524.989	389
525.204	382
525.419	393
525.634	394
525.849	390
526.064	405
526.28	406
526.495	381
526.71	395
526.925	383
527.14	362
527.355	378
527.57	369
527.785	372
527.999	371
528.214	381
528.429	385
528.644	405
528.859	389
529.074	392
529.289	419
529.503	401
529.718	401
529.933	383
530.148	376
530.363	371
530.577	377
530.792	369
531.007	384
531.221	347
531.436	375
531.651	372
531.865	369
532.08	356
532.295	407
532.509	398
532.724	378
532.938	369
533.153	379
533.367	370
533.582	382
533.796	365
534.011	371
534.225	369
534.44	339
534.654	361
534.868	348
535.083	345
535.297	369
535.511	367
535.726	350
535.94	359
536.154	344
536.369	347
536.583	331
536.797	352
537.011	333
537.225	322
537.44	353
537.654	352
537.868	359
538.082	350
538.296	327
538.51	321
538.724	368
538.938	352
539.153	374
539.367	373
539.581	353
539.795	365
540.009	351
540.222	378
540.436	351
540.65	357
540.864	381
541.078	392
541.292	399
541.506	390
541.72	413
541.934	425
542.147	432
542.361	402
542.575	388
542.789	377
543.002	368
543.216	378
543.43	371
543.644	382
543.857	386
544.071	395
544.285	403
544.498	397
544.712	394
544.925	401
545.139	411
545.352	407
545.566	420
545.779	403
545.993	415
546.206	446
546.42	418
546.633	407
546.847	443
547.06	393
547.274	406
547.487	437
547.7	438
547.914	392
548.127	444
548.34	408
548.554	382
548.767	418
548.98	427
549.193	405
549.407	411
549.62	392
549.833	417
550.046	404
550.259	409
550.473	384
550.686	410
550.899	402
551.112	377
551.325	385
551.538	379
551.751	369
551.964	350
552.177	384
552.39	381
552.603	401
552.816	418
553.029	399
553.242	422
553.455	427
553.667	432
553.88	417
554.093	390
554.306	380
554.519	402
554.732	384
554.944	385
555.157	377
555.37	375
555.583	376
555.795	380
556.008	374
556.221	372
556.433	382
556.646	369
556.859	385
557.071	357
557.284	361
557.496	386
557.709	364
557.921	383
558.134	360
558.346	394
558.559	379
558.771	409
558.984	427
559.196	455
559.409	488
559.621	411
559.833	402
560.046	391
560.258	368
560.47	382
560.683	422
560.895	431
561.107	395
561.32	351
561.532	350
561.744	352
561.956	357
562.168	343
562.381	329
562.593	328
562.805	343
563.017	360
563.229	379
563.441	378
563.653	390
563.865	364
564.077	373
564.289	351
