Data from SampC_HRD10591_00013.txt Node
Date: Mon Jan 19 11:37:33 EST 2026
User: Yrep
Spectrometer: HR+D1059
Trigger mode: 0
Integration Time (sec): 3.443000E-1
Scans to average: 1
Electric dark correction enabled: true
Nonlinearity correction enabled: false
Boxcar width: 0
XAxis mode: Wavelengths
Number of Pixels in Spectrum: 2048
>>>>>Begin Spectral Data<<<<<
223.165	-16.12
223.4	-16.12
223.635	-16.12
223.869	-29.12
224.104	-37.12
224.338	-1.12
224.573	-20.12
224.808	-6.12
225.042	1.88
225.277	-3.12
225.511	-7.12
225.746	9.88
225.98	0.88
226.215	16.88
226.449	10.88
226.683	11.88
226.918	33.88
227.152	33.88
227.387	46.88
227.621	43.88
227.856	39.88
228.09	42.88
228.324	51.88
228.559	63.88
228.793	48.88
229.027	72.88
229.262	88.88
229.496	82.88
229.73	106.88
229.964	98.88
230.199	97.88
230.433	99.88
230.667	101.88
230.901	94.88
231.136	110.88
231.37	98.88
231.604	110.88
231.838	113.88
232.072	109.88
232.306	114.88
232.541	120.88
232.775	126.88
233.009	115.88
233.243	110.88
233.477	112.88
233.711	106.88
233.945	104.88
234.179	117.88
234.413	114.88
234.647	130.88
234.881	129.88
235.115	127.88
235.349	114.88
235.583	119.88
235.817	129.88
236.051	126.88
236.285	136.88
236.519	147.88
236.753	168.88
236.987	209.88
237.221	212.88
237.455	249.88
237.689	236.88
237.922	190.88
238.156	167.88
238.39	159.88
238.624	121.88
238.858	133.88
239.091	113.88
239.325	114.88
239.559	114.88
239.793	121.88
240.027	135.88
240.26	122.88
240.494	118.88
240.728	112.88
240.961	106.88
241.195	119.88
241.429	117.88
241.662	125.88
241.896	113.88
242.13	117.88
242.363	109.88
242.597	117.88
242.83	117.88
243.064	117.88
243.298	122.88
243.531	129.88
243.765	122.88
243.998	127.88
244.232	114.88
244.465	125.88
244.699	120.88
244.932	106.88
245.166	108.88
245.399	132.88
245.633	147.88
245.866	134.88
246.099	142.88
246.333	130.88
246.566	122.88
246.8	155.88
247.033	125.88
247.266	113.88
247.5	126.88
247.733	139.88
247.966	146.88
248.2	122.88
248.433	126.88
248.666	135.88
248.899	129.88
249.133	140.88
249.366	143.88
249.599	136.88
249.832	137.88
250.066	146.88
250.299	139.88
250.532	121.88
250.765	126.88
250.998	141.88
251.231	133.88
251.465	136.88
251.698	153.88
251.931	151.88
252.164	139.88
252.397	140.88
252.63	140.88
252.863	133.88
253.096	152.88
253.329	153.88
253.562	146.88
253.795	149.88
254.028	130.88
254.261	148.88
254.494	135.88
254.727	157.88
254.96	142.88
255.193	150.88
255.426	159.88
255.659	151.88
255.892	159.88
256.124	169.88
256.357	158.88
256.59	171.88
256.823	240.88
257.056	293.88
257.289	309.88
257.521	313.88
257.754	371.88
257.987	345.88
258.22	258.88
258.452	212.88
258.685	177.88
258.918	175.88
259.151	178.88
259.383	179.88
259.616	168.88
259.849	175.88
260.081	175.88
260.314	157.88
260.547	165.88
260.779	160.88
261.012	178.88
261.244	167.88
261.477	184.88
261.71	190.88
261.942	171.88
262.175	165.88
262.407	174.88
262.64	201.88
262.872	197.88
263.105	220.88
263.337	254.88
263.57	254.88
263.802	240.88
264.035	225.88
264.267	210.88
264.499	219.88
264.732	230.88
264.964	209.88
265.197	245.88
265.429	277.88
265.661	287.88
265.894	271.88
266.126	323.88
266.358	336.88
266.591	254.88
266.823	216.88
267.055	191.88
267.287	201.88
267.52	194.88
267.752	194.88
267.984	210.88
268.216	191.88
268.448	203.88
268.681	187.88
268.913	177.88
269.145	175.88
269.377	185.88
269.609	162.88
269.841	176.88
270.073	187.88
270.306	187.88
270.538	177.88
270.77	174.88
271.002	185.88
271.234	177.88
271.466	189.88
271.698	179.88
271.93	186.88
272.162	192.88
272.394	204.88
272.626	191.88
272.858	186.88
273.09	194.88
273.322	216.88
273.553	201.88
273.785	190.88
274.017	207.88
274.249	203.88
274.481	204.88
274.713	193.88
274.945	206.88
275.176	191.88
275.408	206.88
275.64	211.88
275.872	199.88
276.104	228.88
276.335	198.88
276.567	210.88
276.799	203.88
277.031	212.88
277.262	203.88
277.494	246.88
277.726	244.88
277.957	258.88
278.189	264.88
278.421	266.88
278.652	280.88
278.884	321.88
279.115	421.88
279.347	608.88
279.579	827.88
279.81	978.88
280.042	775.88
280.273	732.88
280.505	707.88
280.736	463.88
280.968	354.88
281.199	352.88
281.431	423.88
281.662	506.88
281.894	571.88
282.125	466.88
282.356	365.88
282.588	318.88
282.819	318.88
283.051	266.88
283.282	245.88
283.513	257.88
283.745	258.88
283.976	268.88
284.207	263.88
284.439	262.88
284.67	274.88
284.901	296.88
285.132	357.88
285.364	433.88
285.595	347.88
285.826	264.88
286.057	241.88
286.288	247.88
286.52	236.88
286.751	234.88
286.982	226.88
287.213	232.88
287.444	222.88
287.675	234.88
287.906	252.88
288.138	271.88
288.369	246.88
288.6	258.88
288.831	234.88
289.062	253.88
289.293	253.88
289.524	231.88
289.755	229.88
289.986	238.88
290.217	218.88
290.448	244.88
290.679	225.88
290.91	237.88
291.141	249.88
291.371	256.88
291.602	241.88
291.833	238.88
292.064	262.88
292.295	282.88
292.526	252.88
292.757	275.88
292.987	271.88
293.218	274.88
293.449	282.88
293.68	298.88
293.91	281.88
294.141	273.88
294.372	258.88
294.603	247.88
294.833	266.88
295.064	257.88
295.295	235.88
295.525	247.88
295.756	258.88
295.987	238.88
296.217	238.88
296.448	245.88
296.679	245.88
296.909	251.88
297.14	250.88
297.37	251.88
297.601	250.88
297.831	246.88
298.062	255.88
298.292	275.88
298.523	264.88
298.753	268.88
298.984	258.88
299.214	252.88
299.445	252.88
299.675	263.88
299.905	272.88
300.136	250.88
300.366	264.88
300.597	257.88
300.827	259.88
301.057	283.88
301.288	269.88
301.518	263.88
301.748	283.88
301.979	330.88
302.209	302.88
302.439	290.88
302.669	297.88
302.9	314.88
303.13	314.88
303.36	318.88
303.59	329.88
303.82	338.88
304.051	348.88
304.281	379.88
304.511	397.88
304.741	391.88
304.971	467.88
305.201	555.88
305.431	581.88
305.661	687.88
305.891	705.88
306.121	662.88
306.352	598.88
306.582	634.88
306.812	631.88
307.042	561.88
307.272	543.88
307.502	654.88
307.731	870.88
307.961	1288.88
308.191	1831.88
308.421	2144.88
308.651	1723.88
308.881	1627.88
309.111	2059.88
309.341	2661.88
309.571	2465.88
309.8	1549.88
310.03	988.88
310.26	714.88
310.49	578.88
310.72	521.88
310.949	446.88
311.179	445.88
311.409	397.88
311.639	399.88
311.868	396.88
312.098	378.88
312.328	366.88
312.557	346.88
312.787	335.88
313.017	337.88
313.246	320.88
313.476	334.88
313.706	319.88
313.935	326.88
314.165	303.88
314.394	308.88
314.624	321.88
314.853	322.88
315.083	313.88
315.312	307.88
315.542	311.88
315.771	318.88
316.001	300.88
316.23	325.88
316.46	306.88
316.689	291.88
316.919	303.88
317.148	294.88
317.377	299.88
317.607	297.88
317.836	298.88
318.065	290.88
318.295	283.88
318.524	286.88
318.753	278.88
318.983	292.88
319.212	293.88
319.441	293.88
319.67	270.88
319.9	301.88
320.129	301.88
320.358	318.88
320.587	298.88
320.816	284.88
321.046	279.88
321.275	280.88
321.504	281.88
321.733	296.88
321.962	289.88
322.191	284.88
322.42	283.88
322.649	285.88
322.878	306.88
323.108	298.88
323.337	307.88
323.566	295.88
323.795	285.88
324.024	306.88
324.253	300.88
324.482	305.88
324.71	319.88
324.939	324.88
325.168	317.88
325.397	304.88
325.626	302.88
325.855	295.88
326.084	292.88
326.313	305.88
326.542	282.88
326.77	297.88
326.999	313.88
327.228	289.88
327.457	322.88
327.686	320.88
327.914	307.88
328.143	321.88
328.372	322.88
328.6	303.88
328.829	306.88
329.058	304.88
329.287	296.88
329.515	321.88
329.744	312.88
329.972	332.88
330.201	322.88
330.43	335.88
330.658	307.88
330.887	310.88
331.115	326.88
331.344	329.88
331.572	333.88
331.801	310.88
332.03	327.88
332.258	331.88
332.486	322.88
332.715	334.88
332.943	317.88
333.172	383.88
333.4	346.88
333.629	364.88
333.857	348.88
334.085	391.88
334.314	347.88
334.542	339.88
334.771	352.88
334.999	351.88
335.227	349.88
335.455	349.88
335.684	355.88
335.912	369.88
336.14	339.88
336.369	319.88
336.597	348.88
336.825	341.88
337.053	334.88
337.281	329.88
337.51	325.88
337.738	316.88
337.966	329.88
338.194	325.88
338.422	330.88
338.65	322.88
338.878	322.88
339.106	329.88
339.334	341.88
339.562	307.88
339.79	301.88
340.018	313.88
340.246	336.88
340.474	328.88
340.702	333.88
340.93	321.88
341.158	315.88
341.386	320.88
341.614	317.88
341.842	319.88
342.07	323.88
342.298	317.88
342.526	331.88
342.754	344.88
342.981	335.88
343.209	321.88
343.437	369.88
343.665	358.88
343.893	372.88
344.12	383.88
344.348	351.88
344.576	336.88
344.804	361.88
345.031	328.88
345.259	342.88
345.487	337.88
345.714	321.88
345.942	322.88
346.17	316.88
346.397	318.88
346.625	323.88
346.853	317.88
347.08	313.88
347.308	334.88
347.535	335.88
347.763	328.88
347.99	325.88
348.218	337.88
348.445	332.88
348.673	326.88
348.9	340.88
349.128	318.88
349.355	347.88
349.583	332.88
349.81	338.88
350.037	343.88
350.265	330.88
350.492	329.88
350.72	320.88
350.947	325.88
351.174	331.88
351.402	343.88
351.629	351.88
351.856	349.88
352.083	331.88
352.311	337.88
352.538	338.88
352.765	360.88
352.992	340.88
353.22	359.88
353.447	358.88
353.674	367.88
353.901	362.88
354.128	370.88
354.355	380.88
354.583	383.88
354.81	387.88
355.037	385.88
355.264	409.88
355.491	405.88
355.718	414.88
355.945	421.88
356.172	447.88
356.399	458.88
356.626	472.88
356.853	501.88
357.08	513.88
357.307	553.88
357.534	577.88
357.761	633.88
357.988	689.88
358.215	819.88
358.441	918.88
358.668	1013.88
358.895	984.88
359.122	815.88
359.349	681.88
359.576	614.88
359.802	588.88
360.029	555.88
360.256	529.88
360.483	502.88
360.709	495.88
360.936	507.88
361.163	478.88
361.39	455.88
361.616	460.88
361.843	445.88
362.07	421.88
362.296	434.88
362.523	421.88
362.749	395.88
362.976	402.88
363.203	406.88
363.429	413.88
363.656	380.88
363.882	370.88
364.109	370.88
364.335	381.88
364.562	378.88
364.788	377.88
365.015	360.88
365.241	361.88
365.468	367.88
365.694	358.88
365.92	357.88
366.147	367.88
366.373	351.88
366.599	356.88
366.826	351.88
367.052	350.88
367.278	348.88
367.505	344.88
367.731	376.88
367.957	358.88
368.184	371.88
368.41	349.88
368.636	362.88
368.862	374.88
369.089	362.88
369.315	347.88
369.541	354.88
369.767	353.88
369.993	349.88
370.219	337.88
370.445	371.88
370.672	372.88
370.898	350.88
371.124	377.88
371.35	358.88
371.576	355.88
371.802	360.88
372.028	352.88
372.254	362.88
372.48	367.88
372.706	349.88
372.932	385.88
373.158	386.88
373.384	369.88
373.61	371.88
373.835	406.88
374.061	362.88
374.287	390.88
374.513	367.88
374.739	379.88
374.965	407.88
375.191	386.88
375.416	401.88
375.642	373.88
375.868	382.88
376.094	373.88
376.319	373.88
376.545	368.88
376.771	387.88
376.997	352.88
377.222	370.88
377.448	362.88
377.674	351.88
377.899	354.88
378.125	358.88
378.35	372.88
378.576	343.88
378.802	366.88
379.027	351.88
379.253	356.88
379.478	358.88
379.704	386.88
379.929	375.88
380.155	371.88
380.38	368.88
380.606	366.88
380.831	383.88
381.057	405.88
381.282	379.88
381.507	386.88
381.733	394.88
381.958	409.88
382.184	418.88
382.409	433.88
382.634	479.88
382.86	528.88
383.085	575.88
383.31	630.88
383.535	636.88
383.761	626.88
383.986	626.88
384.211	506.88
384.436	442.88
384.662	433.88
384.887	407.88
385.112	397.88
385.337	425.88
385.562	435.88
385.787	449.88
386.013	458.88
386.238	444.88
386.463	444.88
386.688	469.88
386.913	446.88
387.138	440.88
387.363	441.88
387.588	435.88
387.813	446.88
388.038	435.88
388.263	435.88
388.488	443.88
388.713	416.88
388.938	441.88
389.163	432.88
389.387	460.88
389.612	452.88
389.837	450.88
390.062	458.88
390.287	469.88
390.512	461.88
390.736	458.88
390.961	474.88
391.186	464.88
391.411	461.88
391.636	481.88
391.86	479.88
392.085	508.88
392.31	502.88
392.534	499.88
392.759	559.88
392.984	586.88
393.208	711.88
393.433	844.88
393.658	910.88
393.882	1103.88
394.107	1825.88
394.331	3300.88
394.556	4349.88
394.78	2850.88
395.005	1553.88
395.229	1210.88
395.454	1248.88
395.678	1642.88
395.903	2825.88
396.127	4914.88
396.352	5555.88
396.576	3283.88
396.801	1818.88
397.025	1285.88
397.249	978.88
397.474	853.88
397.698	731.88
397.922	699.88
398.147	653.88
398.371	652.88
398.595	630.88
398.82	603.88
399.044	627.88
399.268	625.88
399.492	649.88
399.717	641.88
399.941	634.88
400.165	602.88
400.389	574.88
400.613	541.88
400.837	547.88
401.062	535.88
401.286	530.88
401.51	499.88
401.734	530.88
401.958	531.88
402.182	506.88
402.406	514.88
402.63	530.88
402.854	521.88
403.078	551.88
403.302	523.88
403.526	530.88
403.75	529.88
403.974	535.88
404.198	534.88
404.422	522.88
404.645	533.88
404.869	520.88
405.093	542.88
405.317	520.88
405.541	530.88
405.765	513.88
405.988	523.88
406.212	528.88
406.436	541.88
406.66	547.88
406.883	535.88
407.107	529.88
407.331	560.88
407.555	561.88
407.778	549.88
408.002	553.88
408.226	540.88
408.449	552.88
408.673	528.88
408.896	517.88
409.12	527.88
409.344	517.88
409.567	518.88
409.791	518.88
410.014	511.88
410.238	522.88
410.461	498.88
410.685	506.88
410.908	519.88
411.132	506.88
411.355	503.88
411.578	502.88
411.802	506.88
412.025	497.88
412.249	515.88
412.472	526.88
412.695	501.88
412.919	476.88
413.142	510.88
413.365	490.88
413.589	484.88
413.812	470.88
414.035	489.88
414.258	511.88
414.482	513.88
414.705	499.88
414.928	509.88
415.151	480.88
415.374	501.88
415.597	523.88
415.821	482.88
416.044	506.88
416.267	488.88
416.49	494.88
416.713	487.88
416.936	484.88
417.159	486.88
417.382	498.88
417.605	489.88
417.828	480.88
418.051	481.88
418.274	504.88
418.497	496.88
418.72	510.88
418.943	509.88
419.166	532.88
419.389	523.88
419.611	527.88
419.834	522.88
420.057	519.88
420.28	519.88
420.503	474.88
420.726	488.88
420.948	496.88
421.171	503.88
421.394	485.88
421.617	501.88
421.839	514.88
422.062	494.88
422.285	498.88
422.507	534.88
422.73	553.88
422.953	529.88
423.175	483.88
423.398	509.88
423.621	509.88
423.843	519.88
424.066	525.88
424.288	529.88
424.511	526.88
424.733	540.88
424.956	530.88
425.178	511.88
425.401	490.88
425.623	499.88
425.846	498.88
426.068	505.88
426.291	489.88
426.513	482.88
426.735	487.88
426.958	479.88
427.18	483.88
427.402	491.88
427.625	493.88
427.847	469.88
428.069	467.88
428.292	502.88
428.514	482.88
428.736	473.88
428.958	469.88
429.181	474.88
429.403	465.88
429.625	461.88
429.847	475.88
430.069	457.88
430.292	475.88
430.514	479.88
430.736	487.88
430.958	450.88
431.18	446.88
431.402	468.88
431.624	449.88
431.846	450.88
432.068	429.88
432.29	432.88
432.512	453.88
432.734	457.88
432.956	466.88
433.178	473.88
433.4	494.88
433.622	504.88
433.844	480.88
434.066	472.88
434.287	466.88
434.509	442.88
434.731	482.88
434.953	475.88
435.175	476.88
435.397	489.88
435.618	486.88
435.84	450.88
436.062	465.88
436.284	477.88
436.505	466.88
436.727	493.88
436.949	491.88
437.17	462.88
437.392	468.88
437.614	459.88
437.835	429.88
438.057	450.88
438.278	437.88
438.5	491.88
438.721	470.88
438.943	476.88
439.165	474.88
439.386	488.88
439.608	493.88
439.829	505.88
440.05	490.88
440.272	495.88
440.493	499.88
440.715	496.88
440.936	521.88
441.158	535.88
441.379	549.88
441.6	552.88
441.822	541.88
442.043	534.88
442.264	517.88
442.486	515.88
442.707	536.88
442.928	520.88
443.149	526.88
443.371	520.88
443.592	519.88
443.813	512.88
444.034	523.88
444.255	535.88
444.476	522.88
444.698	528.88
444.919	568.88
445.14	785.88
445.361	655.88
445.582	551.88
445.803	521.88
446.024	517.88
446.245	536.88
446.466	514.88
446.687	494.88
446.908	519.88
447.129	529.88
447.35	518.88
447.571	503.88
447.792	502.88
448.013	494.88
448.234	507.88
448.455	488.88
448.675	494.88
448.896	473.88
449.117	506.88
449.338	474.88
449.559	481.88
449.779	479.88
450	455.88
450.221	466.88
450.442	471.88
450.662	458.88
450.883	473.88
451.104	483.88
451.324	476.88
451.545	464.88
451.766	481.88
451.986	466.88
452.207	470.88
452.428	488.88
452.648	480.88
452.869	489.88
453.089	465.88
453.31	458.88
453.53	446.88
453.751	471.88
453.971	480.88
454.192	459.88
454.412	469.88
454.633	449.88
454.853	457.88
455.073	449.88
455.294	453.88
455.514	457.88
455.734	448.88
455.955	446.88
456.175	427.88
456.395	419.88
456.616	429.88
456.836	429.88
457.056	408.88
457.276	423.88
457.497	423.88
457.717	426.88
457.937	425.88
458.157	409.88
458.377	429.88
458.598	419.88
458.818	410.88
459.038	439.88
459.258	413.88
459.478	431.88
459.698	460.88
459.918	463.88
460.138	464.88
460.358	471.88
460.578	489.88
460.798	500.88
461.018	507.88
461.238	496.88
461.458	483.88
461.678	505.88
461.898	498.88
462.118	512.88
462.338	537.88
462.558	543.88
462.777	534.88
462.997	559.88
463.217	582.88
463.437	573.88
463.657	570.88
463.876	539.88
464.096	540.88
464.316	530.88
464.536	547.88
464.755	551.88
464.975	527.88
465.195	528.88
465.414	519.88
465.634	534.88
465.854	531.88
466.073	538.88
466.293	566.88
466.512	627.88
466.732	601.88
466.951	585.88
467.171	576.88
467.391	591.88
467.61	537.88
467.829	515.88
468.049	521.88
468.268	510.88
468.488	491.88
468.707	511.88
468.927	498.88
469.146	485.88
469.365	517.88
469.585	504.88
469.804	519.88
470.023	510.88
470.243	515.88
470.462	520.88
470.681	523.88
470.901	505.88
471.12	514.88
471.339	511.88
471.558	511.88
471.777	506.88
471.997	500.88
472.216	488.88
472.435	461.88
472.654	459.88
472.873	485.88
473.092	503.88
473.311	530.88
473.53	553.88
473.749	599.88
473.968	593.88
474.187	585.88
474.406	582.88
474.625	591.88
474.844	611.88
475.063	584.88
475.282	542.88
475.501	494.88
475.72	513.88
475.939	494.88
476.158	512.88
476.377	522.88
476.596	505.88
476.814	489.88
477.033	455.88
477.252	476.88
477.471	494.88
477.69	495.88
477.908	501.88
478.127	533.88
478.346	512.88
478.564	523.88
478.783	499.88
479.002	524.88
479.22	553.88
479.439	518.88
479.658	510.88
479.876	501.88
480.095	479.88
480.313	499.88
480.532	542.88
480.751	503.88
480.969	483.88
481.188	472.88
481.406	493.88
481.624	475.88
481.843	463.88
482.061	468.88
482.28	476.88
482.498	486.88
482.717	469.88
482.935	511.88
483.153	513.88
483.372	537.88
483.59	531.88
483.808	519.88
484.027	492.88
484.245	547.88
484.463	632.88
484.681	675.88
484.9	601.88
485.118	603.88
485.336	601.88
485.554	559.88
485.772	553.88
485.99	559.88
486.209	573.88
486.427	576.88
486.645	576.88
486.863	630.88
487.081	617.88
487.299	631.88
487.517	614.88
487.735	638.88
487.953	674.88
488.171	634.88
488.389	628.88
488.607	609.88
488.825	594.88
489.043	566.88
489.261	593.88
489.479	585.88
489.696	586.88
489.914	557.88
490.132	578.88
490.35	607.88
490.568	606.88
490.786	617.88
491.003	631.88
491.221	614.88
491.439	645.88
491.657	613.88
491.874	661.88
492.092	663.88
492.31	679.88
492.527	662.88
492.745	643.88
492.963	635.88
493.18	600.88
493.398	601.88
493.615	611.88
493.833	605.88
494.05	600.88
494.268	622.88
494.485	599.88
494.703	597.88
494.92	584.88
495.138	589.88
495.355	604.88
495.573	593.88
495.79	571.88
496.008	598.88
496.225	595.88
496.442	588.88
496.66	610.88
496.877	585.88
497.094	597.88
497.312	598.88
497.529	616.88
497.746	626.88
497.963	584.88
498.181	614.88
498.398	605.88
498.615	610.88
498.832	635.88
499.049	688.88
499.267	698.88
499.484	748.88
499.701	802.88
499.918	832.88
500.135	873.88
500.352	937.88
500.569	941.88
500.786	951.88
501.003	897.88
501.22	859.88
501.437	811.88
501.654	769.88
501.871	718.88
502.088	684.88
502.305	649.88
502.522	634.88
