Data from SampC_HRD10591_00034.txt Node
Date: Mon Jan 19 11:37:41 EST 2026
User: Yrep
Spectrometer: HR+D1059
Trigger mode: 0
Integration Time (sec): 3.443000E-1
Scans to average: 1
Electric dark correction enabled: true
Nonlinearity correction enabled: false
Boxcar width: 0
XAxis mode: Wavelengths
Number of Pixels in Spectrum: 2048
>>>>>Begin Spectral Data<<<<<
223.165	-29.19
223.4	-29.19
223.635	-29.19
223.869	-33.19
224.104	-12.19
224.338	-2.19
224.573	-23.19
224.808	-5.19
225.042	-4.19
225.277	-13.19
225.511	-2.19
225.746	9.81
225.98	18.81
226.215	13.81
226.449	13.81
226.683	23.81
226.918	27.81
227.152	16.81
227.387	34.81
227.621	34.81
227.856	58.81
228.09	54.81
228.324	52.81
228.559	73.81
228.793	73.81
229.027	82.81
229.262	72.81
229.496	92.81
229.73	93.81
229.964	75.81
230.199	84.81
230.433	83.81
230.667	97.81
230.901	94.81
231.136	95.81
231.37	104.81
231.604	102.81
231.838	116.81
232.072	109.81
232.306	102.81
232.541	97.81
232.775	105.81
233.009	92.81
233.243	109.81
233.477	115.81
233.711	105.81
233.945	97.81
234.179	113.81
234.413	100.81
234.647	108.81
234.881	97.81
235.115	94.81
235.349	103.81
235.583	122.81
235.817	117.81
236.051	119.81
236.285	118.81
236.519	122.81
236.753	155.81
236.987	163.81
237.221	179.81
237.455	178.81
237.689	177.81
237.922	160.81
238.156	135.81
238.39	94.81
238.624	106.81
238.858	110.81
239.091	104.81
239.325	88.81
239.559	100.81
239.793	111.81
240.027	106.81
240.26	113.81
240.494	129.81
240.728	81.81
240.961	87.81
241.195	94.81
241.429	100.81
241.662	116.81
241.896	90.81
242.13	92.81
242.363	98.81
242.597	99.81
242.83	116.81
243.064	108.81
243.298	118.81
243.531	105.81
243.765	98.81
243.998	105.81
244.232	112.81
244.465	113.81
244.699	101.81
244.932	97.81
245.166	111.81
245.399	111.81
245.633	106.81
245.866	122.81
246.099	101.81
246.333	124.81
246.566	106.81
246.8	120.81
247.033	124.81
247.266	115.81
247.5	113.81
247.733	104.81
247.966	95.81
248.2	112.81
248.433	119.81
248.666	115.81
248.899	109.81
249.133	110.81
249.366	111.81
249.599	123.81
249.832	126.81
250.066	118.81
250.299	124.81
250.532	117.81
250.765	109.81
250.998	130.81
251.231	121.81
251.465	128.81
251.698	132.81
251.931	121.81
252.164	125.81
252.397	140.81
252.63	124.81
252.863	119.81
253.096	132.81
253.329	114.81
253.562	126.81
253.795	133.81
254.028	141.81
254.261	120.81
254.494	119.81
254.727	135.81
254.96	120.81
255.193	138.81
255.426	125.81
255.659	125.81
255.892	148.81
256.124	128.81
256.357	155.81
256.59	149.81
256.823	177.81
257.056	210.81
257.289	206.81
257.521	212.81
257.754	241.81
257.987	221.81
258.22	173.81
258.452	146.81
258.685	135.81
258.918	148.81
259.151	132.81
259.383	137.81
259.616	137.81
259.849	149.81
260.081	149.81
260.314	136.81
260.547	136.81
260.779	133.81
261.012	153.81
261.244	147.81
261.477	156.81
261.71	146.81
261.942	139.81
262.175	141.81
262.407	150.81
262.64	163.81
262.872	169.81
263.105	161.81
263.337	206.81
263.57	192.81
263.802	189.81
264.035	176.81
264.267	167.81
264.499	151.81
264.732	166.81
264.964	159.81
265.197	179.81
265.429	181.81
265.661	183.81
265.894	195.81
266.126	207.81
266.358	220.81
266.591	207.81
266.823	167.81
267.055	159.81
267.287	161.81
267.52	159.81
267.752	155.81
267.984	139.81
268.216	162.81
268.448	163.81
268.681	158.81
268.913	174.81
269.145	152.81
269.377	147.81
269.609	158.81
269.841	154.81
270.073	146.81
270.306	154.81
270.538	143.81
270.77	157.81
271.002	161.81
271.234	165.81
271.466	163.81
271.698	141.81
271.93	143.81
272.162	163.81
272.394	161.81
272.626	152.81
272.858	163.81
273.09	160.81
273.322	152.81
273.553	155.81
273.785	143.81
274.017	170.81
274.249	162.81
274.481	169.81
274.713	157.81
274.945	162.81
275.176	170.81
275.408	162.81
275.64	147.81
275.872	153.81
276.104	171.81
276.335	159.81
276.567	161.81
276.799	158.81
277.031	157.81
277.262	170.81
277.494	181.81
277.726	180.81
277.957	205.81
278.189	192.81
278.421	185.81
278.652	203.81
278.884	229.81
279.115	276.81
279.347	377.81
279.579	519.81
279.81	561.81
280.042	451.81
280.273	429.81
280.505	445.81
280.736	320.81
280.968	232.81
281.199	228.81
281.431	282.81
281.662	343.81
281.894	396.81
282.125	300.81
282.356	266.81
282.588	231.81
282.819	234.81
283.051	218.81
283.282	205.81
283.513	215.81
283.745	186.81
283.976	210.81
284.207	205.81
284.439	203.81
284.67	185.81
284.901	186.81
285.132	236.81
285.364	269.81
285.595	225.81
285.826	192.81
286.057	191.81
286.288	183.81
286.52	175.81
286.751	186.81
286.982	185.81
287.213	170.81
287.444	173.81
287.675	184.81
287.906	195.81
288.138	197.81
288.369	205.81
288.6	194.81
288.831	165.81
289.062	175.81
289.293	191.81
289.524	189.81
289.755	171.81
289.986	188.81
290.217	181.81
290.448	193.81
290.679	188.81
290.91	203.81
291.141	185.81
291.371	194.81
291.602	199.81
291.833	198.81
292.064	183.81
292.295	202.81
292.526	194.81
292.757	218.81
292.987	221.81
293.218	210.81
293.449	207.81
293.68	215.81
293.91	205.81
294.141	213.81
294.372	192.81
294.603	192.81
294.833	194.81
295.064	196.81
295.295	193.81
295.525	183.81
295.756	188.81
295.987	200.81
296.217	190.81
296.448	172.81
296.679	194.81
296.909	192.81
297.14	207.81
297.37	207.81
297.601	195.81
297.831	205.81
298.062	195.81
298.292	204.81
298.523	198.81
298.753	197.81
298.984	173.81
299.214	190.81
299.445	207.81
299.675	209.81
299.905	204.81
300.136	199.81
300.366	203.81
300.597	208.81
300.827	195.81
301.057	205.81
301.288	219.81
301.518	204.81
301.748	204.81
301.979	254.81
302.209	213.81
302.439	221.81
302.669	221.81
302.9	228.81
303.13	235.81
303.36	225.81
303.59	247.81
303.82	242.81
304.051	268.81
304.281	250.81
304.511	241.81
304.741	271.81
304.971	321.81
305.201	379.81
305.431	411.81
305.661	435.81
305.891	476.81
306.121	460.81
306.352	415.81
306.582	407.81
306.812	415.81
307.042	369.81
307.272	396.81
307.502	419.81
307.731	525.81
307.961	677.81
308.191	936.81
308.421	1075.81
308.651	915.81
308.881	840.81
309.111	1034.81
309.341	1258.81
309.571	1195.81
309.8	847.81
310.03	607.81
310.26	467.81
310.49	409.81
310.72	357.81
310.949	330.81
311.179	314.81
311.409	296.81
311.639	275.81
311.868	291.81
312.098	271.81
312.328	270.81
312.557	275.81
312.787	249.81
313.017	255.81
313.246	258.81
313.476	252.81
313.706	255.81
313.935	256.81
314.165	250.81
314.394	243.81
314.624	241.81
314.853	233.81
315.083	220.81
315.312	227.81
315.542	227.81
315.771	228.81
316.001	223.81
316.23	244.81
316.46	233.81
316.689	229.81
316.919	217.81
317.148	212.81
317.377	238.81
317.607	240.81
317.836	226.81
318.065	212.81
318.295	221.81
318.524	223.81
318.753	208.81
318.983	236.81
319.212	214.81
319.441	217.81
319.67	233.81
319.9	220.81
320.129	215.81
320.358	226.81
320.587	222.81
320.816	207.81
321.046	223.81
321.275	218.81
321.504	226.81
321.733	228.81
321.962	216.81
322.191	216.81
322.42	242.81
322.649	229.81
322.878	215.81
323.108	229.81
323.337	225.81
323.566	244.81
323.795	242.81
324.024	223.81
324.253	236.81
324.482	226.81
324.71	207.81
324.939	238.81
325.168	206.81
325.397	241.81
325.626	216.81
325.855	220.81
326.084	219.81
326.313	226.81
326.542	226.81
326.77	215.81
326.999	221.81
327.228	223.81
327.457	222.81
327.686	227.81
327.914	241.81
328.143	242.81
328.372	234.81
328.6	224.81
328.829	213.81
329.058	219.81
329.287	220.81
329.515	218.81
329.744	215.81
329.972	240.81
330.201	220.81
330.43	232.81
330.658	229.81
330.887	238.81
331.115	226.81
331.344	232.81
331.572	248.81
331.801	231.81
332.03	239.81
332.258	234.81
332.486	250.81
332.715	221.81
332.943	220.81
333.172	260.81
333.4	254.81
333.629	260.81
333.857	247.81
334.085	267.81
334.314	276.81
334.542	245.81
334.771	251.81
334.999	247.81
335.227	240.81
335.455	259.81
335.684	248.81
335.912	239.81
336.14	231.81
336.369	267.81
336.597	258.81
336.825	257.81
337.053	235.81
337.281	231.81
337.51	243.81
337.738	249.81
337.966	248.81
338.194	223.81
338.422	246.81
338.65	229.81
338.878	219.81
339.106	235.81
339.334	236.81
339.562	240.81
339.79	240.81
340.018	224.81
340.246	234.81
340.474	218.81
340.702	239.81
340.93	233.81
341.158	233.81
341.386	241.81
341.614	240.81
341.842	241.81
342.07	240.81
342.298	240.81
342.526	237.81
342.754	234.81
342.981	232.81
343.209	243.81
343.437	266.81
343.665	251.81
343.893	254.81
344.12	262.81
344.348	255.81
344.576	260.81
344.804	247.81
345.031	241.81
345.259	248.81
345.487	236.81
345.714	239.81
345.942	233.81
346.17	229.81
346.397	230.81
346.625	222.81
346.853	224.81
347.08	226.81
347.308	244.81
347.535	245.81
347.763	263.81
347.99	255.81
348.218	245.81
348.445	245.81
348.673	240.81
348.9	233.81
349.128	265.81
349.355	244.81
349.583	244.81
349.81	246.81
350.037	215.81
350.265	244.81
350.492	243.81
350.72	241.81
350.947	264.81
351.174	251.81
351.402	226.81
351.629	234.81
351.856	240.81
352.083	244.81
352.311	264.81
352.538	250.81
352.765	284.81
352.992	266.81
353.22	236.81
353.447	271.81
353.674	254.81
353.901	254.81
354.128	260.81
354.355	267.81
354.583	259.81
354.81	279.81
355.037	275.81
355.264	282.81
355.491	301.81
355.718	285.81
355.945	292.81
356.172	310.81
356.399	309.81
356.626	316.81
356.853	309.81
357.08	337.81
357.307	372.81
357.534	367.81
357.761	407.81
357.988	477.81
358.215	507.81
358.441	570.81
358.668	624.81
358.895	628.81
359.122	536.81
359.349	450.81
359.576	427.81
359.802	392.81
360.029	357.81
360.256	354.81
360.483	357.81
360.709	345.81
360.936	340.81
361.163	315.81
361.39	308.81
361.616	312.81
361.843	302.81
362.07	295.81
362.296	286.81
362.523	290.81
362.749	284.81
362.976	261.81
363.203	292.81
363.429	273.81
363.656	271.81
363.882	266.81
364.109	285.81
364.335	271.81
364.562	273.81
364.788	273.81
365.015	256.81
365.241	271.81
365.468	265.81
365.694	270.81
365.92	260.81
366.147	263.81
366.373	247.81
366.599	256.81
366.826	244.81
367.052	258.81
367.278	279.81
367.505	267.81
367.731	270.81
367.957	271.81
368.184	234.81
368.41	258.81
368.636	258.81
368.862	252.81
369.089	258.81
369.315	247.81
369.541	249.81
369.767	262.81
369.993	252.81
370.219	249.81
370.445	252.81
370.672	266.81
370.898	248.81
371.124	252.81
371.35	270.81
371.576	263.81
371.802	260.81
372.028	275.81
372.254	270.81
372.48	256.81
372.706	270.81
372.932	266.81
373.158	272.81
373.384	286.81
373.61	274.81
373.835	276.81
374.061	264.81
374.287	268.81
374.513	261.81
374.739	273.81
374.965	280.81
375.191	278.81
375.416	272.81
375.642	276.81
375.868	256.81
376.094	270.81
376.319	260.81
376.545	256.81
376.771	261.81
376.997	255.81
377.222	243.81
377.448	282.81
377.674	266.81
377.899	263.81
378.125	288.81
378.35	272.81
378.576	274.81
378.802	268.81
379.027	264.81
379.253	256.81
379.478	268.81
379.704	269.81
379.929	277.81
380.155	254.81
380.38	271.81
380.606	289.81
380.831	260.81
381.057	274.81
381.282	270.81
381.507	275.81
381.733	307.81
381.958	297.81
382.184	280.81
382.409	311.81
382.634	306.81
382.86	303.81
383.085	322.81
383.31	329.81
383.535	349.81
383.761	352.81
383.986	343.81
384.211	297.81
384.436	309.81
384.662	299.81
384.887	304.81
385.112	300.81
385.337	297.81
385.562	297.81
385.787	301.81
386.013	319.81
386.238	310.81
386.463	309.81
386.688	327.81
386.913	304.81
387.138	295.81
387.363	293.81
387.588	311.81
387.813	301.81
388.038	307.81
388.263	321.81
388.488	327.81
388.713	305.81
388.938	298.81
389.163	302.81
389.387	313.81
389.612	307.81
389.837	324.81
390.062	336.81
390.287	336.81
390.512	321.81
390.736	308.81
390.961	331.81
391.186	321.81
391.411	336.81
391.636	332.81
391.86	348.81
392.085	357.81
392.31	345.81
392.534	351.81
392.759	378.81
392.984	382.81
393.208	408.81
393.433	420.81
393.658	485.81
393.882	579.81
394.107	873.81
394.331	1423.81
394.556	1821.81
394.78	1325.81
395.005	844.81
395.229	689.81
395.454	703.81
395.678	821.81
395.903	1245.81
396.127	1980.81
396.352	2308.81
396.576	1507.81
396.801	940.81
397.025	720.81
397.249	586.81
397.474	554.81
397.698	498.81
397.922	483.81
398.147	472.81
398.371	427.81
398.595	426.81
398.82	427.81
399.044	428.81
399.268	440.81
399.492	461.81
399.717	470.81
399.941	447.81
400.165	416.81
400.389	425.81
400.613	380.81
400.837	379.81
401.062	387.81
401.286	370.81
401.51	360.81
401.734	393.81
401.958	352.81
402.182	356.81
402.406	346.81
402.63	366.81
402.854	369.81
403.078	355.81
403.302	366.81
403.526	391.81
403.75	388.81
403.974	373.81
404.198	369.81
404.422	405.81
404.645	364.81
404.869	376.81
405.093	375.81
405.317	354.81
405.541	383.81
405.765	383.81
405.988	386.81
406.212	386.81
406.436	364.81
406.66	394.81
406.883	383.81
407.107	390.81
407.331	393.81
407.555	382.81
407.778	394.81
408.002	392.81
408.226	395.81
408.449	373.81
408.673	374.81
408.896	369.81
409.12	369.81
409.344	383.81
409.567	363.81
409.791	372.81
410.014	370.81
410.238	360.81
410.461	364.81
410.685	380.81
410.908	379.81
411.132	391.81
411.355	373.81
411.578	370.81
411.802	363.81
412.025	373.81
412.249	372.81
412.472	372.81
412.695	361.81
412.919	363.81
413.142	345.81
413.365	365.81
413.589	353.81
413.812	360.81
414.035	356.81
414.258	357.81
414.482	357.81
414.705	339.81
414.928	347.81
415.151	351.81
415.374	356.81
415.597	368.81
415.821	349.81
416.044	367.81
416.267	339.81
416.49	336.81
416.713	349.81
416.936	356.81
417.159	349.81
417.382	344.81
417.605	348.81
417.828	376.81
418.051	353.81
418.274	358.81
418.497	359.81
418.72	344.81
418.943	350.81
419.166	379.81
419.389	394.81
419.611	372.81
419.834	370.81
420.057	369.81
420.28	373.81
420.503	353.81
420.726	355.81
420.948	345.81
421.171	351.81
421.394	378.81
421.617	349.81
421.839	355.81
422.062	369.81
422.285	368.81
422.507	365.81
422.73	343.81
422.953	373.81
423.175	345.81
423.398	363.81
423.621	360.81
423.843	364.81
424.066	375.81
424.288	357.81
424.511	364.81
424.733	392.81
424.956	371.81
425.178	363.81
425.401	360.81
425.623	351.81
425.846	347.81
426.068	336.81
426.291	359.81
426.513	345.81
426.735	349.81
426.958	345.81
427.18	353.81
427.402	340.81
427.625	350.81
427.847	343.81
428.069	356.81
428.292	325.81
428.514	359.81
428.736	341.81
428.958	352.81
429.181	348.81
429.403	345.81
429.625	328.81
429.847	327.81
430.069	355.81
430.292	354.81
430.514	332.81
430.736	336.81
430.958	355.81
431.18	338.81
431.402	331.81
431.624	322.81
431.846	320.81
432.068	317.81
432.29	328.81
432.512	310.81
432.734	334.81
432.956	351.81
433.178	331.81
433.4	355.81
433.622	354.81
433.844	362.81
434.066	320.81
434.287	327.81
434.509	323.81
434.731	336.81
434.953	349.81
435.175	350.81
435.397	362.81
435.618	317.81
435.84	322.81
436.062	331.81
436.284	343.81
436.505	332.81
436.727	331.81
436.949	336.81
437.17	342.81
437.392	331.81
437.614	325.81
437.835	303.81
438.057	316.81
438.278	333.81
438.5	345.81
438.721	348.81
438.943	360.81
439.165	353.81
439.386	345.81
439.608	357.81
439.829	347.81
440.05	354.81
440.272	363.81
440.493	338.81
440.715	383.81
440.936	363.81
441.158	361.81
441.379	387.81
441.6	375.81
441.822	374.81
442.043	387.81
442.264	366.81
442.486	382.81
442.707	369.81
442.928	353.81
443.149	346.81
443.371	379.81
443.592	369.81
443.813	383.81
444.034	393.81
444.255	370.81
444.476	379.81
444.698	411.81
444.919	404.81
445.14	627.81
445.361	494.81
445.582	386.81
445.803	380.81
446.024	360.81
446.245	378.81
446.466	369.81
446.687	369.81
446.908	375.81
447.129	376.81
447.35	361.81
447.571	369.81
447.792	353.81
448.013	362.81
448.234	360.81
448.455	352.81
448.675	335.81
448.896	331.81
449.117	332.81
449.338	349.81
449.559	343.81
449.779	334.81
450	339.81
450.221	335.81
450.442	331.81
450.662	333.81
450.883	339.81
451.104	354.81
451.324	320.81
451.545	314.81
451.766	335.81
451.986	329.81
452.207	341.81
452.428	333.81
452.648	341.81
452.869	344.81
453.089	333.81
453.31	320.81
453.53	324.81
453.751	310.81
453.971	319.81
454.192	316.81
454.412	311.81
454.633	333.81
454.853	323.81
455.073	306.81
455.294	308.81
455.514	317.81
455.734	304.81
455.955	301.81
456.175	328.81
456.395	285.81
456.616	283.81
456.836	273.81
457.056	275.81
457.276	282.81
457.497	283.81
457.717	313.81
457.937	301.81
458.157	288.81
458.377	293.81
458.598	285.81
458.818	294.81
459.038	279.81
459.258	288.81
459.478	275.81
459.698	291.81
459.918	327.81
460.138	332.81
460.358	336.81
460.578	365.81
460.798	343.81
461.018	347.81
461.238	353.81
461.458	377.81
461.678	344.81
461.898	338.81
462.118	373.81
462.338	360.81
462.558	365.81
462.777	369.81
462.997	384.81
463.217	405.81
463.437	397.81
463.657	367.81
463.876	376.81
464.096	364.81
464.316	368.81
464.536	394.81
464.755	382.81
464.975	384.81
465.195	359.81
465.414	365.81
465.634	337.81
465.854	342.81
466.073	368.81
466.293	400.81
466.512	384.81
466.732	414.81
466.951	392.81
467.171	371.81
467.391	384.81
467.61	364.81
467.829	333.81
468.049	358.81
468.268	353.81
468.488	336.81
468.707	352.81
468.927	323.81
469.146	360.81
469.365	356.81
469.585	345.81
469.804	343.81
470.023	350.81
470.243	372.81
470.462	364.81
470.681	357.81
470.901	351.81
471.12	367.81
471.339	364.81
471.558	348.81
471.777	357.81
471.997	338.81
472.216	347.81
472.435	336.81
472.654	336.81
472.873	327.81
473.092	346.81
473.311	387.81
473.53	373.81
473.749	403.81
473.968	386.81
474.187	387.81
474.406	377.81
474.625	396.81
474.844	405.81
475.063	380.81
475.282	384.81
475.501	351.81
475.72	375.81
475.939	345.81
476.158	343.81
476.377	356.81
476.596	332.81
476.814	328.81
477.033	311.81
477.252	333.81
477.471	342.81
477.69	368.81
477.908	356.81
478.127	361.81
478.346	338.81
478.564	354.81
478.783	356.81
479.002	371.81
479.22	377.81
479.439	366.81
479.658	359.81
479.876	360.81
480.095	337.81
480.313	383.81
480.532	362.81
480.751	339.81
480.969	345.81
481.188	317.81
481.406	328.81
481.624	304.81
481.843	305.81
482.061	336.81
482.28	332.81
482.498	327.81
482.717	334.81
482.935	339.81
483.153	354.81
483.372	369.81
483.59	381.81
483.808	352.81
484.027	356.81
484.245	369.81
484.463	394.81
484.681	425.81
484.9	389.81
485.118	386.81
485.336	375.81
485.554	356.81
485.772	337.81
485.99	354.81
486.209	357.81
486.427	354.81
486.645	378.81
486.863	385.81
487.081	385.81
487.299	394.81
487.517	396.81
487.735	415.81
487.953	434.81
488.171	442.81
488.389	427.81
488.607	387.81
488.825	392.81
489.043	371.81
489.261	373.81
489.479	378.81
489.696	386.81
489.914	396.81
490.132	381.81
490.35	393.81
490.568	403.81
490.786	431.81
491.003	418.81
491.221	421.81
491.439	415.81
491.657	439.81
491.874	441.81
492.092	478.81
492.31	475.81
492.527	456.81
492.745	433.81
492.963	443.81
493.18	420.81
493.398	415.81
493.615	424.81
493.833	413.81
494.05	425.81
494.268	405.81
494.485	402.81
494.703	441.81
494.92	421.81
495.138	416.81
495.355	436.81
495.573	409.81
495.79	415.81
496.008	440.81
496.225	392.81
496.442	413.81
496.66	441.81
496.877	415.81
497.094	439.81
497.312	427.81
497.529	428.81
497.746	412.81
497.963	425.81
498.181	434.81
498.398	421.81
498.615	450.81
498.832	430.81
499.049	460.81
499.267	476.81
499.484	481.81
499.701	534.81
499.918	564.81
500.135	573.81
500.352	624.81
500.569	633.81
500.786	634.81
501.003	615.81
501.22	565.81
501.437	525.81
501.654	493.81
501.871	479.81
502.088	467.81
502.305	437.81
502.522	445.81
502.739	445.81
502.956	404.81
