Data from SampC_HRD10591_00005.txt Node
Date: Mon Jan 19 11:37:31 EST 2026
User: Yrep
Spectrometer: HR+D1059
Trigger mode: 0
Integration Time (sec): 3.443000E-1
Scans to average: 1
Electric dark correction enabled: true
Nonlinearity correction enabled: false
Boxcar width: 0
XAxis mode: Wavelengths
Number of Pixels in Spectrum: 2048
>>>>>Begin Spectral Data<<<<<
223.165	-21.88
223.4	-21.88
223.635	-21.88
223.869	-27.88
224.104	-26.88
224.338	-15.88
224.573	-20.88
224.808	-5.88
225.042	-3.88
225.277	0.12
225.511	-1.88
225.746	-0.88
225.98	19.12
226.215	8.12
226.449	20.12
226.683	18.12
226.918	17.12
227.152	43.12
227.387	45.12
227.621	45.12
227.856	40.12
228.09	45.12
228.324	51.12
228.559	64.12
228.793	83.12
229.027	109.12
229.262	94.12
229.496	88.12
229.73	108.12
229.964	123.12
230.199	110.12
230.433	111.12
230.667	110.12
230.901	119.12
231.136	119.12
231.37	94.12
231.604	133.12
231.838	140.12
232.072	146.12
232.306	136.12
232.541	137.12
232.775	134.12
233.009	129.12
233.243	134.12
233.477	118.12
233.711	114.12
233.945	118.12
234.179	134.12
234.413	126.12
234.647	133.12
234.881	121.12
235.115	134.12
235.349	123.12
235.583	140.12
235.817	146.12
236.051	134.12
236.285	153.12
236.519	171.12
236.753	189.12
236.987	240.12
237.221	262.12
237.455	261.12
237.689	252.12
237.922	222.12
238.156	166.12
238.39	138.12
238.624	132.12
238.858	129.12
239.091	149.12
239.325	125.12
239.559	134.12
239.793	135.12
240.027	139.12
240.26	129.12
240.494	132.12
240.728	126.12
240.961	121.12
241.195	136.12
241.429	130.12
241.662	129.12
241.896	131.12
242.13	141.12
242.363	125.12
242.597	132.12
242.83	129.12
243.064	129.12
243.298	138.12
243.531	149.12
243.765	140.12
243.998	141.12
244.232	148.12
244.465	133.12
244.699	134.12
244.932	155.12
245.166	144.12
245.399	131.12
245.633	138.12
245.866	154.12
246.099	154.12
246.333	140.12
246.566	138.12
246.8	157.12
247.033	158.12
247.266	147.12
247.5	141.12
247.733	135.12
247.966	142.12
248.2	172.12
248.433	151.12
248.666	141.12
248.899	155.12
249.133	132.12
249.366	145.12
249.599	161.12
249.832	147.12
250.066	162.12
250.299	152.12
250.532	165.12
250.765	149.12
250.998	139.12
251.231	156.12
251.465	172.12
251.698	174.12
251.931	187.12
252.164	165.12
252.397	159.12
252.63	176.12
252.863	162.12
253.096	165.12
253.329	183.12
253.562	165.12
253.795	165.12
254.028	174.12
254.261	153.12
254.494	151.12
254.727	186.12
254.96	170.12
255.193	165.12
255.426	182.12
255.659	168.12
255.892	194.12
256.124	178.12
256.357	195.12
256.59	236.12
256.823	244.12
257.056	302.12
257.289	302.12
257.521	326.12
257.754	364.12
257.987	340.12
258.22	288.12
258.452	232.12
258.685	204.12
258.918	209.12
259.151	194.12
259.383	197.12
259.616	192.12
259.849	208.12
260.081	195.12
260.314	211.12
260.547	195.12
260.779	174.12
261.012	201.12
261.244	197.12
261.477	213.12
261.71	209.12
261.942	215.12
262.175	223.12
262.407	222.12
262.64	225.12
262.872	242.12
263.105	264.12
263.337	307.12
263.57	314.12
263.802	301.12
264.035	268.12
264.267	248.12
264.499	254.12
264.732	238.12
264.964	227.12
265.197	256.12
265.429	292.12
265.661	299.12
265.894	288.12
266.126	326.12
266.358	340.12
266.591	308.12
266.823	246.12
267.055	212.12
267.287	231.12
267.52	225.12
267.752	216.12
267.984	204.12
268.216	214.12
268.448	209.12
268.681	227.12
268.913	216.12
269.145	218.12
269.377	213.12
269.609	198.12
269.841	208.12
270.073	207.12
270.306	225.12
270.538	207.12
270.77	197.12
271.002	232.12
271.234	200.12
271.466	199.12
271.698	210.12
271.93	224.12
272.162	210.12
272.394	210.12
272.626	225.12
272.858	213.12
273.09	234.12
273.322	230.12
273.553	221.12
273.785	236.12
274.017	214.12
274.249	215.12
274.481	258.12
274.713	230.12
274.945	257.12
275.176	232.12
275.408	238.12
275.64	252.12
275.872	230.12
276.104	238.12
276.335	228.12
276.567	238.12
276.799	240.12
277.031	253.12
277.262	252.12
277.494	246.12
277.726	260.12
277.957	288.12
278.189	302.12
278.421	295.12
278.652	340.12
278.884	358.12
279.115	460.12
279.347	701.12
279.579	958.12
279.81	1126.12
280.042	874.12
280.273	819.12
280.505	795.12
280.736	523.12
280.968	378.12
281.199	402.12
281.431	499.12
281.662	685.12
281.894	732.12
282.125	597.12
282.356	466.12
282.588	404.12
282.819	362.12
283.051	336.12
283.282	334.12
283.513	319.12
283.745	288.12
283.976	287.12
284.207	291.12
284.439	301.12
284.67	275.12
284.901	330.12
285.132	348.12
285.364	400.12
285.595	364.12
285.826	275.12
286.057	276.12
286.288	266.12
286.52	271.12
286.751	271.12
286.982	274.12
287.213	266.12
287.444	278.12
287.675	270.12
287.906	290.12
288.138	299.12
288.369	293.12
288.6	274.12
288.831	290.12
289.062	296.12
289.293	282.12
289.524	284.12
289.755	273.12
289.986	284.12
290.217	293.12
290.448	289.12
290.679	282.12
290.91	305.12
291.141	272.12
291.371	308.12
291.602	296.12
291.833	277.12
292.064	294.12
292.295	297.12
292.526	302.12
292.757	340.12
292.987	349.12
293.218	332.12
293.449	326.12
293.68	343.12
293.91	314.12
294.141	306.12
294.372	301.12
294.603	287.12
294.833	288.12
295.064	286.12
295.295	278.12
295.525	290.12
295.756	278.12
295.987	283.12
296.217	291.12
296.448	270.12
296.679	295.12
296.909	305.12
297.14	276.12
297.37	290.12
297.601	292.12
297.831	289.12
298.062	302.12
298.292	316.12
298.523	314.12
298.753	304.12
298.984	304.12
299.214	292.12
299.445	299.12
299.675	308.12
299.905	311.12
300.136	311.12
300.366	324.12
300.597	316.12
300.827	325.12
301.057	330.12
301.288	330.12
301.518	319.12
301.748	315.12
301.979	353.12
302.209	338.12
302.439	336.12
302.669	340.12
302.9	331.12
303.13	344.12
303.36	384.12
303.59	387.12
303.82	395.12
304.051	389.12
304.281	394.12
304.511	426.12
304.741	462.12
304.971	523.12
305.201	610.12
305.431	724.12
305.661	777.12
305.891	873.12
306.121	785.12
306.352	700.12
306.582	730.12
306.812	717.12
307.042	626.12
307.272	639.12
307.502	688.12
307.731	878.12
307.961	1268.12
308.191	1797.12
308.421	2167.12
308.651	1776.12
308.881	1636.12
309.111	2038.12
309.341	2604.12
309.571	2488.12
309.8	1533.12
310.03	988.12
310.26	754.12
310.49	667.12
310.72	611.12
310.949	539.12
311.179	485.12
311.409	481.12
311.639	475.12
311.868	444.12
312.098	431.12
312.328	446.12
312.557	421.12
312.787	401.12
313.017	396.12
313.246	388.12
313.476	384.12
313.706	386.12
313.935	384.12
314.165	383.12
314.394	370.12
314.624	386.12
314.853	367.12
315.083	372.12
315.312	372.12
315.542	369.12
315.771	357.12
316.001	352.12
316.23	379.12
316.46	344.12
316.689	336.12
316.919	355.12
317.148	375.12
317.377	356.12
317.607	367.12
317.836	361.12
318.065	350.12
318.295	339.12
318.524	352.12
318.753	343.12
318.983	354.12
319.212	346.12
319.441	337.12
319.67	343.12
319.9	342.12
320.129	330.12
320.358	343.12
320.587	336.12
320.816	332.12
321.046	332.12
321.275	344.12
321.504	341.12
321.733	322.12
321.962	349.12
322.191	331.12
322.42	338.12
322.649	349.12
322.878	353.12
323.108	355.12
323.337	344.12
323.566	362.12
323.795	378.12
324.024	378.12
324.253	372.12
324.482	368.12
324.71	366.12
324.939	370.12
325.168	354.12
325.397	359.12
325.626	342.12
325.855	337.12
326.084	349.12
326.313	385.12
326.542	352.12
326.77	372.12
326.999	359.12
327.228	365.12
327.457	359.12
327.686	359.12
327.914	355.12
328.143	359.12
328.372	351.12
328.6	367.12
328.829	357.12
329.058	367.12
329.287	363.12
329.515	380.12
329.744	369.12
329.972	346.12
330.201	367.12
330.43	372.12
330.658	361.12
330.887	378.12
331.115	366.12
331.344	378.12
331.572	375.12
331.801	369.12
332.03	371.12
332.258	393.12
332.486	366.12
332.715	411.12
332.943	404.12
333.172	421.12
333.4	415.12
333.629	425.12
333.857	419.12
334.085	422.12
334.314	427.12
334.542	406.12
334.771	422.12
334.999	405.12
335.227	413.12
335.455	429.12
335.684	410.12
335.912	419.12
336.14	412.12
336.369	396.12
336.597	406.12
336.825	393.12
337.053	393.12
337.281	398.12
337.51	387.12
337.738	388.12
337.966	385.12
338.194	398.12
338.422	364.12
338.65	381.12
338.878	375.12
339.106	394.12
339.334	384.12
339.562	369.12
339.79	370.12
340.018	367.12
340.246	388.12
340.474	373.12
340.702	381.12
340.93	381.12
341.158	383.12
341.386	388.12
341.614	359.12
341.842	361.12
342.07	370.12
342.298	393.12
342.526	397.12
342.754	379.12
342.981	402.12
343.209	416.12
343.437	448.12
343.665	428.12
343.893	417.12
344.12	457.12
344.348	414.12
344.576	406.12
344.804	413.12
345.031	413.12
345.259	408.12
345.487	394.12
345.714	383.12
345.942	374.12
346.17	388.12
346.397	374.12
346.625	374.12
346.853	397.12
347.08	391.12
347.308	397.12
347.535	386.12
347.763	390.12
347.99	401.12
348.218	396.12
348.445	380.12
348.673	397.12
348.9	410.12
349.128	382.12
349.355	374.12
349.583	392.12
349.81	385.12
350.037	375.12
350.265	401.12
350.492	388.12
350.72	391.12
350.947	406.12
351.174	428.12
351.402	384.12
351.629	395.12
351.856	417.12
352.083	418.12
352.311	440.12
352.538	408.12
352.765	411.12
352.992	432.12
353.22	422.12
353.447	439.12
353.674	438.12
353.901	443.12
354.128	442.12
354.355	462.12
354.583	484.12
354.81	485.12
355.037	472.12
355.264	476.12
355.491	498.12
355.718	511.12
355.945	534.12
356.172	525.12
356.399	558.12
356.626	581.12
356.853	623.12
357.08	629.12
357.307	690.12
357.534	712.12
357.761	765.12
357.988	913.12
358.215	1034.12
358.441	1223.12
358.668	1420.12
358.895	1342.12
359.122	1075.12
359.349	901.12
359.576	772.12
359.802	746.12
360.029	688.12
360.256	655.12
360.483	618.12
360.709	626.12
360.936	602.12
361.163	589.12
361.39	574.12
361.616	544.12
361.843	546.12
362.07	533.12
362.296	502.12
362.523	485.12
362.749	488.12
362.976	471.12
363.203	470.12
363.429	462.12
363.656	459.12
363.882	463.12
364.109	448.12
364.335	447.12
364.562	447.12
364.788	446.12
365.015	456.12
365.241	436.12
365.468	448.12
365.694	439.12
365.92	430.12
366.147	424.12
366.373	429.12
366.599	422.12
366.826	430.12
367.052	428.12
367.278	413.12
367.505	419.12
367.731	439.12
367.957	423.12
368.184	424.12
368.41	438.12
368.636	445.12
368.862	452.12
369.089	422.12
369.315	420.12
369.541	417.12
369.767	427.12
369.993	414.12
370.219	422.12
370.445	430.12
370.672	424.12
370.898	409.12
371.124	422.12
371.35	432.12
371.576	462.12
371.802	442.12
372.028	425.12
372.254	436.12
372.48	462.12
372.706	435.12
372.932	448.12
373.158	434.12
373.384	444.12
373.61	455.12
373.835	443.12
374.061	429.12
374.287	448.12
374.513	434.12
374.739	451.12
374.965	471.12
375.191	458.12
375.416	455.12
375.642	437.12
375.868	454.12
376.094	426.12
376.319	428.12
376.545	439.12
376.771	436.12
376.997	443.12
377.222	435.12
377.448	443.12
377.674	430.12
377.899	434.12
378.125	424.12
378.35	424.12
378.576	429.12
378.802	423.12
379.027	428.12
379.253	440.12
379.478	424.12
379.704	433.12
379.929	442.12
380.155	418.12
380.38	428.12
380.606	421.12
380.831	449.12
381.057	472.12
381.282	456.12
381.507	440.12
381.733	459.12
381.958	464.12
382.184	474.12
382.409	461.12
382.634	507.12
382.86	515.12
383.085	548.12
383.31	551.12
383.535	553.12
383.761	555.12
383.986	577.12
384.211	500.12
384.436	483.12
384.662	501.12
384.887	483.12
385.112	495.12
385.337	497.12
385.562	499.12
385.787	494.12
386.013	507.12
386.238	504.12
386.463	528.12
386.688	534.12
386.913	523.12
387.138	498.12
387.363	530.12
387.588	522.12
387.813	512.12
388.038	514.12
388.263	495.12
388.488	508.12
388.713	516.12
388.938	517.12
389.163	522.12
389.387	513.12
389.612	532.12
389.837	518.12
390.062	528.12
390.287	533.12
390.512	520.12
390.736	512.12
390.961	527.12
391.186	533.12
391.411	530.12
391.636	560.12
391.86	558.12
392.085	562.12
392.31	586.12
392.534	568.12
392.759	626.12
392.984	611.12
393.208	652.12
393.433	728.12
393.658	798.12
393.882	962.12
394.107	1516.12
394.331	2740.12
394.556	3769.12
394.78	2553.12
395.005	1429.12
395.229	1132.12
395.454	1163.12
395.678	1422.12
395.903	2411.12
396.127	4147.12
396.352	4968.12
396.576	2915.12
396.801	1646.12
397.025	1242.12
397.249	1041.12
397.474	899.12
397.698	820.12
397.922	779.12
398.147	757.12
398.371	736.12
398.595	725.12
398.82	724.12
399.044	714.12
399.268	747.12
399.492	761.12
399.717	756.12
399.941	752.12
400.165	693.12
400.389	695.12
400.613	646.12
400.837	643.12
401.062	604.12
401.286	605.12
401.51	616.12
401.734	593.12
401.958	582.12
402.182	606.12
402.406	575.12
402.63	600.12
402.854	594.12
403.078	597.12
403.302	622.12
403.526	616.12
403.75	609.12
403.974	632.12
404.198	636.12
404.422	630.12
404.645	597.12
404.869	606.12
405.093	619.12
405.317	619.12
405.541	607.12
405.765	605.12
405.988	613.12
406.212	611.12
406.436	619.12
406.66	623.12
406.883	635.12
407.107	672.12
407.331	650.12
407.555	639.12
407.778	656.12
408.002	650.12
408.226	634.12
408.449	646.12
408.673	589.12
408.896	610.12
409.12	609.12
409.344	621.12
409.567	608.12
409.791	599.12
410.014	608.12
410.238	585.12
410.461	598.12
410.685	582.12
410.908	604.12
411.132	610.12
411.355	578.12
411.578	595.12
411.802	570.12
412.025	600.12
412.249	616.12
412.472	598.12
412.695	579.12
412.919	551.12
413.142	576.12
413.365	578.12
413.589	561.12
413.812	578.12
414.035	580.12
414.258	564.12
414.482	592.12
414.705	564.12
414.928	577.12
415.151	603.12
415.374	573.12
415.597	570.12
415.821	572.12
416.044	573.12
416.267	579.12
416.49	559.12
416.713	589.12
416.936	580.12
417.159	567.12
417.382	567.12
417.605	557.12
417.828	559.12
418.051	564.12
418.274	599.12
418.497	556.12
418.72	593.12
418.943	582.12
419.166	609.12
419.389	629.12
419.611	610.12
419.834	602.12
420.057	592.12
420.28	592.12
420.503	557.12
420.726	562.12
420.948	572.12
421.171	586.12
421.394	584.12
421.617	564.12
421.839	583.12
422.062	613.12
422.285	582.12
422.507	597.12
422.73	587.12
422.953	592.12
423.175	577.12
423.398	581.12
423.621	591.12
423.843	606.12
424.066	594.12
424.288	610.12
424.511	610.12
424.733	576.12
424.956	588.12
425.178	573.12
425.401	613.12
425.623	584.12
425.846	553.12
426.068	565.12
426.291	565.12
426.513	569.12
426.735	576.12
426.958	566.12
427.18	550.12
427.402	560.12
427.625	561.12
427.847	527.12
428.069	572.12
428.292	535.12
428.514	540.12
428.736	545.12
428.958	548.12
429.181	547.12
429.403	515.12
429.625	538.12
429.847	537.12
430.069	534.12
430.292	575.12
430.514	536.12
430.736	543.12
430.958	533.12
431.18	533.12
431.402	533.12
431.624	531.12
431.846	518.12
432.068	499.12
432.29	512.12
432.512	498.12
432.734	548.12
432.956	552.12
433.178	543.12
433.4	565.12
433.622	566.12
433.844	561.12
434.066	548.12
434.287	506.12
434.509	525.12
434.731	532.12
434.953	563.12
435.175	572.12
435.397	594.12
435.618	542.12
435.84	544.12
436.062	537.12
436.284	554.12
436.505	559.12
436.727	564.12
436.949	538.12
437.17	550.12
437.392	530.12
437.614	543.12
437.835	503.12
438.057	516.12
438.278	513.12
438.5	552.12
438.721	533.12
438.943	554.12
439.165	552.12
439.386	557.12
439.608	575.12
439.829	563.12
440.05	572.12
440.272	578.12
440.493	579.12
440.715	597.12
440.936	613.12
441.158	596.12
441.379	597.12
441.6	599.12
441.822	608.12
442.043	607.12
442.264	603.12
442.486	584.12
442.707	589.12
442.928	581.12
443.149	551.12
443.371	599.12
443.592	608.12
443.813	600.12
444.034	595.12
444.255	613.12
444.476	638.12
444.698	645.12
444.919	638.12
445.14	788.12
445.361	703.12
445.582	618.12
445.803	601.12
446.024	610.12
446.245	616.12
446.466	591.12
446.687	592.12
446.908	596.12
447.129	598.12
447.35	577.12
447.571	556.12
447.792	561.12
448.013	570.12
448.234	572.12
448.455	566.12
448.675	551.12
448.896	531.12
449.117	550.12
449.338	520.12
449.559	560.12
449.779	520.12
450	536.12
450.221	544.12
450.442	564.12
450.662	538.12
450.883	548.12
451.104	539.12
451.324	543.12
451.545	536.12
451.766	531.12
451.986	542.12
452.207	540.12
452.428	536.12
452.648	531.12
452.869	554.12
453.089	536.12
453.31	543.12
453.53	528.12
453.751	536.12
453.971	556.12
454.192	550.12
454.412	528.12
454.633	493.12
454.853	507.12
455.073	511.12
455.294	532.12
455.514	524.12
455.734	494.12
455.955	473.12
456.175	482.12
456.395	475.12
456.616	473.12
456.836	496.12
457.056	500.12
457.276	469.12
457.497	471.12
457.717	468.12
457.937	497.12
458.157	479.12
458.377	466.12
458.598	474.12
458.818	491.12
459.038	476.12
459.258	496.12
459.478	502.12
459.698	512.12
459.918	525.12
460.138	515.12
460.358	565.12
460.578	570.12
460.798	551.12
461.018	595.12
461.238	578.12
461.458	574.12
461.678	565.12
461.898	593.12
462.118	592.12
462.338	620.12
462.558	614.12
462.777	620.12
462.997	659.12
463.217	659.12
463.437	671.12
463.657	652.12
463.876	624.12
464.096	640.12
464.316	646.12
464.536	652.12
464.755	622.12
464.975	624.12
465.195	630.12
465.414	603.12
465.634	592.12
465.854	605.12
466.073	622.12
466.293	694.12
466.512	759.12
466.732	727.12
466.951	678.12
467.171	675.12
467.391	634.12
467.61	628.12
467.829	611.12
468.049	596.12
468.268	587.12
468.488	568.12
468.707	564.12
468.927	531.12
469.146	543.12
469.365	544.12
469.585	569.12
469.804	576.12
470.023	593.12
470.243	578.12
470.462	588.12
470.681	556.12
470.901	576.12
471.12	567.12
471.339	566.12
471.558	556.12
471.777	556.12
471.997	558.12
472.216	541.12
472.435	535.12
472.654	527.12
472.873	547.12
473.092	560.12
473.311	572.12
473.53	612.12
473.749	666.12
473.968	666.12
474.187	646.12
474.406	636.12
474.625	662.12
474.844	700.12
475.063	678.12
475.282	600.12
475.501	572.12
475.72	573.12
475.939	551.12
476.158	586.12
476.377	558.12
476.596	552.12
476.814	564.12
477.033	538.12
477.252	560.12
477.471	545.12
477.69	574.12
477.908	590.12
478.127	593.12
478.346	595.12
478.564	598.12
478.783	614.12
479.002	618.12
479.22	611.12
479.439	604.12
479.658	569.12
479.876	577.12
480.095	575.12
480.313	583.12
480.532	623.12
480.751	598.12
480.969	571.12
481.188	540.12
481.406	550.12
481.624	538.12
481.843	546.12
482.061	564.12
482.28	559.12
482.498	560.12
482.717	534.12
482.935	551.12
483.153	582.12
483.372	612.12
483.59	604.12
483.808	563.12
484.027	591.12
484.245	591.12
484.463	656.12
484.681	672.12
484.9	639.12
485.118	646.12
485.336	620.12
485.554	600.12
485.772	600.12
485.99	607.12
486.209	609.12
486.427	600.12
486.645	632.12
486.863	654.12
487.081	647.12
487.299	636.12
487.517	645.12
487.735	670.12
487.953	669.12
488.171	677.12
488.389	657.12
488.607	680.12
488.825	630.12
489.043	616.12
489.261	617.12
489.479	643.12
489.696	636.12
489.914	644.12
490.132	623.12
490.35	662.12
490.568	650.12
490.786	676.12
491.003	663.12
491.221	703.12
491.439	685.12
491.657	698.12
491.874	714.12
492.092	740.12
492.31	758.12
492.527	714.12
492.745	706.12
492.963	700.12
493.18	707.12
493.398	693.12
493.615	688.12
493.833	674.12
494.05	706.12
494.268	667.12
494.485	650.12
494.703	684.12
494.92	685.12
495.138	646.12
495.355	683.12
495.573	684.12
495.79	687.12
496.008	660.12
496.225	659.12
496.442	668.12
496.66	704.12
496.877	692.12
497.094	671.12
497.312	695.12
497.529	676.12
497.746	689.12
497.963	701.12
498.181	719.12
498.398	710.12
498.615	727.12
498.832	734.12
499.049	770.12
499.267	839.12
499.484	890.12
499.701	926.12
499.918	988.12
500.135	1043.12
500.352	1136.12
500.569	1134.12
500.786	1099.12
501.003	1068.12
501.22	989.12
501.437	918.12
501.654	861.12
501.871	827.12
502.088	829.12
502.305	802.12
