Data from SampC_HRD10591_00059.txt Node
Date: Mon Jan 19 11:37:49 EST 2026
User: Yrep
Spectrometer: HR+D1059
Trigger mode: 0
Integration Time (sec): 3.443000E-1
Scans to average: 1
Electric dark correction enabled: true
Nonlinearity correction enabled: false
Boxcar width: 0
XAxis mode: Wavelengths
Number of Pixels in Spectrum: 2048
>>>>>Begin Spectral Data<<<<<
223.165	-9.12
223.4	-9.12
223.635	-9.12
223.869	-28.12
224.104	-32.12
224.338	-13.12
224.573	-27.12
224.808	-12.12
225.042	1.88
225.277	-8.12
225.511	1.88
225.746	10.88
225.98	7.88
226.215	6.88
226.449	21.88
226.683	17.88
226.918	35.88
227.152	24.88
227.387	34.88
227.621	38.88
227.856	47.88
228.09	49.88
228.324	40.88
228.559	64.88
228.793	54.88
229.027	75.88
229.262	84.88
229.496	93.88
229.73	104.88
229.964	95.88
230.199	98.88
230.433	85.88
230.667	110.88
230.901	98.88
231.136	93.88
231.37	99.88
231.604	102.88
231.838	122.88
232.072	105.88
232.306	112.88
232.541	121.88
232.775	103.88
233.009	96.88
233.243	93.88
233.477	96.88
233.711	107.88
233.945	102.88
234.179	111.88
234.413	114.88
234.647	114.88
234.881	127.88
235.115	120.88
235.349	99.88
235.583	105.88
235.817	128.88
236.051	134.88
236.285	123.88
236.519	144.88
236.753	153.88
236.987	190.88
237.221	223.88
237.455	203.88
237.689	202.88
237.922	184.88
238.156	135.88
238.39	124.88
238.624	134.88
238.858	117.88
239.091	108.88
239.325	117.88
239.559	116.88
239.793	118.88
240.027	114.88
240.26	107.88
240.494	121.88
240.728	104.88
240.961	115.88
241.195	111.88
241.429	104.88
241.662	108.88
241.896	123.88
242.13	118.88
242.363	106.88
242.597	120.88
242.83	120.88
243.064	126.88
243.298	116.88
243.531	103.88
243.765	121.88
243.998	109.88
244.232	130.88
244.465	111.88
244.699	119.88
244.932	135.88
245.166	105.88
245.399	123.88
245.633	128.88
245.866	126.88
246.099	138.88
246.333	151.88
246.566	118.88
246.8	131.88
247.033	131.88
247.266	120.88
247.5	100.88
247.733	131.88
247.966	120.88
248.2	126.88
248.433	133.88
248.666	122.88
248.899	127.88
249.133	131.88
249.366	135.88
249.599	133.88
249.832	137.88
250.066	132.88
250.299	127.88
250.532	127.88
250.765	121.88
250.998	136.88
251.231	140.88
251.465	130.88
251.698	130.88
251.931	144.88
252.164	132.88
252.397	145.88
252.63	136.88
252.863	138.88
253.096	134.88
253.329	144.88
253.562	135.88
253.795	136.88
254.028	153.88
254.261	156.88
254.494	137.88
254.727	146.88
254.96	154.88
255.193	148.88
255.426	143.88
255.659	137.88
255.892	152.88
256.124	141.88
256.357	165.88
256.59	170.88
256.823	210.88
257.056	265.88
257.289	242.88
257.521	258.88
257.754	319.88
257.987	283.88
258.22	217.88
258.452	194.88
258.685	176.88
258.918	183.88
259.151	179.88
259.383	149.88
259.616	165.88
259.849	161.88
260.081	164.88
260.314	156.88
260.547	155.88
260.779	158.88
261.012	155.88
261.244	161.88
261.477	171.88
261.71	158.88
261.942	179.88
262.175	160.88
262.407	179.88
262.64	184.88
262.872	184.88
263.105	207.88
263.337	228.88
263.57	239.88
263.802	241.88
264.035	190.88
264.267	202.88
264.499	188.88
264.732	179.88
264.964	183.88
265.197	220.88
265.429	234.88
265.661	254.88
265.894	239.88
266.126	259.88
266.358	279.88
266.591	242.88
266.823	212.88
267.055	195.88
267.287	180.88
267.52	191.88
267.752	196.88
267.984	174.88
268.216	189.88
268.448	188.88
268.681	176.88
268.913	177.88
269.145	172.88
269.377	171.88
269.609	168.88
269.841	170.88
270.073	161.88
270.306	168.88
270.538	166.88
270.77	161.88
271.002	172.88
271.234	180.88
271.466	185.88
271.698	174.88
271.93	178.88
272.162	189.88
272.394	187.88
272.626	171.88
272.858	164.88
273.09	162.88
273.322	173.88
273.553	180.88
273.785	207.88
274.017	198.88
274.249	189.88
274.481	187.88
274.713	188.88
274.945	194.88
275.176	195.88
275.408	197.88
275.64	191.88
275.872	185.88
276.104	198.88
276.335	202.88
276.567	185.88
276.799	216.88
277.031	198.88
277.262	211.88
277.494	226.88
277.726	226.88
277.957	237.88
278.189	242.88
278.421	240.88
278.652	252.88
278.884	286.88
279.115	357.88
279.347	473.88
279.579	658.88
279.81	756.88
280.042	646.88
280.273	589.88
280.505	560.88
280.736	410.88
280.968	321.88
281.199	324.88
281.431	359.88
281.662	436.88
281.894	525.88
282.125	430.88
282.356	340.88
282.588	308.88
282.819	254.88
283.051	258.88
283.282	232.88
283.513	237.88
283.745	222.88
283.976	238.88
284.207	232.88
284.439	225.88
284.67	237.88
284.901	242.88
285.132	274.88
285.364	314.88
285.595	284.88
285.826	242.88
286.057	211.88
286.288	222.88
286.52	211.88
286.751	211.88
286.982	211.88
287.213	208.88
287.444	210.88
287.675	223.88
287.906	230.88
288.138	231.88
288.369	228.88
288.6	218.88
288.831	224.88
289.062	237.88
289.293	215.88
289.524	229.88
289.755	216.88
289.986	217.88
290.217	218.88
290.448	211.88
290.679	222.88
290.91	237.88
291.141	227.88
291.371	233.88
291.602	226.88
291.833	217.88
292.064	231.88
292.295	223.88
292.526	240.88
292.757	250.88
292.987	248.88
293.218	258.88
293.449	249.88
293.68	250.88
293.91	256.88
294.141	248.88
294.372	234.88
294.603	234.88
294.833	220.88
295.064	228.88
295.295	203.88
295.525	224.88
295.756	224.88
295.987	225.88
296.217	232.88
296.448	235.88
296.679	209.88
296.909	233.88
297.14	231.88
297.37	239.88
297.601	236.88
297.831	228.88
298.062	240.88
298.292	248.88
298.523	243.88
298.753	241.88
298.984	255.88
299.214	227.88
299.445	245.88
299.675	240.88
299.905	230.88
300.136	227.88
300.366	225.88
300.597	234.88
300.827	253.88
301.057	257.88
301.288	272.88
301.518	265.88
301.748	255.88
301.979	310.88
302.209	259.88
302.439	260.88
302.669	285.88
302.9	270.88
303.13	286.88
303.36	304.88
303.59	306.88
303.82	306.88
304.051	324.88
304.281	326.88
304.511	338.88
304.741	350.88
304.971	420.88
305.201	493.88
305.431	515.88
305.661	608.88
305.891	638.88
306.121	602.88
306.352	540.88
306.582	557.88
306.812	554.88
307.042	499.88
307.272	483.88
307.502	531.88
307.731	710.88
307.961	998.88
308.191	1357.88
308.421	1584.88
308.651	1328.88
308.881	1245.88
309.111	1494.88
309.341	1948.88
309.571	1863.88
309.8	1180.88
310.03	782.88
310.26	622.88
310.49	518.88
310.72	462.88
310.949	414.88
311.179	398.88
311.409	376.88
311.639	356.88
311.868	359.88
312.098	339.88
312.328	323.88
312.557	334.88
312.787	341.88
313.017	312.88
313.246	297.88
313.476	302.88
313.706	289.88
313.935	306.88
314.165	310.88
314.394	279.88
314.624	276.88
314.853	297.88
315.083	284.88
315.312	294.88
315.542	294.88
315.771	297.88
316.001	285.88
316.23	284.88
316.46	286.88
316.689	265.88
316.919	282.88
317.148	274.88
317.377	274.88
317.607	272.88
317.836	255.88
318.065	272.88
318.295	254.88
318.524	271.88
318.753	278.88
318.983	263.88
319.212	247.88
319.441	254.88
319.67	264.88
319.9	266.88
320.129	260.88
320.358	256.88
320.587	253.88
320.816	274.88
321.046	252.88
321.275	287.88
321.504	277.88
321.733	272.88
321.962	264.88
322.191	260.88
322.42	270.88
322.649	270.88
322.878	277.88
323.108	276.88
323.337	275.88
323.566	289.88
323.795	296.88
324.024	282.88
324.253	278.88
324.482	263.88
324.71	264.88
324.939	275.88
325.168	265.88
325.397	266.88
325.626	277.88
325.855	283.88
326.084	262.88
326.313	274.88
326.542	290.88
326.77	281.88
326.999	265.88
327.228	289.88
327.457	286.88
327.686	294.88
327.914	275.88
328.143	290.88
328.372	289.88
328.6	274.88
328.829	260.88
329.058	275.88
329.287	286.88
329.515	276.88
329.744	296.88
329.972	288.88
330.201	274.88
330.43	273.88
330.658	269.88
330.887	283.88
331.115	285.88
331.344	294.88
331.572	276.88
331.801	282.88
332.03	292.88
332.258	304.88
332.486	302.88
332.715	296.88
332.943	296.88
333.172	308.88
333.4	319.88
333.629	339.88
333.857	320.88
334.085	338.88
334.314	326.88
334.542	300.88
334.771	316.88
334.999	318.88
335.227	314.88
335.455	308.88
335.684	298.88
335.912	295.88
336.14	304.88
336.369	307.88
336.597	313.88
336.825	307.88
337.053	291.88
337.281	299.88
337.51	300.88
337.738	295.88
337.966	278.88
338.194	296.88
338.422	297.88
338.65	282.88
338.878	290.88
339.106	274.88
339.334	314.88
339.562	291.88
339.79	291.88
340.018	287.88
340.246	289.88
340.474	311.88
340.702	287.88
340.93	291.88
341.158	282.88
341.386	290.88
341.614	276.88
341.842	288.88
342.07	292.88
342.298	281.88
342.526	287.88
342.754	300.88
342.981	283.88
343.209	301.88
343.437	314.88
343.665	305.88
343.893	323.88
344.12	328.88
344.348	311.88
344.576	289.88
344.804	307.88
345.031	298.88
345.259	306.88
345.487	289.88
345.714	284.88
345.942	292.88
346.17	293.88
346.397	280.88
346.625	298.88
346.853	271.88
347.08	290.88
347.308	287.88
347.535	291.88
347.763	270.88
347.99	287.88
348.218	296.88
348.445	289.88
348.673	278.88
348.9	295.88
349.128	297.88
349.355	291.88
349.583	283.88
349.81	306.88
350.037	291.88
350.265	290.88
350.492	272.88
350.72	299.88
350.947	293.88
351.174	293.88
351.402	312.88
351.629	306.88
351.856	298.88
352.083	300.88
352.311	306.88
352.538	313.88
352.765	328.88
352.992	322.88
353.22	330.88
353.447	341.88
353.674	310.88
353.901	322.88
354.128	309.88
354.355	319.88
354.583	346.88
354.81	348.88
355.037	330.88
355.264	348.88
355.491	351.88
355.718	344.88
355.945	369.88
356.172	387.88
356.399	399.88
356.626	409.88
356.853	411.88
357.08	430.88
357.307	458.88
357.534	496.88
357.761	526.88
357.988	591.88
358.215	683.88
358.441	786.88
358.668	862.88
358.895	831.88
359.122	699.88
359.349	570.88
359.576	548.88
359.802	507.88
360.029	476.88
360.256	453.88
360.483	432.88
360.709	426.88
360.936	443.88
361.163	419.88
361.39	394.88
361.616	383.88
361.843	383.88
362.07	389.88
362.296	357.88
362.523	363.88
362.749	359.88
362.976	350.88
363.203	350.88
363.429	347.88
363.656	332.88
363.882	323.88
364.109	352.88
364.335	324.88
364.562	312.88
364.788	331.88
365.015	331.88
365.241	323.88
365.468	310.88
365.694	322.88
365.92	293.88
366.147	301.88
366.373	310.88
366.599	318.88
366.826	312.88
367.052	315.88
367.278	310.88
367.505	308.88
367.731	326.88
367.957	308.88
368.184	321.88
368.41	288.88
368.636	314.88
368.862	324.88
369.089	301.88
369.315	314.88
369.541	300.88
369.767	330.88
369.993	317.88
370.219	299.88
370.445	330.88
370.672	327.88
370.898	320.88
371.124	336.88
371.35	327.88
371.576	304.88
371.802	339.88
372.028	343.88
372.254	328.88
372.48	323.88
372.706	328.88
372.932	304.88
373.158	328.88
373.384	353.88
373.61	334.88
373.835	333.88
374.061	304.88
374.287	330.88
374.513	332.88
374.739	336.88
374.965	335.88
375.191	330.88
375.416	347.88
375.642	328.88
375.868	343.88
376.094	333.88
376.319	317.88
376.545	320.88
376.771	325.88
376.997	305.88
377.222	318.88
377.448	324.88
377.674	317.88
377.899	347.88
378.125	333.88
378.35	330.88
378.576	321.88
378.802	320.88
379.027	322.88
379.253	313.88
379.478	316.88
379.704	326.88
379.929	325.88
380.155	318.88
380.38	328.88
380.606	327.88
380.831	322.88
381.057	348.88
381.282	321.88
381.507	344.88
381.733	346.88
381.958	346.88
382.184	366.88
382.409	371.88
382.634	362.88
382.86	406.88
383.085	431.88
383.31	427.88
383.535	432.88
383.761	462.88
383.986	430.88
384.211	409.88
384.436	383.88
384.662	381.88
384.887	356.88
385.112	366.88
385.337	385.88
385.562	382.88
385.787	376.88
386.013	402.88
386.238	384.88
386.463	376.88
386.688	419.88
386.913	382.88
387.138	368.88
387.363	355.88
387.588	364.88
387.813	394.88
388.038	398.88
388.263	405.88
388.488	372.88
388.713	353.88
388.938	370.88
389.163	387.88
389.387	362.88
389.612	397.88
389.837	392.88
390.062	390.88
390.287	393.88
390.512	389.88
390.736	379.88
390.961	416.88
391.186	417.88
391.411	423.88
391.636	446.88
391.86	444.88
392.085	436.88
392.31	461.88
392.534	454.88
392.759	465.88
392.984	494.88
393.208	532.88
393.433	594.88
393.658	651.88
393.882	779.88
394.107	1222.88
394.331	2234.88
394.556	2875.88
394.78	1983.88
395.005	1131.88
395.229	913.88
395.454	905.88
395.678	1165.88
395.903	1876.88
396.127	3136.88
396.352	3721.88
396.576	2236.88
396.801	1278.88
397.025	975.88
397.249	784.88
397.474	721.88
397.698	636.88
397.922	609.88
398.147	586.88
398.371	576.88
398.595	549.88
398.82	548.88
399.044	508.88
399.268	544.88
399.492	555.88
399.717	572.88
399.941	573.88
400.165	545.88
400.389	497.88
400.613	474.88
400.837	456.88
401.062	476.88
401.286	479.88
401.51	438.88
401.734	449.88
401.958	459.88
402.182	462.88
402.406	465.88
402.63	461.88
402.854	458.88
403.078	450.88
403.302	469.88
403.526	463.88
403.75	449.88
403.974	464.88
404.198	462.88
404.422	442.88
404.645	487.88
404.869	447.88
405.093	449.88
405.317	464.88
405.541	452.88
405.765	462.88
405.988	457.88
406.212	462.88
406.436	467.88
406.66	476.88
406.883	462.88
407.107	476.88
407.331	486.88
407.555	489.88
407.778	474.88
408.002	467.88
408.226	470.88
408.449	470.88
408.673	474.88
408.896	464.88
409.12	439.88
409.344	449.88
409.567	445.88
409.791	442.88
410.014	443.88
410.238	442.88
410.461	449.88
410.685	460.88
410.908	443.88
411.132	456.88
411.355	456.88
411.578	461.88
411.802	451.88
412.025	443.88
412.249	445.88
412.472	442.88
412.695	424.88
412.919	434.88
413.142	431.88
413.365	465.88
413.589	435.88
413.812	449.88
414.035	440.88
414.258	458.88
414.482	422.88
414.705	435.88
414.928	436.88
415.151	447.88
415.374	442.88
415.597	443.88
415.821	421.88
416.044	430.88
416.267	419.88
416.49	436.88
416.713	428.88
416.936	438.88
417.159	440.88
417.382	417.88
417.605	420.88
417.828	433.88
418.051	429.88
418.274	443.88
418.497	437.88
418.72	424.88
418.943	422.88
419.166	442.88
419.389	476.88
419.611	463.88
419.834	448.88
420.057	464.88
420.28	438.88
420.503	452.88
420.726	430.88
420.948	437.88
421.171	434.88
421.394	420.88
421.617	434.88
421.839	455.88
422.062	460.88
422.285	449.88
422.507	460.88
422.73	467.88
422.953	451.88
423.175	443.88
423.398	427.88
423.621	445.88
423.843	451.88
424.066	448.88
424.288	455.88
424.511	442.88
424.733	442.88
424.956	440.88
425.178	470.88
425.401	449.88
425.623	468.88
425.846	442.88
426.068	438.88
426.291	425.88
426.513	427.88
426.735	427.88
426.958	428.88
427.18	433.88
427.402	430.88
427.625	409.88
427.847	412.88
428.069	403.88
428.292	412.88
428.514	418.88
428.736	400.88
428.958	420.88
429.181	410.88
429.403	399.88
429.625	410.88
429.847	405.88
430.069	406.88
430.292	401.88
430.514	411.88
430.736	392.88
430.958	395.88
431.18	395.88
431.402	405.88
431.624	394.88
431.846	387.88
432.068	384.88
432.29	369.88
432.512	395.88
432.734	390.88
432.956	413.88
433.178	429.88
433.4	426.88
433.622	413.88
433.844	427.88
434.066	388.88
434.287	416.88
434.509	373.88
434.731	416.88
434.953	407.88
435.175	426.88
435.397	434.88
435.618	420.88
435.84	392.88
436.062	412.88
436.284	433.88
436.505	414.88
436.727	414.88
436.949	414.88
437.17	426.88
437.392	419.88
437.614	404.88
437.835	359.88
438.057	377.88
438.278	379.88
438.5	402.88
438.721	417.88
438.943	434.88
439.165	431.88
439.386	434.88
439.608	435.88
439.829	421.88
440.05	439.88
440.272	436.88
440.493	445.88
440.715	425.88
440.936	472.88
441.158	466.88
441.379	459.88
441.6	464.88
441.822	459.88
442.043	472.88
442.264	439.88
442.486	436.88
442.707	452.88
442.928	443.88
443.149	450.88
443.371	458.88
443.592	446.88
443.813	460.88
444.034	468.88
444.255	473.88
444.476	470.88
444.698	456.88
444.919	494.88
445.14	674.88
445.361	542.88
445.582	475.88
445.803	474.88
446.024	444.88
446.245	474.88
446.466	477.88
446.687	462.88
446.908	471.88
447.129	442.88
447.35	454.88
447.571	438.88
447.792	424.88
448.013	439.88
448.234	440.88
448.455	423.88
448.675	418.88
448.896	402.88
449.117	420.88
449.338	398.88
449.559	407.88
449.779	403.88
450	408.88
450.221	426.88
450.442	420.88
450.662	397.88
450.883	417.88
451.104	407.88
451.324	380.88
451.545	410.88
451.766	393.88
451.986	407.88
452.207	419.88
452.428	401.88
452.648	402.88
452.869	406.88
453.089	368.88
453.31	393.88
453.53	392.88
453.751	406.88
453.971	408.88
454.192	404.88
454.412	404.88
454.633	384.88
454.853	385.88
455.073	389.88
455.294	384.88
455.514	394.88
455.734	376.88
455.955	358.88
456.175	376.88
456.395	366.88
456.616	371.88
456.836	371.88
457.056	374.88
457.276	351.88
457.497	355.88
457.717	366.88
457.937	352.88
458.157	358.88
458.377	362.88
458.598	358.88
458.818	355.88
459.038	364.88
459.258	348.88
459.478	362.88
459.698	399.88
459.918	390.88
460.138	403.88
460.358	412.88
460.578	455.88
460.798	450.88
461.018	433.88
461.238	434.88
461.458	420.88
461.678	423.88
461.898	436.88
462.118	428.88
462.338	462.88
462.558	457.88
462.777	472.88
462.997	510.88
463.217	489.88
463.437	468.88
463.657	463.88
463.876	470.88
464.096	486.88
464.316	465.88
464.536	485.88
464.755	456.88
464.975	442.88
465.195	460.88
465.414	451.88
465.634	442.88
465.854	420.88
466.073	442.88
466.293	487.88
466.512	539.88
466.732	522.88
466.951	488.88
467.171	463.88
467.391	474.88
467.61	470.88
467.829	441.88
468.049	446.88
468.268	433.88
468.488	420.88
468.707	436.88
468.927	423.88
469.146	431.88
469.365	456.88
469.585	445.88
469.804	450.88
470.023	427.88
470.243	419.88
470.462	442.88
470.681	426.88
470.901	444.88
471.12	445.88
471.339	434.88
471.558	428.88
471.777	425.88
471.997	425.88
472.216	409.88
472.435	416.88
472.654	399.88
472.873	406.88
473.092	411.88
473.311	461.88
473.53	473.88
473.749	508.88
473.968	508.88
474.187	482.88
474.406	484.88
474.625	508.88
474.844	530.88
475.063	511.88
475.282	470.88
475.501	446.88
475.72	461.88
475.939	434.88
476.158	435.88
476.377	438.88
476.596	424.88
476.814	415.88
477.033	404.88
477.252	414.88
477.471	420.88
477.69	451.88
477.908	451.88
478.127	423.88
478.346	439.88
478.564	445.88
478.783	431.88
479.002	468.88
479.22	446.88
479.439	466.88
479.658	426.88
479.876	436.88
480.095	417.88
480.313	451.88
480.532	443.88
480.751	426.88
480.969	410.88
481.188	388.88
481.406	420.88
481.624	415.88
481.843	409.88
482.061	407.88
482.28	410.88
482.498	421.88
482.717	379.88
482.935	429.88
483.153	460.88
483.372	457.88
483.59	443.88
483.808	462.88
484.027	458.88
484.245	439.88
484.463	505.88
484.681	513.88
484.9	479.88
485.118	483.88
485.336	486.88
485.554	449.88
485.772	462.88
485.99	430.88
486.209	458.88
486.427	463.88
486.645	463.88
486.863	476.88
487.081	494.88
487.299	490.88
487.517	497.88
487.735	542.88
487.953	531.88
488.171	531.88
488.389	522.88
488.607	477.88
488.825	464.88
489.043	496.88
489.261	478.88
489.479	483.88
489.696	473.88
489.914	473.88
490.132	479.88
490.35	491.88
490.568	502.88
490.786	500.88
491.003	511.88
491.221	520.88
491.439	514.88
491.657	527.88
491.874	554.88
492.092	570.88
492.31	595.88
492.527	568.88
492.745	536.88
492.963	531.88
493.18	522.88
493.398	530.88
493.615	552.88
493.833	522.88
494.05	526.88
494.268	511.88
494.485	502.88
494.703	529.88
494.92	511.88
495.138	524.88
495.355	520.88
495.573	515.88
495.79	516.88
496.008	510.88
496.225	514.88
496.442	505.88
496.66	508.88
496.877	508.88
497.094	509.88
497.312	493.88
497.529	512.88
497.746	518.88
497.963	496.88
498.181	516.88
498.398	539.88
498.615	555.88
498.832	536.88
499.049	577.88
499.267	620.88
499.484	631.88
499.701	670.88
499.918	710.88
500.135	751.88
500.352	792.88
500.569	792.88
500.786	772.88
501.003	764.88
501.22	705.88
501.437	670.88
501.654	642.88
501.871	604.88
502.088	598.88
502.305	550.88
502.522	547.88
502.739	538.88
