Data from SampC_HRD10591_00084.txt Node
Date: Mon Jan 19 11:37:58 EST 2026
User: Yrep
Spectrometer: HR+D1059
Trigger mode: 0
Integration Time (sec): 3.443000E-1
Scans to average: 1
Electric dark correction enabled: true
Nonlinearity correction enabled: false
Boxcar width: 0
XAxis mode: Wavelengths
Number of Pixels in Spectrum: 2048
>>>>>Begin Spectral Data<<<<<
223.165	-17.69
223.4	-17.69
223.635	-17.69
223.869	-22.69
224.104	-33.69
224.338	-2.69
224.573	-25.69
224.808	-9.69
225.042	1.31
225.277	-12.69
225.511	-15.69
225.746	17.31
225.98	6.31
226.215	12.31
226.449	29.31
226.683	11.31
226.918	24.31
227.152	38.31
227.387	31.31
227.621	18.31
227.856	40.31
228.09	48.31
228.324	41.31
228.559	49.31
228.793	53.31
229.027	74.31
229.262	87.31
229.496	99.31
229.73	86.31
229.964	105.31
230.199	99.31
230.433	106.31
230.667	103.31
230.901	109.31
231.136	100.31
231.37	109.31
231.604	113.31
231.838	106.31
232.072	123.31
232.306	121.31
232.541	120.31
232.775	130.31
233.009	109.31
233.243	120.31
233.477	116.31
233.711	100.31
233.945	103.31
234.179	120.31
234.413	110.31
234.647	114.31
234.881	117.31
235.115	120.31
235.349	120.31
235.583	127.31
235.817	118.31
236.051	111.31
236.285	127.31
236.519	147.31
236.753	174.31
236.987	200.31
237.221	234.31
237.455	237.31
237.689	228.31
237.922	191.31
238.156	164.31
238.39	134.31
238.624	131.31
238.858	135.31
239.091	124.31
239.325	117.31
239.559	111.31
239.793	130.31
240.027	119.31
240.26	130.31
240.494	115.31
240.728	137.31
240.961	122.31
241.195	124.31
241.429	115.31
241.662	131.31
241.896	130.31
242.13	120.31
242.363	122.31
242.597	113.31
242.83	115.31
243.064	115.31
243.298	126.31
243.531	127.31
243.765	121.31
243.998	135.31
244.232	130.31
244.465	119.31
244.699	118.31
244.932	113.31
245.166	135.31
245.399	125.31
245.633	116.31
245.866	129.31
246.099	119.31
246.333	148.31
246.566	130.31
246.8	125.31
247.033	150.31
247.266	132.31
247.5	134.31
247.733	123.31
247.966	141.31
248.2	130.31
248.433	132.31
248.666	139.31
248.899	138.31
249.133	136.31
249.366	144.31
249.599	141.31
249.832	142.31
250.066	141.31
250.299	131.31
250.532	140.31
250.765	162.31
250.998	141.31
251.231	130.31
251.465	141.31
251.698	137.31
251.931	160.31
252.164	163.31
252.397	134.31
252.63	147.31
252.863	138.31
253.096	137.31
253.329	163.31
253.562	144.31
253.795	153.31
254.028	150.31
254.261	137.31
254.494	147.31
254.727	163.31
254.96	145.31
255.193	150.31
255.426	156.31
255.659	168.31
255.892	167.31
256.124	181.31
256.357	192.31
256.59	182.31
256.823	220.31
257.056	278.31
257.289	296.31
257.521	293.31
257.754	334.31
257.987	303.31
258.22	247.31
258.452	215.31
258.685	198.31
258.918	179.31
259.151	168.31
259.383	173.31
259.616	169.31
259.849	172.31
260.081	172.31
260.314	179.31
260.547	173.31
260.779	174.31
261.012	178.31
261.244	182.31
261.477	200.31
261.71	179.31
261.942	173.31
262.175	186.31
262.407	175.31
262.64	202.31
262.872	206.31
263.105	236.31
263.337	266.31
263.57	262.31
263.802	258.31
264.035	235.31
264.267	237.31
264.499	206.31
264.732	226.31
264.964	224.31
265.197	246.31
265.429	257.31
265.661	272.31
265.894	250.31
266.126	294.31
266.358	300.31
266.591	268.31
266.823	226.31
267.055	202.31
267.287	206.31
267.52	195.31
267.752	202.31
267.984	192.31
268.216	190.31
268.448	193.31
268.681	174.31
268.913	192.31
269.145	202.31
269.377	210.31
269.609	179.31
269.841	185.31
270.073	185.31
270.306	183.31
270.538	200.31
270.77	196.31
271.002	186.31
271.234	195.31
271.466	200.31
271.698	175.31
271.93	178.31
272.162	194.31
272.394	185.31
272.626	192.31
272.858	205.31
273.09	193.31
273.322	204.31
273.553	187.31
273.785	200.31
274.017	202.31
274.249	206.31
274.481	211.31
274.713	207.31
274.945	209.31
275.176	212.31
275.408	196.31
275.64	213.31
275.872	214.31
276.104	197.31
276.335	206.31
276.567	224.31
276.799	201.31
277.031	223.31
277.262	215.31
277.494	230.31
277.726	243.31
277.957	251.31
278.189	264.31
278.421	254.31
278.652	272.31
278.884	308.31
279.115	393.31
279.347	554.31
279.579	750.31
279.81	855.31
280.042	691.31
280.273	630.31
280.505	637.31
280.736	437.31
280.968	338.31
281.199	347.31
281.431	410.31
281.662	516.31
281.894	594.31
282.125	488.31
282.356	387.31
282.588	316.31
282.819	306.31
283.051	276.31
283.282	265.31
283.513	276.31
283.745	250.31
283.976	276.31
284.207	272.31
284.439	269.31
284.67	251.31
284.901	254.31
285.132	308.31
285.364	354.31
285.595	299.31
285.826	248.31
286.057	244.31
286.288	224.31
286.52	222.31
286.751	245.31
286.982	251.31
287.213	241.31
287.444	235.31
287.675	235.31
287.906	259.31
288.138	259.31
288.369	265.31
288.6	257.31
288.831	229.31
289.062	252.31
289.293	256.31
289.524	254.31
289.755	238.31
289.986	236.31
290.217	258.31
290.448	244.31
290.679	240.31
290.91	249.31
291.141	242.31
291.371	259.31
291.602	257.31
291.833	249.31
292.064	270.31
292.295	256.31
292.526	270.31
292.757	282.31
292.987	284.31
293.218	265.31
293.449	287.31
293.68	291.31
293.91	274.31
294.141	274.31
294.372	253.31
294.603	269.31
294.833	249.31
295.064	264.31
295.295	260.31
295.525	252.31
295.756	254.31
295.987	241.31
296.217	251.31
296.448	256.31
296.679	257.31
296.909	265.31
297.14	256.31
297.37	264.31
297.601	252.31
297.831	251.31
298.062	265.31
298.292	262.31
298.523	265.31
298.753	254.31
298.984	270.31
299.214	265.31
299.445	267.31
299.675	283.31
299.905	269.31
300.136	255.31
300.366	265.31
300.597	258.31
300.827	272.31
301.057	268.31
301.288	267.31
301.518	281.31
301.748	284.31
301.979	337.31
302.209	307.31
302.439	303.31
302.669	305.31
302.9	315.31
303.13	302.31
303.36	332.31
303.59	316.31
303.82	338.31
304.051	355.31
304.281	356.31
304.511	372.31
304.741	403.31
304.971	442.31
305.201	543.31
305.431	617.31
305.661	668.31
305.891	700.31
306.121	646.31
306.352	612.31
306.582	635.31
306.812	611.31
307.042	580.31
307.272	534.31
307.502	617.31
307.731	793.31
307.961	1098.31
308.191	1544.31
308.421	1806.31
308.651	1506.31
308.881	1378.31
309.111	1727.31
309.341	2178.31
309.571	2080.31
309.8	1327.31
310.03	879.31
310.26	685.31
310.49	571.31
310.72	491.31
310.949	459.31
311.179	443.31
311.409	419.31
311.639	409.31
311.868	378.31
312.098	380.31
312.328	386.31
312.557	382.31
312.787	354.31
313.017	353.31
313.246	337.31
313.476	332.31
313.706	322.31
313.935	321.31
314.165	323.31
314.394	321.31
314.624	316.31
314.853	326.31
315.083	310.31
315.312	307.31
315.542	312.31
315.771	340.31
316.001	305.31
316.23	302.31
316.46	303.31
316.689	315.31
316.919	310.31
317.148	314.31
317.377	315.31
317.607	312.31
317.836	319.31
318.065	306.31
318.295	291.31
318.524	309.31
318.753	300.31
318.983	296.31
319.212	285.31
319.441	284.31
319.67	307.31
319.9	298.31
320.129	293.31
320.358	290.31
320.587	289.31
320.816	279.31
321.046	295.31
321.275	279.31
321.504	290.31
321.733	286.31
321.962	299.31
322.191	282.31
322.42	292.31
322.649	290.31
322.878	305.31
323.108	287.31
323.337	288.31
323.566	310.31
323.795	313.31
324.024	304.31
324.253	320.31
324.482	318.31
324.71	300.31
324.939	298.31
325.168	327.31
325.397	300.31
325.626	310.31
325.855	321.31
326.084	299.31
326.313	306.31
326.542	317.31
326.77	316.31
326.999	309.31
327.228	308.31
327.457	308.31
327.686	296.31
327.914	307.31
328.143	312.31
328.372	303.31
328.6	300.31
328.829	302.31
329.058	311.31
329.287	305.31
329.515	302.31
329.744	304.31
329.972	314.31
330.201	296.31
330.43	316.31
330.658	307.31
330.887	303.31
331.115	310.31
331.344	312.31
331.572	329.31
331.801	321.31
332.03	317.31
332.258	320.31
332.486	343.31
332.715	342.31
332.943	342.31
333.172	348.31
333.4	331.31
333.629	346.31
333.857	358.31
334.085	362.31
334.314	367.31
334.542	371.31
334.771	349.31
334.999	348.31
335.227	336.31
335.455	341.31
335.684	355.31
335.912	335.31
336.14	341.31
336.369	355.31
336.597	322.31
336.825	344.31
337.053	328.31
337.281	332.31
337.51	309.31
337.738	323.31
337.966	324.31
338.194	352.31
338.422	335.31
338.65	328.31
338.878	346.31
339.106	312.31
339.334	335.31
339.562	320.31
339.79	308.31
340.018	318.31
340.246	315.31
340.474	334.31
340.702	334.31
340.93	336.31
341.158	317.31
341.386	322.31
341.614	313.31
341.842	319.31
342.07	324.31
342.298	310.31
342.526	329.31
342.754	320.31
342.981	346.31
343.209	311.31
343.437	362.31
343.665	350.31
343.893	344.31
344.12	360.31
344.348	345.31
344.576	338.31
344.804	333.31
345.031	343.31
345.259	328.31
345.487	338.31
345.714	328.31
345.942	303.31
346.17	333.31
346.397	314.31
346.625	330.31
346.853	311.31
347.08	312.31
347.308	321.31
347.535	321.31
347.763	348.31
347.99	339.31
348.218	337.31
348.445	328.31
348.673	323.31
348.9	318.31
349.128	355.31
349.355	338.31
349.583	313.31
349.81	326.31
350.037	335.31
350.265	329.31
350.492	343.31
350.72	329.31
350.947	347.31
351.174	356.31
351.402	336.31
351.629	338.31
351.856	344.31
352.083	338.31
352.311	333.31
352.538	344.31
352.765	352.31
352.992	379.31
353.22	376.31
353.447	357.31
353.674	360.31
353.901	391.31
354.128	375.31
354.355	376.31
354.583	367.31
354.81	405.31
355.037	403.31
355.264	397.31
355.491	408.31
355.718	408.31
355.945	429.31
356.172	422.31
356.399	441.31
356.626	449.31
356.853	483.31
357.08	503.31
357.307	544.31
357.534	594.31
357.761	639.31
357.988	724.31
358.215	801.31
358.441	916.31
358.668	1012.31
358.895	1015.31
359.122	851.31
359.349	726.31
359.576	618.31
359.802	566.31
360.029	549.31
360.256	536.31
360.483	519.31
360.709	512.31
360.936	516.31
361.163	471.31
361.39	466.31
361.616	441.31
361.843	444.31
362.07	444.31
362.296	420.31
362.523	409.31
362.749	409.31
362.976	391.31
363.203	423.31
363.429	356.31
363.656	376.31
363.882	382.31
364.109	391.31
364.335	393.31
364.562	364.31
364.788	365.31
365.015	374.31
365.241	354.31
365.468	356.31
365.694	341.31
365.92	366.31
366.147	355.31
366.373	369.31
366.599	337.31
366.826	365.31
367.052	352.31
367.278	365.31
367.505	351.31
367.731	369.31
367.957	348.31
368.184	363.31
368.41	365.31
368.636	358.31
368.862	365.31
369.089	364.31
369.315	340.31
369.541	367.31
369.767	340.31
369.993	359.31
370.219	347.31
370.445	364.31
370.672	376.31
370.898	361.31
371.124	366.31
371.35	350.31
371.576	366.31
371.802	336.31
372.028	366.31
372.254	374.31
372.48	399.31
372.706	377.31
372.932	389.31
373.158	365.31
373.384	385.31
373.61	360.31
373.835	370.31
374.061	373.31
374.287	367.31
374.513	368.31
374.739	363.31
374.965	351.31
375.191	370.31
375.416	364.31
375.642	377.31
375.868	371.31
376.094	346.31
376.319	365.31
376.545	342.31
376.771	353.31
376.997	358.31
377.222	353.31
377.448	365.31
377.674	353.31
377.899	357.31
378.125	364.31
378.35	379.31
378.576	371.31
378.802	365.31
379.027	358.31
379.253	382.31
379.478	359.31
379.704	365.31
379.929	376.31
380.155	360.31
380.38	376.31
380.606	347.31
380.831	360.31
381.057	387.31
381.282	380.31
381.507	380.31
381.733	398.31
381.958	385.31
382.184	412.31
382.409	409.31
382.634	443.31
382.86	466.31
383.085	491.31
383.31	507.31
383.535	494.31
383.761	492.31
383.986	502.31
384.211	441.31
384.436	425.31
384.662	425.31
384.887	416.31
385.112	428.31
385.337	427.31
385.562	439.31
385.787	410.31
386.013	418.31
386.238	448.31
386.463	436.31
386.688	463.31
386.913	410.31
387.138	414.31
387.363	416.31
387.588	435.31
387.813	435.31
388.038	424.31
388.263	428.31
388.488	413.31
388.713	422.31
388.938	448.31
389.163	417.31
389.387	432.31
389.612	445.31
389.837	438.31
390.062	442.31
390.287	453.31
390.512	450.31
390.736	442.31
390.961	441.31
391.186	458.31
391.411	467.31
391.636	455.31
391.86	464.31
392.085	478.31
392.31	492.31
392.534	498.31
392.759	510.31
392.984	540.31
393.208	563.31
393.433	632.31
393.658	715.31
393.882	864.31
394.107	1384.31
394.331	2446.31
394.556	3218.31
394.78	2283.31
395.005	1310.31
395.229	1004.31
395.454	1008.31
395.678	1325.31
395.903	2145.31
396.127	3616.31
396.352	4255.31
396.576	2587.31
396.801	1479.31
397.025	1084.31
397.249	865.31
397.474	810.31
397.698	720.31
397.922	680.31
398.147	648.31
398.371	632.31
398.595	634.31
398.82	603.31
399.044	584.31
399.268	606.31
399.492	620.31
399.717	638.31
399.941	602.31
400.165	612.31
400.389	554.31
400.613	553.31
400.837	549.31
401.062	536.31
401.286	516.31
401.51	499.31
401.734	508.31
401.958	499.31
402.182	505.31
402.406	515.31
402.63	507.31
402.854	520.31
403.078	511.31
403.302	511.31
403.526	546.31
403.75	517.31
403.974	520.31
404.198	520.31
404.422	525.31
404.645	515.31
404.869	522.31
405.093	504.31
405.317	501.31
405.541	520.31
405.765	528.31
405.988	513.31
406.212	508.31
406.436	533.31
406.66	527.31
406.883	530.31
407.107	539.31
407.331	548.31
407.555	555.31
407.778	542.31
408.002	544.31
408.226	529.31
408.449	513.31
408.673	511.31
408.896	517.31
409.12	518.31
409.344	503.31
409.567	512.31
409.791	522.31
410.014	514.31
410.238	504.31
410.461	530.31
410.685	514.31
410.908	514.31
411.132	495.31
411.355	493.31
411.578	479.31
411.802	494.31
412.025	488.31
412.249	517.31
412.472	511.31
412.695	494.31
412.919	487.31
413.142	493.31
413.365	496.31
413.589	487.31
413.812	459.31
414.035	512.31
414.258	495.31
414.482	478.31
414.705	485.31
414.928	479.31
415.151	494.31
415.374	502.31
415.597	494.31
415.821	463.31
416.044	478.31
416.267	500.31
416.49	484.31
416.713	486.31
416.936	492.31
417.159	485.31
417.382	475.31
417.605	475.31
417.828	495.31
418.051	473.31
418.274	484.31
418.497	490.31
418.72	506.31
418.943	513.31
419.166	513.31
419.389	548.31
419.611	530.31
419.834	527.31
420.057	512.31
420.28	502.31
420.503	496.31
420.726	470.31
420.948	486.31
421.171	479.31
421.394	482.31
421.617	483.31
421.839	507.31
422.062	500.31
422.285	484.31
422.507	492.31
422.73	510.31
422.953	513.31
423.175	506.31
423.398	504.31
423.621	505.31
423.843	500.31
424.066	506.31
424.288	506.31
424.511	524.31
424.733	503.31
424.956	504.31
425.178	490.31
425.401	504.31
425.623	507.31
425.846	492.31
426.068	509.31
426.291	512.31
426.513	487.31
426.735	466.31
426.958	471.31
427.18	481.31
427.402	481.31
427.625	490.31
427.847	461.31
428.069	439.31
428.292	475.31
428.514	472.31
428.736	454.31
428.958	485.31
429.181	476.31
429.403	468.31
429.625	455.31
429.847	456.31
430.069	459.31
430.292	478.31
430.514	448.31
430.736	458.31
430.958	456.31
431.18	468.31
431.402	468.31
431.624	449.31
431.846	435.31
432.068	425.31
432.29	419.31
432.512	436.31
432.734	483.31
432.956	475.31
433.178	480.31
433.4	463.31
433.622	503.31
433.844	473.31
434.066	459.31
434.287	455.31
434.509	430.31
434.731	450.31
434.953	484.31
435.175	492.31
435.397	495.31
435.618	455.31
435.84	452.31
436.062	456.31
436.284	460.31
436.505	457.31
436.727	470.31
436.949	471.31
437.17	458.31
437.392	463.31
437.614	454.31
437.835	435.31
438.057	421.31
438.278	418.31
438.5	450.31
438.721	449.31
438.943	480.31
439.165	470.31
439.386	479.31
439.608	502.31
439.829	488.31
440.05	490.31
440.272	490.31
440.493	484.31
440.715	501.31
440.936	490.31
441.158	506.31
441.379	497.31
441.6	540.31
441.822	522.31
442.043	504.31
442.264	497.31
442.486	495.31
442.707	513.31
442.928	496.31
443.149	500.31
443.371	510.31
443.592	497.31
443.813	524.31
444.034	487.31
444.255	531.31
444.476	558.31
444.698	557.31
444.919	562.31
445.14	729.31
445.361	605.31
445.582	556.31
445.803	496.31
446.024	506.31
446.245	515.31
446.466	527.31
446.687	508.31
446.908	518.31
447.129	502.31
447.35	496.31
447.571	482.31
447.792	479.31
448.013	483.31
448.234	502.31
448.455	483.31
448.675	465.31
448.896	451.31
449.117	479.31
449.338	472.31
449.559	459.31
449.779	460.31
450	454.31
450.221	464.31
450.442	457.31
450.662	440.31
450.883	458.31
451.104	471.31
451.324	463.31
451.545	459.31
451.766	475.31
451.986	468.31
452.207	456.31
452.428	483.31
452.648	468.31
452.869	453.31
453.089	448.31
453.31	463.31
453.53	425.31
453.751	442.31
453.971	448.31
454.192	429.31
454.412	434.31
454.633	438.31
454.853	452.31
455.073	431.31
455.294	438.31
455.514	431.31
455.734	448.31
455.955	388.31
456.175	432.31
456.395	418.31
456.616	404.31
456.836	393.31
457.056	403.31
457.276	393.31
457.497	388.31
457.717	407.31
457.937	416.31
458.157	399.31
458.377	412.31
458.598	403.31
458.818	388.31
459.038	385.31
459.258	422.31
459.478	408.31
459.698	412.31
459.918	435.31
460.138	445.31
460.358	472.31
460.578	479.31
460.798	471.31
461.018	468.31
461.238	501.31
461.458	474.31
461.678	463.31
461.898	506.31
462.118	475.31
462.338	514.31
462.558	533.31
462.777	537.31
462.997	576.31
463.217	577.31
463.437	565.31
463.657	540.31
463.876	554.31
464.096	547.31
464.316	536.31
464.536	549.31
464.755	544.31
464.975	527.31
465.195	511.31
465.414	498.31
465.634	502.31
465.854	514.31
466.073	527.31
466.293	550.31
466.512	585.31
466.732	598.31
466.951	564.31
467.171	534.31
467.391	542.31
467.61	538.31
467.829	499.31
468.049	504.31
468.268	491.31
468.488	480.31
468.707	477.31
468.927	477.31
469.146	484.31
469.365	486.31
469.585	478.31
469.804	498.31
470.023	490.31
470.243	483.31
470.462	502.31
470.681	514.31
470.901	495.31
471.12	503.31
471.339	504.31
471.558	487.31
471.777	482.31
471.997	475.31
472.216	473.31
472.435	475.31
472.654	452.31
472.873	454.31
473.092	452.31
473.311	493.31
473.53	525.31
473.749	574.31
473.968	562.31
474.187	544.31
474.406	522.31
474.625	547.31
474.844	564.31
475.063	558.31
475.282	498.31
475.501	508.31
475.72	509.31
475.939	487.31
476.158	491.31
476.377	487.31
476.596	473.31
476.814	471.31
477.033	459.31
477.252	467.31
477.471	475.31
477.69	472.31
477.908	490.31
478.127	520.31
478.346	494.31
478.564	508.31
478.783	494.31
479.002	531.31
479.22	506.31
479.439	500.31
479.658	492.31
479.876	494.31
480.095	487.31
480.313	495.31
480.532	497.31
480.751	491.31
480.969	473.31
481.188	460.31
481.406	438.31
481.624	453.31
481.843	435.31
482.061	446.31
482.28	446.31
482.498	465.31
482.717	477.31
482.935	465.31
483.153	483.31
483.372	506.31
483.59	494.31
483.808	476.31
484.027	486.31
484.245	517.31
484.463	601.31
484.681	582.31
484.9	567.31
485.118	536.31
485.336	537.31
485.554	523.31
485.772	525.31
485.99	512.31
486.209	512.31
486.427	515.31
486.645	508.31
486.863	567.31
487.081	546.31
487.299	561.31
487.517	560.31
487.735	597.31
487.953	577.31
488.171	594.31
488.389	579.31
488.607	556.31
488.825	528.31
489.043	527.31
489.261	550.31
489.479	541.31
489.696	538.31
489.914	523.31
490.132	525.31
490.35	566.31
490.568	547.31
490.786	586.31
491.003	578.31
491.221	575.31
491.439	584.31
491.657	595.31
491.874	637.31
492.092	642.31
492.31	644.31
492.527	605.31
492.745	621.31
492.963	607.31
493.18	580.31
493.398	563.31
493.615	590.31
493.833	580.31
494.05	571.31
494.268	575.31
494.485	560.31
494.703	600.31
494.92	570.31
495.138	566.31
495.355	580.31
495.573	582.31
495.79	562.31
496.008	577.31
496.225	582.31
496.442	570.31
496.66	588.31
496.877	584.31
497.094	602.31
497.312	580.31
497.529	572.31
497.746	560.31
497.963	585.31
498.181	562.31
498.398	592.31
498.615	598.31
498.832	642.31
499.049	643.31
499.267	681.31
499.484	729.31
499.701	741.31
499.918	779.31
500.135	864.31
500.352	885.31
500.569	902.31
500.786	899.31
501.003	837.31
501.22	799.31
501.437	763.31
501.654	695.31
501.871	710.31
502.088	650.31
502.305	637.31
502.522	609.31
