Data from SampC_HRD10591_00064.txt Node
Date: Mon Jan 19 11:37:51 EST 2026
User: Yrep
Spectrometer: HR+D1059
Trigger mode: 0
Integration Time (sec): 3.443000E-1
Scans to average: 1
Electric dark correction enabled: true
Nonlinearity correction enabled: false
Boxcar width: 0
XAxis mode: Wavelengths
Number of Pixels in Spectrum: 2048
>>>>>Begin Spectral Data<<<<<
223.165	-25.25
223.4	-25.25
223.635	-25.25
223.869	-22.25
224.104	-24.25
224.338	-8.25
224.573	-25.25
224.808	-12.25
225.042	-10.25
225.277	-9.25
225.511	-5.25
225.746	13.75
225.98	3.75
226.215	17.75
226.449	7.75
226.683	28.75
226.918	22.75
227.152	47.75
227.387	35.75
227.621	36.75
227.856	53.75
228.09	58.75
228.324	49.75
228.559	72.75
228.793	62.75
229.027	82.75
229.262	89.75
229.496	81.75
229.73	104.75
229.964	99.75
230.199	95.75
230.433	112.75
230.667	101.75
230.901	94.75
231.136	105.75
231.37	102.75
231.604	140.75
231.838	108.75
232.072	125.75
232.306	111.75
232.541	120.75
232.775	117.75
233.009	111.75
233.243	104.75
233.477	133.75
233.711	118.75
233.945	123.75
234.179	127.75
234.413	125.75
234.647	111.75
234.881	123.75
235.115	120.75
235.349	113.75
235.583	112.75
235.817	130.75
236.051	140.75
236.285	142.75
236.519	158.75
236.753	173.75
236.987	218.75
237.221	214.75
237.455	232.75
237.689	202.75
237.922	190.75
238.156	175.75
238.39	165.75
238.624	149.75
238.858	128.75
239.091	134.75
239.325	125.75
239.559	118.75
239.793	124.75
240.027	122.75
240.26	117.75
240.494	114.75
240.728	106.75
240.961	115.75
241.195	108.75
241.429	120.75
241.662	131.75
241.896	108.75
242.13	115.75
242.363	127.75
242.597	126.75
242.83	108.75
243.064	112.75
243.298	134.75
243.531	123.75
243.765	117.75
243.998	131.75
244.232	131.75
244.465	124.75
244.699	130.75
244.932	139.75
245.166	124.75
245.399	128.75
245.633	123.75
245.866	126.75
246.099	138.75
246.333	128.75
246.566	123.75
246.8	144.75
247.033	134.75
247.266	129.75
247.5	123.75
247.733	133.75
247.966	125.75
248.2	121.75
248.433	129.75
248.666	127.75
248.899	152.75
249.133	136.75
249.366	157.75
249.599	134.75
249.832	130.75
250.066	147.75
250.299	150.75
250.532	132.75
250.765	122.75
250.998	142.75
251.231	134.75
251.465	157.75
251.698	152.75
251.931	157.75
252.164	158.75
252.397	155.75
252.63	143.75
252.863	136.75
253.096	141.75
253.329	158.75
253.562	144.75
253.795	145.75
254.028	150.75
254.261	156.75
254.494	167.75
254.727	160.75
254.96	167.75
255.193	144.75
255.426	158.75
255.659	154.75
255.892	169.75
256.124	167.75
256.357	172.75
256.59	204.75
256.823	235.75
257.056	296.75
257.289	309.75
257.521	309.75
257.754	354.75
257.987	338.75
258.22	275.75
258.452	222.75
258.685	193.75
258.918	190.75
259.151	166.75
259.383	189.75
259.616	170.75
259.849	175.75
260.081	190.75
260.314	178.75
260.547	146.75
260.779	169.75
261.012	159.75
261.244	168.75
261.477	168.75
261.71	175.75
261.942	147.75
262.175	176.75
262.407	164.75
262.64	177.75
262.872	192.75
263.105	191.75
263.337	227.75
263.57	229.75
263.802	250.75
264.035	222.75
264.267	198.75
264.499	197.75
264.732	194.75
264.964	222.75
265.197	236.75
265.429	270.75
265.661	288.75
265.894	259.75
266.126	300.75
266.358	328.75
266.591	276.75
266.823	230.75
267.055	202.75
267.287	209.75
267.52	194.75
267.752	180.75
267.984	189.75
268.216	191.75
268.448	180.75
268.681	166.75
268.913	173.75
269.145	166.75
269.377	171.75
269.609	176.75
269.841	178.75
270.073	173.75
270.306	163.75
270.538	167.75
270.77	172.75
271.002	178.75
271.234	170.75
271.466	180.75
271.698	177.75
271.93	166.75
272.162	185.75
272.394	190.75
272.626	174.75
272.858	188.75
273.09	171.75
273.322	173.75
273.553	188.75
273.785	175.75
274.017	187.75
274.249	191.75
274.481	191.75
274.713	197.75
274.945	197.75
275.176	195.75
275.408	206.75
275.64	198.75
275.872	178.75
276.104	183.75
276.335	188.75
276.567	190.75
276.799	213.75
277.031	213.75
277.262	194.75
277.494	217.75
277.726	240.75
277.957	266.75
278.189	289.75
278.421	286.75
278.652	287.75
278.884	318.75
279.115	449.75
279.347	641.75
279.579	857.75
279.81	973.75
280.042	809.75
280.273	738.75
280.505	703.75
280.736	452.75
280.968	330.75
281.199	334.75
281.431	370.75
281.662	458.75
281.894	502.75
282.125	437.75
282.356	335.75
282.588	296.75
282.819	284.75
283.051	235.75
283.282	242.75
283.513	239.75
283.745	247.75
283.976	243.75
284.207	225.75
284.439	232.75
284.67	254.75
284.901	282.75
285.132	341.75
285.364	406.75
285.595	349.75
285.826	250.75
286.057	261.75
286.288	225.75
286.52	207.75
286.751	216.75
286.982	227.75
287.213	224.75
287.444	216.75
287.675	216.75
287.906	218.75
288.138	245.75
288.369	260.75
288.6	241.75
288.831	235.75
289.062	224.75
289.293	214.75
289.524	211.75
289.755	207.75
289.986	224.75
290.217	216.75
290.448	228.75
290.679	216.75
290.91	210.75
291.141	214.75
291.371	245.75
291.602	227.75
291.833	252.75
292.064	231.75
292.295	263.75
292.526	279.75
292.757	278.75
292.987	274.75
293.218	275.75
293.449	261.75
293.68	284.75
293.91	288.75
294.141	254.75
294.372	242.75
294.603	228.75
294.833	241.75
295.064	226.75
295.295	226.75
295.525	224.75
295.756	238.75
295.987	246.75
296.217	242.75
296.448	236.75
296.679	254.75
296.909	251.75
297.14	246.75
297.37	246.75
297.601	227.75
297.831	226.75
298.062	242.75
298.292	232.75
298.523	258.75
298.753	227.75
298.984	224.75
299.214	246.75
299.445	255.75
299.675	242.75
299.905	268.75
300.136	241.75
300.366	245.75
300.597	245.75
300.827	251.75
301.057	257.75
301.288	253.75
301.518	261.75
301.748	272.75
301.979	296.75
302.209	291.75
302.439	310.75
302.669	296.75
302.9	315.75
303.13	313.75
303.36	330.75
303.59	324.75
303.82	321.75
304.051	343.75
304.281	353.75
304.511	376.75
304.741	416.75
304.971	457.75
305.201	534.75
305.431	631.75
305.661	698.75
305.891	752.75
306.121	715.75
306.352	646.75
306.582	671.75
306.812	654.75
307.042	604.75
307.272	578.75
307.502	648.75
307.731	862.75
307.961	1243.75
308.191	1783.75
308.421	2018.75
308.651	1716.75
308.881	1576.75
309.111	1951.75
309.341	2404.75
309.571	2327.75
309.8	1546.75
310.03	1010.75
310.26	757.75
310.49	640.75
310.72	544.75
310.949	494.75
311.179	470.75
311.409	420.75
311.639	384.75
311.868	382.75
312.098	379.75
312.328	374.75
312.557	378.75
312.787	356.75
313.017	364.75
313.246	324.75
313.476	316.75
313.706	318.75
313.935	315.75
314.165	352.75
314.394	321.75
314.624	317.75
314.853	311.75
315.083	288.75
315.312	296.75
315.542	289.75
315.771	284.75
316.001	307.75
316.23	295.75
316.46	283.75
316.689	299.75
316.919	277.75
317.148	302.75
317.377	294.75
317.607	282.75
317.836	287.75
318.065	287.75
318.295	283.75
318.524	298.75
318.753	269.75
318.983	273.75
319.212	277.75
319.441	277.75
319.67	279.75
319.9	268.75
320.129	241.75
320.358	252.75
320.587	270.75
320.816	254.75
321.046	264.75
321.275	270.75
321.504	286.75
321.733	260.75
321.962	260.75
322.191	269.75
322.42	281.75
322.649	278.75
322.878	278.75
323.108	268.75
323.337	262.75
323.566	284.75
323.795	273.75
324.024	282.75
324.253	273.75
324.482	298.75
324.71	286.75
324.939	308.75
325.168	291.75
325.397	280.75
325.626	269.75
325.855	271.75
326.084	280.75
326.313	286.75
326.542	269.75
326.77	287.75
326.999	278.75
327.228	281.75
327.457	279.75
327.686	280.75
327.914	271.75
328.143	270.75
328.372	272.75
328.6	276.75
328.829	277.75
329.058	275.75
329.287	293.75
329.515	284.75
329.744	283.75
329.972	276.75
330.201	280.75
330.43	274.75
330.658	274.75
330.887	293.75
331.115	271.75
331.344	278.75
331.572	284.75
331.801	296.75
332.03	262.75
332.258	296.75
332.486	300.75
332.715	303.75
332.943	318.75
333.172	317.75
333.4	311.75
333.629	302.75
333.857	304.75
334.085	324.75
334.314	323.75
334.542	336.75
334.771	324.75
334.999	325.75
335.227	291.75
335.455	316.75
335.684	322.75
335.912	292.75
336.14	299.75
336.369	307.75
336.597	287.75
336.825	298.75
337.053	293.75
337.281	297.75
337.51	291.75
337.738	300.75
337.966	296.75
338.194	304.75
338.422	290.75
338.65	296.75
338.878	284.75
339.106	278.75
339.334	300.75
339.562	294.75
339.79	282.75
340.018	302.75
340.246	288.75
340.474	284.75
340.702	284.75
340.93	283.75
341.158	297.75
341.386	280.75
341.614	273.75
341.842	286.75
342.07	293.75
342.298	264.75
342.526	284.75
342.754	290.75
342.981	296.75
343.209	296.75
343.437	326.75
343.665	307.75
343.893	287.75
344.12	326.75
344.348	311.75
344.576	300.75
344.804	303.75
345.031	290.75
345.259	283.75
345.487	312.75
345.714	275.75
345.942	286.75
346.17	314.75
346.397	294.75
346.625	291.75
346.853	288.75
347.08	285.75
347.308	302.75
347.535	292.75
347.763	289.75
347.99	295.75
348.218	295.75
348.445	283.75
348.673	276.75
348.9	290.75
349.128	313.75
349.355	296.75
349.583	296.75
349.81	288.75
350.037	305.75
350.265	300.75
350.492	271.75
350.72	306.75
350.947	281.75
351.174	298.75
351.402	305.75
351.629	315.75
351.856	296.75
352.083	296.75
352.311	314.75
352.538	306.75
352.765	317.75
352.992	319.75
353.22	308.75
353.447	300.75
353.674	316.75
353.901	322.75
354.128	331.75
354.355	328.75
354.583	310.75
354.81	332.75
355.037	362.75
355.264	331.75
355.491	348.75
355.718	332.75
355.945	369.75
356.172	347.75
356.399	372.75
356.626	379.75
356.853	429.75
357.08	434.75
357.307	465.75
357.534	462.75
357.761	536.75
357.988	596.75
358.215	703.75
358.441	800.75
358.668	875.75
358.895	841.75
359.122	704.75
359.349	562.75
359.576	527.75
359.802	484.75
360.029	464.75
360.256	439.75
360.483	424.75
360.709	415.75
360.936	418.75
361.163	389.75
361.39	386.75
361.616	389.75
361.843	375.75
362.07	374.75
362.296	359.75
362.523	339.75
362.749	323.75
362.976	340.75
363.203	353.75
363.429	322.75
363.656	335.75
363.882	334.75
364.109	315.75
364.335	326.75
364.562	306.75
364.788	310.75
365.015	327.75
365.241	335.75
365.468	315.75
365.694	319.75
365.92	321.75
366.147	306.75
366.373	301.75
366.599	297.75
366.826	299.75
367.052	306.75
367.278	325.75
367.505	306.75
367.731	334.75
367.957	307.75
368.184	316.75
368.41	290.75
368.636	307.75
368.862	311.75
369.089	314.75
369.315	321.75
369.541	303.75
369.767	305.75
369.993	316.75
370.219	304.75
370.445	309.75
370.672	323.75
370.898	312.75
371.124	323.75
371.35	334.75
371.576	312.75
371.802	332.75
372.028	334.75
372.254	321.75
372.48	316.75
372.706	347.75
372.932	344.75
373.158	339.75
373.384	343.75
373.61	367.75
373.835	347.75
374.061	322.75
374.287	318.75
374.513	334.75
374.739	338.75
374.965	339.75
375.191	357.75
375.416	341.75
375.642	328.75
375.868	361.75
376.094	354.75
376.319	324.75
376.545	310.75
376.771	325.75
376.997	320.75
377.222	324.75
377.448	327.75
377.674	322.75
377.899	309.75
378.125	318.75
378.35	317.75
378.576	314.75
378.802	310.75
379.027	320.75
379.253	351.75
379.478	334.75
379.704	320.75
379.929	328.75
380.155	331.75
380.38	336.75
380.606	330.75
380.831	333.75
381.057	349.75
381.282	357.75
381.507	335.75
381.733	368.75
381.958	370.75
382.184	370.75
382.409	412.75
382.634	425.75
382.86	494.75
383.085	578.75
383.31	565.75
383.535	596.75
383.761	586.75
383.986	594.75
384.211	484.75
384.436	410.75
384.662	372.75
384.887	388.75
385.112	381.75
385.337	375.75
385.562	379.75
385.787	398.75
386.013	390.75
386.238	386.75
386.463	406.75
386.688	415.75
386.913	400.75
387.138	388.75
387.363	404.75
387.588	405.75
387.813	396.75
388.038	396.75
388.263	390.75
388.488	408.75
388.713	379.75
388.938	396.75
389.163	390.75
389.387	378.75
389.612	407.75
389.837	406.75
390.062	421.75
390.287	428.75
390.512	417.75
390.736	413.75
390.961	425.75
391.186	425.75
391.411	445.75
391.636	446.75
391.86	462.75
392.085	476.75
392.31	469.75
392.534	501.75
392.759	548.75
392.984	618.75
393.208	798.75
393.433	1024.75
393.658	986.75
393.882	1055.75
394.107	1715.75
394.331	3066.75
394.556	3998.75
394.78	2701.75
395.005	1561.75
395.229	1212.75
395.454	1251.75
395.678	1588.75
395.903	2668.75
396.127	4417.75
396.352	5018.75
396.576	3166.75
396.801	1876.75
397.025	1380.75
397.249	1017.75
397.474	840.75
397.698	762.75
397.922	687.75
398.147	667.75
398.371	627.75
398.595	598.75
398.82	578.75
399.044	559.75
399.268	587.75
399.492	601.75
399.717	576.75
399.941	571.75
400.165	567.75
400.389	528.75
400.613	498.75
400.837	501.75
401.062	483.75
401.286	462.75
401.51	487.75
401.734	446.75
401.958	468.75
402.182	478.75
402.406	470.75
402.63	457.75
402.854	467.75
403.078	480.75
403.302	458.75
403.526	491.75
403.75	472.75
403.974	477.75
404.198	471.75
404.422	450.75
404.645	491.75
404.869	453.75
405.093	473.75
405.317	476.75
405.541	471.75
405.765	468.75
405.988	474.75
406.212	446.75
406.436	467.75
406.66	448.75
406.883	480.75
407.107	468.75
407.331	470.75
407.555	494.75
407.778	501.75
408.002	480.75
408.226	476.75
408.449	472.75
408.673	477.75
408.896	456.75
409.12	444.75
409.344	450.75
409.567	443.75
409.791	451.75
410.014	456.75
410.238	451.75
410.461	442.75
410.685	453.75
410.908	456.75
411.132	453.75
411.355	422.75
411.578	468.75
411.802	448.75
412.025	454.75
412.249	454.75
412.472	459.75
412.695	445.75
412.919	443.75
413.142	434.75
413.365	420.75
413.589	428.75
413.812	439.75
414.035	428.75
414.258	431.75
414.482	441.75
414.705	425.75
414.928	445.75
415.151	435.75
415.374	417.75
415.597	435.75
415.821	431.75
416.044	433.75
416.267	439.75
416.49	432.75
416.713	433.75
416.936	416.75
417.159	440.75
417.382	428.75
417.605	397.75
417.828	432.75
418.051	440.75
418.274	432.75
418.497	438.75
418.72	448.75
418.943	434.75
419.166	462.75
419.389	476.75
419.611	477.75
419.834	459.75
420.057	447.75
420.28	445.75
420.503	426.75
420.726	433.75
420.948	430.75
421.171	444.75
421.394	420.75
421.617	450.75
421.839	458.75
422.062	458.75
422.285	461.75
422.507	499.75
422.73	508.75
422.953	495.75
423.175	448.75
423.398	437.75
423.621	426.75
423.843	456.75
424.066	452.75
424.288	450.75
424.511	458.75
424.733	442.75
424.956	433.75
425.178	447.75
425.401	439.75
425.623	459.75
425.846	430.75
426.068	450.75
426.291	436.75
426.513	452.75
426.735	435.75
426.958	435.75
427.18	436.75
427.402	430.75
427.625	411.75
427.847	430.75
428.069	434.75
428.292	443.75
428.514	424.75
428.736	415.75
428.958	403.75
429.181	400.75
429.403	404.75
429.625	416.75
429.847	428.75
430.069	428.75
430.292	429.75
430.514	430.75
430.736	417.75
430.958	424.75
431.18	419.75
431.402	406.75
431.624	405.75
431.846	396.75
432.068	369.75
432.29	375.75
432.512	407.75
432.734	419.75
432.956	444.75
433.178	419.75
433.4	415.75
433.622	430.75
433.844	424.75
434.066	413.75
434.287	405.75
434.509	392.75
434.731	410.75
434.953	405.75
435.175	425.75
435.397	439.75
435.618	394.75
435.84	416.75
436.062	403.75
436.284	424.75
436.505	414.75
436.727	421.75
436.949	417.75
437.17	413.75
437.392	423.75
437.614	397.75
437.835	383.75
438.057	399.75
438.278	422.75
438.5	432.75
438.721	434.75
438.943	446.75
439.165	409.75
439.386	432.75
439.608	448.75
439.829	447.75
440.05	433.75
440.272	447.75
440.493	452.75
440.715	442.75
440.936	475.75
441.158	460.75
441.379	440.75
441.6	471.75
441.822	468.75
442.043	471.75
442.264	452.75
442.486	442.75
442.707	475.75
442.928	448.75
443.149	472.75
443.371	447.75
443.592	462.75
443.813	456.75
444.034	444.75
444.255	469.75
444.476	495.75
444.698	492.75
444.919	504.75
445.14	651.75
445.361	571.75
445.582	458.75
445.803	438.75
446.024	463.75
446.245	463.75
446.466	483.75
446.687	451.75
446.908	454.75
447.129	459.75
447.35	458.75
447.571	468.75
447.792	447.75
448.013	463.75
448.234	469.75
448.455	469.75
448.675	437.75
448.896	422.75
449.117	441.75
449.338	427.75
449.559	430.75
449.779	430.75
450	411.75
450.221	392.75
450.442	401.75
450.662	423.75
450.883	404.75
451.104	431.75
451.324	424.75
451.545	419.75
451.766	422.75
451.986	432.75
452.207	423.75
452.428	437.75
452.648	439.75
452.869	440.75
453.089	418.75
453.31	404.75
453.53	400.75
453.751	436.75
453.971	427.75
454.192	411.75
454.412	395.75
454.633	414.75
454.853	418.75
455.073	408.75
455.294	412.75
455.514	404.75
455.734	404.75
455.955	387.75
456.175	370.75
456.395	357.75
456.616	379.75
456.836	372.75
457.056	388.75
457.276	376.75
457.497	350.75
457.717	360.75
457.937	376.75
458.157	374.75
458.377	345.75
458.598	355.75
458.818	367.75
459.038	366.75
459.258	394.75
459.478	376.75
459.698	389.75
459.918	386.75
460.138	400.75
460.358	420.75
460.578	439.75
460.798	442.75
461.018	421.75
461.238	439.75
461.458	446.75
461.678	432.75
461.898	430.75
462.118	429.75
462.338	451.75
462.558	460.75
462.777	495.75
462.997	486.75
463.217	490.75
463.437	504.75
463.657	464.75
463.876	461.75
464.096	480.75
464.316	463.75
464.536	488.75
464.755	474.75
464.975	480.75
465.195	470.75
465.414	476.75
465.634	447.75
465.854	464.75
466.073	462.75
466.293	508.75
466.512	558.75
466.732	544.75
466.951	477.75
467.171	482.75
467.391	480.75
467.61	467.75
467.829	466.75
468.049	451.75
468.268	448.75
468.488	442.75
468.707	434.75
468.927	444.75
469.146	463.75
469.365	445.75
469.585	470.75
469.804	448.75
470.023	466.75
470.243	461.75
470.462	472.75
470.681	462.75
470.901	453.75
471.12	454.75
471.339	458.75
471.558	454.75
471.777	462.75
471.997	464.75
472.216	461.75
472.435	438.75
472.654	419.75
472.873	434.75
473.092	466.75
473.311	468.75
473.53	492.75
473.749	522.75
473.968	538.75
474.187	533.75
474.406	534.75
474.625	536.75
474.844	519.75
475.063	516.75
475.282	492.75
475.501	462.75
475.72	461.75
475.939	460.75
476.158	439.75
476.377	447.75
476.596	448.75
476.814	443.75
477.033	423.75
477.252	422.75
477.471	451.75
477.69	463.75
477.908	446.75
478.127	442.75
478.346	437.75
478.564	463.75
478.783	472.75
479.002	464.75
479.22	461.75
479.439	452.75
479.658	455.75
479.876	443.75
480.095	451.75
480.313	440.75
480.532	442.75
480.751	442.75
480.969	421.75
481.188	416.75
481.406	378.75
481.624	396.75
481.843	383.75
482.061	400.75
482.28	423.75
482.498	436.75
482.717	408.75
482.935	440.75
483.153	467.75
483.372	451.75
483.59	458.75
483.808	467.75
484.027	455.75
484.245	491.75
484.463	594.75
484.681	606.75
484.9	559.75
485.118	543.75
485.336	512.75
485.554	496.75
485.772	492.75
485.99	504.75
486.209	511.75
486.427	496.75
486.645	532.75
486.863	547.75
487.081	561.75
487.299	530.75
487.517	528.75
487.735	569.75
487.953	567.75
488.171	584.75
488.389	567.75
488.607	534.75
488.825	533.75
489.043	490.75
489.261	508.75
489.479	518.75
489.696	511.75
489.914	516.75
490.132	518.75
490.35	530.75
490.568	541.75
490.786	546.75
491.003	546.75
491.221	546.75
491.439	541.75
491.657	571.75
491.874	589.75
492.092	575.75
492.31	616.75
492.527	583.75
492.745	594.75
492.963	566.75
493.18	581.75
493.398	551.75
493.615	522.75
493.833	538.75
494.05	525.75
494.268	543.75
494.485	535.75
494.703	540.75
494.92	534.75
495.138	525.75
495.355	508.75
495.573	542.75
495.79	531.75
496.008	521.75
496.225	495.75
496.442	526.75
496.66	535.75
496.877	549.75
497.094	555.75
497.312	516.75
497.529	540.75
497.746	546.75
497.963	505.75
498.181	536.75
498.398	532.75
498.615	549.75
498.832	536.75
499.049	550.75
499.267	607.75
499.484	636.75
499.701	664.75
499.918	686.75
500.135	734.75
500.352	795.75
500.569	797.75
500.786	765.75
501.003	760.75
501.22	707.75
501.437	684.75
501.654	641.75
501.871	594.75
502.088	570.75
502.305	564.75
502.522	539.75
