Data from SampC_HRD10591_00048.txt Node
Date: Mon Jan 19 11:37:45 EST 2026
User: Yrep
Spectrometer: HR+D1059
Trigger mode: 0
Integration Time (sec): 3.443000E-1
Scans to average: 1
Electric dark correction enabled: true
Nonlinearity correction enabled: false
Boxcar width: 0
XAxis mode: Wavelengths
Number of Pixels in Spectrum: 2048
>>>>>Begin Spectral Data<<<<<
223.165	-27.31
223.4	-27.31
223.635	-27.31
223.869	-4.31
224.104	-25.31
224.338	-21.31
224.573	-9.31
224.808	-22.31
225.042	-1.31
225.277	-9.31
225.511	7.69
225.746	-0.31
225.98	11.69
226.215	14.69
226.449	11.69
226.683	8.69
226.918	27.69
227.152	38.69
227.387	44.69
227.621	40.69
227.856	46.69
228.09	41.69
228.324	41.69
228.559	61.69
228.793	70.69
229.027	88.69
229.262	83.69
229.496	89.69
229.73	104.69
229.964	94.69
230.199	91.69
230.433	117.69
230.667	98.69
230.901	97.69
231.136	103.69
231.37	103.69
231.604	103.69
231.838	131.69
232.072	115.69
232.306	124.69
232.541	128.69
232.775	115.69
233.009	108.69
233.243	109.69
233.477	123.69
233.711	124.69
233.945	118.69
234.179	115.69
234.413	102.69
234.647	123.69
234.881	121.69
235.115	122.69
235.349	101.69
235.583	109.69
235.817	111.69
236.051	128.69
236.285	135.69
236.519	137.69
236.753	160.69
236.987	197.69
237.221	210.69
237.455	222.69
237.689	213.69
237.922	187.69
238.156	153.69
238.39	128.69
238.624	110.69
238.858	105.69
239.091	126.69
239.325	109.69
239.559	118.69
239.793	119.69
240.027	113.69
240.26	101.69
240.494	104.69
240.728	97.69
240.961	97.69
241.195	118.69
241.429	118.69
241.662	113.69
241.896	115.69
242.13	119.69
242.363	114.69
242.597	116.69
242.83	129.69
243.064	104.69
243.298	122.69
243.531	105.69
243.765	104.69
243.998	118.69
244.232	121.69
244.465	120.69
244.699	119.69
244.932	112.69
245.166	116.69
245.399	119.69
245.633	132.69
245.866	149.69
246.099	137.69
246.333	130.69
246.566	136.69
246.8	123.69
247.033	125.69
247.266	120.69
247.5	117.69
247.733	112.69
247.966	123.69
248.2	116.69
248.433	128.69
248.666	113.69
248.899	128.69
249.133	142.69
249.366	143.69
249.599	139.69
249.832	116.69
250.066	132.69
250.299	121.69
250.532	133.69
250.765	139.69
250.998	139.69
251.231	140.69
251.465	127.69
251.698	136.69
251.931	132.69
252.164	133.69
252.397	157.69
252.63	148.69
252.863	136.69
253.096	115.69
253.329	136.69
253.562	146.69
253.795	136.69
254.028	136.69
254.261	156.69
254.494	149.69
254.727	139.69
254.96	142.69
255.193	144.69
255.426	146.69
255.659	136.69
255.892	163.69
256.124	148.69
256.357	143.69
256.59	178.69
256.823	217.69
257.056	273.69
257.289	274.69
257.521	253.69
257.754	317.69
257.987	288.69
258.22	222.69
258.452	184.69
258.685	169.69
258.918	181.69
259.151	150.69
259.383	163.69
259.616	140.69
259.849	159.69
260.081	169.69
260.314	156.69
260.547	168.69
260.779	165.69
261.012	173.69
261.244	155.69
261.477	150.69
261.71	164.69
261.942	160.69
262.175	165.69
262.407	168.69
262.64	176.69
262.872	182.69
263.105	213.69
263.337	222.69
263.57	221.69
263.802	200.69
264.035	187.69
264.267	175.69
264.499	187.69
264.732	203.69
264.964	198.69
265.197	211.69
265.429	254.69
265.661	237.69
265.894	226.69
266.126	277.69
266.358	277.69
266.591	236.69
266.823	210.69
267.055	187.69
267.287	196.69
267.52	162.69
267.752	168.69
267.984	159.69
268.216	166.69
268.448	191.69
268.681	165.69
268.913	182.69
269.145	163.69
269.377	163.69
269.609	171.69
269.841	177.69
270.073	179.69
270.306	187.69
270.538	169.69
270.77	167.69
271.002	168.69
271.234	163.69
271.466	159.69
271.698	171.69
271.93	184.69
272.162	184.69
272.394	170.69
272.626	164.69
272.858	153.69
273.09	185.69
273.322	170.69
273.553	187.69
273.785	165.69
274.017	195.69
274.249	192.69
274.481	178.69
274.713	193.69
274.945	196.69
275.176	181.69
275.408	189.69
275.64	175.69
275.872	179.69
276.104	170.69
276.335	194.69
276.567	182.69
276.799	184.69
277.031	189.69
277.262	199.69
277.494	196.69
277.726	218.69
277.957	235.69
278.189	243.69
278.421	236.69
278.652	242.69
278.884	258.69
279.115	327.69
279.347	448.69
279.579	618.69
279.81	699.69
280.042	585.69
280.273	517.69
280.505	530.69
280.736	345.69
280.968	281.69
281.199	305.69
281.431	359.69
281.662	422.69
281.894	463.69
282.125	378.69
282.356	310.69
282.588	275.69
282.819	257.69
283.051	241.69
283.282	234.69
283.513	240.69
283.745	220.69
283.976	231.69
284.207	214.69
284.439	205.69
284.67	222.69
284.901	250.69
285.132	279.69
285.364	312.69
285.595	290.69
285.826	227.69
286.057	220.69
286.288	220.69
286.52	209.69
286.751	197.69
286.982	215.69
287.213	212.69
287.444	203.69
287.675	215.69
287.906	220.69
288.138	227.69
288.369	230.69
288.6	196.69
288.831	215.69
289.062	217.69
289.293	203.69
289.524	230.69
289.755	207.69
289.986	219.69
290.217	202.69
290.448	229.69
290.679	214.69
290.91	222.69
291.141	219.69
291.371	229.69
291.602	218.69
291.833	208.69
292.064	219.69
292.295	223.69
292.526	243.69
292.757	241.69
292.987	230.69
293.218	230.69
293.449	247.69
293.68	253.69
293.91	249.69
294.141	237.69
294.372	223.69
294.603	225.69
294.833	230.69
295.064	218.69
295.295	215.69
295.525	219.69
295.756	199.69
295.987	207.69
296.217	219.69
296.448	213.69
296.679	217.69
296.909	220.69
297.14	203.69
297.37	199.69
297.601	227.69
297.831	213.69
298.062	235.69
298.292	223.69
298.523	230.69
298.753	211.69
298.984	232.69
299.214	230.69
299.445	225.69
299.675	232.69
299.905	220.69
300.136	230.69
300.366	222.69
300.597	223.69
300.827	248.69
301.057	228.69
301.288	242.69
301.518	247.69
301.748	252.69
301.979	285.69
302.209	262.69
302.439	251.69
302.669	251.69
302.9	264.69
303.13	243.69
303.36	269.69
303.59	283.69
303.82	310.69
304.051	281.69
304.281	304.69
304.511	319.69
304.741	338.69
304.971	395.69
305.201	445.69
305.431	512.69
305.661	581.69
305.891	600.69
306.121	552.69
306.352	512.69
306.582	522.69
306.812	535.69
307.042	469.69
307.272	447.69
307.502	529.69
307.731	666.69
307.961	995.69
308.191	1374.69
308.421	1590.69
308.651	1325.69
308.881	1213.69
309.111	1493.69
309.341	1912.69
309.571	1819.69
309.8	1173.69
310.03	759.69
310.26	579.69
310.49	514.69
310.72	444.69
310.949	392.69
311.179	360.69
311.409	353.69
311.639	327.69
311.868	341.69
312.098	335.69
312.328	311.69
312.557	311.69
312.787	302.69
313.017	297.69
313.246	303.69
313.476	287.69
313.706	278.69
313.935	274.69
314.165	283.69
314.394	267.69
314.624	264.69
314.853	267.69
315.083	254.69
315.312	271.69
315.542	275.69
315.771	256.69
316.001	281.69
316.23	261.69
316.46	264.69
316.689	252.69
316.919	275.69
317.148	237.69
317.377	249.69
317.607	253.69
317.836	260.69
318.065	255.69
318.295	260.69
318.524	238.69
318.753	248.69
318.983	253.69
319.212	265.69
319.441	246.69
319.67	244.69
319.9	248.69
320.129	254.69
320.358	255.69
320.587	259.69
320.816	236.69
321.046	246.69
321.275	231.69
321.504	234.69
321.733	235.69
321.962	254.69
322.191	244.69
322.42	251.69
322.649	233.69
322.878	247.69
323.108	271.69
323.337	253.69
323.566	269.69
323.795	248.69
324.024	273.69
324.253	240.69
324.482	240.69
324.71	256.69
324.939	265.69
325.168	273.69
325.397	261.69
325.626	254.69
325.855	249.69
326.084	261.69
326.313	253.69
326.542	257.69
326.77	250.69
326.999	260.69
327.228	246.69
327.457	254.69
327.686	271.69
327.914	268.69
328.143	260.69
328.372	269.69
328.6	259.69
328.829	265.69
329.058	239.69
329.287	245.69
329.515	245.69
329.744	273.69
329.972	259.69
330.201	268.69
330.43	253.69
330.658	255.69
330.887	274.69
331.115	243.69
331.344	252.69
331.572	276.69
331.801	271.69
332.03	279.69
332.258	284.69
332.486	269.69
332.715	268.69
332.943	268.69
333.172	276.69
333.4	295.69
333.629	292.69
333.857	291.69
334.085	292.69
334.314	292.69
334.542	287.69
334.771	275.69
334.999	290.69
335.227	287.69
335.455	273.69
335.684	289.69
335.912	273.69
336.14	283.69
336.369	288.69
336.597	283.69
336.825	274.69
337.053	269.69
337.281	283.69
337.51	261.69
337.738	291.69
337.966	269.69
338.194	283.69
338.422	268.69
338.65	264.69
338.878	275.69
339.106	279.69
339.334	268.69
339.562	264.69
339.79	274.69
340.018	273.69
340.246	259.69
340.474	283.69
340.702	280.69
340.93	277.69
341.158	279.69
341.386	268.69
341.614	259.69
341.842	263.69
342.07	269.69
342.298	273.69
342.526	270.69
342.754	279.69
342.981	268.69
343.209	258.69
343.437	296.69
343.665	287.69
343.893	294.69
344.12	290.69
344.348	278.69
344.576	285.69
344.804	282.69
345.031	264.69
345.259	269.69
345.487	276.69
345.714	282.69
345.942	267.69
346.17	285.69
346.397	265.69
346.625	265.69
346.853	260.69
347.08	259.69
347.308	273.69
347.535	262.69
347.763	251.69
347.99	258.69
348.218	287.69
348.445	260.69
348.673	278.69
348.9	273.69
349.128	276.69
349.355	281.69
349.583	271.69
349.81	269.69
350.037	238.69
350.265	285.69
350.492	268.69
350.72	289.69
350.947	276.69
351.174	278.69
351.402	281.69
351.629	280.69
351.856	279.69
352.083	281.69
352.311	308.69
352.538	281.69
352.765	292.69
352.992	297.69
353.22	280.69
353.447	281.69
353.674	298.69
353.901	298.69
354.128	291.69
354.355	281.69
354.583	311.69
354.81	311.69
355.037	320.69
355.264	313.69
355.491	320.69
355.718	325.69
355.945	328.69
356.172	360.69
356.399	358.69
356.626	358.69
356.853	395.69
357.08	391.69
357.307	420.69
357.534	461.69
357.761	490.69
357.988	552.69
358.215	652.69
358.441	720.69
358.668	776.69
358.895	768.69
359.122	646.69
359.349	544.69
359.576	478.69
359.802	434.69
360.029	441.69
360.256	422.69
360.483	391.69
360.709	376.69
360.936	396.69
361.163	369.69
361.39	353.69
361.616	377.69
361.843	353.69
362.07	343.69
362.296	346.69
362.523	328.69
362.749	337.69
362.976	326.69
363.203	344.69
363.429	314.69
363.656	317.69
363.882	304.69
364.109	313.69
364.335	298.69
364.562	292.69
364.788	296.69
365.015	305.69
365.241	293.69
365.468	308.69
365.694	280.69
365.92	297.69
366.147	287.69
366.373	286.69
366.599	296.69
366.826	281.69
367.052	267.69
367.278	293.69
367.505	310.69
367.731	299.69
367.957	291.69
368.184	293.69
368.41	297.69
368.636	293.69
368.862	295.69
369.089	267.69
369.315	285.69
369.541	267.69
369.767	280.69
369.993	283.69
370.219	305.69
370.445	290.69
370.672	295.69
370.898	276.69
371.124	308.69
371.35	325.69
371.576	307.69
371.802	309.69
372.028	313.69
372.254	301.69
372.48	297.69
372.706	298.69
372.932	292.69
373.158	303.69
373.384	312.69
373.61	320.69
373.835	319.69
374.061	301.69
374.287	311.69
374.513	301.69
374.739	311.69
374.965	298.69
375.191	296.69
375.416	312.69
375.642	280.69
375.868	305.69
376.094	299.69
376.319	280.69
376.545	292.69
376.771	303.69
376.997	284.69
377.222	295.69
377.448	289.69
377.674	286.69
377.899	298.69
378.125	302.69
378.35	297.69
378.576	294.69
378.802	288.69
379.027	306.69
379.253	311.69
379.478	303.69
379.704	301.69
379.929	295.69
380.155	279.69
380.38	290.69
380.606	291.69
380.831	312.69
381.057	331.69
381.282	323.69
381.507	311.69
381.733	328.69
381.958	341.69
382.184	309.69
382.409	320.69
382.634	351.69
382.86	366.69
383.085	402.69
383.31	403.69
383.535	403.69
383.761	423.69
383.986	433.69
384.211	366.69
384.436	329.69
384.662	337.69
384.887	345.69
385.112	350.69
385.337	333.69
385.562	343.69
385.787	336.69
386.013	337.69
386.238	337.69
386.463	355.69
386.688	381.69
386.913	335.69
387.138	352.69
387.363	354.69
387.588	349.69
387.813	350.69
388.038	354.69
388.263	338.69
388.488	352.69
388.713	347.69
388.938	348.69
389.163	361.69
389.387	360.69
389.612	344.69
389.837	358.69
390.062	369.69
390.287	381.69
390.512	366.69
390.736	359.69
390.961	370.69
391.186	368.69
391.411	375.69
391.636	376.69
391.86	414.69
392.085	421.69
392.31	409.69
392.534	415.69
392.759	428.69
392.984	443.69
393.208	488.69
393.433	534.69
393.658	612.69
393.882	741.69
394.107	1261.69
394.331	2190.69
394.556	2920.69
394.78	1952.69
395.005	1103.69
395.229	874.69
395.454	887.69
395.678	1168.69
395.903	1833.69
396.127	3259.69
396.352	3778.69
396.576	2197.69
396.801	1267.69
397.025	925.69
397.249	727.69
397.474	651.69
397.698	598.69
397.922	571.69
398.147	530.69
398.371	524.69
398.595	512.69
398.82	486.69
399.044	485.69
399.268	501.69
399.492	515.69
399.717	530.69
399.941	524.69
400.165	493.69
400.389	461.69
400.613	449.69
400.837	420.69
401.062	419.69
401.286	439.69
401.51	436.69
401.734	414.69
401.958	415.69
402.182	393.69
402.406	426.69
402.63	403.69
402.854	422.69
403.078	427.69
403.302	439.69
403.526	437.69
403.75	406.69
403.974	429.69
404.198	415.69
404.422	433.69
404.645	416.69
404.869	426.69
405.093	413.69
405.317	386.69
405.541	415.69
405.765	407.69
405.988	415.69
406.212	420.69
406.436	420.69
406.66	417.69
406.883	421.69
407.107	439.69
407.331	425.69
407.555	430.69
407.778	436.69
408.002	431.69
408.226	415.69
408.449	419.69
408.673	421.69
408.896	417.69
409.12	387.69
409.344	423.69
409.567	419.69
409.791	426.69
410.014	435.69
410.238	414.69
410.461	419.69
410.685	433.69
410.908	409.69
411.132	420.69
411.355	407.69
411.578	421.69
411.802	415.69
412.025	418.69
412.249	401.69
412.472	413.69
412.695	417.69
412.919	401.69
413.142	408.69
413.365	392.69
413.589	407.69
413.812	376.69
414.035	386.69
414.258	392.69
414.482	407.69
414.705	407.69
414.928	391.69
415.151	408.69
415.374	394.69
415.597	405.69
415.821	400.69
416.044	401.69
416.267	392.69
416.49	397.69
416.713	400.69
416.936	403.69
417.159	394.69
417.382	406.69
417.605	408.69
417.828	407.69
418.051	388.69
418.274	411.69
418.497	407.69
418.72	403.69
418.943	418.69
419.166	429.69
419.389	433.69
419.611	403.69
419.834	412.69
420.057	420.69
420.28	410.69
420.503	395.69
420.726	398.69
420.948	399.69
421.171	396.69
421.394	396.69
421.617	412.69
421.839	426.69
422.062	433.69
422.285	413.69
422.507	403.69
422.73	407.69
422.953	387.69
423.175	413.69
423.398	422.69
423.621	404.69
423.843	409.69
424.066	438.69
424.288	401.69
424.511	414.69
424.733	408.69
424.956	428.69
425.178	411.69
425.401	411.69
425.623	409.69
425.846	407.69
426.068	413.69
426.291	382.69
426.513	389.69
426.735	405.69
426.958	383.69
427.18	377.69
427.402	391.69
427.625	389.69
427.847	386.69
428.069	392.69
428.292	397.69
428.514	369.69
428.736	389.69
428.958	396.69
429.181	392.69
429.403	388.69
429.625	375.69
429.847	375.69
430.069	382.69
430.292	376.69
430.514	373.69
430.736	373.69
430.958	384.69
431.18	343.69
431.402	369.69
431.624	382.69
431.846	357.69
432.068	337.69
432.29	356.69
432.512	360.69
432.734	375.69
432.956	380.69
433.178	402.69
433.4	390.69
433.622	389.69
433.844	407.69
434.066	378.69
434.287	369.69
434.509	364.69
434.731	373.69
434.953	389.69
435.175	407.69
435.397	406.69
435.618	385.69
435.84	364.69
436.062	373.69
436.284	364.69
436.505	392.69
436.727	379.69
436.949	384.69
437.17	357.69
437.392	389.69
437.614	375.69
437.835	351.69
438.057	351.69
438.278	354.69
438.5	373.69
438.721	397.69
438.943	389.69
439.165	381.69
439.386	405.69
439.608	392.69
439.829	407.69
440.05	406.69
440.272	405.69
440.493	399.69
440.715	418.69
440.936	417.69
441.158	417.69
441.379	415.69
441.6	432.69
441.822	412.69
442.043	440.69
442.264	415.69
442.486	418.69
442.707	405.69
442.928	419.69
443.149	437.69
443.371	420.69
443.592	428.69
443.813	391.69
444.034	397.69
444.255	454.69
444.476	424.69
444.698	454.69
444.919	455.69
445.14	688.69
445.361	557.69
445.582	431.69
445.803	405.69
446.024	434.69
446.245	434.69
446.466	433.69
446.687	415.69
446.908	426.69
447.129	419.69
447.35	428.69
447.571	415.69
447.792	371.69
448.013	382.69
448.234	399.69
448.455	390.69
448.675	393.69
448.896	402.69
449.117	383.69
449.338	371.69
449.559	379.69
449.779	366.69
450	398.69
450.221	386.69
450.442	395.69
450.662	377.69
450.883	395.69
451.104	390.69
451.324	365.69
451.545	384.69
451.766	370.69
451.986	395.69
452.207	376.69
452.428	394.69
452.648	378.69
452.869	398.69
453.089	379.69
453.31	375.69
453.53	356.69
453.751	385.69
453.971	355.69
454.192	366.69
454.412	353.69
454.633	361.69
454.853	365.69
455.073	374.69
455.294	367.69
455.514	366.69
455.734	376.69
455.955	348.69
456.175	355.69
456.395	341.69
456.616	338.69
456.836	342.69
457.056	350.69
457.276	338.69
457.497	324.69
457.717	326.69
457.937	329.69
458.157	334.69
458.377	318.69
458.598	333.69
458.818	335.69
459.038	337.69
459.258	328.69
459.478	341.69
459.698	342.69
459.918	357.69
460.138	373.69
460.358	403.69
460.578	380.69
460.798	386.69
461.018	382.69
461.238	394.69
461.458	383.69
461.678	387.69
461.898	402.69
462.118	390.69
462.338	418.69
462.558	431.69
462.777	421.69
462.997	432.69
463.217	439.69
463.437	449.69
463.657	447.69
463.876	418.69
464.096	433.69
464.316	438.69
464.536	459.69
464.755	459.69
464.975	406.69
465.195	388.69
465.414	417.69
465.634	385.69
465.854	422.69
466.073	418.69
466.293	443.69
466.512	488.69
466.732	470.69
466.951	475.69
467.171	433.69
467.391	438.69
467.61	425.69
467.829	429.69
468.049	391.69
468.268	385.69
468.488	427.69
468.707	412.69
468.927	400.69
469.146	402.69
469.365	409.69
469.585	400.69
469.804	395.69
470.023	439.69
470.243	411.69
470.462	395.69
470.681	415.69
470.901	382.69
471.12	389.69
471.339	404.69
471.558	392.69
471.777	412.69
471.997	384.69
472.216	383.69
472.435	374.69
472.654	370.69
472.873	364.69
473.092	392.69
473.311	414.69
473.53	429.69
473.749	480.69
473.968	476.69
474.187	463.69
474.406	437.69
474.625	463.69
474.844	500.69
475.063	481.69
475.282	446.69
475.501	416.69
475.72	428.69
475.939	424.69
476.158	400.69
476.377	387.69
476.596	397.69
476.814	397.69
477.033	377.69
477.252	369.69
477.471	383.69
477.69	402.69
477.908	419.69
478.127	402.69
478.346	406.69
478.564	396.69
478.783	407.69
479.002	404.69
479.22	408.69
479.439	432.69
479.658	403.69
479.876	370.69
480.095	380.69
480.313	397.69
480.532	429.69
480.751	409.69
480.969	385.69
481.188	379.69
481.406	391.69
481.624	361.69
481.843	347.69
482.061	373.69
482.28	390.69
482.498	383.69
482.717	358.69
482.935	392.69
483.153	385.69
483.372	432.69
483.59	413.69
483.808	391.69
484.027	403.69
484.245	422.69
484.463	455.69
484.681	480.69
484.9	473.69
485.118	450.69
485.336	438.69
485.554	398.69
485.772	416.69
485.99	384.69
486.209	407.69
486.427	411.69
486.645	432.69
486.863	456.69
487.081	444.69
487.299	451.69
487.517	464.69
487.735	481.69
487.953	467.69
488.171	504.69
488.389	470.69
488.607	439.69
488.825	433.69
489.043	445.69
489.261	432.69
489.479	438.69
489.696	444.69
489.914	430.69
490.132	437.69
490.35	424.69
490.568	467.69
490.786	473.69
491.003	452.69
491.221	486.69
491.439	494.69
491.657	481.69
491.874	509.69
492.092	525.69
492.31	536.69
492.527	519.69
492.745	495.69
492.963	513.69
493.18	492.69
493.398	485.69
493.615	468.69
493.833	475.69
494.05	486.69
494.268	482.69
494.485	480.69
494.703	484.69
494.92	482.69
495.138	459.69
495.355	472.69
495.573	481.69
495.79	467.69
496.008	464.69
496.225	476.69
496.442	461.69
496.66	469.69
496.877	467.69
497.094	491.69
497.312	489.69
497.529	472.69
497.746	495.69
497.963	468.69
498.181	464.69
498.398	462.69
498.615	489.69
498.832	510.69
499.049	539.69
499.267	549.69
499.484	550.69
499.701	617.69
499.918	651.69
500.135	680.69
500.352	700.69
500.569	703.69
500.786	719.69
501.003	696.69
501.22	652.69
501.437	599.69
501.654	573.69
501.871	548.69
502.088	524.69
502.305	499.69
502.522	489.69
