Data from SampC_HRD10591_00053.txt Node
Date: Mon Jan 19 11:37:47 EST 2026
User: Yrep
Spectrometer: HR+D1059
Trigger mode: 0
Integration Time (sec): 3.443000E-1
Scans to average: 1
Electric dark correction enabled: true
Nonlinearity correction enabled: false
Boxcar width: 0
XAxis mode: Wavelengths
Number of Pixels in Spectrum: 2048
>>>>>Begin Spectral Data<<<<<
223.165	-24.56
223.4	-24.56
223.635	-24.56
223.869	-30.56
224.104	-33.56
224.338	-10.56
224.573	-7.56
224.808	-24.56
225.042	-11.56
225.277	-0.56
225.511	-8.56
225.746	15.44
225.98	22.44
226.215	9.44
226.449	20.44
226.683	10.44
226.918	25.44
227.152	48.44
227.387	35.44
227.621	28.44
227.856	67.44
228.09	49.44
228.324	57.44
228.559	60.44
228.793	64.44
229.027	82.44
229.262	92.44
229.496	91.44
229.73	89.44
229.964	108.44
230.199	100.44
230.433	84.44
230.667	87.44
230.901	101.44
231.136	98.44
231.37	106.44
231.604	105.44
231.838	110.44
232.072	105.44
232.306	115.44
232.541	112.44
232.775	111.44
233.009	112.44
233.243	104.44
233.477	98.44
233.711	113.44
233.945	111.44
234.179	110.44
234.413	116.44
234.647	107.44
234.881	98.44
235.115	109.44
235.349	98.44
235.583	112.44
235.817	116.44
236.051	113.44
236.285	112.44
236.519	129.44
236.753	163.44
236.987	162.44
237.221	194.44
237.455	196.44
237.689	204.44
237.922	171.44
238.156	135.44
238.39	135.44
238.624	126.44
238.858	124.44
239.091	108.44
239.325	93.44
239.559	100.44
239.793	128.44
240.027	108.44
240.26	109.44
240.494	98.44
240.728	114.44
240.961	101.44
241.195	122.44
241.429	106.44
241.662	111.44
241.896	110.44
242.13	123.44
242.363	104.44
242.597	112.44
242.83	119.44
243.064	101.44
243.298	110.44
243.531	98.44
243.765	122.44
243.998	101.44
244.232	107.44
244.465	128.44
244.699	110.44
244.932	119.44
245.166	124.44
245.399	120.44
245.633	119.44
245.866	126.44
246.099	125.44
246.333	119.44
246.566	135.44
246.8	144.44
247.033	119.44
247.266	128.44
247.5	109.44
247.733	115.44
247.966	118.44
248.2	114.44
248.433	124.44
248.666	120.44
248.899	110.44
249.133	127.44
249.366	144.44
249.599	125.44
249.832	123.44
250.066	132.44
250.299	138.44
250.532	130.44
250.765	151.44
250.998	128.44
251.231	136.44
251.465	132.44
251.698	135.44
251.931	132.44
252.164	126.44
252.397	130.44
252.63	135.44
252.863	153.44
253.096	122.44
253.329	142.44
253.562	135.44
253.795	128.44
254.028	139.44
254.261	130.44
254.494	134.44
254.727	131.44
254.96	138.44
255.193	124.44
255.426	129.44
255.659	149.44
255.892	153.44
256.124	135.44
256.357	149.44
256.59	163.44
256.823	194.44
257.056	222.44
257.289	229.44
257.521	248.44
257.754	271.44
257.987	246.44
258.22	197.44
258.452	188.44
258.685	170.44
258.918	174.44
259.151	162.44
259.383	157.44
259.616	154.44
259.849	143.44
260.081	150.44
260.314	137.44
260.547	154.44
260.779	151.44
261.012	173.44
261.244	163.44
261.477	153.44
261.71	161.44
261.942	138.44
262.175	151.44
262.407	159.44
262.64	159.44
262.872	180.44
263.105	203.44
263.337	220.44
263.57	199.44
263.802	201.44
264.035	204.44
264.267	180.44
264.499	185.44
264.732	187.44
264.964	183.44
265.197	195.44
265.429	231.44
265.661	226.44
265.894	227.44
266.126	239.44
266.358	244.44
266.591	219.44
266.823	192.44
267.055	188.44
267.287	178.44
267.52	162.44
267.752	166.44
267.984	166.44
268.216	164.44
268.448	176.44
268.681	182.44
268.913	162.44
269.145	177.44
269.377	163.44
269.609	169.44
269.841	159.44
270.073	153.44
270.306	149.44
270.538	164.44
270.77	168.44
271.002	154.44
271.234	164.44
271.466	169.44
271.698	158.44
271.93	158.44
272.162	175.44
272.394	170.44
272.626	155.44
272.858	173.44
273.09	173.44
273.322	177.44
273.553	177.44
273.785	188.44
274.017	154.44
274.249	190.44
274.481	181.44
274.713	188.44
274.945	173.44
275.176	175.44
275.408	183.44
275.64	179.44
275.872	175.44
276.104	184.44
276.335	174.44
276.567	170.44
276.799	168.44
277.031	191.44
277.262	185.44
277.494	190.44
277.726	194.44
277.957	205.44
278.189	213.44
278.421	208.44
278.652	221.44
278.884	251.44
279.115	309.44
279.347	444.44
279.579	580.44
279.81	644.44
280.042	554.44
280.273	511.44
280.505	499.44
280.736	355.44
280.968	273.44
281.199	275.44
281.431	330.44
281.662	399.44
281.894	433.44
282.125	380.44
282.356	311.44
282.588	281.44
282.819	256.44
283.051	238.44
283.282	222.44
283.513	229.44
283.745	221.44
283.976	217.44
284.207	205.44
284.439	227.44
284.67	217.44
284.901	247.44
285.132	267.44
285.364	312.44
285.595	257.44
285.826	227.44
286.057	210.44
286.288	195.44
286.52	195.44
286.751	197.44
286.982	195.44
287.213	203.44
287.444	203.44
287.675	194.44
287.906	212.44
288.138	206.44
288.369	196.44
288.6	212.44
288.831	199.44
289.062	216.44
289.293	208.44
289.524	186.44
289.755	203.44
289.986	189.44
290.217	211.44
290.448	201.44
290.679	205.44
290.91	231.44
291.141	225.44
291.371	218.44
291.602	203.44
291.833	207.44
292.064	213.44
292.295	239.44
292.526	221.44
292.757	224.44
292.987	239.44
293.218	238.44
293.449	229.44
293.68	237.44
293.91	237.44
294.141	233.44
294.372	220.44
294.603	216.44
294.833	227.44
295.064	219.44
295.295	211.44
295.525	199.44
295.756	228.44
295.987	210.44
296.217	203.44
296.448	220.44
296.679	217.44
296.909	200.44
297.14	218.44
297.37	226.44
297.601	229.44
297.831	214.44
298.062	205.44
298.292	191.44
298.523	217.44
298.753	204.44
298.984	217.44
299.214	213.44
299.445	223.44
299.675	220.44
299.905	228.44
300.136	220.44
300.366	205.44
300.597	233.44
300.827	224.44
301.057	234.44
301.288	224.44
301.518	238.44
301.748	227.44
301.979	284.44
302.209	238.44
302.439	251.44
302.669	256.44
302.9	264.44
303.13	258.44
303.36	266.44
303.59	279.44
303.82	284.44
304.051	274.44
304.281	305.44
304.511	325.44
304.741	312.44
304.971	373.44
305.201	433.44
305.431	455.44
305.661	543.44
305.891	569.44
306.121	547.44
306.352	493.44
306.582	491.44
306.812	499.44
307.042	460.44
307.272	429.44
307.502	471.44
307.731	637.44
307.961	859.44
308.191	1205.44
308.421	1392.44
308.651	1187.44
308.881	1109.44
309.111	1336.44
309.341	1688.44
309.571	1623.44
309.8	1051.44
310.03	692.44
310.26	572.44
310.49	463.44
310.72	407.44
310.949	387.44
311.179	360.44
311.409	344.44
311.639	312.44
311.868	322.44
312.098	304.44
312.328	300.44
312.557	291.44
312.787	283.44
313.017	270.44
313.246	275.44
313.476	266.44
313.706	270.44
313.935	265.44
314.165	260.44
314.394	279.44
314.624	267.44
314.853	256.44
315.083	270.44
315.312	235.44
315.542	256.44
315.771	267.44
316.001	245.44
316.23	257.44
316.46	257.44
316.689	251.44
316.919	242.44
317.148	253.44
317.377	251.44
317.607	269.44
317.836	238.44
318.065	266.44
318.295	262.44
318.524	230.44
318.753	241.44
318.983	248.44
319.212	233.44
319.441	226.44
319.67	229.44
319.9	248.44
320.129	230.44
320.358	240.44
320.587	236.44
320.816	249.44
321.046	242.44
321.275	231.44
321.504	244.44
321.733	255.44
321.962	252.44
322.191	254.44
322.42	237.44
322.649	225.44
322.878	245.44
323.108	259.44
323.337	247.44
323.566	244.44
323.795	250.44
324.024	244.44
324.253	260.44
324.482	255.44
324.71	243.44
324.939	255.44
325.168	273.44
325.397	264.44
325.626	242.44
325.855	245.44
326.084	248.44
326.313	258.44
326.542	252.44
326.77	262.44
326.999	255.44
327.228	239.44
327.457	244.44
327.686	246.44
327.914	239.44
328.143	259.44
328.372	240.44
328.6	250.44
328.829	240.44
329.058	223.44
329.287	243.44
329.515	272.44
329.744	256.44
329.972	261.44
330.201	261.44
330.43	249.44
330.658	250.44
330.887	260.44
331.115	258.44
331.344	267.44
331.572	274.44
331.801	271.44
332.03	271.44
332.258	262.44
332.486	259.44
332.715	275.44
332.943	260.44
333.172	277.44
333.4	277.44
333.629	276.44
333.857	316.44
334.085	294.44
334.314	281.44
334.542	270.44
334.771	282.44
334.999	280.44
335.227	293.44
335.455	275.44
335.684	280.44
335.912	271.44
336.14	295.44
336.369	272.44
336.597	256.44
336.825	275.44
337.053	270.44
337.281	254.44
337.51	276.44
337.738	274.44
337.966	274.44
338.194	284.44
338.422	271.44
338.65	275.44
338.878	279.44
339.106	263.44
339.334	282.44
339.562	260.44
339.79	253.44
340.018	248.44
340.246	279.44
340.474	246.44
340.702	257.44
340.93	263.44
341.158	263.44
341.386	257.44
341.614	269.44
341.842	252.44
342.07	275.44
342.298	270.44
342.526	255.44
342.754	261.44
342.981	269.44
343.209	279.44
343.437	307.44
343.665	297.44
343.893	291.44
344.12	293.44
344.348	279.44
344.576	280.44
344.804	272.44
345.031	260.44
345.259	264.44
345.487	277.44
345.714	263.44
345.942	268.44
346.17	253.44
346.397	266.44
346.625	274.44
346.853	269.44
347.08	274.44
347.308	267.44
347.535	256.44
347.763	257.44
347.99	260.44
348.218	267.44
348.445	252.44
348.673	265.44
348.9	263.44
349.128	281.44
349.355	273.44
349.583	277.44
349.81	276.44
350.037	263.44
350.265	277.44
350.492	276.44
350.72	263.44
350.947	276.44
351.174	287.44
351.402	260.44
351.629	261.44
351.856	272.44
352.083	274.44
352.311	287.44
352.538	271.44
352.765	274.44
352.992	296.44
353.22	275.44
353.447	282.44
353.674	286.44
353.901	302.44
354.128	294.44
354.355	286.44
354.583	299.44
354.81	332.44
355.037	297.44
355.264	306.44
355.491	304.44
355.718	332.44
355.945	321.44
356.172	341.44
356.399	351.44
356.626	379.44
356.853	381.44
357.08	399.44
357.307	435.44
357.534	447.44
357.761	489.44
357.988	543.44
358.215	605.44
358.441	697.44
358.668	747.44
358.895	739.44
359.122	623.44
359.349	519.44
359.576	465.44
359.802	454.44
360.029	438.44
360.256	421.44
360.483	391.44
360.709	399.44
360.936	392.44
361.163	355.44
361.39	368.44
361.616	361.44
361.843	325.44
362.07	336.44
362.296	321.44
362.523	297.44
362.749	320.44
362.976	317.44
363.203	327.44
363.429	308.44
363.656	304.44
363.882	305.44
364.109	315.44
364.335	322.44
364.562	281.44
364.788	283.44
365.015	294.44
365.241	283.44
365.468	300.44
365.694	289.44
365.92	289.44
366.147	266.44
366.373	288.44
366.599	287.44
366.826	301.44
367.052	279.44
367.278	285.44
367.505	289.44
367.731	303.44
367.957	268.44
368.184	271.44
368.41	295.44
368.636	281.44
368.862	295.44
369.089	283.44
369.315	267.44
369.541	286.44
369.767	298.44
369.993	303.44
370.219	275.44
370.445	290.44
370.672	290.44
370.898	288.44
371.124	286.44
371.35	292.44
371.576	297.44
371.802	307.44
372.028	299.44
372.254	296.44
372.48	305.44
372.706	298.44
372.932	281.44
373.158	315.44
373.384	317.44
373.61	325.44
373.835	320.44
374.061	307.44
374.287	293.44
374.513	289.44
374.739	311.44
374.965	312.44
375.191	318.44
375.416	302.44
375.642	302.44
375.868	305.44
376.094	301.44
376.319	292.44
376.545	306.44
376.771	292.44
376.997	285.44
377.222	294.44
377.448	281.44
377.674	281.44
377.899	303.44
378.125	293.44
378.35	281.44
378.576	286.44
378.802	298.44
379.027	292.44
379.253	309.44
379.478	287.44
379.704	287.44
379.929	299.44
380.155	297.44
380.38	296.44
380.606	282.44
380.831	308.44
381.057	315.44
381.282	301.44
381.507	313.44
381.733	318.44
381.958	326.44
382.184	335.44
382.409	337.44
382.634	346.44
382.86	348.44
383.085	379.44
383.31	380.44
383.535	391.44
383.761	387.44
383.986	407.44
384.211	368.44
384.436	340.44
384.662	341.44
384.887	318.44
385.112	320.44
385.337	350.44
385.562	324.44
385.787	333.44
386.013	339.44
386.238	344.44
386.463	340.44
386.688	363.44
386.913	341.44
387.138	335.44
387.363	346.44
387.588	351.44
387.813	346.44
388.038	355.44
388.263	352.44
388.488	339.44
388.713	349.44
388.938	342.44
389.163	336.44
389.387	357.44
389.612	345.44
389.837	341.44
390.062	363.44
390.287	362.44
390.512	354.44
390.736	348.44
390.961	361.44
391.186	369.44
391.411	382.44
391.636	389.44
391.86	388.44
392.085	409.44
392.31	398.44
392.534	392.44
392.759	420.44
392.984	434.44
393.208	457.44
393.433	522.44
393.658	571.44
393.882	707.44
394.107	1087.44
394.331	1876.44
394.556	2455.44
394.78	1735.44
395.005	1028.44
395.229	819.44
395.454	823.44
395.678	990.44
395.903	1621.44
396.127	2733.44
396.352	3185.44
396.576	1999.44
396.801	1161.44
397.025	871.44
397.249	695.44
397.474	628.44
397.698	548.44
397.922	525.44
398.147	522.44
398.371	503.44
398.595	489.44
398.82	481.44
399.044	506.44
399.268	485.44
399.492	494.44
399.717	529.44
399.941	493.44
400.165	481.44
400.389	445.44
400.613	401.44
400.837	422.44
401.062	415.44
401.286	411.44
401.51	405.44
401.734	397.44
401.958	424.44
402.182	411.44
402.406	391.44
402.63	403.44
402.854	421.44
403.078	399.44
403.302	405.44
403.526	414.44
403.75	413.44
403.974	420.44
404.198	431.44
404.422	414.44
404.645	405.44
404.869	401.44
405.093	417.44
405.317	392.44
405.541	425.44
405.765	394.44
405.988	410.44
406.212	409.44
406.436	410.44
406.66	459.44
406.883	414.44
407.107	428.44
407.331	423.44
407.555	437.44
407.778	418.44
408.002	428.44
408.226	410.44
408.449	439.44
408.673	430.44
408.896	409.44
409.12	409.44
409.344	420.44
409.567	407.44
409.791	399.44
410.014	407.44
410.238	420.44
410.461	407.44
410.685	415.44
410.908	400.44
411.132	399.44
411.355	399.44
411.578	426.44
411.802	388.44
412.025	392.44
412.249	395.44
412.472	378.44
412.695	395.44
412.919	384.44
413.142	407.44
413.365	407.44
413.589	394.44
413.812	380.44
414.035	409.44
414.258	383.44
414.482	407.44
414.705	397.44
414.928	411.44
415.151	404.44
415.374	410.44
415.597	382.44
415.821	398.44
416.044	388.44
416.267	376.44
416.49	380.44
416.713	376.44
416.936	387.44
417.159	403.44
417.382	371.44
417.605	392.44
417.828	393.44
418.051	379.44
418.274	379.44
418.497	395.44
418.72	396.44
418.943	408.44
419.166	418.44
419.389	429.44
419.611	433.44
419.834	418.44
420.057	402.44
420.28	403.44
420.503	399.44
420.726	377.44
420.948	391.44
421.171	387.44
421.394	402.44
421.617	399.44
421.839	397.44
422.062	400.44
422.285	383.44
422.507	403.44
422.73	390.44
422.953	377.44
423.175	386.44
423.398	370.44
423.621	410.44
423.843	416.44
424.066	410.44
424.288	431.44
424.511	415.44
424.733	414.44
424.956	404.44
425.178	408.44
425.401	405.44
425.623	417.44
425.846	384.44
426.068	396.44
426.291	385.44
426.513	386.44
426.735	403.44
426.958	402.44
427.18	390.44
427.402	403.44
427.625	380.44
427.847	386.44
428.069	392.44
428.292	385.44
428.514	375.44
428.736	396.44
428.958	389.44
429.181	377.44
429.403	370.44
429.625	374.44
429.847	376.44
430.069	376.44
430.292	375.44
430.514	357.44
430.736	384.44
430.958	381.44
431.18	377.44
431.402	354.44
431.624	371.44
431.846	362.44
432.068	362.44
432.29	343.44
432.512	372.44
432.734	362.44
432.956	372.44
433.178	403.44
433.4	381.44
433.622	387.44
433.844	398.44
434.066	380.44
434.287	343.44
434.509	345.44
434.731	374.44
434.953	384.44
435.175	394.44
435.397	386.44
435.618	364.44
435.84	369.44
436.062	366.44
436.284	374.44
436.505	375.44
436.727	392.44
436.949	363.44
437.17	375.44
437.392	370.44
437.614	366.44
437.835	349.44
438.057	331.44
438.278	363.44
438.5	367.44
438.721	383.44
438.943	403.44
439.165	389.44
439.386	379.44
439.608	404.44
439.829	393.44
440.05	423.44
440.272	427.44
440.493	409.44
440.715	412.44
440.936	412.44
441.158	408.44
441.379	417.44
441.6	436.44
441.822	430.44
442.043	410.44
442.264	444.44
442.486	404.44
442.707	413.44
442.928	433.44
443.149	419.44
443.371	412.44
443.592	418.44
443.813	409.44
444.034	384.44
444.255	427.44
444.476	451.44
444.698	422.44
444.919	439.44
445.14	602.44
445.361	517.44
445.582	441.44
445.803	428.44
446.024	412.44
446.245	416.44
446.466	420.44
446.687	434.44
446.908	420.44
447.129	422.44
447.35	409.44
447.571	409.44
447.792	400.44
448.013	400.44
448.234	395.44
448.455	401.44
448.675	399.44
448.896	375.44
449.117	371.44
449.338	364.44
449.559	361.44
449.779	377.44
450	373.44
450.221	360.44
450.442	381.44
450.662	387.44
450.883	380.44
451.104	377.44
451.324	378.44
451.545	359.44
451.766	383.44
451.986	384.44
452.207	392.44
452.428	365.44
452.648	386.44
452.869	375.44
453.089	365.44
453.31	367.44
453.53	341.44
453.751	363.44
453.971	385.44
454.192	364.44
454.412	343.44
454.633	343.44
454.853	360.44
455.073	353.44
455.294	379.44
455.514	345.44
455.734	348.44
455.955	340.44
456.175	332.44
456.395	336.44
456.616	336.44
456.836	321.44
457.056	332.44
457.276	339.44
457.497	333.44
457.717	321.44
457.937	337.44
458.157	307.44
458.377	338.44
458.598	331.44
458.818	344.44
459.038	311.44
459.258	325.44
459.478	323.44
459.698	348.44
459.918	357.44
460.138	359.44
460.358	360.44
460.578	369.44
460.798	381.44
461.018	400.44
461.238	371.44
461.458	371.44
461.678	363.44
461.898	392.44
462.118	409.44
462.338	411.44
462.558	425.44
462.777	415.44
462.997	434.44
463.217	431.44
463.437	417.44
463.657	432.44
463.876	419.44
464.096	417.44
464.316	429.44
464.536	449.44
464.755	432.44
464.975	412.44
465.195	417.44
465.414	410.44
465.634	388.44
465.854	405.44
466.073	419.44
466.293	445.44
466.512	487.44
466.732	443.44
466.951	449.44
467.171	433.44
467.391	428.44
467.61	421.44
467.829	423.44
468.049	409.44
468.268	379.44
468.488	392.44
468.707	394.44
468.927	394.44
469.146	388.44
469.365	399.44
469.585	390.44
469.804	408.44
470.023	409.44
470.243	415.44
470.462	400.44
470.681	404.44
470.901	408.44
471.12	408.44
471.339	396.44
471.558	386.44
471.777	421.44
471.997	393.44
472.216	386.44
472.435	372.44
472.654	368.44
472.873	364.44
473.092	405.44
473.311	398.44
473.53	409.44
473.749	465.44
473.968	457.44
474.187	434.44
474.406	461.44
474.625	472.44
474.844	468.44
475.063	442.44
475.282	423.44
475.501	403.44
475.72	416.44
475.939	399.44
476.158	385.44
476.377	376.44
476.596	356.44
476.814	345.44
477.033	361.44
477.252	369.44
477.471	380.44
477.69	386.44
477.908	407.44
478.127	405.44
478.346	394.44
478.564	405.44
478.783	410.44
479.002	420.44
479.22	414.44
479.439	407.44
479.658	395.44
479.876	386.44
480.095	375.44
480.313	398.44
480.532	421.44
480.751	375.44
480.969	377.44
481.188	385.44
481.406	357.44
481.624	364.44
481.843	346.44
482.061	360.44
482.28	385.44
482.498	385.44
482.717	376.44
482.935	373.44
483.153	395.44
483.372	399.44
483.59	431.44
483.808	393.44
484.027	391.44
484.245	415.44
484.463	456.44
484.681	472.44
484.9	442.44
485.118	424.44
485.336	409.44
485.554	412.44
485.772	414.44
485.99	412.44
486.209	384.44
486.427	411.44
486.645	447.44
486.863	454.44
487.081	461.44
487.299	431.44
487.517	441.44
487.735	460.44
487.953	482.44
488.171	484.44
488.389	461.44
488.607	434.44
488.825	421.44
489.043	427.44
489.261	428.44
489.479	442.44
489.696	437.44
489.914	424.44
490.132	439.44
490.35	451.44
490.568	459.44
490.786	456.44
491.003	457.44
491.221	465.44
491.439	471.44
491.657	483.44
491.874	511.44
492.092	541.44
492.31	557.44
492.527	498.44
492.745	485.44
492.963	504.44
493.18	479.44
493.398	493.44
493.615	485.44
493.833	460.44
494.05	473.44
494.268	491.44
494.485	478.44
494.703	460.44
494.92	475.44
495.138	467.44
495.355	472.44
495.573	490.44
495.79	461.44
496.008	472.44
496.225	472.44
496.442	464.44
496.66	473.44
496.877	475.44
497.094	480.44
497.312	465.44
497.529	467.44
497.746	465.44
497.963	468.44
498.181	469.44
498.398	480.44
498.615	479.44
498.832	497.44
499.049	540.44
499.267	541.44
499.484	548.44
499.701	577.44
499.918	649.44
500.135	696.44
500.352	721.44
500.569	723.44
500.786	700.44
501.003	685.44
501.22	634.44
501.437	591.44
501.654	593.44
501.871	561.44
502.088	528.44
502.305	524.44
502.522	476.44
502.739	492.44
