Data from SampC_HRD10591_00042.txt Node
Date: Mon Jan 19 11:37:43 EST 2026
User: Yrep
Spectrometer: HR+D1059
Trigger mode: 0
Integration Time (sec): 3.443000E-1
Scans to average: 1
Electric dark correction enabled: true
Nonlinearity correction enabled: false
Boxcar width: 0
XAxis mode: Wavelengths
Number of Pixels in Spectrum: 2048
>>>>>Begin Spectral Data<<<<<
223.165	-17.81
223.4	-17.81
223.635	-17.81
223.869	-33.81
224.104	-38.81
224.338	-6.81
224.573	-18.81
224.808	-8.81
225.042	-1.81
225.277	-3.81
225.511	-0.81
225.746	7.19
225.98	15.19
226.215	25.19
226.449	17.19
226.683	19.19
226.918	26.19
227.152	21.19
227.387	36.19
227.621	32.19
227.856	28.19
228.09	46.19
228.324	61.19
228.559	64.19
228.793	76.19
229.027	71.19
229.262	74.19
229.496	86.19
229.73	86.19
229.964	90.19
230.199	99.19
230.433	77.19
230.667	97.19
230.901	90.19
231.136	106.19
231.37	113.19
231.604	101.19
231.838	96.19
232.072	119.19
232.306	110.19
232.541	119.19
232.775	108.19
233.009	111.19
233.243	110.19
233.477	101.19
233.711	95.19
233.945	119.19
234.179	115.19
234.413	109.19
234.647	102.19
234.881	108.19
235.115	106.19
235.349	97.19
235.583	107.19
235.817	105.19
236.051	102.19
236.285	115.19
236.519	129.19
236.753	137.19
236.987	144.19
237.221	179.19
237.455	166.19
237.689	185.19
237.922	155.19
238.156	139.19
238.39	122.19
238.624	130.19
238.858	113.19
239.091	105.19
239.325	104.19
239.559	109.19
239.793	117.19
240.027	104.19
240.26	91.19
240.494	97.19
240.728	99.19
240.961	110.19
241.195	107.19
241.429	118.19
241.662	117.19
241.896	111.19
242.13	108.19
242.363	108.19
242.597	109.19
242.83	113.19
243.064	103.19
243.298	97.19
243.531	105.19
243.765	107.19
243.998	109.19
244.232	106.19
244.465	108.19
244.699	110.19
244.932	118.19
245.166	105.19
245.399	119.19
245.633	132.19
245.866	101.19
246.099	103.19
246.333	111.19
246.566	130.19
246.8	114.19
247.033	128.19
247.266	86.19
247.5	105.19
247.733	112.19
247.966	109.19
248.2	106.19
248.433	104.19
248.666	122.19
248.899	131.19
249.133	118.19
249.366	118.19
249.599	106.19
249.832	118.19
250.066	127.19
250.299	123.19
250.532	109.19
250.765	111.19
250.998	114.19
251.231	124.19
251.465	128.19
251.698	121.19
251.931	120.19
252.164	128.19
252.397	129.19
252.63	134.19
252.863	133.19
253.096	127.19
253.329	119.19
253.562	116.19
253.795	127.19
254.028	131.19
254.261	129.19
254.494	118.19
254.727	141.19
254.96	133.19
255.193	138.19
255.426	131.19
255.659	141.19
255.892	139.19
256.124	137.19
256.357	136.19
256.59	164.19
256.823	185.19
257.056	219.19
257.289	232.19
257.521	226.19
257.754	267.19
257.987	256.19
258.22	209.19
258.452	181.19
258.685	156.19
258.918	148.19
259.151	140.19
259.383	143.19
259.616	141.19
259.849	154.19
260.081	138.19
260.314	141.19
260.547	124.19
260.779	142.19
261.012	145.19
261.244	163.19
261.477	164.19
261.71	142.19
261.942	137.19
262.175	153.19
262.407	149.19
262.64	158.19
262.872	162.19
263.105	176.19
263.337	197.19
263.57	215.19
263.802	181.19
264.035	178.19
264.267	161.19
264.499	179.19
264.732	181.19
264.964	172.19
265.197	181.19
265.429	204.19
265.661	204.19
265.894	202.19
266.126	243.19
266.358	226.19
266.591	200.19
266.823	186.19
267.055	159.19
267.287	164.19
267.52	152.19
267.752	172.19
267.984	149.19
268.216	144.19
268.448	158.19
268.681	146.19
268.913	167.19
269.145	145.19
269.377	149.19
269.609	139.19
269.841	139.19
270.073	145.19
270.306	146.19
270.538	150.19
270.77	165.19
271.002	147.19
271.234	167.19
271.466	131.19
271.698	147.19
271.93	164.19
272.162	149.19
272.394	170.19
272.626	146.19
272.858	163.19
273.09	160.19
273.322	157.19
273.553	150.19
273.785	143.19
274.017	168.19
274.249	165.19
274.481	165.19
274.713	167.19
274.945	182.19
275.176	164.19
275.408	168.19
275.64	176.19
275.872	175.19
276.104	178.19
276.335	168.19
276.567	172.19
276.799	162.19
277.031	153.19
277.262	179.19
277.494	172.19
277.726	172.19
277.957	198.19
278.189	203.19
278.421	189.19
278.652	211.19
278.884	225.19
279.115	284.19
279.347	402.19
279.579	511.19
279.81	601.19
280.042	497.19
280.273	445.19
280.505	452.19
280.736	329.19
280.968	250.19
281.199	252.19
281.431	284.19
281.662	345.19
281.894	395.19
282.125	331.19
282.356	265.19
282.588	237.19
282.819	219.19
283.051	222.19
283.282	192.19
283.513	207.19
283.745	205.19
283.976	206.19
284.207	199.19
284.439	181.19
284.67	210.19
284.901	229.19
285.132	246.19
285.364	270.19
285.595	238.19
285.826	201.19
286.057	189.19
286.288	179.19
286.52	183.19
286.751	178.19
286.982	197.19
287.213	196.19
287.444	184.19
287.675	185.19
287.906	203.19
288.138	193.19
288.369	199.19
288.6	205.19
288.831	183.19
289.062	197.19
289.293	189.19
289.524	184.19
289.755	194.19
289.986	198.19
290.217	193.19
290.448	177.19
290.679	198.19
290.91	206.19
291.141	206.19
291.371	191.19
291.602	193.19
291.833	197.19
292.064	191.19
292.295	195.19
292.526	193.19
292.757	198.19
292.987	215.19
293.218	211.19
293.449	210.19
293.68	246.19
293.91	200.19
294.141	219.19
294.372	204.19
294.603	199.19
294.833	208.19
295.064	204.19
295.295	189.19
295.525	179.19
295.756	193.19
295.987	181.19
296.217	201.19
296.448	186.19
296.679	192.19
296.909	200.19
297.14	186.19
297.37	209.19
297.601	199.19
297.831	191.19
298.062	193.19
298.292	198.19
298.523	203.19
298.753	197.19
298.984	205.19
299.214	210.19
299.445	219.19
299.675	211.19
299.905	203.19
300.136	214.19
300.366	195.19
300.597	208.19
300.827	197.19
301.057	213.19
301.288	216.19
301.518	216.19
301.748	225.19
301.979	257.19
302.209	221.19
302.439	234.19
302.669	239.19
302.9	246.19
303.13	238.19
303.36	249.19
303.59	245.19
303.82	248.19
304.051	263.19
304.281	266.19
304.511	274.19
304.741	291.19
304.971	354.19
305.201	385.19
305.431	448.19
305.661	480.19
305.891	521.19
306.121	497.19
306.352	442.19
306.582	443.19
306.812	473.19
307.042	421.19
307.272	377.19
307.502	430.19
307.731	551.19
307.961	753.19
308.191	1037.19
308.421	1185.19
308.651	1026.19
308.881	948.19
309.111	1139.19
309.341	1428.19
309.571	1325.19
309.8	896.19
310.03	645.19
310.26	519.19
310.49	422.19
310.72	386.19
310.949	351.19
311.179	333.19
311.409	347.19
311.639	319.19
311.868	296.19
312.098	276.19
312.328	273.19
312.557	268.19
312.787	250.19
313.017	261.19
313.246	265.19
313.476	255.19
313.706	247.19
313.935	235.19
314.165	247.19
314.394	256.19
314.624	263.19
314.853	242.19
315.083	230.19
315.312	248.19
315.542	232.19
315.771	233.19
316.001	244.19
316.23	225.19
316.46	217.19
316.689	217.19
316.919	218.19
317.148	243.19
317.377	240.19
317.607	234.19
317.836	222.19
318.065	233.19
318.295	238.19
318.524	229.19
318.753	235.19
318.983	223.19
319.212	236.19
319.441	214.19
319.67	216.19
319.9	217.19
320.129	228.19
320.358	225.19
320.587	222.19
320.816	225.19
321.046	219.19
321.275	227.19
321.504	227.19
321.733	222.19
321.962	217.19
322.191	214.19
322.42	226.19
322.649	232.19
322.878	218.19
323.108	210.19
323.337	226.19
323.566	230.19
323.795	233.19
324.024	230.19
324.253	237.19
324.482	244.19
324.71	231.19
324.939	237.19
325.168	249.19
325.397	215.19
325.626	216.19
325.855	233.19
326.084	220.19
326.313	240.19
326.542	228.19
326.77	236.19
326.999	217.19
327.228	232.19
327.457	216.19
327.686	230.19
327.914	250.19
328.143	251.19
328.372	230.19
328.6	242.19
328.829	201.19
329.058	231.19
329.287	231.19
329.515	224.19
329.744	235.19
329.972	231.19
330.201	221.19
330.43	246.19
330.658	229.19
330.887	226.19
331.115	237.19
331.344	232.19
331.572	265.19
331.801	243.19
332.03	262.19
332.258	239.19
332.486	240.19
332.715	236.19
332.943	237.19
333.172	245.19
333.4	257.19
333.629	258.19
333.857	266.19
334.085	267.19
334.314	248.19
334.542	277.19
334.771	259.19
334.999	252.19
335.227	260.19
335.455	250.19
335.684	264.19
335.912	235.19
336.14	242.19
336.369	236.19
336.597	233.19
336.825	255.19
337.053	241.19
337.281	230.19
337.51	246.19
337.738	234.19
337.966	240.19
338.194	244.19
338.422	239.19
338.65	254.19
338.878	258.19
339.106	248.19
339.334	253.19
339.562	261.19
339.79	243.19
340.018	238.19
340.246	234.19
340.474	235.19
340.702	240.19
340.93	219.19
341.158	235.19
341.386	230.19
341.614	255.19
341.842	259.19
342.07	250.19
342.298	236.19
342.526	245.19
342.754	231.19
342.981	252.19
343.209	254.19
343.437	277.19
343.665	267.19
343.893	268.19
344.12	267.19
344.348	271.19
344.576	244.19
344.804	239.19
345.031	236.19
345.259	246.19
345.487	250.19
345.714	250.19
345.942	250.19
346.17	237.19
346.397	221.19
346.625	257.19
346.853	241.19
347.08	235.19
347.308	244.19
347.535	246.19
347.763	248.19
347.99	256.19
348.218	249.19
348.445	248.19
348.673	231.19
348.9	250.19
349.128	245.19
349.355	244.19
349.583	249.19
349.81	247.19
350.037	246.19
350.265	245.19
350.492	238.19
350.72	236.19
350.947	239.19
351.174	252.19
351.402	238.19
351.629	235.19
351.856	264.19
352.083	240.19
352.311	249.19
352.538	242.19
352.765	240.19
352.992	291.19
353.22	263.19
353.447	256.19
353.674	261.19
353.901	282.19
354.128	271.19
354.355	246.19
354.583	283.19
354.81	277.19
355.037	299.19
355.264	279.19
355.491	273.19
355.718	301.19
355.945	298.19
356.172	306.19
356.399	311.19
356.626	337.19
356.853	343.19
357.08	360.19
357.307	373.19
357.534	406.19
357.761	417.19
357.988	457.19
358.215	521.19
358.441	587.19
358.668	651.19
358.895	618.19
359.122	533.19
359.349	461.19
359.576	426.19
359.802	394.19
360.029	386.19
360.256	375.19
360.483	337.19
360.709	317.19
360.936	351.19
361.163	311.19
361.39	316.19
361.616	321.19
361.843	320.19
362.07	284.19
362.296	296.19
362.523	295.19
362.749	283.19
362.976	268.19
363.203	292.19
363.429	268.19
363.656	273.19
363.882	278.19
364.109	281.19
364.335	270.19
364.562	245.19
364.788	253.19
365.015	287.19
365.241	274.19
365.468	283.19
365.694	255.19
365.92	263.19
366.147	240.19
366.373	243.19
366.599	270.19
366.826	238.19
367.052	257.19
367.278	258.19
367.505	252.19
367.731	284.19
367.957	256.19
368.184	271.19
368.41	257.19
368.636	254.19
368.862	247.19
369.089	251.19
369.315	270.19
369.541	270.19
369.767	246.19
369.993	259.19
370.219	253.19
370.445	268.19
370.672	257.19
370.898	261.19
371.124	266.19
371.35	253.19
371.576	269.19
371.802	271.19
372.028	271.19
372.254	263.19
372.48	262.19
372.706	265.19
372.932	256.19
373.158	261.19
373.384	269.19
373.61	267.19
373.835	267.19
374.061	264.19
374.287	263.19
374.513	284.19
374.739	267.19
374.965	269.19
375.191	283.19
375.416	273.19
375.642	279.19
375.868	281.19
376.094	283.19
376.319	270.19
376.545	273.19
376.771	267.19
376.997	263.19
377.222	248.19
377.448	247.19
377.674	267.19
377.899	261.19
378.125	256.19
378.35	279.19
378.576	267.19
378.802	270.19
379.027	289.19
379.253	263.19
379.478	257.19
379.704	267.19
379.929	287.19
380.155	277.19
380.38	293.19
380.606	269.19
380.831	271.19
381.057	274.19
381.282	262.19
381.507	280.19
381.733	289.19
381.958	301.19
382.184	290.19
382.409	303.19
382.634	312.19
382.86	333.19
383.085	339.19
383.31	349.19
383.535	380.19
383.761	358.19
383.986	381.19
384.211	312.19
384.436	303.19
384.662	309.19
384.887	317.19
385.112	308.19
385.337	296.19
385.562	314.19
385.787	319.19
386.013	314.19
386.238	328.19
386.463	317.19
386.688	344.19
386.913	316.19
387.138	314.19
387.363	323.19
387.588	310.19
387.813	313.19
388.038	313.19
388.263	315.19
388.488	312.19
388.713	315.19
388.938	311.19
389.163	307.19
389.387	322.19
389.612	315.19
389.837	315.19
390.062	334.19
390.287	319.19
390.512	316.19
390.736	327.19
390.961	331.19
391.186	344.19
391.411	349.19
391.636	345.19
391.86	337.19
392.085	362.19
392.31	354.19
392.534	365.19
392.759	385.19
392.984	379.19
393.208	434.19
393.433	471.19
393.658	496.19
393.882	617.19
394.107	973.19
394.331	1586.19
394.556	2045.19
394.78	1478.19
395.005	925.19
395.229	738.19
395.454	736.19
395.678	885.19
395.903	1411.19
396.127	2215.19
396.352	2605.19
396.576	1667.19
396.801	1044.19
397.025	767.19
397.249	630.19
397.474	597.19
397.698	528.19
397.922	530.19
398.147	476.19
398.371	465.19
398.595	441.19
398.82	434.19
399.044	439.19
399.268	478.19
399.492	463.19
399.717	471.19
399.941	455.19
400.165	450.19
400.389	413.19
400.613	405.19
400.837	405.19
401.062	382.19
401.286	379.19
401.51	369.19
401.734	374.19
401.958	375.19
402.182	359.19
402.406	370.19
402.63	365.19
402.854	380.19
403.078	380.19
403.302	395.19
403.526	389.19
403.75	377.19
403.974	372.19
404.198	365.19
404.422	367.19
404.645	370.19
404.869	360.19
405.093	358.19
405.317	394.19
405.541	388.19
405.765	355.19
405.988	374.19
406.212	377.19
406.436	375.19
406.66	390.19
406.883	396.19
407.107	379.19
407.331	411.19
407.555	402.19
407.778	405.19
408.002	394.19
408.226	389.19
408.449	386.19
408.673	393.19
408.896	382.19
409.12	368.19
409.344	383.19
409.567	384.19
409.791	363.19
410.014	385.19
410.238	371.19
410.461	361.19
410.685	371.19
410.908	355.19
411.132	342.19
411.355	339.19
411.578	381.19
411.802	373.19
412.025	369.19
412.249	378.19
412.472	358.19
412.695	349.19
412.919	351.19
413.142	368.19
413.365	369.19
413.589	366.19
413.812	360.19
414.035	374.19
414.258	358.19
414.482	357.19
414.705	369.19
414.928	381.19
415.151	363.19
415.374	353.19
415.597	379.19
415.821	371.19
416.044	357.19
416.267	348.19
416.49	353.19
416.713	366.19
416.936	353.19
417.159	385.19
417.382	351.19
417.605	363.19
417.828	359.19
418.051	348.19
418.274	379.19
418.497	359.19
418.72	359.19
418.943	361.19
419.166	384.19
419.389	398.19
419.611	392.19
419.834	370.19
420.057	383.19
420.28	372.19
420.503	363.19
420.726	364.19
420.948	377.19
421.171	354.19
421.394	367.19
421.617	381.19
421.839	361.19
422.062	363.19
422.285	338.19
422.507	355.19
422.73	359.19
422.953	365.19
423.175	365.19
423.398	390.19
423.621	369.19
423.843	376.19
424.066	377.19
424.288	373.19
424.511	360.19
424.733	377.19
424.956	391.19
425.178	369.19
425.401	383.19
425.623	383.19
425.846	373.19
426.068	348.19
426.291	354.19
426.513	367.19
426.735	352.19
426.958	361.19
427.18	355.19
427.402	356.19
427.625	365.19
427.847	360.19
428.069	343.19
428.292	348.19
428.514	362.19
428.736	354.19
428.958	354.19
429.181	345.19
429.403	343.19
429.625	351.19
429.847	366.19
430.069	354.19
430.292	346.19
430.514	329.19
430.736	349.19
430.958	329.19
431.18	329.19
431.402	319.19
431.624	352.19
431.846	291.19
432.068	323.19
432.29	310.19
432.512	326.19
432.734	350.19
432.956	353.19
433.178	352.19
433.4	366.19
433.622	343.19
433.844	353.19
434.066	339.19
434.287	330.19
434.509	321.19
434.731	335.19
434.953	335.19
435.175	356.19
435.397	348.19
435.618	332.19
435.84	331.19
436.062	332.19
436.284	323.19
436.505	366.19
436.727	366.19
436.949	356.19
437.17	369.19
437.392	351.19
437.614	325.19
437.835	325.19
438.057	306.19
438.278	315.19
438.5	339.19
438.721	333.19
438.943	373.19
439.165	361.19
439.386	331.19
439.608	351.19
439.829	353.19
440.05	363.19
440.272	368.19
440.493	352.19
440.715	377.19
440.936	381.19
441.158	374.19
441.379	383.19
441.6	387.19
441.822	409.19
442.043	390.19
442.264	364.19
442.486	363.19
442.707	384.19
442.928	384.19
443.149	363.19
443.371	360.19
443.592	360.19
443.813	382.19
444.034	373.19
444.255	397.19
444.476	366.19
444.698	400.19
444.919	397.19
445.14	658.19
445.361	509.19
445.582	397.19
445.803	359.19
446.024	395.19
446.245	379.19
446.466	381.19
446.687	387.19
446.908	377.19
447.129	374.19
447.35	375.19
447.571	366.19
447.792	364.19
448.013	365.19
448.234	368.19
448.455	360.19
448.675	330.19
448.896	337.19
449.117	352.19
449.338	344.19
449.559	348.19
449.779	340.19
450	373.19
450.221	344.19
450.442	347.19
450.662	328.19
450.883	337.19
451.104	350.19
451.324	347.19
451.545	312.19
451.766	351.19
451.986	339.19
452.207	342.19
452.428	333.19
452.648	341.19
452.869	320.19
453.089	328.19
453.31	330.19
453.53	309.19
453.751	318.19
453.971	329.19
454.192	308.19
454.412	314.19
454.633	331.19
454.853	320.19
455.073	300.19
455.294	306.19
455.514	319.19
455.734	318.19
455.955	307.19
456.175	329.19
456.395	313.19
456.616	297.19
456.836	307.19
457.056	297.19
457.276	289.19
457.497	291.19
457.717	299.19
457.937	313.19
458.157	285.19
458.377	319.19
458.598	299.19
458.818	299.19
459.038	291.19
459.258	298.19
459.478	301.19
459.698	295.19
459.918	329.19
460.138	335.19
460.358	341.19
460.578	352.19
460.798	355.19
461.018	343.19
461.238	359.19
461.458	347.19
461.678	359.19
461.898	371.19
462.118	355.19
462.338	369.19
462.558	383.19
462.777	385.19
462.997	378.19
463.217	386.19
463.437	399.19
463.657	391.19
463.876	400.19
464.096	387.19
464.316	372.19
464.536	397.19
464.755	394.19
464.975	370.19
465.195	369.19
465.414	341.19
465.634	358.19
465.854	362.19
466.073	394.19
466.293	387.19
466.512	419.19
466.732	413.19
466.951	394.19
467.171	397.19
467.391	383.19
467.61	389.19
467.829	365.19
468.049	359.19
468.268	354.19
468.488	367.19
468.707	349.19
468.927	348.19
469.146	358.19
469.365	375.19
469.585	352.19
469.804	380.19
470.023	362.19
470.243	355.19
470.462	361.19
470.681	357.19
470.901	362.19
471.12	380.19
471.339	348.19
471.558	341.19
471.777	374.19
471.997	335.19
472.216	341.19
472.435	336.19
472.654	324.19
472.873	320.19
473.092	332.19
473.311	357.19
473.53	378.19
473.749	407.19
473.968	402.19
474.187	401.19
474.406	370.19
474.625	416.19
474.844	429.19
475.063	408.19
475.282	397.19
475.501	359.19
475.72	374.19
475.939	365.19
476.158	369.19
476.377	350.19
476.596	337.19
476.814	344.19
477.033	313.19
477.252	321.19
477.471	354.19
477.69	371.19
477.908	371.19
478.127	383.19
478.346	371.19
478.564	351.19
478.783	383.19
479.002	359.19
479.22	370.19
479.439	378.19
479.658	359.19
479.876	363.19
480.095	370.19
480.313	366.19
480.532	366.19
480.751	353.19
480.969	327.19
481.188	321.19
481.406	320.19
481.624	318.19
481.843	317.19
482.061	339.19
482.28	338.19
482.498	338.19
482.717	326.19
482.935	369.19
483.153	375.19
483.372	373.19
483.59	363.19
483.808	366.19
484.027	362.19
484.245	377.19
484.463	413.19
484.681	405.19
484.9	379.19
485.118	400.19
485.336	377.19
485.554	379.19
485.772	390.19
485.99	375.19
486.209	348.19
486.427	353.19
486.645	377.19
486.863	397.19
487.081	395.19
487.299	382.19
487.517	395.19
487.735	431.19
487.953	440.19
488.171	417.19
488.389	427.19
488.607	404.19
488.825	384.19
489.043	378.19
489.261	385.19
489.479	404.19
489.696	384.19
489.914	383.19
490.132	387.19
490.35	391.19
490.568	418.19
490.786	411.19
491.003	425.19
491.221	446.19
491.439	440.19
491.657	426.19
491.874	478.19
492.092	469.19
492.31	508.19
492.527	470.19
492.745	454.19
492.963	445.19
493.18	448.19
493.398	441.19
493.615	443.19
493.833	436.19
494.05	410.19
494.268	424.19
494.485	437.19
494.703	431.19
494.92	423.19
495.138	434.19
495.355	431.19
495.573	440.19
495.79	429.19
496.008	430.19
496.225	429.19
496.442	427.19
496.66	425.19
496.877	434.19
497.094	415.19
497.312	440.19
497.529	453.19
497.746	439.19
497.963	424.19
498.181	414.19
498.398	413.19
498.615	441.19
498.832	448.19
499.049	474.19
499.267	497.19
499.484	525.19
499.701	552.19
499.918	589.19
500.135	622.19
500.352	646.19
500.569	663.19
500.786	657.19
501.003	639.19
501.22	573.19
501.437	545.19
501.654	531.19
501.871	491.19
502.088	480.19
502.305	459.19
502.522	442.19
502.739	447.19
