Data from SampC_HRD10591_00071.txt Node
Date: Mon Jan 19 11:37:53 EST 2026
User: Yrep
Spectrometer: HR+D1059
Trigger mode: 0
Integration Time (sec): 3.443000E-1
Scans to average: 1
Electric dark correction enabled: true
Nonlinearity correction enabled: false
Boxcar width: 0
XAxis mode: Wavelengths
Number of Pixels in Spectrum: 2048
>>>>>Begin Spectral Data<<<<<
223.165	-14.62
223.4	-14.62
223.635	-14.62
223.869	-31.62
224.104	-21.62
224.338	-17.62
224.573	-6.62
224.808	-14.62
225.042	-10.62
225.277	-0.62
225.511	2.38
225.746	19.38
225.98	8.38
226.215	13.38
226.449	3.38
226.683	25.38
226.918	17.38
227.152	28.38
227.387	34.38
227.621	25.38
227.856	48.38
228.09	37.38
228.324	43.38
228.559	41.38
228.793	79.38
229.027	100.38
229.262	100.38
229.496	89.38
229.73	93.38
229.964	104.38
230.199	99.38
230.433	98.38
230.667	104.38
230.901	90.38
231.136	117.38
231.37	100.38
231.604	127.38
231.838	111.38
232.072	120.38
232.306	128.38
232.541	128.38
232.775	125.38
233.009	107.38
233.243	117.38
233.477	104.38
233.711	110.38
233.945	115.38
234.179	134.38
234.413	123.38
234.647	127.38
234.881	118.38
235.115	111.38
235.349	121.38
235.583	110.38
235.817	128.38
236.051	142.38
236.285	142.38
236.519	152.38
236.753	184.38
236.987	225.38
237.221	246.38
237.455	242.38
237.689	239.38
237.922	206.38
238.156	169.38
238.39	145.38
238.624	142.38
238.858	139.38
239.091	126.38
239.325	123.38
239.559	114.38
239.793	118.38
240.027	137.38
240.26	128.38
240.494	119.38
240.728	110.38
240.961	118.38
241.195	129.38
241.429	107.38
241.662	104.38
241.896	96.38
242.13	122.38
242.363	132.38
242.597	110.38
242.83	129.38
243.064	111.38
243.298	126.38
243.531	121.38
243.765	132.38
243.998	127.38
244.232	134.38
244.465	134.38
244.699	130.38
244.932	115.38
245.166	136.38
245.399	140.38
245.633	129.38
245.866	134.38
246.099	123.38
246.333	138.38
246.566	140.38
246.8	146.38
247.033	153.38
247.266	136.38
247.5	121.38
247.733	139.38
247.966	134.38
248.2	139.38
248.433	125.38
248.666	135.38
248.899	129.38
249.133	138.38
249.366	140.38
249.599	137.38
249.832	135.38
250.066	154.38
250.299	138.38
250.532	142.38
250.765	132.38
250.998	136.38
251.231	127.38
251.465	140.38
251.698	158.38
251.931	167.38
252.164	148.38
252.397	158.38
252.63	148.38
252.863	141.38
253.096	143.38
253.329	161.38
253.562	150.38
253.795	163.38
254.028	157.38
254.261	170.38
254.494	138.38
254.727	152.38
254.96	142.38
255.193	161.38
255.426	170.38
255.659	157.38
255.892	178.38
256.124	159.38
256.357	180.38
256.59	211.38
256.823	241.38
257.056	318.38
257.289	317.38
257.521	346.38
257.754	400.38
257.987	347.38
258.22	270.38
258.452	217.38
258.685	200.38
258.918	170.38
259.151	175.38
259.383	185.38
259.616	180.38
259.849	185.38
260.081	183.38
260.314	178.38
260.547	171.38
260.779	178.38
261.012	173.38
261.244	186.38
261.477	186.38
261.71	162.38
261.942	178.38
262.175	162.38
262.407	180.38
262.64	191.38
262.872	195.38
263.105	208.38
263.337	242.38
263.57	254.38
263.802	228.38
264.035	232.38
264.267	209.38
264.499	187.38
264.732	214.38
264.964	214.38
265.197	253.38
265.429	274.38
265.661	256.38
265.894	272.38
266.126	299.38
266.358	334.38
266.591	281.38
266.823	238.38
267.055	206.38
267.287	208.38
267.52	206.38
267.752	185.38
267.984	183.38
268.216	180.38
268.448	188.38
268.681	187.38
268.913	197.38
269.145	181.38
269.377	177.38
269.609	162.38
269.841	181.38
270.073	174.38
270.306	160.38
270.538	178.38
270.77	182.38
271.002	188.38
271.234	191.38
271.466	201.38
271.698	189.38
271.93	178.38
272.162	187.38
272.394	208.38
272.626	180.38
272.858	170.38
273.09	183.38
273.322	185.38
273.553	186.38
273.785	179.38
274.017	196.38
274.249	199.38
274.481	211.38
274.713	185.38
274.945	209.38
275.176	208.38
275.408	215.38
275.64	190.38
275.872	206.38
276.104	191.38
276.335	213.38
276.567	194.38
276.799	210.38
277.031	212.38
277.262	215.38
277.494	221.38
277.726	234.38
277.957	263.38
278.189	274.38
278.421	266.38
278.652	273.38
278.884	328.38
279.115	408.38
279.347	581.38
279.579	812.38
279.81	898.38
280.042	758.38
280.273	711.38
280.505	670.38
280.736	447.38
280.968	336.38
281.199	340.38
281.431	386.38
281.662	514.38
281.894	543.38
282.125	442.38
282.356	367.38
282.588	329.38
282.819	283.38
283.051	262.38
283.282	246.38
283.513	263.38
283.745	253.38
283.976	263.38
284.207	250.38
284.439	236.38
284.67	246.38
284.901	288.38
285.132	340.38
285.364	370.38
285.595	320.38
285.826	258.38
286.057	264.38
286.288	242.38
286.52	248.38
286.751	222.38
286.982	228.38
287.213	218.38
287.444	224.38
287.675	240.38
287.906	251.38
288.138	262.38
288.369	242.38
288.6	250.38
288.831	239.38
289.062	238.38
289.293	245.38
289.524	240.38
289.755	227.38
289.986	226.38
290.217	228.38
290.448	219.38
290.679	240.38
290.91	246.38
291.141	234.38
291.371	248.38
291.602	261.38
291.833	234.38
292.064	255.38
292.295	262.38
292.526	264.38
292.757	270.38
292.987	270.38
293.218	271.38
293.449	272.38
293.68	284.38
293.91	272.38
294.141	262.38
294.372	249.38
294.603	227.38
294.833	232.38
295.064	249.38
295.295	232.38
295.525	238.38
295.756	250.38
295.987	229.38
296.217	249.38
296.448	253.38
296.679	245.38
296.909	250.38
297.14	252.38
297.37	253.38
297.601	255.38
297.831	240.38
298.062	260.38
298.292	248.38
298.523	259.38
298.753	248.38
298.984	248.38
299.214	248.38
299.445	257.38
299.675	244.38
299.905	259.38
300.136	247.38
300.366	264.38
300.597	275.38
300.827	257.38
301.057	256.38
301.288	266.38
301.518	268.38
301.748	282.38
301.979	317.38
302.209	287.38
302.439	303.38
302.669	298.38
302.9	307.38
303.13	326.38
303.36	329.38
303.59	342.38
303.82	335.38
304.051	364.38
304.281	374.38
304.511	403.38
304.741	414.38
304.971	492.38
305.201	572.38
305.431	642.38
305.661	745.38
305.891	804.38
306.121	745.38
306.352	662.38
306.582	675.38
306.812	654.38
307.042	588.38
307.272	587.38
307.502	650.38
307.731	921.38
307.961	1355.38
308.191	1928.38
308.421	2274.38
308.651	1842.38
308.881	1700.38
309.111	2136.38
309.341	2758.38
309.571	2595.38
309.8	1650.38
310.03	1022.38
310.26	716.38
310.49	618.38
310.72	551.38
310.949	496.38
311.179	468.38
311.409	432.38
311.639	423.38
311.868	411.38
312.098	402.38
312.328	367.38
312.557	368.38
312.787	359.38
313.017	350.38
313.246	351.38
313.476	336.38
313.706	344.38
313.935	331.38
314.165	332.38
314.394	311.38
314.624	304.38
314.853	323.38
315.083	321.38
315.312	314.38
315.542	302.38
315.771	298.38
316.001	308.38
316.23	304.38
316.46	301.38
316.689	304.38
316.919	300.38
317.148	277.38
317.377	308.38
317.607	288.38
317.836	286.38
318.065	292.38
318.295	292.38
318.524	275.38
318.753	284.38
318.983	285.38
319.212	278.38
319.441	279.38
319.67	292.38
319.9	282.38
320.129	285.38
320.358	299.38
320.587	288.38
320.816	288.38
321.046	274.38
321.275	292.38
321.504	283.38
321.733	283.38
321.962	273.38
322.191	290.38
322.42	276.38
322.649	296.38
322.878	291.38
323.108	299.38
323.337	286.38
323.566	303.38
323.795	282.38
324.024	319.38
324.253	298.38
324.482	276.38
324.71	301.38
324.939	296.38
325.168	314.38
325.397	293.38
325.626	286.38
325.855	291.38
326.084	291.38
326.313	313.38
326.542	295.38
326.77	299.38
326.999	306.38
327.228	283.38
327.457	286.38
327.686	285.38
327.914	300.38
328.143	306.38
328.372	285.38
328.6	286.38
328.829	275.38
329.058	292.38
329.287	305.38
329.515	300.38
329.744	290.38
329.972	284.38
330.201	305.38
330.43	298.38
330.658	299.38
330.887	300.38
331.115	309.38
331.344	300.38
331.572	302.38
331.801	295.38
332.03	302.38
332.258	318.38
332.486	322.38
332.715	326.38
332.943	314.38
333.172	321.38
333.4	334.38
333.629	318.38
333.857	328.38
334.085	360.38
334.314	323.38
334.542	332.38
334.771	336.38
334.999	341.38
335.227	330.38
335.455	322.38
335.684	318.38
335.912	334.38
336.14	327.38
336.369	334.38
336.597	333.38
336.825	317.38
337.053	312.38
337.281	300.38
337.51	311.38
337.738	301.38
337.966	301.38
338.194	324.38
338.422	304.38
338.65	319.38
338.878	310.38
339.106	309.38
339.334	312.38
339.562	315.38
339.79	306.38
340.018	294.38
340.246	292.38
340.474	303.38
340.702	298.38
340.93	300.38
341.158	313.38
341.386	302.38
341.614	292.38
341.842	301.38
342.07	313.38
342.298	320.38
342.526	303.38
342.754	274.38
342.981	306.38
343.209	325.38
343.437	343.38
343.665	335.38
343.893	335.38
344.12	318.38
344.348	319.38
344.576	319.38
344.804	319.38
345.031	336.38
345.259	323.38
345.487	312.38
345.714	300.38
345.942	290.38
346.17	304.38
346.397	313.38
346.625	288.38
346.853	284.38
347.08	307.38
347.308	305.38
347.535	321.38
347.763	324.38
347.99	312.38
348.218	285.38
348.445	328.38
348.673	314.38
348.9	322.38
349.128	320.38
349.355	311.38
349.583	289.38
349.81	306.38
350.037	313.38
350.265	310.38
350.492	313.38
350.72	308.38
350.947	305.38
351.174	314.38
351.402	315.38
351.629	326.38
351.856	322.38
352.083	342.38
352.311	328.38
352.538	311.38
352.765	338.38
352.992	348.38
353.22	337.38
353.447	336.38
353.674	313.38
353.901	335.38
354.128	340.38
354.355	337.38
354.583	336.38
354.81	365.38
355.037	361.38
355.264	367.38
355.491	357.38
355.718	378.38
355.945	403.38
356.172	406.38
356.399	430.38
356.626	424.38
356.853	444.38
357.08	473.38
357.307	484.38
357.534	534.38
357.761	581.38
357.988	648.38
358.215	758.38
358.441	862.38
358.668	938.38
358.895	926.38
359.122	780.38
359.349	626.38
359.576	559.38
359.802	530.38
360.029	490.38
360.256	472.38
360.483	469.38
360.709	463.38
360.936	462.38
361.163	430.38
361.39	413.38
361.616	415.38
361.843	391.38
362.07	376.38
362.296	406.38
362.523	370.38
362.749	365.38
362.976	378.38
363.203	358.38
363.429	366.38
363.656	345.38
363.882	352.38
364.109	344.38
364.335	353.38
364.562	342.38
364.788	344.38
365.015	348.38
365.241	360.38
365.468	350.38
365.694	326.38
365.92	327.38
366.147	357.38
366.373	338.38
366.599	319.38
366.826	316.38
367.052	336.38
367.278	333.38
367.505	343.38
367.731	352.38
367.957	350.38
368.184	351.38
368.41	323.38
368.636	334.38
368.862	335.38
369.089	335.38
369.315	320.38
369.541	350.38
369.767	355.38
369.993	323.38
370.219	321.38
370.445	327.38
370.672	343.38
370.898	339.38
371.124	353.38
371.35	338.38
371.576	346.38
371.802	346.38
372.028	358.38
372.254	342.38
372.48	358.38
372.706	355.38
372.932	343.38
373.158	348.38
373.384	355.38
373.61	390.38
373.835	361.38
374.061	350.38
374.287	342.38
374.513	343.38
374.739	370.38
374.965	366.38
375.191	362.38
375.416	347.38
375.642	334.38
375.868	370.38
376.094	360.38
376.319	340.38
376.545	342.38
376.771	328.38
376.997	339.38
377.222	335.38
377.448	341.38
377.674	332.38
377.899	346.38
378.125	339.38
378.35	332.38
378.576	333.38
378.802	339.38
379.027	344.38
379.253	363.38
379.478	344.38
379.704	338.38
379.929	348.38
380.155	361.38
380.38	343.38
380.606	337.38
380.831	362.38
381.057	373.38
381.282	374.38
381.507	375.38
381.733	374.38
381.958	384.38
382.184	373.38
382.409	408.38
382.634	459.38
382.86	474.38
383.085	489.38
383.31	517.38
383.535	531.38
383.761	542.38
383.986	522.38
384.211	450.38
384.436	406.38
384.662	399.38
384.887	411.38
385.112	383.38
385.337	406.38
385.562	406.38
385.787	402.38
386.013	404.38
386.238	434.38
386.463	408.38
386.688	441.38
386.913	413.38
387.138	410.38
387.363	393.38
387.588	430.38
387.813	407.38
388.038	421.38
388.263	431.38
388.488	403.38
388.713	415.38
388.938	419.38
389.163	432.38
389.387	411.38
389.612	422.38
389.837	413.38
390.062	460.38
390.287	451.38
390.512	440.38
390.736	425.38
390.961	428.38
391.186	454.38
391.411	455.38
391.636	452.38
391.86	482.38
392.085	485.38
392.31	480.38
392.534	522.38
392.759	535.38
392.984	561.38
393.208	648.38
393.433	766.38
393.658	812.38
393.882	998.38
394.107	1740.38
394.331	3258.38
394.556	4333.38
394.78	2801.38
395.005	1507.38
395.229	1155.38
395.454	1182.38
395.678	1549.38
395.903	2703.38
396.127	4731.38
396.352	5546.38
396.576	3206.38
396.801	1725.38
397.025	1212.38
397.249	946.38
397.474	824.38
397.698	728.38
397.922	680.38
398.147	638.38
398.371	628.38
398.595	624.38
398.82	572.38
399.044	577.38
399.268	595.38
399.492	606.38
399.717	626.38
399.941	613.38
400.165	574.38
400.389	572.38
400.613	547.38
400.837	529.38
401.062	503.38
401.286	504.38
401.51	517.38
401.734	488.38
401.958	479.38
402.182	478.38
402.406	488.38
402.63	475.38
402.854	490.38
403.078	507.38
403.302	501.38
403.526	493.38
403.75	510.38
403.974	480.38
404.198	498.38
404.422	495.38
404.645	493.38
404.869	503.38
405.093	488.38
405.317	467.38
405.541	500.38
405.765	489.38
405.988	480.38
406.212	486.38
406.436	497.38
406.66	484.38
406.883	481.38
407.107	502.38
407.331	514.38
407.555	539.38
407.778	524.38
408.002	510.38
408.226	520.38
408.449	493.38
408.673	506.38
408.896	483.38
409.12	510.38
409.344	509.38
409.567	493.38
409.791	493.38
410.014	490.38
410.238	475.38
410.461	491.38
410.685	494.38
410.908	484.38
411.132	479.38
411.355	466.38
411.578	482.38
411.802	464.38
412.025	480.38
412.249	476.38
412.472	474.38
412.695	472.38
412.919	473.38
413.142	452.38
413.365	450.38
413.589	471.38
413.812	467.38
414.035	472.38
414.258	478.38
414.482	472.38
414.705	462.38
414.928	470.38
415.151	454.38
415.374	476.38
415.597	466.38
415.821	460.38
416.044	463.38
416.267	461.38
416.49	487.38
416.713	464.38
416.936	465.38
417.159	459.38
417.382	462.38
417.605	468.38
417.828	475.38
418.051	472.38
418.274	464.38
418.497	485.38
418.72	456.38
418.943	458.38
419.166	499.38
419.389	507.38
419.611	506.38
419.834	464.38
420.057	488.38
420.28	477.38
420.503	467.38
420.726	444.38
420.948	464.38
421.171	456.38
421.394	485.38
421.617	479.38
421.839	474.38
422.062	479.38
422.285	472.38
422.507	489.38
422.73	518.38
422.953	502.38
423.175	474.38
423.398	470.38
423.621	464.38
423.843	493.38
424.066	482.38
424.288	474.38
424.511	506.38
424.733	473.38
424.956	467.38
425.178	483.38
425.401	486.38
425.623	492.38
425.846	475.38
426.068	456.38
426.291	459.38
426.513	442.38
426.735	474.38
426.958	458.38
427.18	470.38
427.402	462.38
427.625	464.38
427.847	455.38
428.069	423.38
428.292	460.38
428.514	449.38
428.736	433.38
428.958	433.38
429.181	463.38
429.403	441.38
429.625	439.38
429.847	434.38
430.069	447.38
430.292	442.38
430.514	427.38
430.736	451.38
430.958	448.38
431.18	443.38
431.402	436.38
431.624	420.38
431.846	423.38
432.068	410.38
432.29	400.38
432.512	426.38
432.734	422.38
432.956	431.38
433.178	476.38
433.4	459.38
433.622	446.38
433.844	450.38
434.066	451.38
434.287	412.38
434.509	421.38
434.731	431.38
434.953	433.38
435.175	448.38
435.397	458.38
435.618	435.38
435.84	435.38
436.062	438.38
436.284	455.38
436.505	448.38
436.727	458.38
436.949	468.38
437.17	434.38
437.392	420.38
437.614	441.38
437.835	420.38
438.057	406.38
438.278	440.38
438.5	423.38
438.721	451.38
438.943	475.38
439.165	458.38
439.386	440.38
439.608	465.38
439.829	474.38
440.05	463.38
440.272	472.38
440.493	482.38
440.715	480.38
440.936	471.38
441.158	479.38
441.379	502.38
441.6	523.38
441.822	507.38
442.043	507.38
442.264	476.38
442.486	487.38
442.707	502.38
442.928	486.38
443.149	472.38
443.371	495.38
443.592	487.38
443.813	465.38
444.034	478.38
444.255	513.38
444.476	512.38
444.698	519.38
444.919	512.38
445.14	728.38
445.361	596.38
445.582	495.38
445.803	496.38
446.024	479.38
446.245	488.38
446.466	494.38
446.687	491.38
446.908	490.38
447.129	494.38
447.35	450.38
447.571	479.38
447.792	467.38
448.013	475.38
448.234	470.38
448.455	464.38
448.675	449.38
448.896	457.38
449.117	446.38
449.338	429.38
449.559	449.38
449.779	434.38
450	451.38
450.221	444.38
450.442	447.38
450.662	430.38
450.883	432.38
451.104	447.38
451.324	454.38
451.545	443.38
451.766	455.38
451.986	476.38
452.207	449.38
452.428	446.38
452.648	454.38
452.869	471.38
453.089	452.38
453.31	440.38
453.53	434.38
453.751	451.38
453.971	435.38
454.192	438.38
454.412	427.38
454.633	424.38
454.853	419.38
455.073	404.38
455.294	414.38
455.514	435.38
455.734	425.38
455.955	390.38
456.175	416.38
456.395	375.38
456.616	397.38
456.836	392.38
457.056	394.38
457.276	389.38
457.497	394.38
457.717	392.38
457.937	369.38
458.157	377.38
458.377	392.38
458.598	376.38
458.818	409.38
459.038	415.38
459.258	405.38
459.478	391.38
459.698	406.38
459.918	418.38
460.138	416.38
460.358	435.38
460.578	447.38
460.798	451.38
461.018	451.38
461.238	468.38
461.458	476.38
461.678	477.38
461.898	487.38
462.118	470.38
462.338	490.38
462.558	518.38
462.777	516.38
462.997	527.38
463.217	534.38
463.437	516.38
463.657	506.38
463.876	486.38
464.096	499.38
464.316	495.38
464.536	520.38
464.755	524.38
464.975	523.38
465.195	504.38
465.414	497.38
465.634	479.38
465.854	491.38
466.073	508.38
466.293	539.38
466.512	588.38
466.732	606.38
466.951	529.38
467.171	500.38
467.391	495.38
467.61	493.38
467.829	479.38
468.049	482.38
468.268	468.38
468.488	467.38
468.707	438.38
468.927	462.38
469.146	469.38
469.365	475.38
469.585	487.38
469.804	488.38
470.023	487.38
470.243	495.38
470.462	485.38
470.681	471.38
470.901	467.38
471.12	459.38
471.339	467.38
471.558	480.38
471.777	488.38
471.997	474.38
472.216	470.38
472.435	426.38
472.654	457.38
472.873	461.38
473.092	464.38
473.311	502.38
473.53	544.38
473.749	580.38
473.968	563.38
474.187	547.38
474.406	557.38
474.625	595.38
474.844	586.38
475.063	564.38
475.282	523.38
475.501	481.38
475.72	492.38
475.939	479.38
476.158	480.38
476.377	479.38
476.596	452.38
476.814	439.38
477.033	443.38
477.252	426.38
477.471	447.38
477.69	472.38
477.908	491.38
478.127	495.38
478.346	482.38
478.564	500.38
478.783	481.38
479.002	495.38
479.22	499.38
479.439	477.38
479.658	447.38
479.876	462.38
480.095	447.38
480.313	494.38
480.532	497.38
480.751	455.38
480.969	451.38
481.188	447.38
481.406	439.38
481.624	435.38
481.843	420.38
482.061	417.38
482.28	454.38
482.498	419.38
482.717	443.38
482.935	464.38
483.153	468.38
483.372	476.38
483.59	501.38
483.808	460.38
484.027	470.38
484.245	505.38
484.463	602.38
484.681	582.38
484.9	572.38
485.118	552.38
485.336	527.38
485.554	509.38
485.772	509.38
485.99	492.38
486.209	528.38
486.427	528.38
486.645	519.38
486.863	556.38
487.081	561.38
487.299	572.38
487.517	549.38
487.735	604.38
487.953	572.38
488.171	588.38
488.389	573.38
488.607	520.38
488.825	519.38
489.043	520.38
489.261	543.38
489.479	520.38
489.696	538.38
489.914	538.38
490.132	526.38
490.35	552.38
490.568	540.38
490.786	538.38
491.003	564.38
491.221	571.38
491.439	573.38
491.657	583.38
491.874	607.38
492.092	626.38
492.31	629.38
492.527	604.38
492.745	590.38
492.963	576.38
493.18	600.38
493.398	586.38
493.615	564.38
493.833	570.38
494.05	564.38
494.268	554.38
494.485	576.38
494.703	554.38
494.92	554.38
495.138	540.38
495.355	555.38
495.573	535.38
495.79	534.38
496.008	573.38
496.225	539.38
496.442	541.38
496.66	567.38
496.877	545.38
497.094	564.38
497.312	546.38
497.529	566.38
497.746	562.38
497.963	561.38
498.181	561.38
498.398	576.38
498.615	611.38
498.832	580.38
499.049	610.38
499.267	651.38
499.484	695.38
499.701	710.38
499.918	755.38
500.135	823.38
500.352	847.38
500.569	862.38
500.786	845.38
501.003	799.38
501.22	775.38
501.437	722.38
501.654	687.38
501.871	635.38
502.088	626.38
502.305	574.38
502.522	583.38
