Data from SampC_HRD10591_00096.txt Node
Date: Mon Jan 19 11:38:02 EST 2026
User: Yrep
Spectrometer: HR+D1059
Trigger mode: 0
Integration Time (sec): 3.443000E-1
Scans to average: 1
Electric dark correction enabled: true
Nonlinearity correction enabled: false
Boxcar width: 0
XAxis mode: Wavelengths
Number of Pixels in Spectrum: 2048
>>>>>Begin Spectral Data<<<<<
223.165	-23.19
223.4	-23.19
223.635	-23.19
223.869	-22.19
224.104	-32.19
224.338	-5.19
224.573	-22.19
224.808	-6.19
225.042	2.81
225.277	-14.19
225.511	-7.19
225.746	15.81
225.98	12.81
226.215	-5.19
226.449	17.81
226.683	28.81
226.918	28.81
227.152	30.81
227.387	34.81
227.621	40.81
227.856	46.81
228.09	38.81
228.324	54.81
228.559	66.81
228.793	70.81
229.027	99.81
229.262	80.81
229.496	83.81
229.73	85.81
229.964	104.81
230.199	108.81
230.433	92.81
230.667	101.81
230.901	110.81
231.136	99.81
231.37	109.81
231.604	120.81
231.838	118.81
232.072	116.81
232.306	133.81
232.541	118.81
232.775	129.81
233.009	128.81
233.243	120.81
233.477	123.81
233.711	94.81
233.945	121.81
234.179	117.81
234.413	126.81
234.647	113.81
234.881	120.81
235.115	127.81
235.349	113.81
235.583	125.81
235.817	123.81
236.051	126.81
236.285	134.81
236.519	164.81
236.753	162.81
236.987	189.81
237.221	228.81
237.455	224.81
237.689	224.81
237.922	188.81
238.156	150.81
238.39	143.81
238.624	126.81
238.858	124.81
239.091	125.81
239.325	122.81
239.559	120.81
239.793	117.81
240.027	130.81
240.26	120.81
240.494	120.81
240.728	113.81
240.961	109.81
241.195	120.81
241.429	113.81
241.662	127.81
241.896	124.81
242.13	118.81
242.363	118.81
242.597	133.81
242.83	115.81
243.064	112.81
243.298	126.81
243.531	138.81
243.765	124.81
243.998	138.81
244.232	132.81
244.465	117.81
244.699	117.81
244.932	119.81
245.166	128.81
245.399	118.81
245.633	143.81
245.866	150.81
246.099	130.81
246.333	146.81
246.566	117.81
246.8	151.81
247.033	144.81
247.266	138.81
247.5	128.81
247.733	113.81
247.966	128.81
248.2	117.81
248.433	141.81
248.666	129.81
248.899	139.81
249.133	143.81
249.366	137.81
249.599	138.81
249.832	132.81
250.066	160.81
250.299	143.81
250.532	141.81
250.765	134.81
250.998	141.81
251.231	142.81
251.465	143.81
251.698	147.81
251.931	148.81
252.164	130.81
252.397	152.81
252.63	154.81
252.863	145.81
253.096	136.81
253.329	140.81
253.562	145.81
253.795	156.81
254.028	165.81
254.261	152.81
254.494	141.81
254.727	161.81
254.96	157.81
255.193	163.81
255.426	171.81
255.659	164.81
255.892	170.81
256.124	164.81
256.357	173.81
256.59	181.81
256.823	219.81
257.056	262.81
257.289	251.81
257.521	269.81
257.754	318.81
257.987	284.81
258.22	222.81
258.452	213.81
258.685	187.81
258.918	166.81
259.151	169.81
259.383	177.81
259.616	182.81
259.849	172.81
260.081	166.81
260.314	162.81
260.547	160.81
260.779	160.81
261.012	165.81
261.244	173.81
261.477	188.81
261.71	184.81
261.942	172.81
262.175	184.81
262.407	180.81
262.64	181.81
262.872	213.81
263.105	227.81
263.337	252.81
263.57	230.81
263.802	249.81
264.035	204.81
264.267	192.81
264.499	200.81
264.732	217.81
264.964	203.81
265.197	224.81
265.429	257.81
265.661	250.81
265.894	233.81
266.126	290.81
266.358	295.81
266.591	236.81
266.823	213.81
267.055	208.81
267.287	174.81
267.52	205.81
267.752	206.81
267.984	192.81
268.216	184.81
268.448	183.81
268.681	191.81
268.913	195.81
269.145	179.81
269.377	179.81
269.609	184.81
269.841	195.81
270.073	186.81
270.306	183.81
270.538	180.81
270.77	186.81
271.002	176.81
271.234	186.81
271.466	185.81
271.698	195.81
271.93	188.81
272.162	195.81
272.394	204.81
272.626	197.81
272.858	176.81
273.09	203.81
273.322	200.81
273.553	189.81
273.785	204.81
274.017	200.81
274.249	203.81
274.481	204.81
274.713	230.81
274.945	197.81
275.176	202.81
275.408	203.81
275.64	206.81
275.872	194.81
276.104	199.81
276.335	205.81
276.567	210.81
276.799	190.81
277.031	209.81
277.262	226.81
277.494	239.81
277.726	243.81
277.957	234.81
278.189	258.81
278.421	270.81
278.652	284.81
278.884	312.81
279.115	385.81
279.347	554.81
279.579	731.81
279.81	822.81
280.042	678.81
280.273	643.81
280.505	635.81
280.736	419.81
280.968	316.81
281.199	317.81
281.431	393.81
281.662	492.81
281.894	597.81
282.125	461.81
282.356	379.81
282.588	304.81
282.819	306.81
283.051	275.81
283.282	272.81
283.513	274.81
283.745	243.81
283.976	262.81
284.207	248.81
284.439	257.81
284.67	254.81
284.901	287.81
285.132	304.81
285.364	337.81
285.595	308.81
285.826	265.81
286.057	235.81
286.288	221.81
286.52	239.81
286.751	234.81
286.982	230.81
287.213	244.81
287.444	246.81
287.675	208.81
287.906	229.81
288.138	250.81
288.369	265.81
288.6	237.81
288.831	250.81
289.062	243.81
289.293	238.81
289.524	233.81
289.755	217.81
289.986	240.81
290.217	243.81
290.448	234.81
290.679	232.81
290.91	241.81
291.141	237.81
291.371	259.81
291.602	232.81
291.833	242.81
292.064	247.81
292.295	256.81
292.526	271.81
292.757	259.81
292.987	265.81
293.218	274.81
293.449	271.81
293.68	286.81
293.91	276.81
294.141	281.81
294.372	250.81
294.603	252.81
294.833	235.81
295.064	234.81
295.295	238.81
295.525	242.81
295.756	267.81
295.987	250.81
296.217	249.81
296.448	241.81
296.679	240.81
296.909	257.81
297.14	253.81
297.37	252.81
297.601	243.81
297.831	255.81
298.062	255.81
298.292	236.81
298.523	259.81
298.753	250.81
298.984	260.81
299.214	256.81
299.445	269.81
299.675	274.81
299.905	264.81
300.136	276.81
300.366	277.81
300.597	268.81
300.827	260.81
301.057	269.81
301.288	270.81
301.518	280.81
301.748	294.81
301.979	305.81
302.209	286.81
302.439	282.81
302.669	286.81
302.9	312.81
303.13	305.81
303.36	308.81
303.59	330.81
303.82	336.81
304.051	347.81
304.281	346.81
304.511	354.81
304.741	384.81
304.971	442.81
305.201	527.81
305.431	558.81
305.661	641.81
305.891	714.81
306.121	664.81
306.352	574.81
306.582	600.81
306.812	571.81
307.042	516.81
307.272	508.81
307.502	576.81
307.731	733.81
307.961	1043.81
308.191	1421.81
308.421	1675.81
308.651	1419.81
308.881	1305.81
309.111	1642.81
309.341	2035.81
309.571	1936.81
309.8	1292.81
310.03	831.81
310.26	653.81
310.49	546.81
310.72	483.81
310.949	456.81
311.179	429.81
311.409	401.81
311.639	404.81
311.868	386.81
312.098	367.81
312.328	364.81
312.557	355.81
312.787	358.81
313.017	347.81
313.246	333.81
313.476	320.81
313.706	338.81
313.935	323.81
314.165	313.81
314.394	323.81
314.624	320.81
314.853	303.81
315.083	301.81
315.312	299.81
315.542	298.81
315.771	321.81
316.001	306.81
316.23	303.81
316.46	290.81
316.689	308.81
316.919	284.81
317.148	278.81
317.377	304.81
317.607	296.81
317.836	306.81
318.065	280.81
318.295	273.81
318.524	283.81
318.753	292.81
318.983	299.81
319.212	298.81
319.441	294.81
319.67	283.81
319.9	285.81
320.129	301.81
320.358	285.81
320.587	286.81
320.816	285.81
321.046	291.81
321.275	290.81
321.504	287.81
321.733	292.81
321.962	273.81
322.191	292.81
322.42	292.81
322.649	300.81
322.878	297.81
323.108	307.81
323.337	308.81
323.566	289.81
323.795	313.81
324.024	301.81
324.253	290.81
324.482	319.81
324.71	311.81
324.939	321.81
325.168	319.81
325.397	308.81
325.626	316.81
325.855	301.81
326.084	317.81
326.313	289.81
326.542	299.81
326.77	315.81
326.999	307.81
327.228	299.81
327.457	295.81
327.686	298.81
327.914	292.81
328.143	306.81
328.372	293.81
328.6	319.81
328.829	298.81
329.058	296.81
329.287	303.81
329.515	295.81
329.744	311.81
329.972	317.81
330.201	319.81
330.43	301.81
330.658	318.81
330.887	305.81
331.115	316.81
331.344	327.81
331.572	320.81
331.801	308.81
332.03	310.81
332.258	336.81
332.486	330.81
332.715	324.81
332.943	338.81
333.172	350.81
333.4	321.81
333.629	342.81
333.857	344.81
334.085	324.81
334.314	356.81
334.542	345.81
334.771	350.81
334.999	344.81
335.227	339.81
335.455	330.81
335.684	357.81
335.912	337.81
336.14	337.81
336.369	324.81
336.597	335.81
336.825	340.81
337.053	323.81
337.281	328.81
337.51	335.81
337.738	317.81
337.966	320.81
338.194	307.81
338.422	308.81
338.65	337.81
338.878	330.81
339.106	331.81
339.334	338.81
339.562	308.81
339.79	322.81
340.018	306.81
340.246	297.81
340.474	312.81
340.702	322.81
340.93	311.81
341.158	305.81
341.386	328.81
341.614	335.81
341.842	309.81
342.07	308.81
342.298	314.81
342.526	320.81
342.754	309.81
342.981	322.81
343.209	329.81
343.437	365.81
343.665	323.81
343.893	360.81
344.12	358.81
344.348	343.81
344.576	334.81
344.804	320.81
345.031	325.81
345.259	334.81
345.487	315.81
345.714	317.81
345.942	318.81
346.17	327.81
346.397	322.81
346.625	329.81
346.853	302.81
347.08	308.81
347.308	310.81
347.535	314.81
347.763	310.81
347.99	329.81
348.218	314.81
348.445	319.81
348.673	330.81
348.9	334.81
349.128	322.81
349.355	326.81
349.583	295.81
349.81	314.81
350.037	316.81
350.265	316.81
350.492	318.81
350.72	314.81
350.947	309.81
351.174	344.81
351.402	328.81
351.629	322.81
351.856	326.81
352.083	310.81
352.311	337.81
352.538	346.81
352.765	345.81
352.992	357.81
353.22	350.81
353.447	344.81
353.674	348.81
353.901	356.81
354.128	357.81
354.355	358.81
354.583	376.81
354.81	366.81
355.037	384.81
355.264	389.81
355.491	385.81
355.718	375.81
355.945	427.81
356.172	422.81
356.399	432.81
356.626	453.81
356.853	483.81
357.08	492.81
357.307	514.81
357.534	546.81
357.761	607.81
357.988	668.81
358.215	754.81
358.441	916.81
358.668	1009.81
358.895	954.81
359.122	809.81
359.349	660.81
359.576	604.81
359.802	553.81
360.029	512.81
360.256	516.81
360.483	477.81
360.709	475.81
360.936	468.81
361.163	437.81
361.39	435.81
361.616	417.81
361.843	435.81
362.07	413.81
362.296	405.81
362.523	395.81
362.749	394.81
362.976	373.81
363.203	383.81
363.429	374.81
363.656	367.81
363.882	360.81
364.109	357.81
364.335	381.81
364.562	362.81
364.788	348.81
365.015	347.81
365.241	363.81
365.468	371.81
365.694	351.81
365.92	358.81
366.147	353.81
366.373	346.81
366.599	341.81
366.826	356.81
367.052	346.81
367.278	353.81
367.505	352.81
367.731	346.81
367.957	346.81
368.184	350.81
368.41	353.81
368.636	338.81
368.862	334.81
369.089	323.81
369.315	342.81
369.541	346.81
369.767	345.81
369.993	335.81
370.219	337.81
370.445	356.81
370.672	347.81
370.898	341.81
371.124	354.81
371.35	339.81
371.576	325.81
371.802	342.81
372.028	356.81
372.254	379.81
372.48	366.81
372.706	357.81
372.932	354.81
373.158	370.81
373.384	373.81
373.61	365.81
373.835	357.81
374.061	337.81
374.287	350.81
374.513	364.81
374.739	383.81
374.965	366.81
375.191	377.81
375.416	370.81
375.642	373.81
375.868	359.81
376.094	351.81
376.319	378.81
376.545	356.81
376.771	338.81
376.997	348.81
377.222	349.81
377.448	344.81
377.674	351.81
377.899	353.81
378.125	346.81
378.35	356.81
378.576	341.81
378.802	342.81
379.027	349.81
379.253	354.81
379.478	343.81
379.704	339.81
379.929	359.81
380.155	355.81
380.38	355.81
380.606	360.81
380.831	348.81
381.057	370.81
381.282	358.81
381.507	377.81
381.733	380.81
381.958	377.81
382.184	385.81
382.409	398.81
382.634	414.81
382.86	433.81
383.085	465.81
383.31	472.81
383.535	473.81
383.761	486.81
383.986	496.81
384.211	434.81
384.436	407.81
384.662	402.81
384.887	405.81
385.112	374.81
385.337	408.81
385.562	405.81
385.787	410.81
386.013	435.81
386.238	404.81
386.463	409.81
386.688	450.81
386.913	422.81
387.138	394.81
387.363	411.81
387.588	422.81
387.813	426.81
388.038	425.81
388.263	430.81
388.488	424.81
388.713	434.81
388.938	414.81
389.163	414.81
389.387	411.81
389.612	433.81
389.837	424.81
390.062	420.81
390.287	425.81
390.512	421.81
390.736	465.81
390.961	440.81
391.186	456.81
391.411	442.81
391.636	458.81
391.86	476.81
392.085	475.81
392.31	486.81
392.534	494.81
392.759	504.81
392.984	533.81
393.208	556.81
393.433	634.81
393.658	672.81
393.882	819.81
394.107	1299.81
394.331	2353.81
394.556	3074.81
394.78	2090.81
395.005	1210.81
395.229	950.81
395.454	995.81
395.678	1188.81
395.903	2011.81
396.127	3393.81
396.352	4020.81
396.576	2427.81
396.801	1405.81
397.025	1026.81
397.249	826.81
397.474	761.81
397.698	685.81
397.922	652.81
398.147	611.81
398.371	598.81
398.595	600.81
398.82	586.81
399.044	590.81
399.268	589.81
399.492	609.81
399.717	636.81
399.941	603.81
400.165	576.81
400.389	555.81
400.613	562.81
400.837	526.81
401.062	494.81
401.286	506.81
401.51	486.81
401.734	477.81
401.958	495.81
402.182	497.81
402.406	493.81
402.63	468.81
402.854	494.81
403.078	488.81
403.302	494.81
403.526	515.81
403.75	523.81
403.974	496.81
404.198	533.81
404.422	478.81
404.645	508.81
404.869	491.81
405.093	491.81
405.317	481.81
405.541	510.81
405.765	509.81
405.988	513.81
406.212	509.81
406.436	504.81
406.66	520.81
406.883	522.81
407.107	539.81
407.331	536.81
407.555	542.81
407.778	539.81
408.002	526.81
408.226	518.81
408.449	499.81
408.673	498.81
408.896	510.81
409.12	511.81
409.344	495.81
409.567	496.81
409.791	514.81
410.014	509.81
410.238	508.81
410.461	490.81
410.685	483.81
410.908	481.81
411.132	492.81
411.355	501.81
411.578	485.81
411.802	477.81
412.025	468.81
412.249	489.81
412.472	513.81
412.695	477.81
412.919	478.81
413.142	484.81
413.365	487.81
413.589	492.81
413.812	482.81
414.035	489.81
414.258	494.81
414.482	462.81
414.705	457.81
414.928	493.81
415.151	484.81
415.374	456.81
415.597	490.81
415.821	489.81
416.044	470.81
416.267	500.81
416.49	467.81
416.713	479.81
416.936	467.81
417.159	469.81
417.382	470.81
417.605	449.81
417.828	468.81
418.051	449.81
418.274	470.81
418.497	466.81
418.72	494.81
418.943	476.81
419.166	516.81
419.389	509.81
419.611	502.81
419.834	501.81
420.057	518.81
420.28	490.81
420.503	489.81
420.726	444.81
420.948	463.81
421.171	474.81
421.394	502.81
421.617	491.81
421.839	476.81
422.062	486.81
422.285	500.81
422.507	498.81
422.73	514.81
422.953	497.81
423.175	494.81
423.398	494.81
423.621	484.81
423.843	476.81
424.066	492.81
424.288	508.81
424.511	500.81
424.733	485.81
424.956	503.81
425.178	492.81
425.401	489.81
425.623	489.81
425.846	477.81
426.068	495.81
426.291	475.81
426.513	475.81
426.735	459.81
426.958	441.81
427.18	464.81
427.402	462.81
427.625	473.81
427.847	449.81
428.069	445.81
428.292	479.81
428.514	440.81
428.736	454.81
428.958	452.81
429.181	446.81
429.403	448.81
429.625	460.81
429.847	446.81
430.069	440.81
430.292	435.81
430.514	456.81
430.736	447.81
430.958	433.81
431.18	432.81
431.402	442.81
431.624	434.81
431.846	431.81
432.068	419.81
432.29	419.81
432.512	448.81
432.734	449.81
432.956	447.81
433.178	450.81
433.4	445.81
433.622	457.81
433.844	460.81
434.066	422.81
434.287	430.81
434.509	425.81
434.731	448.81
434.953	466.81
435.175	459.81
435.397	475.81
435.618	450.81
435.84	452.81
436.062	433.81
436.284	461.81
436.505	457.81
436.727	442.81
436.949	454.81
437.17	440.81
437.392	443.81
437.614	420.81
437.835	412.81
438.057	397.81
438.278	437.81
438.5	430.81
438.721	464.81
438.943	481.81
439.165	464.81
439.386	466.81
439.608	476.81
439.829	466.81
440.05	490.81
440.272	466.81
440.493	460.81
440.715	470.81
440.936	486.81
441.158	495.81
441.379	506.81
441.6	501.81
441.822	508.81
442.043	485.81
442.264	492.81
442.486	489.81
442.707	483.81
442.928	485.81
443.149	505.81
443.371	474.81
443.592	492.81
443.813	493.81
444.034	518.81
444.255	510.81
444.476	515.81
444.698	514.81
444.919	549.81
445.14	716.81
445.361	610.81
445.582	501.81
445.803	488.81
446.024	498.81
446.245	514.81
446.466	490.81
446.687	481.81
446.908	492.81
447.129	498.81
447.35	471.81
447.571	485.81
447.792	474.81
448.013	474.81
448.234	469.81
448.455	452.81
448.675	452.81
448.896	458.81
449.117	459.81
449.338	459.81
449.559	461.81
449.779	442.81
450	440.81
450.221	454.81
450.442	457.81
450.662	441.81
450.883	459.81
451.104	468.81
451.324	437.81
451.545	465.81
451.766	464.81
451.986	444.81
452.207	444.81
452.428	443.81
452.648	454.81
452.869	444.81
453.089	416.81
453.31	435.81
453.53	440.81
453.751	424.81
453.971	428.81
454.192	410.81
454.412	432.81
454.633	429.81
454.853	434.81
455.073	423.81
455.294	440.81
455.514	436.81
455.734	388.81
455.955	395.81
456.175	381.81
456.395	400.81
456.616	386.81
456.836	396.81
457.056	392.81
457.276	379.81
457.497	396.81
457.717	378.81
457.937	414.81
458.157	378.81
458.377	406.81
458.598	397.81
458.818	389.81
459.038	394.81
459.258	396.81
459.478	411.81
459.698	416.81
459.918	440.81
460.138	426.81
460.358	446.81
460.578	462.81
460.798	472.81
461.018	456.81
461.238	487.81
461.458	475.81
461.678	486.81
461.898	491.81
462.118	492.81
462.338	509.81
462.558	502.81
462.777	518.81
462.997	549.81
463.217	549.81
463.437	562.81
463.657	524.81
463.876	506.81
464.096	509.81
464.316	527.81
464.536	498.81
464.755	496.81
464.975	508.81
465.195	512.81
465.414	484.81
465.634	483.81
465.854	496.81
466.073	524.81
466.293	529.81
466.512	582.81
466.732	588.81
466.951	538.81
467.171	531.81
467.391	512.81
467.61	507.81
467.829	490.81
468.049	483.81
468.268	469.81
468.488	472.81
468.707	476.81
468.927	455.81
469.146	469.81
469.365	465.81
469.585	478.81
469.804	485.81
470.023	477.81
470.243	488.81
470.462	472.81
470.681	477.81
470.901	469.81
471.12	466.81
471.339	455.81
471.558	470.81
471.777	469.81
471.997	464.81
472.216	449.81
472.435	437.81
472.654	443.81
472.873	467.81
473.092	444.81
473.311	482.81
473.53	507.81
473.749	546.81
473.968	555.81
474.187	530.81
474.406	525.81
474.625	546.81
474.844	571.81
475.063	525.81
475.282	526.81
475.501	470.81
475.72	490.81
475.939	459.81
476.158	466.81
476.377	463.81
476.596	444.81
476.814	463.81
477.033	442.81
477.252	442.81
477.471	458.81
477.69	462.81
477.908	464.81
478.127	474.81
478.346	460.81
478.564	480.81
478.783	503.81
479.002	483.81
479.22	507.81
479.439	478.81
479.658	477.81
479.876	458.81
480.095	465.81
480.313	460.81
480.532	500.81
480.751	493.81
480.969	451.81
481.188	442.81
481.406	451.81
481.624	428.81
481.843	422.81
482.061	447.81
482.28	444.81
482.498	458.81
482.717	436.81
482.935	473.81
483.153	482.81
483.372	497.81
483.59	511.81
483.808	473.81
484.027	473.81
484.245	491.81
484.463	574.81
484.681	561.81
484.9	563.81
485.118	551.81
485.336	515.81
485.554	513.81
485.772	502.81
485.99	501.81
486.209	482.81
486.427	495.81
486.645	516.81
486.863	544.81
487.081	525.81
487.299	534.81
487.517	542.81
487.735	555.81
487.953	570.81
488.171	573.81
488.389	558.81
488.607	557.81
488.825	515.81
489.043	514.81
489.261	531.81
489.479	530.81
489.696	524.81
489.914	495.81
490.132	534.81
490.35	522.81
490.568	550.81
490.786	561.81
491.003	567.81
491.221	556.81
491.439	571.81
491.657	585.81
491.874	632.81
492.092	613.81
492.31	629.81
492.527	605.81
492.745	579.81
492.963	579.81
493.18	605.81
493.398	580.81
493.615	589.81
493.833	564.81
494.05	559.81
494.268	560.81
494.485	564.81
494.703	545.81
494.92	568.81
495.138	530.81
495.355	542.81
495.573	541.81
495.79	534.81
496.008	542.81
496.225	580.81
496.442	549.81
496.66	563.81
496.877	553.81
497.094	587.81
497.312	562.81
497.529	572.81
497.746	556.81
497.963	574.81
498.181	569.81
498.398	587.81
498.615	564.81
498.832	585.81
499.049	625.81
499.267	675.81
499.484	692.81
499.701	736.81
499.918	795.81
500.135	808.81
500.352	874.81
500.569	866.81
500.786	884.81
501.003	830.81
501.22	793.81
501.437	780.81
501.654	687.81
501.871	666.81
502.088	643.81
502.305	614.81
502.522	597.81
