Data from SampC_HRD10591_00021.txt Node
Date: Mon Jan 19 11:37:36 EST 2026
User: Yrep
Spectrometer: HR+D1059
Trigger mode: 0
Integration Time (sec): 3.443000E-1
Scans to average: 1
Electric dark correction enabled: true
Nonlinearity correction enabled: false
Boxcar width: 0
XAxis mode: Wavelengths
Number of Pixels in Spectrum: 2048
>>>>>Begin Spectral Data<<<<<
223.165	-13.5
223.4	-13.5
223.635	-13.5
223.869	-28.5
224.104	-19.5
224.338	-8.5
224.573	-30.5
224.808	-8.5
225.042	-9.5
225.277	-2.5
225.511	0.5
225.746	36.5
225.98	-4.5
226.215	9.5
226.449	3.5
226.683	21.5
226.918	25.5
227.152	28.5
227.387	41.5
227.621	57.5
227.856	59.5
228.09	50.5
228.324	51.5
228.559	58.5
228.793	67.5
229.027	102.5
229.262	86.5
229.496	94.5
229.73	93.5
229.964	97.5
230.199	109.5
230.433	110.5
230.667	115.5
230.901	116.5
231.136	114.5
231.37	130.5
231.604	109.5
231.838	110.5
232.072	109.5
232.306	112.5
232.541	111.5
232.775	113.5
233.009	112.5
233.243	112.5
233.477	92.5
233.711	120.5
233.945	104.5
234.179	104.5
234.413	112.5
234.647	91.5
234.881	111.5
235.115	121.5
235.349	125.5
235.583	108.5
235.817	119.5
236.051	123.5
236.285	118.5
236.519	132.5
236.753	149.5
236.987	175.5
237.221	187.5
237.455	191.5
237.689	194.5
237.922	167.5
238.156	133.5
238.39	132.5
238.624	129.5
238.858	112.5
239.091	121.5
239.325	116.5
239.559	106.5
239.793	105.5
240.027	127.5
240.26	127.5
240.494	118.5
240.728	109.5
240.961	102.5
241.195	132.5
241.429	119.5
241.662	98.5
241.896	110.5
242.13	103.5
242.363	113.5
242.597	117.5
242.83	122.5
243.064	97.5
243.298	124.5
243.531	120.5
243.765	125.5
243.998	120.5
244.232	121.5
244.465	124.5
244.699	108.5
244.932	105.5
245.166	124.5
245.399	120.5
245.633	120.5
245.866	123.5
246.099	119.5
246.333	134.5
246.566	114.5
246.8	131.5
247.033	119.5
247.266	119.5
247.5	127.5
247.733	117.5
247.966	121.5
248.2	123.5
248.433	139.5
248.666	118.5
248.899	135.5
249.133	141.5
249.366	140.5
249.599	150.5
249.832	127.5
250.066	125.5
250.299	133.5
250.532	121.5
250.765	116.5
250.998	117.5
251.231	127.5
251.465	139.5
251.698	151.5
251.931	143.5
252.164	135.5
252.397	142.5
252.63	146.5
252.863	140.5
253.096	137.5
253.329	149.5
253.562	140.5
253.795	149.5
254.028	133.5
254.261	160.5
254.494	144.5
254.727	142.5
254.96	148.5
255.193	141.5
255.426	131.5
255.659	141.5
255.892	153.5
256.124	160.5
256.357	165.5
256.59	190.5
256.823	191.5
257.056	230.5
257.289	213.5
257.521	239.5
257.754	255.5
257.987	258.5
258.22	199.5
258.452	188.5
258.685	178.5
258.918	169.5
259.151	165.5
259.383	168.5
259.616	157.5
259.849	167.5
260.081	163.5
260.314	181.5
260.547	154.5
260.779	164.5
261.012	142.5
261.244	177.5
261.477	173.5
261.71	156.5
261.942	156.5
262.175	184.5
262.407	178.5
262.64	179.5
262.872	191.5
263.105	224.5
263.337	234.5
263.57	247.5
263.802	238.5
264.035	227.5
264.267	179.5
264.499	197.5
264.732	205.5
264.964	211.5
265.197	199.5
265.429	221.5
265.661	231.5
265.894	217.5
266.126	235.5
266.358	250.5
266.591	206.5
266.823	220.5
267.055	184.5
267.287	193.5
267.52	177.5
267.752	184.5
267.984	182.5
268.216	181.5
268.448	186.5
268.681	188.5
268.913	182.5
269.145	167.5
269.377	164.5
269.609	168.5
269.841	185.5
270.073	168.5
270.306	178.5
270.538	176.5
270.77	168.5
271.002	177.5
271.234	180.5
271.466	175.5
271.698	165.5
271.93	165.5
272.162	188.5
272.394	178.5
272.626	160.5
272.858	177.5
273.09	192.5
273.322	183.5
273.553	164.5
273.785	172.5
274.017	189.5
274.249	182.5
274.481	188.5
274.713	187.5
274.945	200.5
275.176	188.5
275.408	200.5
275.64	197.5
275.872	182.5
276.104	193.5
276.335	199.5
276.567	190.5
276.799	192.5
277.031	203.5
277.262	192.5
277.494	231.5
277.726	231.5
277.957	233.5
278.189	241.5
278.421	251.5
278.652	249.5
278.884	278.5
279.115	375.5
279.347	533.5
279.579	675.5
279.81	783.5
280.042	665.5
280.273	619.5
280.505	609.5
280.736	419.5
280.968	278.5
281.199	307.5
281.431	349.5
281.662	463.5
281.894	487.5
282.125	417.5
282.356	334.5
282.588	295.5
282.819	278.5
283.051	259.5
283.282	260.5
283.513	238.5
283.745	240.5
283.976	224.5
284.207	236.5
284.439	248.5
284.67	233.5
284.901	246.5
285.132	281.5
285.364	315.5
285.595	286.5
285.826	238.5
286.057	219.5
286.288	198.5
286.52	232.5
286.751	211.5
286.982	205.5
287.213	222.5
287.444	219.5
287.675	230.5
287.906	227.5
288.138	219.5
288.369	232.5
288.6	232.5
288.831	216.5
289.062	222.5
289.293	224.5
289.524	211.5
289.755	232.5
289.986	215.5
290.217	226.5
290.448	224.5
290.679	241.5
290.91	219.5
291.141	228.5
291.371	228.5
291.602	220.5
291.833	208.5
292.064	227.5
292.295	232.5
292.526	243.5
292.757	260.5
292.987	242.5
293.218	263.5
293.449	260.5
293.68	261.5
293.91	261.5
294.141	256.5
294.372	233.5
294.603	224.5
294.833	222.5
295.064	233.5
295.295	222.5
295.525	218.5
295.756	236.5
295.987	217.5
296.217	235.5
296.448	232.5
296.679	226.5
296.909	230.5
297.14	216.5
297.37	232.5
297.601	231.5
297.831	228.5
298.062	236.5
298.292	238.5
298.523	237.5
298.753	226.5
298.984	215.5
299.214	234.5
299.445	229.5
299.675	207.5
299.905	229.5
300.136	229.5
300.366	247.5
300.597	231.5
300.827	248.5
301.057	243.5
301.288	245.5
301.518	241.5
301.748	256.5
301.979	287.5
302.209	254.5
302.439	279.5
302.669	272.5
302.9	259.5
303.13	283.5
303.36	285.5
303.59	276.5
303.82	300.5
304.051	276.5
304.281	317.5
304.511	278.5
304.741	308.5
304.971	370.5
305.201	438.5
305.431	455.5
305.661	507.5
305.891	532.5
306.121	504.5
306.352	461.5
306.582	480.5
306.812	465.5
307.042	420.5
307.272	412.5
307.502	440.5
307.731	569.5
307.961	791.5
308.191	1063.5
308.421	1197.5
308.651	1047.5
308.881	958.5
309.111	1183.5
309.341	1481.5
309.571	1415.5
309.8	940.5
310.03	667.5
310.26	528.5
310.49	432.5
310.72	411.5
310.949	380.5
311.179	344.5
311.409	335.5
311.639	322.5
311.868	318.5
312.098	328.5
312.328	303.5
312.557	312.5
312.787	292.5
313.017	304.5
313.246	289.5
313.476	289.5
313.706	294.5
313.935	303.5
314.165	275.5
314.394	281.5
314.624	290.5
314.853	285.5
315.083	276.5
315.312	276.5
315.542	271.5
315.771	281.5
316.001	256.5
316.23	274.5
316.46	255.5
316.689	249.5
316.919	272.5
317.148	257.5
317.377	277.5
317.607	275.5
317.836	249.5
318.065	253.5
318.295	248.5
318.524	271.5
318.753	255.5
318.983	277.5
319.212	259.5
319.441	247.5
319.67	255.5
319.9	255.5
320.129	265.5
320.358	272.5
320.587	289.5
320.816	262.5
321.046	252.5
321.275	275.5
321.504	272.5
321.733	261.5
321.962	267.5
322.191	260.5
322.42	259.5
322.649	281.5
322.878	281.5
323.108	265.5
323.337	268.5
323.566	281.5
323.795	284.5
324.024	274.5
324.253	278.5
324.482	273.5
324.71	281.5
324.939	271.5
325.168	286.5
325.397	253.5
325.626	283.5
325.855	253.5
326.084	275.5
326.313	288.5
326.542	262.5
326.77	286.5
326.999	294.5
327.228	285.5
327.457	265.5
327.686	283.5
327.914	265.5
328.143	262.5
328.372	269.5
328.6	291.5
328.829	268.5
329.058	277.5
329.287	288.5
329.515	275.5
329.744	271.5
329.972	287.5
330.201	271.5
330.43	275.5
330.658	266.5
330.887	277.5
331.115	294.5
331.344	270.5
331.572	286.5
331.801	288.5
332.03	277.5
332.258	293.5
332.486	309.5
332.715	295.5
332.943	308.5
333.172	317.5
333.4	315.5
333.629	320.5
333.857	325.5
334.085	316.5
334.314	328.5
334.542	324.5
334.771	318.5
334.999	304.5
335.227	301.5
335.455	314.5
335.684	291.5
335.912	310.5
336.14	297.5
336.369	298.5
336.597	308.5
336.825	304.5
337.053	300.5
337.281	308.5
337.51	281.5
337.738	297.5
337.966	284.5
338.194	274.5
338.422	282.5
338.65	297.5
338.878	302.5
339.106	288.5
339.334	289.5
339.562	283.5
339.79	287.5
340.018	297.5
340.246	292.5
340.474	264.5
340.702	278.5
340.93	303.5
341.158	295.5
341.386	296.5
341.614	288.5
341.842	283.5
342.07	281.5
342.298	304.5
342.526	284.5
342.754	277.5
342.981	292.5
343.209	308.5
343.437	336.5
343.665	324.5
343.893	306.5
344.12	335.5
344.348	300.5
344.576	293.5
344.804	299.5
345.031	286.5
345.259	301.5
345.487	293.5
345.714	297.5
345.942	298.5
346.17	287.5
346.397	302.5
346.625	303.5
346.853	303.5
347.08	289.5
347.308	296.5
347.535	305.5
347.763	277.5
347.99	304.5
348.218	291.5
348.445	278.5
348.673	285.5
348.9	288.5
349.128	287.5
349.355	302.5
349.583	301.5
349.81	295.5
350.037	271.5
350.265	288.5
350.492	287.5
350.72	299.5
350.947	303.5
351.174	313.5
351.402	309.5
351.629	300.5
351.856	322.5
352.083	310.5
352.311	289.5
352.538	313.5
352.765	323.5
352.992	329.5
353.22	324.5
353.447	321.5
353.674	321.5
353.901	325.5
354.128	336.5
354.355	327.5
354.583	319.5
354.81	342.5
355.037	344.5
355.264	355.5
355.491	360.5
355.718	359.5
355.945	383.5
356.172	395.5
356.399	378.5
356.626	412.5
356.853	407.5
357.08	438.5
357.307	489.5
357.534	504.5
357.761	536.5
357.988	583.5
358.215	657.5
358.441	756.5
358.668	824.5
358.895	807.5
359.122	690.5
359.349	593.5
359.576	534.5
359.802	506.5
360.029	461.5
360.256	466.5
360.483	455.5
360.709	433.5
360.936	450.5
361.163	417.5
361.39	403.5
361.616	402.5
361.843	374.5
362.07	370.5
362.296	368.5
362.523	341.5
362.749	349.5
362.976	352.5
363.203	352.5
363.429	329.5
363.656	345.5
363.882	350.5
364.109	332.5
364.335	331.5
364.562	313.5
364.788	307.5
365.015	325.5
365.241	339.5
365.468	315.5
365.694	321.5
365.92	330.5
366.147	302.5
366.373	321.5
366.599	319.5
366.826	318.5
367.052	289.5
367.278	322.5
367.505	311.5
367.731	333.5
367.957	312.5
368.184	315.5
368.41	306.5
368.636	328.5
368.862	320.5
369.089	318.5
369.315	310.5
369.541	319.5
369.767	328.5
369.993	309.5
370.219	311.5
370.445	315.5
370.672	319.5
370.898	313.5
371.124	333.5
371.35	311.5
371.576	328.5
371.802	341.5
372.028	329.5
372.254	331.5
372.48	320.5
372.706	326.5
372.932	324.5
373.158	317.5
373.384	352.5
373.61	340.5
373.835	338.5
374.061	323.5
374.287	333.5
374.513	331.5
374.739	338.5
374.965	343.5
375.191	339.5
375.416	323.5
375.642	322.5
375.868	336.5
376.094	335.5
376.319	311.5
376.545	324.5
376.771	332.5
376.997	315.5
377.222	325.5
377.448	321.5
377.674	322.5
377.899	336.5
378.125	314.5
378.35	328.5
378.576	323.5
378.802	317.5
379.027	310.5
379.253	336.5
379.478	326.5
379.704	317.5
379.929	305.5
380.155	334.5
380.38	324.5
380.606	324.5
380.831	343.5
381.057	360.5
381.282	332.5
381.507	355.5
381.733	331.5
381.958	360.5
382.184	365.5
382.409	355.5
382.634	377.5
382.86	389.5
383.085	462.5
383.31	452.5
383.535	465.5
383.761	471.5
383.986	476.5
384.211	402.5
384.436	373.5
384.662	343.5
384.887	363.5
385.112	364.5
385.337	376.5
385.562	373.5
385.787	390.5
386.013	372.5
386.238	397.5
386.463	371.5
386.688	417.5
386.913	379.5
387.138	384.5
387.363	378.5
387.588	366.5
387.813	372.5
388.038	396.5
388.263	391.5
388.488	382.5
388.713	365.5
388.938	377.5
389.163	367.5
389.387	373.5
389.612	368.5
389.837	389.5
390.062	380.5
390.287	390.5
390.512	390.5
390.736	378.5
390.961	401.5
391.186	382.5
391.411	377.5
391.636	385.5
391.86	417.5
392.085	416.5
392.31	421.5
392.534	425.5
392.759	448.5
392.984	480.5
393.208	538.5
393.433	617.5
393.658	633.5
393.882	664.5
394.107	968.5
394.331	1640.5
394.556	2109.5
394.78	1511.5
395.005	933.5
395.229	779.5
395.454	781.5
395.678	926.5
395.903	1432.5
396.127	2391.5
396.352	2757.5
396.576	1767.5
396.801	1115.5
397.025	859.5
397.249	685.5
397.474	657.5
397.698	585.5
397.922	568.5
398.147	532.5
398.371	523.5
398.595	508.5
398.82	503.5
399.044	519.5
399.268	509.5
399.492	573.5
399.717	563.5
399.941	550.5
400.165	529.5
400.389	516.5
400.613	461.5
400.837	472.5
401.062	453.5
401.286	453.5
401.51	443.5
401.734	438.5
401.958	442.5
402.182	437.5
402.406	449.5
402.63	444.5
402.854	436.5
403.078	465.5
403.302	469.5
403.526	478.5
403.75	453.5
403.974	460.5
404.198	475.5
404.422	468.5
404.645	461.5
404.869	471.5
405.093	451.5
405.317	442.5
405.541	448.5
405.765	437.5
405.988	437.5
406.212	458.5
406.436	447.5
406.66	459.5
406.883	466.5
407.107	477.5
407.331	500.5
407.555	455.5
407.778	482.5
408.002	511.5
408.226	475.5
408.449	444.5
408.673	466.5
408.896	476.5
409.12	449.5
409.344	469.5
409.567	424.5
409.791	451.5
410.014	455.5
410.238	447.5
410.461	452.5
410.685	447.5
410.908	461.5
411.132	456.5
411.355	441.5
411.578	449.5
411.802	429.5
412.025	437.5
412.249	447.5
412.472	435.5
412.695	441.5
412.919	412.5
413.142	444.5
413.365	439.5
413.589	432.5
413.812	416.5
414.035	444.5
414.258	439.5
414.482	437.5
414.705	437.5
414.928	440.5
415.151	439.5
415.374	443.5
415.597	433.5
415.821	428.5
416.044	428.5
416.267	422.5
416.49	415.5
416.713	437.5
416.936	445.5
417.159	439.5
417.382	434.5
417.605	443.5
417.828	444.5
418.051	471.5
418.274	445.5
418.497	406.5
418.72	431.5
418.943	451.5
419.166	466.5
419.389	480.5
419.611	471.5
419.834	449.5
420.057	441.5
420.28	444.5
420.503	427.5
420.726	455.5
420.948	436.5
421.171	430.5
421.394	469.5
421.617	466.5
421.839	456.5
422.062	458.5
422.285	441.5
422.507	429.5
422.73	454.5
422.953	449.5
423.175	432.5
423.398	460.5
423.621	435.5
423.843	441.5
424.066	445.5
424.288	432.5
424.511	465.5
424.733	460.5
424.956	451.5
425.178	447.5
425.401	453.5
425.623	452.5
425.846	409.5
426.068	440.5
426.291	429.5
426.513	428.5
426.735	429.5
426.958	431.5
427.18	436.5
427.402	436.5
427.625	419.5
427.847	412.5
428.069	407.5
428.292	439.5
428.514	433.5
428.736	425.5
428.958	425.5
429.181	387.5
429.403	396.5
429.625	424.5
429.847	411.5
430.069	408.5
430.292	405.5
430.514	412.5
430.736	416.5
430.958	426.5
431.18	391.5
431.402	380.5
431.624	401.5
431.846	382.5
432.068	376.5
432.29	383.5
432.512	413.5
432.734	399.5
432.956	429.5
433.178	424.5
433.4	420.5
433.622	425.5
433.844	434.5
434.066	425.5
434.287	401.5
434.509	403.5
434.731	396.5
434.953	423.5
435.175	427.5
435.397	418.5
435.618	416.5
435.84	388.5
436.062	419.5
436.284	419.5
436.505	431.5
436.727	400.5
436.949	403.5
437.17	425.5
437.392	400.5
437.614	392.5
437.835	380.5
438.057	369.5
438.278	377.5
438.5	400.5
438.721	400.5
438.943	429.5
439.165	422.5
439.386	436.5
439.608	429.5
439.829	444.5
440.05	429.5
440.272	421.5
440.493	444.5
440.715	435.5
440.936	449.5
441.158	449.5
441.379	426.5
441.6	465.5
441.822	462.5
442.043	438.5
442.264	429.5
442.486	441.5
442.707	457.5
442.928	455.5
443.149	437.5
443.371	441.5
443.592	442.5
443.813	463.5
444.034	445.5
444.255	472.5
444.476	462.5
444.698	495.5
444.919	487.5
445.14	745.5
445.361	607.5
445.582	468.5
445.803	459.5
446.024	445.5
446.245	441.5
446.466	439.5
446.687	437.5
446.908	444.5
447.129	448.5
447.35	454.5
447.571	445.5
447.792	441.5
448.013	435.5
448.234	431.5
448.455	448.5
448.675	445.5
448.896	410.5
449.117	421.5
449.338	402.5
449.559	414.5
449.779	410.5
450	408.5
450.221	401.5
450.442	405.5
450.662	413.5
450.883	395.5
451.104	434.5
451.324	403.5
451.545	395.5
451.766	405.5
451.986	404.5
452.207	403.5
452.428	414.5
452.648	408.5
452.869	426.5
453.089	384.5
453.31	398.5
453.53	380.5
453.751	398.5
453.971	393.5
454.192	383.5
454.412	393.5
454.633	399.5
454.853	413.5
455.073	377.5
455.294	384.5
455.514	374.5
455.734	370.5
455.955	359.5
456.175	371.5
456.395	375.5
456.616	383.5
456.836	367.5
457.056	352.5
457.276	365.5
457.497	356.5
457.717	348.5
457.937	371.5
458.157	356.5
458.377	353.5
458.598	335.5
458.818	332.5
459.038	347.5
459.258	354.5
459.478	358.5
459.698	383.5
459.918	404.5
460.138	381.5
460.358	416.5
460.578	437.5
460.798	411.5
461.018	431.5
461.238	439.5
461.458	438.5
461.678	426.5
461.898	428.5
462.118	439.5
462.338	438.5
462.558	449.5
462.777	471.5
462.997	480.5
463.217	461.5
463.437	481.5
463.657	466.5
463.876	473.5
464.096	452.5
464.316	460.5
464.536	478.5
464.755	470.5
464.975	453.5
465.195	442.5
465.414	428.5
465.634	437.5
465.854	432.5
466.073	476.5
466.293	483.5
466.512	501.5
466.732	517.5
466.951	490.5
467.171	483.5
467.391	465.5
467.61	472.5
467.829	460.5
468.049	456.5
468.268	414.5
468.488	420.5
468.707	405.5
468.927	429.5
469.146	417.5
469.365	412.5
469.585	411.5
469.804	447.5
470.023	439.5
470.243	441.5
470.462	432.5
470.681	439.5
470.901	459.5
471.12	420.5
471.339	429.5
471.558	435.5
471.777	444.5
471.997	425.5
472.216	414.5
472.435	409.5
472.654	416.5
472.873	419.5
473.092	407.5
473.311	440.5
473.53	455.5
473.749	473.5
473.968	465.5
474.187	440.5
474.406	451.5
474.625	475.5
474.844	479.5
475.063	478.5
475.282	437.5
475.501	423.5
475.72	433.5
475.939	423.5
476.158	416.5
476.377	422.5
476.596	419.5
476.814	416.5
477.033	410.5
477.252	415.5
477.471	417.5
477.69	444.5
477.908	448.5
478.127	459.5
478.346	443.5
478.564	443.5
478.783	443.5
479.002	483.5
479.22	465.5
479.439	444.5
479.658	441.5
479.876	437.5
480.095	443.5
480.313	463.5
480.532	454.5
480.751	449.5
480.969	409.5
481.188	401.5
481.406	403.5
481.624	408.5
481.843	415.5
482.061	415.5
482.28	412.5
482.498	448.5
482.717	399.5
482.935	433.5
483.153	456.5
483.372	461.5
483.59	454.5
483.808	446.5
484.027	428.5
484.245	432.5
484.463	478.5
484.681	510.5
484.9	466.5
485.118	459.5
485.336	447.5
485.554	439.5
485.772	459.5
485.99	450.5
486.209	432.5
486.427	443.5
486.645	465.5
486.863	476.5
487.081	503.5
487.299	479.5
487.517	476.5
487.735	514.5
487.953	524.5
488.171	511.5
488.389	523.5
488.607	483.5
488.825	454.5
489.043	465.5
489.261	446.5
489.479	470.5
489.696	477.5
489.914	473.5
490.132	482.5
490.35	502.5
490.568	505.5
490.786	532.5
491.003	521.5
491.221	537.5
491.439	547.5
491.657	532.5
491.874	547.5
492.092	559.5
492.31	578.5
492.527	551.5
492.745	535.5
492.963	546.5
493.18	535.5
493.398	540.5
493.615	517.5
493.833	507.5
494.05	522.5
494.268	511.5
494.485	488.5
494.703	500.5
494.92	508.5
495.138	481.5
495.355	483.5
495.573	519.5
495.79	489.5
496.008	508.5
496.225	519.5
496.442	522.5
496.66	529.5
496.877	498.5
497.094	523.5
497.312	514.5
497.529	523.5
497.746	520.5
497.963	508.5
498.181	515.5
498.398	525.5
498.615	547.5
498.832	569.5
499.049	575.5
499.267	592.5
499.484	623.5
499.701	669.5
499.918	710.5
500.135	775.5
500.352	803.5
500.569	786.5
500.786	813.5
501.003	762.5
501.22	734.5
501.437	665.5
501.654	631.5
501.871	604.5
502.088	589.5
502.305	574.5
502.522	574.5
502.739	544.5
502.956	520.5
503.172	529.5
503.389	508.5
503.606	484.5
503.823	488.5
504.04	488.5
504.256	496.5
504.473	507.5
504.69	470.5
504.907	488.5
505.123	470.5
505.34	453.5
505.557	472.5
505.773	451.5
505.99	418.5
506.207	444.5
506.423	413.5
506.64	398.5
506.856	431.5
507.073	434.5
507.289	418.5
507.506	420.5
507.722	424.5
507.939	402.5
508.155	419.5
508.372	421.5
508.588	377.5
508.805	400.5
509.021	389.5
509.238	382.5
509.454	383.5
509.67	392.5
509.887	355.5
510.103	368.5
510.319	391.5
510.536	396.5
510.752	369.5
510.968	363.5
511.184	364.5
511.401	390.5
511.617	387.5
511.833	344.5
512.049	387.5
512.265	386.5
512.481	379.5
512.698	381.5
512.914	382.5
513.13	390.5
513.346	391.5
513.562	385.5
513.778	418.5
513.994	427.5
514.21	398.5
514.426	411.5
514.642	426.5
514.858	408.5
515.074	416.5
515.29	454.5
515.506	451.5
515.721	429.5
515.937	423.5
516.153	419.5
516.369	419.5
516.585	424.5
516.801	424.5
517.016	451.5
517.232	468.5
517.448	526.5
517.664	484.5
517.879	462.5
518.095	455.5
518.311	453.5
518.527	544.5
518.742	499.5
518.958	425.5
519.173	443.5
519.389	421.5
519.605	428.5
519.82	405.5
520.036	397.5
520.251	415.5
520.467	397.5
520.682	361.5
