Data from SampC_HRD10591_00092.txt Node
Date: Mon Jan 19 11:38:01 EST 2026
User: Yrep
Spectrometer: HR+D1059
Trigger mode: 0
Integration Time (sec): 3.443000E-1
Scans to average: 1
Electric dark correction enabled: true
Nonlinearity correction enabled: false
Boxcar width: 0
XAxis mode: Wavelengths
Number of Pixels in Spectrum: 2048
>>>>>Begin Spectral Data<<<<<
223.165	-19.44
223.4	-19.44
223.635	-19.44
223.869	-14.44
224.104	-23.44
224.338	-16.44
224.573	-12.44
224.808	-4.44
225.042	-9.44
225.277	-10.44
225.511	-7.44
225.746	3.56
225.98	5.56
226.215	5.56
226.449	22.56
226.683	16.56
226.918	22.56
227.152	41.56
227.387	34.56
227.621	42.56
227.856	50.56
228.09	48.56
228.324	38.56
228.559	69.56
228.793	70.56
229.027	96.56
229.262	93.56
229.496	81.56
229.73	101.56
229.964	103.56
230.199	112.56
230.433	104.56
230.667	95.56
230.901	89.56
231.136	105.56
231.37	102.56
231.604	98.56
231.838	117.56
232.072	109.56
232.306	104.56
232.541	112.56
232.775	108.56
233.009	120.56
233.243	114.56
233.477	113.56
233.711	102.56
233.945	127.56
234.179	106.56
234.413	119.56
234.647	116.56
234.881	111.56
235.115	105.56
235.349	114.56
235.583	132.56
235.817	117.56
236.051	117.56
236.285	108.56
236.519	120.56
236.753	137.56
236.987	161.56
237.221	170.56
237.455	190.56
237.689	177.56
237.922	159.56
238.156	145.56
238.39	127.56
238.624	126.56
238.858	116.56
239.091	141.56
239.325	114.56
239.559	102.56
239.793	126.56
240.027	115.56
240.26	107.56
240.494	115.56
240.728	105.56
240.961	107.56
241.195	115.56
241.429	122.56
241.662	114.56
241.896	121.56
242.13	115.56
242.363	113.56
242.597	111.56
242.83	122.56
243.064	117.56
243.298	117.56
243.531	136.56
243.765	118.56
243.998	121.56
244.232	132.56
244.465	115.56
244.699	122.56
244.932	117.56
245.166	128.56
245.399	118.56
245.633	126.56
245.866	133.56
246.099	123.56
246.333	117.56
246.566	116.56
246.8	132.56
247.033	128.56
247.266	132.56
247.5	151.56
247.733	129.56
247.966	112.56
248.2	130.56
248.433	125.56
248.666	134.56
248.899	137.56
249.133	131.56
249.366	154.56
249.599	127.56
249.832	114.56
250.066	144.56
250.299	117.56
250.532	135.56
250.765	128.56
250.998	134.56
251.231	149.56
251.465	148.56
251.698	143.56
251.931	150.56
252.164	147.56
252.397	136.56
252.63	145.56
252.863	133.56
253.096	141.56
253.329	155.56
253.562	140.56
253.795	158.56
254.028	158.56
254.261	134.56
254.494	143.56
254.727	154.56
254.96	133.56
255.193	125.56
255.426	137.56
255.659	152.56
255.892	146.56
256.124	157.56
256.357	141.56
256.59	160.56
256.823	195.56
257.056	204.56
257.289	203.56
257.521	227.56
257.754	260.56
257.987	242.56
258.22	212.56
258.452	198.56
258.685	169.56
258.918	171.56
259.151	160.56
259.383	153.56
259.616	164.56
259.849	165.56
260.081	167.56
260.314	155.56
260.547	152.56
260.779	163.56
261.012	150.56
261.244	173.56
261.477	169.56
261.71	174.56
261.942	159.56
262.175	183.56
262.407	174.56
262.64	180.56
262.872	206.56
263.105	199.56
263.337	220.56
263.57	223.56
263.802	204.56
264.035	212.56
264.267	189.56
264.499	211.56
264.732	203.56
264.964	191.56
265.197	220.56
265.429	207.56
265.661	223.56
265.894	216.56
266.126	219.56
266.358	240.56
266.591	215.56
266.823	194.56
267.055	186.56
267.287	183.56
267.52	176.56
267.752	172.56
267.984	177.56
268.216	171.56
268.448	186.56
268.681	152.56
268.913	159.56
269.145	165.56
269.377	175.56
269.609	171.56
269.841	176.56
270.073	169.56
270.306	174.56
270.538	170.56
270.77	158.56
271.002	173.56
271.234	177.56
271.466	180.56
271.698	169.56
271.93	177.56
272.162	181.56
272.394	197.56
272.626	177.56
272.858	183.56
273.09	176.56
273.322	185.56
273.553	182.56
273.785	185.56
274.017	177.56
274.249	174.56
274.481	174.56
274.713	183.56
274.945	190.56
275.176	190.56
275.408	202.56
275.64	208.56
275.872	198.56
276.104	190.56
276.335	200.56
276.567	196.56
276.799	183.56
277.031	208.56
277.262	191.56
277.494	228.56
277.726	234.56
277.957	240.56
278.189	265.56
278.421	259.56
278.652	270.56
278.884	321.56
279.115	459.56
279.347	593.56
279.579	835.56
279.81	955.56
280.042	759.56
280.273	719.56
280.505	688.56
280.736	459.56
280.968	303.56
281.199	317.56
281.431	361.56
281.662	432.56
281.894	465.56
282.125	393.56
282.356	309.56
282.588	276.56
282.819	275.56
283.051	242.56
283.282	235.56
283.513	244.56
283.745	212.56
283.976	221.56
284.207	216.56
284.439	221.56
284.67	260.56
284.901	253.56
285.132	297.56
285.364	328.56
285.595	317.56
285.826	227.56
286.057	227.56
286.288	213.56
286.52	229.56
286.751	218.56
286.982	225.56
287.213	201.56
287.444	219.56
287.675	208.56
287.906	222.56
288.138	227.56
288.369	231.56
288.6	212.56
288.831	229.56
289.062	239.56
289.293	208.56
289.524	208.56
289.755	229.56
289.986	211.56
290.217	219.56
290.448	214.56
290.679	241.56
290.91	231.56
291.141	207.56
291.371	225.56
291.602	223.56
291.833	220.56
292.064	232.56
292.295	233.56
292.526	263.56
292.757	236.56
292.987	243.56
293.218	265.56
293.449	252.56
293.68	273.56
293.91	277.56
294.141	260.56
294.372	232.56
294.603	237.56
294.833	221.56
295.064	235.56
295.295	230.56
295.525	216.56
295.756	219.56
295.987	218.56
296.217	229.56
296.448	223.56
296.679	220.56
296.909	214.56
297.14	216.56
297.37	225.56
297.601	236.56
297.831	228.56
298.062	220.56
298.292	232.56
298.523	235.56
298.753	235.56
298.984	220.56
299.214	228.56
299.445	227.56
299.675	238.56
299.905	240.56
300.136	242.56
300.366	232.56
300.597	235.56
300.827	247.56
301.057	245.56
301.288	238.56
301.518	250.56
301.748	245.56
301.979	278.56
302.209	267.56
302.439	249.56
302.669	256.56
302.9	253.56
303.13	260.56
303.36	266.56
303.59	273.56
303.82	299.56
304.051	297.56
304.281	299.56
304.511	294.56
304.741	322.56
304.971	353.56
305.201	401.56
305.431	435.56
305.661	507.56
305.891	510.56
306.121	480.56
306.352	432.56
306.582	469.56
306.812	435.56
307.042	423.56
307.272	429.56
307.502	454.56
307.731	545.56
307.961	739.56
308.191	962.56
308.421	1124.56
308.651	965.56
308.881	899.56
309.111	1101.56
309.341	1395.56
309.571	1336.56
309.8	877.56
310.03	623.56
310.26	458.56
310.49	440.56
310.72	411.56
310.949	380.56
311.179	348.56
311.409	324.56
311.639	328.56
311.868	309.56
312.098	320.56
312.328	302.56
312.557	290.56
312.787	287.56
313.017	287.56
313.246	293.56
313.476	289.56
313.706	266.56
313.935	272.56
314.165	268.56
314.394	278.56
314.624	262.56
314.853	280.56
315.083	262.56
315.312	271.56
315.542	269.56
315.771	270.56
316.001	261.56
316.23	268.56
316.46	270.56
316.689	261.56
316.919	263.56
317.148	265.56
317.377	273.56
317.607	264.56
317.836	268.56
318.065	291.56
318.295	279.56
318.524	254.56
318.753	270.56
318.983	267.56
319.212	240.56
319.441	257.56
319.67	270.56
319.9	264.56
320.129	252.56
320.358	259.56
320.587	267.56
320.816	250.56
321.046	246.56
321.275	263.56
321.504	266.56
321.733	255.56
321.962	271.56
322.191	241.56
322.42	252.56
322.649	271.56
322.878	269.56
323.108	268.56
323.337	278.56
323.566	246.56
323.795	269.56
324.024	275.56
324.253	272.56
324.482	250.56
324.71	270.56
324.939	275.56
325.168	269.56
325.397	257.56
325.626	269.56
325.855	261.56
326.084	249.56
326.313	260.56
326.542	272.56
326.77	277.56
326.999	281.56
327.228	267.56
327.457	262.56
327.686	256.56
327.914	280.56
328.143	287.56
328.372	268.56
328.6	251.56
328.829	275.56
329.058	271.56
329.287	269.56
329.515	275.56
329.744	271.56
329.972	267.56
330.201	258.56
330.43	279.56
330.658	262.56
330.887	285.56
331.115	266.56
331.344	275.56
331.572	270.56
331.801	267.56
332.03	292.56
332.258	283.56
332.486	301.56
332.715	274.56
332.943	310.56
333.172	303.56
333.4	297.56
333.629	307.56
333.857	301.56
334.085	319.56
334.314	311.56
334.542	303.56
334.771	311.56
334.999	310.56
335.227	304.56
335.455	325.56
335.684	305.56
335.912	294.56
336.14	295.56
336.369	305.56
336.597	313.56
336.825	287.56
337.053	302.56
337.281	276.56
337.51	293.56
337.738	291.56
337.966	297.56
338.194	282.56
338.422	278.56
338.65	291.56
338.878	299.56
339.106	314.56
339.334	285.56
339.562	276.56
339.79	276.56
340.018	274.56
340.246	276.56
340.474	272.56
340.702	269.56
340.93	287.56
341.158	287.56
341.386	279.56
341.614	276.56
341.842	272.56
342.07	271.56
342.298	285.56
342.526	280.56
342.754	274.56
342.981	287.56
343.209	293.56
343.437	319.56
343.665	301.56
343.893	294.56
344.12	323.56
344.348	324.56
344.576	309.56
344.804	295.56
345.031	280.56
345.259	287.56
345.487	291.56
345.714	285.56
345.942	274.56
346.17	287.56
346.397	295.56
346.625	278.56
346.853	271.56
347.08	262.56
347.308	279.56
347.535	291.56
347.763	281.56
347.99	279.56
348.218	284.56
348.445	293.56
348.673	301.56
348.9	275.56
349.128	283.56
349.355	287.56
349.583	278.56
349.81	291.56
350.037	272.56
350.265	276.56
350.492	277.56
350.72	298.56
350.947	297.56
351.174	297.56
351.402	275.56
351.629	294.56
351.856	296.56
352.083	286.56
352.311	292.56
352.538	274.56
352.765	295.56
352.992	312.56
353.22	316.56
353.447	312.56
353.674	312.56
353.901	287.56
354.128	323.56
354.355	305.56
354.583	333.56
354.81	323.56
355.037	341.56
355.264	343.56
355.491	344.56
355.718	344.56
355.945	351.56
356.172	359.56
356.399	375.56
356.626	372.56
356.853	410.56
357.08	428.56
357.307	453.56
357.534	470.56
357.761	514.56
357.988	563.56
358.215	637.56
358.441	698.56
358.668	765.56
358.895	783.56
359.122	651.56
359.349	540.56
359.576	491.56
359.802	479.56
360.029	430.56
360.256	438.56
360.483	438.56
360.709	413.56
360.936	409.56
361.163	383.56
361.39	385.56
361.616	366.56
361.843	345.56
362.07	354.56
362.296	364.56
362.523	339.56
362.749	343.56
362.976	322.56
363.203	345.56
363.429	319.56
363.656	326.56
363.882	318.56
364.109	336.56
364.335	320.56
364.562	295.56
364.788	320.56
365.015	310.56
365.241	302.56
365.468	316.56
365.694	295.56
365.92	333.56
366.147	295.56
366.373	315.56
366.599	295.56
366.826	300.56
367.052	302.56
367.278	291.56
367.505	302.56
367.731	300.56
367.957	299.56
368.184	316.56
368.41	320.56
368.636	311.56
368.862	292.56
369.089	303.56
369.315	316.56
369.541	315.56
369.767	298.56
369.993	298.56
370.219	287.56
370.445	292.56
370.672	333.56
370.898	323.56
371.124	326.56
371.35	311.56
371.576	326.56
371.802	318.56
372.028	325.56
372.254	306.56
372.48	321.56
372.706	303.56
372.932	306.56
373.158	313.56
373.384	336.56
373.61	330.56
373.835	320.56
374.061	315.56
374.287	326.56
374.513	314.56
374.739	336.56
374.965	332.56
375.191	351.56
375.416	319.56
375.642	317.56
375.868	311.56
376.094	325.56
376.319	303.56
376.545	320.56
376.771	310.56
376.997	312.56
377.222	307.56
377.448	311.56
377.674	292.56
377.899	316.56
378.125	315.56
378.35	315.56
378.576	316.56
378.802	317.56
379.027	313.56
379.253	326.56
379.478	317.56
379.704	320.56
379.929	310.56
380.155	323.56
380.38	317.56
380.606	344.56
380.831	331.56
381.057	340.56
381.282	325.56
381.507	316.56
381.733	324.56
381.958	328.56
382.184	357.56
382.409	364.56
382.634	374.56
382.86	380.56
383.085	438.56
383.31	454.56
383.535	461.56
383.761	453.56
383.986	467.56
384.211	409.56
384.436	363.56
384.662	379.56
384.887	362.56
385.112	371.56
385.337	377.56
385.562	379.56
385.787	371.56
386.013	386.56
386.238	355.56
386.463	380.56
386.688	411.56
386.913	361.56
387.138	357.56
387.363	376.56
387.588	374.56
387.813	384.56
388.038	349.56
388.263	395.56
388.488	388.56
388.713	355.56
388.938	369.56
389.163	379.56
389.387	372.56
389.612	372.56
389.837	371.56
390.062	372.56
390.287	396.56
390.512	391.56
390.736	383.56
390.961	376.56
391.186	390.56
391.411	380.56
391.636	400.56
391.86	413.56
392.085	411.56
392.31	418.56
392.534	425.56
392.759	467.56
392.984	503.56
393.208	633.56
393.433	793.56
393.658	753.56
393.882	672.56
394.107	946.56
394.331	1502.56
394.556	1942.56
394.78	1415.56
395.005	883.56
395.229	724.56
395.454	759.56
395.678	886.56
395.903	1331.56
396.127	2227.56
396.352	2639.56
396.576	1761.56
396.801	1152.56
397.025	941.56
397.249	703.56
397.474	603.56
397.698	545.56
397.922	562.56
398.147	531.56
398.371	525.56
398.595	505.56
398.82	499.56
399.044	508.56
399.268	500.56
399.492	532.56
399.717	525.56
399.941	519.56
400.165	508.56
400.389	473.56
400.613	448.56
400.837	444.56
401.062	449.56
401.286	450.56
401.51	438.56
401.734	439.56
401.958	456.56
402.182	448.56
402.406	439.56
402.63	441.56
402.854	420.56
403.078	440.56
403.302	435.56
403.526	459.56
403.75	452.56
403.974	441.56
404.198	448.56
404.422	450.56
404.645	438.56
404.869	463.56
405.093	465.56
405.317	458.56
405.541	456.56
405.765	431.56
405.988	443.56
406.212	430.56
406.436	433.56
406.66	460.56
406.883	470.56
407.107	452.56
407.331	448.56
407.555	477.56
407.778	483.56
408.002	481.56
408.226	457.56
408.449	446.56
408.673	449.56
408.896	463.56
409.12	445.56
409.344	427.56
409.567	443.56
409.791	433.56
410.014	452.56
410.238	435.56
410.461	445.56
410.685	421.56
410.908	429.56
411.132	457.56
411.355	432.56
411.578	429.56
411.802	414.56
412.025	426.56
412.249	423.56
412.472	425.56
412.695	419.56
412.919	419.56
413.142	424.56
413.365	421.56
413.589	417.56
413.812	399.56
414.035	414.56
414.258	424.56
414.482	424.56
414.705	424.56
414.928	417.56
415.151	432.56
415.374	422.56
415.597	425.56
415.821	402.56
416.044	417.56
416.267	416.56
416.49	414.56
416.713	396.56
416.936	424.56
417.159	392.56
417.382	441.56
417.605	403.56
417.828	449.56
418.051	426.56
418.274	434.56
418.497	439.56
418.72	437.56
418.943	446.56
419.166	435.56
419.389	483.56
419.611	447.56
419.834	438.56
420.057	436.56
420.28	426.56
420.503	432.56
420.726	407.56
420.948	412.56
421.171	426.56
421.394	434.56
421.617	433.56
421.839	438.56
422.062	438.56
422.285	431.56
422.507	446.56
422.73	477.56
422.953	446.56
423.175	418.56
423.398	430.56
423.621	427.56
423.843	447.56
424.066	447.56
424.288	430.56
424.511	423.56
424.733	432.56
424.956	457.56
425.178	433.56
425.401	429.56
425.623	422.56
425.846	388.56
426.068	408.56
426.291	419.56
426.513	412.56
426.735	420.56
426.958	415.56
427.18	415.56
427.402	415.56
427.625	403.56
427.847	405.56
428.069	418.56
428.292	410.56
428.514	379.56
428.736	420.56
428.958	415.56
429.181	393.56
429.403	385.56
429.625	409.56
429.847	413.56
430.069	399.56
430.292	427.56
430.514	395.56
430.736	405.56
430.958	405.56
431.18	411.56
431.402	418.56
431.624	392.56
431.846	376.56
432.068	372.56
432.29	360.56
432.512	381.56
432.734	419.56
432.956	421.56
433.178	411.56
433.4	421.56
433.622	413.56
433.844	392.56
434.066	400.56
434.287	390.56
434.509	375.56
434.731	371.56
434.953	392.56
435.175	412.56
435.397	404.56
435.618	386.56
435.84	389.56
436.062	389.56
436.284	396.56
436.505	407.56
436.727	396.56
436.949	409.56
437.17	371.56
437.392	379.56
437.614	386.56
437.835	369.56
438.057	382.56
438.278	366.56
438.5	388.56
438.721	408.56
438.943	417.56
439.165	411.56
439.386	413.56
439.608	422.56
439.829	417.56
440.05	401.56
440.272	430.56
440.493	425.56
440.715	419.56
440.936	423.56
441.158	440.56
441.379	436.56
441.6	445.56
441.822	437.56
442.043	440.56
442.264	437.56
442.486	422.56
442.707	433.56
442.928	445.56
443.149	459.56
443.371	424.56
443.592	453.56
443.813	435.56
444.034	448.56
444.255	447.56
444.476	442.56
444.698	469.56
444.919	465.56
445.14	633.56
445.361	547.56
445.582	454.56
445.803	430.56
446.024	447.56
446.245	460.56
446.466	453.56
446.687	438.56
446.908	452.56
447.129	429.56
447.35	446.56
447.571	429.56
447.792	436.56
448.013	438.56
448.234	441.56
448.455	433.56
448.675	412.56
448.896	399.56
449.117	412.56
449.338	393.56
449.559	435.56
449.779	431.56
450	388.56
450.221	390.56
450.442	438.56
450.662	406.56
450.883	397.56
451.104	387.56
451.324	397.56
451.545	398.56
451.766	396.56
451.986	376.56
452.207	387.56
452.428	375.56
452.648	381.56
452.869	384.56
453.089	389.56
453.31	370.56
453.53	381.56
453.751	363.56
453.971	382.56
454.192	374.56
454.412	362.56
454.633	354.56
454.853	367.56
455.073	365.56
455.294	368.56
455.514	373.56
455.734	376.56
455.955	343.56
456.175	352.56
456.395	340.56
456.616	348.56
456.836	345.56
457.056	340.56
457.276	334.56
457.497	333.56
457.717	351.56
457.937	366.56
458.157	355.56
458.377	353.56
458.598	344.56
458.818	359.56
459.038	346.56
459.258	356.56
459.478	361.56
459.698	366.56
459.918	376.56
460.138	398.56
460.358	381.56
460.578	420.56
460.798	421.56
461.018	414.56
461.238	412.56
461.458	421.56
461.678	389.56
461.898	392.56
462.118	431.56
462.338	435.56
462.558	446.56
462.777	447.56
462.997	456.56
463.217	485.56
463.437	469.56
463.657	453.56
463.876	446.56
464.096	450.56
464.316	449.56
464.536	435.56
464.755	456.56
464.975	447.56
465.195	427.56
465.414	428.56
465.634	416.56
465.854	419.56
466.073	429.56
466.293	449.56
466.512	493.56
466.732	487.56
466.951	461.56
467.171	451.56
467.391	453.56
467.61	416.56
467.829	417.56
468.049	415.56
468.268	413.56
468.488	401.56
468.707	426.56
468.927	412.56
469.146	391.56
469.365	419.56
469.585	413.56
469.804	419.56
470.023	431.56
470.243	437.56
470.462	414.56
470.681	431.56
470.901	411.56
471.12	418.56
471.339	411.56
471.558	428.56
471.777	432.56
471.997	412.56
472.216	397.56
472.435	364.56
472.654	373.56
472.873	372.56
473.092	422.56
473.311	429.56
473.53	449.56
473.749	457.56
473.968	464.56
474.187	435.56
474.406	443.56
474.625	465.56
474.844	471.56
475.063	469.56
475.282	425.56
475.501	412.56
475.72	403.56
475.939	385.56
476.158	409.56
476.377	416.56
476.596	402.56
476.814	379.56
477.033	387.56
477.252	380.56
477.471	408.56
477.69	431.56
477.908	421.56
478.127	447.56
478.346	432.56
478.564	446.56
478.783	431.56
479.002	449.56
479.22	440.56
479.439	439.56
479.658	410.56
479.876	419.56
480.095	435.56
480.313	437.56
480.532	449.56
480.751	430.56
480.969	402.56
481.188	396.56
481.406	390.56
481.624	377.56
481.843	373.56
482.061	390.56
482.28	413.56
482.498	381.56
482.717	394.56
482.935	421.56
483.153	433.56
483.372	439.56
483.59	443.56
483.808	440.56
484.027	423.56
484.245	454.56
484.463	477.56
484.681	478.56
484.9	467.56
485.118	461.56
485.336	442.56
485.554	429.56
485.772	426.56
485.99	435.56
486.209	435.56
486.427	437.56
486.645	457.56
486.863	470.56
487.081	480.56
487.299	459.56
487.517	454.56
487.735	486.56
487.953	514.56
488.171	508.56
488.389	460.56
488.607	460.56
488.825	446.56
489.043	448.56
489.261	463.56
489.479	463.56
489.696	453.56
489.914	453.56
490.132	469.56
490.35	459.56
490.568	488.56
490.786	487.56
491.003	489.56
491.221	486.56
491.439	503.56
491.657	498.56
491.874	536.56
492.092	545.56
492.31	561.56
492.527	544.56
492.745	531.56
492.963	538.56
493.18	517.56
493.398	521.56
493.615	478.56
493.833	509.56
494.05	503.56
494.268	495.56
494.485	482.56
494.703	495.56
494.92	483.56
495.138	489.56
495.355	506.56
495.573	495.56
495.79	466.56
496.008	499.56
496.225	488.56
496.442	505.56
496.66	503.56
496.877	482.56
497.094	496.56
497.312	493.56
497.529	512.56
497.746	516.56
497.963	490.56
498.181	486.56
498.398	511.56
498.615	520.56
498.832	528.56
499.049	555.56
499.267	592.56
499.484	597.56
499.701	643.56
499.918	697.56
500.135	734.56
500.352	736.56
500.569	762.56
500.786	773.56
501.003	738.56
501.22	700.56
501.437	641.56
501.654	614.56
501.871	591.56
502.088	566.56
502.305	544.56
502.522	537.56
502.739	520.56
