Data from SampC_HRD10591_00089.txt Node
Date: Mon Jan 19 11:38:00 EST 2026
User: Yrep
Spectrometer: HR+D1059
Trigger mode: 0
Integration Time (sec): 3.443000E-1
Scans to average: 1
Electric dark correction enabled: true
Nonlinearity correction enabled: false
Boxcar width: 0
XAxis mode: Wavelengths
Number of Pixels in Spectrum: 2048
>>>>>Begin Spectral Data<<<<<
223.165	-17.31
223.4	-17.31
223.635	-17.31
223.869	-20.31
224.104	-26.31
224.338	-9.31
224.573	-21.31
224.808	-9.31
225.042	-10.31
225.277	1.69
225.511	-2.31
225.746	-1.31
225.98	-7.31
226.215	15.69
226.449	14.69
226.683	20.69
226.918	23.69
227.152	48.69
227.387	25.69
227.621	19.69
227.856	44.69
228.09	36.69
228.324	49.69
228.559	67.69
228.793	74.69
229.027	85.69
229.262	99.69
229.496	97.69
229.73	103.69
229.964	96.69
230.199	93.69
230.433	103.69
230.667	119.69
230.901	108.69
231.136	91.69
231.37	116.69
231.604	116.69
231.838	118.69
232.072	119.69
232.306	125.69
232.541	115.69
232.775	123.69
233.009	124.69
233.243	131.69
233.477	111.69
233.711	125.69
233.945	123.69
234.179	122.69
234.413	105.69
234.647	119.69
234.881	129.69
235.115	119.69
235.349	120.69
235.583	116.69
235.817	123.69
236.051	130.69
236.285	130.69
236.519	158.69
236.753	157.69
236.987	201.69
237.221	222.69
237.455	243.69
237.689	228.69
237.922	196.69
238.156	166.69
238.39	147.69
238.624	140.69
238.858	140.69
239.091	124.69
239.325	126.69
239.559	114.69
239.793	116.69
240.027	141.69
240.26	127.69
240.494	123.69
240.728	111.69
240.961	130.69
241.195	123.69
241.429	132.69
241.662	117.69
241.896	125.69
242.13	119.69
242.363	123.69
242.597	111.69
242.83	133.69
243.064	121.69
243.298	126.69
243.531	127.69
243.765	124.69
243.998	123.69
244.232	149.69
244.465	140.69
244.699	131.69
244.932	126.69
245.166	139.69
245.399	116.69
245.633	137.69
245.866	129.69
246.099	132.69
246.333	137.69
246.566	142.69
246.8	133.69
247.033	131.69
247.266	137.69
247.5	118.69
247.733	126.69
247.966	119.69
248.2	134.69
248.433	134.69
248.666	132.69
248.899	132.69
249.133	146.69
249.366	143.69
249.599	134.69
249.832	150.69
250.066	154.69
250.299	135.69
250.532	137.69
250.765	144.69
250.998	153.69
251.231	167.69
251.465	151.69
251.698	158.69
251.931	169.69
252.164	149.69
252.397	158.69
252.63	148.69
252.863	147.69
253.096	149.69
253.329	174.69
253.562	157.69
253.795	164.69
254.028	140.69
254.261	148.69
254.494	141.69
254.727	169.69
254.96	165.69
255.193	158.69
255.426	156.69
255.659	155.69
255.892	175.69
256.124	167.69
256.357	165.69
256.59	188.69
256.823	232.69
257.056	270.69
257.289	273.69
257.521	293.69
257.754	343.69
257.987	329.69
258.22	255.69
258.452	211.69
258.685	182.69
258.918	174.69
259.151	186.69
259.383	162.69
259.616	188.69
259.849	169.69
260.081	162.69
260.314	184.69
260.547	166.69
260.779	172.69
261.012	180.69
261.244	181.69
261.477	171.69
261.71	174.69
261.942	179.69
262.175	171.69
262.407	199.69
262.64	173.69
262.872	218.69
263.105	217.69
263.337	275.69
263.57	258.69
263.802	244.69
264.035	237.69
264.267	221.69
264.499	221.69
264.732	221.69
264.964	237.69
265.197	227.69
265.429	271.69
265.661	268.69
265.894	265.69
266.126	293.69
266.358	292.69
266.591	259.69
266.823	211.69
267.055	208.69
267.287	194.69
267.52	182.69
267.752	194.69
267.984	206.69
268.216	192.69
268.448	199.69
268.681	181.69
268.913	203.69
269.145	192.69
269.377	205.69
269.609	187.69
269.841	189.69
270.073	195.69
270.306	184.69
270.538	191.69
270.77	193.69
271.002	173.69
271.234	187.69
271.466	195.69
271.698	166.69
271.93	189.69
272.162	205.69
272.394	186.69
272.626	186.69
272.858	201.69
273.09	222.69
273.322	204.69
273.553	199.69
273.785	201.69
274.017	196.69
274.249	196.69
274.481	198.69
274.713	191.69
274.945	225.69
275.176	223.69
275.408	191.69
275.64	193.69
275.872	189.69
276.104	209.69
276.335	210.69
276.567	219.69
276.799	221.69
277.031	208.69
277.262	228.69
277.494	240.69
277.726	241.69
277.957	258.69
278.189	252.69
278.421	269.69
278.652	282.69
278.884	301.69
279.115	397.69
279.347	546.69
279.579	762.69
279.81	877.69
280.042	725.69
280.273	669.69
280.505	642.69
280.736	447.69
280.968	344.69
281.199	347.69
281.431	420.69
281.662	524.69
281.894	599.69
282.125	496.69
282.356	367.69
282.588	323.69
282.819	303.69
283.051	276.69
283.282	263.69
283.513	275.69
283.745	279.69
283.976	250.69
284.207	255.69
284.439	249.69
284.67	246.69
284.901	271.69
285.132	307.69
285.364	352.69
285.595	320.69
285.826	244.69
286.057	249.69
286.288	250.69
286.52	235.69
286.751	238.69
286.982	230.69
287.213	236.69
287.444	241.69
287.675	242.69
287.906	232.69
288.138	245.69
288.369	263.69
288.6	238.69
288.831	257.69
289.062	239.69
289.293	237.69
289.524	230.69
289.755	245.69
289.986	239.69
290.217	242.69
290.448	261.69
290.679	257.69
290.91	234.69
291.141	234.69
291.371	242.69
291.602	248.69
291.833	272.69
292.064	248.69
292.295	246.69
292.526	258.69
292.757	286.69
292.987	275.69
293.218	288.69
293.449	295.69
293.68	278.69
293.91	289.69
294.141	274.69
294.372	241.69
294.603	258.69
294.833	270.69
295.064	258.69
295.295	247.69
295.525	240.69
295.756	262.69
295.987	254.69
296.217	248.69
296.448	262.69
296.679	251.69
296.909	267.69
297.14	260.69
297.37	265.69
297.601	267.69
297.831	229.69
298.062	233.69
298.292	261.69
298.523	255.69
298.753	245.69
298.984	275.69
299.214	267.69
299.445	259.69
299.675	272.69
299.905	255.69
300.136	275.69
300.366	250.69
300.597	267.69
300.827	269.69
301.057	271.69
301.288	260.69
301.518	277.69
301.748	271.69
301.979	337.69
302.209	300.69
302.439	313.69
302.669	284.69
302.9	298.69
303.13	303.69
303.36	338.69
303.59	335.69
303.82	326.69
304.051	352.69
304.281	358.69
304.511	375.69
304.741	399.69
304.971	442.69
305.201	538.69
305.431	601.69
305.661	693.69
305.891	710.69
306.121	687.69
306.352	606.69
306.582	620.69
306.812	636.69
307.042	549.69
307.272	536.69
307.502	581.69
307.731	787.69
307.961	1101.69
308.191	1542.69
308.421	1787.69
308.651	1520.69
308.881	1386.69
309.111	1704.69
309.341	2157.69
309.571	2079.69
309.8	1329.69
310.03	871.69
310.26	692.69
310.49	555.69
310.72	521.69
310.949	487.69
311.179	443.69
311.409	411.69
311.639	400.69
311.868	361.69
312.098	364.69
312.328	372.69
312.557	355.69
312.787	316.69
313.017	348.69
313.246	350.69
313.476	350.69
313.706	335.69
313.935	342.69
314.165	334.69
314.394	318.69
314.624	306.69
314.853	316.69
315.083	321.69
315.312	322.69
315.542	321.69
315.771	322.69
316.001	313.69
316.23	301.69
316.46	293.69
316.689	306.69
316.919	309.69
317.148	313.69
317.377	292.69
317.607	313.69
317.836	302.69
318.065	307.69
318.295	297.69
318.524	289.69
318.753	291.69
318.983	292.69
319.212	293.69
319.441	306.69
319.67	309.69
319.9	303.69
320.129	290.69
320.358	283.69
320.587	274.69
320.816	293.69
321.046	282.69
321.275	286.69
321.504	289.69
321.733	292.69
321.962	304.69
322.191	295.69
322.42	292.69
322.649	302.69
322.878	311.69
323.108	291.69
323.337	304.69
323.566	310.69
323.795	310.69
324.024	323.69
324.253	309.69
324.482	301.69
324.71	301.69
324.939	298.69
325.168	308.69
325.397	320.69
325.626	303.69
325.855	301.69
326.084	313.69
326.313	316.69
326.542	299.69
326.77	291.69
326.999	300.69
327.228	291.69
327.457	315.69
327.686	310.69
327.914	313.69
328.143	294.69
328.372	315.69
328.6	290.69
328.829	307.69
329.058	285.69
329.287	293.69
329.515	309.69
329.744	314.69
329.972	316.69
330.201	327.69
330.43	331.69
330.658	303.69
330.887	319.69
331.115	310.69
331.344	296.69
331.572	314.69
331.801	324.69
332.03	326.69
332.258	318.69
332.486	327.69
332.715	321.69
332.943	345.69
333.172	349.69
333.4	334.69
333.629	355.69
333.857	364.69
334.085	370.69
334.314	363.69
334.542	357.69
334.771	338.69
334.999	347.69
335.227	352.69
335.455	350.69
335.684	355.69
335.912	331.69
336.14	332.69
336.369	320.69
336.597	325.69
336.825	341.69
337.053	318.69
337.281	344.69
337.51	323.69
337.738	338.69
337.966	314.69
338.194	329.69
338.422	322.69
338.65	322.69
338.878	326.69
339.106	316.69
339.334	340.69
339.562	333.69
339.79	319.69
340.018	318.69
340.246	331.69
340.474	314.69
340.702	320.69
340.93	303.69
341.158	283.69
341.386	301.69
341.614	322.69
341.842	309.69
342.07	314.69
342.298	311.69
342.526	313.69
342.754	324.69
342.981	316.69
343.209	319.69
343.437	366.69
343.665	338.69
343.893	362.69
344.12	362.69
344.348	366.69
344.576	335.69
344.804	343.69
345.031	331.69
345.259	331.69
345.487	334.69
345.714	322.69
345.942	297.69
346.17	329.69
346.397	319.69
346.625	320.69
346.853	311.69
347.08	319.69
347.308	312.69
347.535	324.69
347.763	322.69
347.99	335.69
348.218	342.69
348.445	339.69
348.673	311.69
348.9	326.69
349.128	310.69
349.355	322.69
349.583	327.69
349.81	334.69
350.037	333.69
350.265	320.69
350.492	335.69
350.72	314.69
350.947	336.69
351.174	334.69
351.402	329.69
351.629	329.69
351.856	358.69
352.083	334.69
352.311	334.69
352.538	336.69
352.765	358.69
352.992	354.69
353.22	362.69
353.447	332.69
353.674	359.69
353.901	366.69
354.128	366.69
354.355	359.69
354.583	383.69
354.81	375.69
355.037	378.69
355.264	411.69
355.491	421.69
355.718	404.69
355.945	437.69
356.172	425.69
356.399	447.69
356.626	449.69
356.853	481.69
357.08	497.69
357.307	546.69
357.534	561.69
357.761	623.69
357.988	693.69
358.215	765.69
358.441	902.69
358.668	991.69
358.895	993.69
359.122	816.69
359.349	699.69
359.576	614.69
359.802	601.69
360.029	548.69
360.256	504.69
360.483	492.69
360.709	472.69
360.936	486.69
361.163	446.69
361.39	444.69
361.616	433.69
361.843	436.69
362.07	423.69
362.296	396.69
362.523	403.69
362.749	392.69
362.976	393.69
363.203	428.69
363.429	380.69
363.656	376.69
363.882	374.69
364.109	401.69
364.335	370.69
364.562	381.69
364.788	363.69
365.015	371.69
365.241	365.69
365.468	381.69
365.694	370.69
365.92	363.69
366.147	355.69
366.373	360.69
366.599	357.69
366.826	350.69
367.052	334.69
367.278	362.69
367.505	348.69
367.731	386.69
367.957	356.69
368.184	334.69
368.41	357.69
368.636	347.69
368.862	357.69
369.089	336.69
369.315	344.69
369.541	345.69
369.767	334.69
369.993	342.69
370.219	355.69
370.445	372.69
370.672	358.69
370.898	363.69
371.124	358.69
371.35	363.69
371.576	377.69
371.802	362.69
372.028	379.69
372.254	367.69
372.48	364.69
372.706	381.69
372.932	364.69
373.158	353.69
373.384	378.69
373.61	363.69
373.835	371.69
374.061	342.69
374.287	366.69
374.513	363.69
374.739	375.69
374.965	382.69
375.191	384.69
375.416	373.69
375.642	370.69
375.868	383.69
376.094	371.69
376.319	359.69
376.545	358.69
376.771	357.69
376.997	334.69
377.222	336.69
377.448	346.69
377.674	347.69
377.899	371.69
378.125	361.69
378.35	335.69
378.576	352.69
378.802	359.69
379.027	350.69
379.253	364.69
379.478	349.69
379.704	363.69
379.929	370.69
380.155	357.69
380.38	357.69
380.606	351.69
380.831	354.69
381.057	370.69
381.282	376.69
381.507	372.69
381.733	410.69
381.958	389.69
382.184	395.69
382.409	402.69
382.634	435.69
382.86	467.69
383.085	479.69
383.31	499.69
383.535	500.69
383.761	509.69
383.986	491.69
384.211	450.69
384.436	413.69
384.662	412.69
384.887	423.69
385.112	398.69
385.337	419.69
385.562	433.69
385.787	426.69
386.013	430.69
386.238	443.69
386.463	414.69
386.688	481.69
386.913	427.69
387.138	432.69
387.363	448.69
387.588	421.69
387.813	422.69
388.038	429.69
388.263	438.69
388.488	426.69
388.713	423.69
388.938	423.69
389.163	440.69
389.387	433.69
389.612	432.69
389.837	444.69
390.062	442.69
390.287	454.69
390.512	426.69
390.736	450.69
390.961	464.69
391.186	445.69
391.411	462.69
391.636	461.69
391.86	470.69
392.085	494.69
392.31	501.69
392.534	500.69
392.759	519.69
392.984	537.69
393.208	578.69
393.433	629.69
393.658	716.69
393.882	825.69
394.107	1401.69
394.331	2507.69
394.556	3326.69
394.78	2257.69
395.005	1270.69
395.229	1007.69
395.454	1027.69
395.678	1265.69
395.903	2096.69
396.127	3724.69
396.352	4269.69
396.576	2580.69
396.801	1480.69
397.025	1070.69
397.249	878.69
397.474	814.69
397.698	731.69
397.922	676.69
398.147	637.69
398.371	623.69
398.595	601.69
398.82	589.69
399.044	605.69
399.268	606.69
399.492	632.69
399.717	635.69
399.941	599.69
400.165	593.69
400.389	557.69
400.613	548.69
400.837	543.69
401.062	510.69
401.286	525.69
401.51	483.69
401.734	486.69
401.958	527.69
402.182	483.69
402.406	508.69
402.63	512.69
402.854	523.69
403.078	505.69
403.302	530.69
403.526	520.69
403.75	522.69
403.974	521.69
404.198	505.69
404.422	513.69
404.645	509.69
404.869	507.69
405.093	517.69
405.317	506.69
405.541	494.69
405.765	502.69
405.988	503.69
406.212	492.69
406.436	511.69
406.66	533.69
406.883	523.69
407.107	550.69
407.331	544.69
407.555	548.69
407.778	549.69
408.002	530.69
408.226	516.69
408.449	499.69
408.673	511.69
408.896	505.69
409.12	522.69
409.344	521.69
409.567	505.69
409.791	495.69
410.014	509.69
410.238	493.69
410.461	509.69
410.685	492.69
410.908	521.69
411.132	505.69
411.355	490.69
411.578	494.69
411.802	501.69
412.025	494.69
412.249	521.69
412.472	478.69
412.695	475.69
412.919	482.69
413.142	498.69
413.365	494.69
413.589	493.69
413.812	477.69
414.035	485.69
414.258	470.69
414.482	492.69
414.705	502.69
414.928	491.69
415.151	483.69
415.374	453.69
415.597	497.69
415.821	475.69
416.044	443.69
416.267	476.69
416.49	470.69
416.713	475.69
416.936	482.69
417.159	489.69
417.382	468.69
417.605	463.69
417.828	468.69
418.051	487.69
418.274	503.69
418.497	490.69
418.72	487.69
418.943	478.69
419.166	509.69
419.389	526.69
419.611	524.69
419.834	505.69
420.057	525.69
420.28	501.69
420.503	497.69
420.726	487.69
420.948	472.69
421.171	477.69
421.394	508.69
421.617	482.69
421.839	518.69
422.062	523.69
422.285	473.69
422.507	505.69
422.73	513.69
422.953	487.69
423.175	499.69
423.398	475.69
423.621	498.69
423.843	502.69
424.066	503.69
424.288	513.69
424.511	503.69
424.733	532.69
424.956	533.69
425.178	514.69
425.401	493.69
425.623	495.69
425.846	495.69
426.068	472.69
426.291	479.69
426.513	469.69
426.735	465.69
426.958	462.69
427.18	496.69
427.402	475.69
427.625	459.69
427.847	460.69
428.069	461.69
428.292	451.69
428.514	465.69
428.736	470.69
428.958	490.69
429.181	450.69
429.403	459.69
429.625	457.69
429.847	434.69
430.069	459.69
430.292	461.69
430.514	467.69
430.736	484.69
430.958	479.69
431.18	468.69
431.402	450.69
431.624	442.69
431.846	439.69
432.068	439.69
432.29	410.69
432.512	446.69
432.734	464.69
432.956	483.69
433.178	484.69
433.4	474.69
433.622	478.69
433.844	475.69
434.066	476.69
434.287	429.69
434.509	434.69
434.731	445.69
434.953	483.69
435.175	462.69
435.397	487.69
435.618	451.69
435.84	455.69
436.062	453.69
436.284	468.69
436.505	465.69
436.727	467.69
436.949	465.69
437.17	463.69
437.392	461.69
437.614	436.69
437.835	417.69
438.057	429.69
438.278	454.69
438.5	446.69
438.721	453.69
438.943	487.69
439.165	463.69
439.386	477.69
439.608	491.69
439.829	478.69
440.05	482.69
440.272	488.69
440.493	494.69
440.715	516.69
440.936	480.69
441.158	516.69
441.379	487.69
441.6	508.69
441.822	503.69
442.043	499.69
442.264	514.69
442.486	518.69
442.707	512.69
442.928	503.69
443.149	490.69
443.371	509.69
443.592	507.69
443.813	501.69
444.034	491.69
444.255	533.69
444.476	515.69
444.698	521.69
444.919	553.69
445.14	720.69
445.361	610.69
445.582	524.69
445.803	503.69
446.024	501.69
446.245	505.69
446.466	511.69
446.687	498.69
446.908	515.69
447.129	502.69
447.35	508.69
447.571	507.69
447.792	492.69
448.013	481.69
448.234	491.69
448.455	470.69
448.675	459.69
448.896	464.69
449.117	444.69
449.338	458.69
449.559	457.69
449.779	452.69
450	449.69
450.221	461.69
450.442	475.69
450.662	468.69
450.883	467.69
451.104	458.69
451.324	440.69
451.545	462.69
451.766	454.69
451.986	457.69
452.207	479.69
452.428	473.69
452.648	444.69
452.869	465.69
453.089	443.69
453.31	440.69
453.53	464.69
453.751	438.69
453.971	440.69
454.192	446.69
454.412	442.69
454.633	431.69
454.853	433.69
455.073	431.69
455.294	410.69
455.514	437.69
455.734	428.69
455.955	429.69
456.175	414.69
456.395	423.69
456.616	403.69
456.836	413.69
457.056	405.69
457.276	404.69
457.497	405.69
457.717	406.69
457.937	405.69
458.157	377.69
458.377	383.69
458.598	403.69
458.818	409.69
459.038	397.69
459.258	389.69
459.478	434.69
459.698	417.69
459.918	443.69
460.138	426.69
460.358	473.69
460.578	487.69
460.798	450.69
461.018	474.69
461.238	469.69
461.458	471.69
461.678	485.69
461.898	482.69
462.118	486.69
462.338	511.69
462.558	537.69
462.777	491.69
462.997	530.69
463.217	569.69
463.437	561.69
463.657	513.69
463.876	523.69
464.096	516.69
464.316	521.69
464.536	542.69
464.755	530.69
464.975	510.69
465.195	493.69
465.414	498.69
465.634	490.69
465.854	491.69
466.073	536.69
466.293	537.69
466.512	599.69
466.732	587.69
466.951	573.69
467.171	549.69
467.391	518.69
467.61	510.69
467.829	493.69
468.049	507.69
468.268	516.69
468.488	474.69
468.707	483.69
468.927	471.69
469.146	480.69
469.365	481.69
469.585	466.69
469.804	502.69
470.023	476.69
470.243	498.69
470.462	464.69
470.681	502.69
470.901	469.69
471.12	478.69
471.339	479.69
471.558	488.69
471.777	499.69
471.997	497.69
472.216	464.69
472.435	443.69
472.654	442.69
472.873	457.69
473.092	474.69
473.311	502.69
473.53	522.69
473.749	552.69
473.968	561.69
474.187	552.69
474.406	537.69
474.625	572.69
474.844	571.69
475.063	566.69
475.282	511.69
475.501	469.69
475.72	492.69
475.939	480.69
476.158	482.69
476.377	487.69
476.596	454.69
476.814	460.69
477.033	430.69
477.252	460.69
477.471	473.69
477.69	487.69
477.908	508.69
478.127	499.69
478.346	501.69
478.564	513.69
478.783	484.69
479.002	512.69
479.22	499.69
479.439	522.69
479.658	487.69
479.876	481.69
480.095	467.69
480.313	489.69
480.532	490.69
480.751	490.69
480.969	463.69
481.188	462.69
481.406	463.69
481.624	450.69
481.843	431.69
482.061	459.69
482.28	464.69
482.498	457.69
482.717	440.69
482.935	464.69
483.153	483.69
483.372	490.69
483.59	487.69
483.808	492.69
484.027	499.69
484.245	514.69
484.463	543.69
484.681	569.69
484.9	547.69
485.118	562.69
485.336	515.69
485.554	515.69
485.772	494.69
485.99	499.69
486.209	511.69
486.427	535.69
486.645	523.69
486.863	566.69
487.081	567.69
487.299	536.69
487.517	545.69
487.735	599.69
487.953	585.69
488.171	575.69
488.389	566.69
488.607	559.69
488.825	541.69
489.043	534.69
489.261	521.69
489.479	527.69
489.696	525.69
489.914	518.69
490.132	539.69
490.35	557.69
490.568	552.69
490.786	569.69
491.003	587.69
491.221	564.69
491.439	601.69
491.657	602.69
491.874	598.69
492.092	633.69
492.31	662.69
492.527	597.69
492.745	591.69
492.963	612.69
493.18	591.69
493.398	586.69
493.615	591.69
493.833	576.69
494.05	552.69
494.268	558.69
494.485	542.69
494.703	560.69
494.92	570.69
495.138	549.69
495.355	562.69
495.573	603.69
495.79	569.69
496.008	576.69
496.225	576.69
496.442	570.69
496.66	590.69
496.877	562.69
497.094	554.69
497.312	582.69
497.529	572.69
497.746	573.69
497.963	585.69
498.181	581.69
498.398	604.69
498.615	613.69
498.832	612.69
499.049	635.69
499.267	690.69
499.484	703.69
499.701	737.69
499.918	785.69
500.135	821.69
500.352	894.69
500.569	878.69
500.786	901.69
501.003	848.69
501.22	794.69
501.437	789.69
501.654	703.69
501.871	704.69
502.088	671.69
502.305	645.69
502.522	616.69
