Data from SampC_HRD10591_00069.txt Node
Date: Mon Jan 19 11:37:53 EST 2026
User: Yrep
Spectrometer: HR+D1059
Trigger mode: 0
Integration Time (sec): 3.443000E-1
Scans to average: 1
Electric dark correction enabled: true
Nonlinearity correction enabled: false
Boxcar width: 0
XAxis mode: Wavelengths
Number of Pixels in Spectrum: 2048
>>>>>Begin Spectral Data<<<<<
223.165	-36.44
223.4	-36.44
223.635	-36.44
223.869	-29.44
224.104	-14.44
224.338	-19.44
224.573	-24.44
224.808	-0.44
225.042	-14.44
225.277	-10.44
225.511	10.56
225.746	5.56
225.98	10.56
226.215	19.56
226.449	24.56
226.683	17.56
226.918	17.56
227.152	43.56
227.387	28.56
227.621	37.56
227.856	51.56
228.09	56.56
228.324	54.56
228.559	52.56
228.793	67.56
229.027	92.56
229.262	98.56
229.496	96.56
229.73	86.56
229.964	104.56
230.199	104.56
230.433	119.56
230.667	100.56
230.901	116.56
231.136	112.56
231.37	118.56
231.604	118.56
231.838	131.56
232.072	101.56
232.306	129.56
232.541	123.56
232.775	127.56
233.009	114.56
233.243	122.56
233.477	108.56
233.711	132.56
233.945	127.56
234.179	117.56
234.413	133.56
234.647	118.56
234.881	126.56
235.115	111.56
235.349	124.56
235.583	120.56
235.817	138.56
236.051	120.56
236.285	122.56
236.519	150.56
236.753	188.56
236.987	216.56
237.221	250.56
237.455	243.56
237.689	237.56
237.922	232.56
238.156	161.56
238.39	151.56
238.624	153.56
238.858	137.56
239.091	120.56
239.325	117.56
239.559	120.56
239.793	119.56
240.027	118.56
240.26	115.56
240.494	118.56
240.728	114.56
240.961	121.56
241.195	117.56
241.429	115.56
241.662	124.56
241.896	122.56
242.13	112.56
242.363	131.56
242.597	132.56
242.83	124.56
243.064	137.56
243.298	116.56
243.531	121.56
243.765	127.56
243.998	138.56
244.232	120.56
244.465	125.56
244.699	129.56
244.932	118.56
245.166	127.56
245.399	144.56
245.633	133.56
245.866	144.56
246.099	137.56
246.333	148.56
246.566	145.56
246.8	137.56
247.033	140.56
247.266	123.56
247.5	121.56
247.733	127.56
247.966	143.56
248.2	147.56
248.433	123.56
248.666	131.56
248.899	148.56
249.133	141.56
249.366	143.56
249.599	122.56
249.832	124.56
250.066	140.56
250.299	133.56
250.532	143.56
250.765	140.56
250.998	140.56
251.231	130.56
251.465	153.56
251.698	158.56
251.931	152.56
252.164	148.56
252.397	154.56
252.63	156.56
252.863	146.56
253.096	154.56
253.329	172.56
253.562	160.56
253.795	160.56
254.028	153.56
254.261	151.56
254.494	154.56
254.727	162.56
254.96	145.56
255.193	158.56
255.426	154.56
255.659	173.56
255.892	179.56
256.124	151.56
256.357	188.56
256.59	207.56
256.823	245.56
257.056	325.56
257.289	323.56
257.521	337.56
257.754	400.56
257.987	342.56
258.22	268.56
258.452	214.56
258.685	184.56
258.918	195.56
259.151	182.56
259.383	186.56
259.616	185.56
259.849	162.56
260.081	164.56
260.314	176.56
260.547	169.56
260.779	165.56
261.012	167.56
261.244	169.56
261.477	196.56
261.71	176.56
261.942	165.56
262.175	172.56
262.407	173.56
262.64	186.56
262.872	198.56
263.105	214.56
263.337	234.56
263.57	237.56
263.802	236.56
264.035	216.56
264.267	204.56
264.499	212.56
264.732	208.56
264.964	200.56
265.197	251.56
265.429	296.56
265.661	280.56
265.894	288.56
266.126	329.56
266.358	363.56
266.591	257.56
266.823	221.56
267.055	212.56
267.287	197.56
267.52	184.56
267.752	192.56
267.984	197.56
268.216	190.56
268.448	196.56
268.681	178.56
268.913	173.56
269.145	188.56
269.377	197.56
269.609	190.56
269.841	186.56
270.073	169.56
270.306	195.56
270.538	194.56
270.77	171.56
271.002	182.56
271.234	184.56
271.466	174.56
271.698	199.56
271.93	186.56
272.162	190.56
272.394	174.56
272.626	197.56
272.858	186.56
273.09	183.56
273.322	188.56
273.553	200.56
273.785	188.56
274.017	192.56
274.249	192.56
274.481	192.56
274.713	203.56
274.945	212.56
275.176	200.56
275.408	208.56
275.64	208.56
275.872	219.56
276.104	192.56
276.335	193.56
276.567	204.56
276.799	205.56
277.031	209.56
277.262	207.56
277.494	203.56
277.726	222.56
277.957	260.56
278.189	252.56
278.421	252.56
278.652	266.56
278.884	298.56
279.115	385.56
279.347	556.56
279.579	740.56
279.81	878.56
280.042	672.56
280.273	668.56
280.505	650.56
280.736	419.56
280.968	342.56
281.199	333.56
281.431	351.56
281.662	483.56
281.894	569.56
282.125	443.56
282.356	352.56
282.588	290.56
282.819	274.56
283.051	246.56
283.282	248.56
283.513	244.56
283.745	256.56
283.976	241.56
284.207	232.56
284.439	237.56
284.67	258.56
284.901	280.56
285.132	338.56
285.364	390.56
285.595	320.56
285.826	233.56
286.057	239.56
286.288	220.56
286.52	221.56
286.751	227.56
286.982	228.56
287.213	220.56
287.444	219.56
287.675	224.56
287.906	236.56
288.138	258.56
288.369	262.56
288.6	244.56
288.831	237.56
289.062	233.56
289.293	221.56
289.524	210.56
289.755	221.56
289.986	233.56
290.217	242.56
290.448	228.56
290.679	246.56
290.91	250.56
291.141	233.56
291.371	229.56
291.602	251.56
291.833	238.56
292.064	264.56
292.295	254.56
292.526	265.56
292.757	266.56
292.987	275.56
293.218	265.56
293.449	282.56
293.68	283.56
293.91	275.56
294.141	273.56
294.372	254.56
294.603	254.56
294.833	234.56
295.064	227.56
295.295	236.56
295.525	233.56
295.756	224.56
295.987	236.56
296.217	235.56
296.448	248.56
296.679	247.56
296.909	238.56
297.14	250.56
297.37	256.56
297.601	254.56
297.831	250.56
298.062	243.56
298.292	244.56
298.523	254.56
298.753	247.56
298.984	254.56
299.214	264.56
299.445	268.56
299.675	243.56
299.905	257.56
300.136	273.56
300.366	265.56
300.597	250.56
300.827	271.56
301.057	259.56
301.288	265.56
301.518	295.56
301.748	282.56
301.979	324.56
302.209	305.56
302.439	301.56
302.669	317.56
302.9	314.56
303.13	324.56
303.36	337.56
303.59	325.56
303.82	350.56
304.051	391.56
304.281	386.56
304.511	393.56
304.741	402.56
304.971	506.56
305.201	594.56
305.431	626.56
305.661	712.56
305.891	792.56
306.121	723.56
306.352	658.56
306.582	667.56
306.812	681.56
307.042	598.56
307.272	605.56
307.502	682.56
307.731	928.56
307.961	1328.56
308.191	1969.56
308.421	2325.56
308.651	1913.56
308.881	1675.56
309.111	2130.56
309.341	2721.56
309.571	2588.56
309.8	1622.56
310.03	1022.56
310.26	790.56
310.49	637.56
310.72	543.56
310.949	494.56
311.179	481.56
311.409	431.56
311.639	417.56
311.868	394.56
312.098	382.56
312.328	388.56
312.557	373.56
312.787	367.56
313.017	368.56
313.246	323.56
313.476	328.56
313.706	344.56
313.935	339.56
314.165	340.56
314.394	320.56
314.624	304.56
314.853	324.56
315.083	314.56
315.312	326.56
315.542	285.56
315.771	322.56
316.001	305.56
316.23	287.56
316.46	278.56
316.689	298.56
316.919	294.56
317.148	300.56
317.377	296.56
317.607	289.56
317.836	297.56
318.065	309.56
318.295	294.56
318.524	296.56
318.753	288.56
318.983	282.56
319.212	268.56
319.441	297.56
319.67	297.56
319.9	290.56
320.129	283.56
320.358	282.56
320.587	289.56
320.816	300.56
321.046	293.56
321.275	279.56
321.504	277.56
321.733	283.56
321.962	285.56
322.191	283.56
322.42	288.56
322.649	269.56
322.878	284.56
323.108	272.56
323.337	301.56
323.566	269.56
323.795	296.56
324.024	303.56
324.253	296.56
324.482	305.56
324.71	312.56
324.939	311.56
325.168	293.56
325.397	300.56
325.626	302.56
325.855	299.56
326.084	285.56
326.313	284.56
326.542	283.56
326.77	294.56
326.999	302.56
327.228	284.56
327.457	297.56
327.686	306.56
327.914	289.56
328.143	304.56
328.372	304.56
328.6	289.56
328.829	277.56
329.058	285.56
329.287	284.56
329.515	297.56
329.744	291.56
329.972	287.56
330.201	291.56
330.43	275.56
330.658	279.56
330.887	282.56
331.115	308.56
331.344	304.56
331.572	300.56
331.801	313.56
332.03	314.56
332.258	302.56
332.486	298.56
332.715	315.56
332.943	330.56
333.172	341.56
333.4	329.56
333.629	334.56
333.857	332.56
334.085	339.56
334.314	335.56
334.542	330.56
334.771	323.56
334.999	333.56
335.227	328.56
335.455	337.56
335.684	338.56
335.912	326.56
336.14	327.56
336.369	312.56
336.597	303.56
336.825	336.56
337.053	307.56
337.281	295.56
337.51	310.56
337.738	311.56
337.966	324.56
338.194	316.56
338.422	302.56
338.65	303.56
338.878	310.56
339.106	317.56
339.334	338.56
339.562	306.56
339.79	309.56
340.018	293.56
340.246	276.56
340.474	312.56
340.702	312.56
340.93	314.56
341.158	306.56
341.386	293.56
341.614	306.56
341.842	302.56
342.07	307.56
342.298	277.56
342.526	295.56
342.754	299.56
342.981	293.56
343.209	299.56
343.437	332.56
343.665	349.56
343.893	336.56
344.12	347.56
344.348	324.56
344.576	336.56
344.804	317.56
345.031	298.56
345.259	315.56
345.487	305.56
345.714	307.56
345.942	300.56
346.17	318.56
346.397	311.56
346.625	304.56
346.853	295.56
347.08	309.56
347.308	307.56
347.535	298.56
347.763	307.56
347.99	318.56
348.218	321.56
348.445	304.56
348.673	298.56
348.9	291.56
349.128	312.56
349.355	315.56
349.583	309.56
349.81	302.56
350.037	302.56
350.265	294.56
350.492	304.56
350.72	312.56
350.947	323.56
351.174	328.56
351.402	318.56
351.629	316.56
351.856	311.56
352.083	313.56
352.311	310.56
352.538	315.56
352.765	310.56
352.992	352.56
353.22	328.56
353.447	322.56
353.674	310.56
353.901	341.56
354.128	339.56
354.355	337.56
354.583	334.56
354.81	335.56
355.037	357.56
355.264	350.56
355.491	371.56
355.718	364.56
355.945	384.56
356.172	406.56
356.399	414.56
356.626	422.56
356.853	441.56
357.08	445.56
357.307	501.56
357.534	493.56
357.761	576.56
357.988	637.56
358.215	744.56
358.441	820.56
358.668	940.56
358.895	930.56
359.122	751.56
359.349	623.56
359.576	557.56
359.802	518.56
360.029	489.56
360.256	450.56
360.483	456.56
360.709	433.56
360.936	435.56
361.163	419.56
361.39	411.56
361.616	393.56
361.843	407.56
362.07	404.56
362.296	384.56
362.523	357.56
362.749	368.56
362.976	352.56
363.203	373.56
363.429	351.56
363.656	355.56
363.882	346.56
364.109	316.56
364.335	360.56
364.562	350.56
364.788	329.56
365.015	341.56
365.241	325.56
365.468	328.56
365.694	320.56
365.92	327.56
366.147	313.56
366.373	328.56
366.599	326.56
366.826	332.56
367.052	330.56
367.278	337.56
367.505	333.56
367.731	345.56
367.957	337.56
368.184	336.56
368.41	337.56
368.636	350.56
368.862	318.56
369.089	336.56
369.315	311.56
369.541	336.56
369.767	335.56
369.993	345.56
370.219	340.56
370.445	346.56
370.672	325.56
370.898	341.56
371.124	332.56
371.35	326.56
371.576	339.56
371.802	336.56
372.028	355.56
372.254	346.56
372.48	341.56
372.706	355.56
372.932	317.56
373.158	355.56
373.384	353.56
373.61	352.56
373.835	337.56
374.061	334.56
374.287	354.56
374.513	333.56
374.739	346.56
374.965	363.56
375.191	376.56
375.416	359.56
375.642	347.56
375.868	368.56
376.094	362.56
376.319	345.56
376.545	364.56
376.771	339.56
376.997	324.56
377.222	332.56
377.448	354.56
377.674	334.56
377.899	346.56
378.125	357.56
378.35	362.56
378.576	336.56
378.802	333.56
379.027	348.56
379.253	323.56
379.478	342.56
379.704	343.56
379.929	358.56
380.155	339.56
380.38	352.56
380.606	345.56
380.831	349.56
381.057	364.56
381.282	347.56
381.507	378.56
381.733	376.56
381.958	384.56
382.184	367.56
382.409	368.56
382.634	411.56
382.86	435.56
383.085	483.56
383.31	511.56
383.535	520.56
383.761	521.56
383.986	550.56
384.211	458.56
384.436	408.56
384.662	416.56
384.887	395.56
385.112	388.56
385.337	377.56
385.562	389.56
385.787	408.56
386.013	427.56
386.238	417.56
386.463	419.56
386.688	428.56
386.913	406.56
387.138	396.56
387.363	418.56
387.588	422.56
387.813	397.56
388.038	406.56
388.263	416.56
388.488	418.56
388.713	382.56
388.938	404.56
389.163	423.56
389.387	408.56
389.612	422.56
389.837	429.56
390.062	450.56
390.287	436.56
390.512	454.56
390.736	430.56
390.961	426.56
391.186	458.56
391.411	434.56
391.636	461.56
391.86	476.56
392.085	482.56
392.31	480.56
392.534	499.56
392.759	529.56
392.984	552.56
393.208	611.56
393.433	701.56
393.658	786.56
393.882	1024.56
394.107	1796.56
394.331	3296.56
394.556	4455.56
394.78	2862.56
395.005	1500.56
395.229	1190.56
395.454	1198.56
395.678	1569.56
395.903	2784.56
396.127	4819.56
396.352	5642.56
396.576	3250.56
396.801	1745.56
397.025	1199.56
397.249	957.56
397.474	827.56
397.698	748.56
397.922	702.56
398.147	669.56
398.371	640.56
398.595	638.56
398.82	606.56
399.044	579.56
399.268	589.56
399.492	616.56
399.717	612.56
399.941	586.56
400.165	572.56
400.389	552.56
400.613	531.56
400.837	503.56
401.062	507.56
401.286	520.56
401.51	511.56
401.734	483.56
401.958	472.56
402.182	503.56
402.406	482.56
402.63	506.56
402.854	516.56
403.078	483.56
403.302	499.56
403.526	505.56
403.75	513.56
403.974	522.56
404.198	495.56
404.422	489.56
404.645	499.56
404.869	488.56
405.093	488.56
405.317	486.56
405.541	487.56
405.765	511.56
405.988	483.56
406.212	474.56
406.436	502.56
406.66	512.56
406.883	473.56
407.107	485.56
407.331	518.56
407.555	497.56
407.778	516.56
408.002	483.56
408.226	508.56
408.449	499.56
408.673	480.56
408.896	483.56
409.12	469.56
409.344	497.56
409.567	472.56
409.791	468.56
410.014	500.56
410.238	461.56
410.461	472.56
410.685	486.56
410.908	470.56
411.132	500.56
411.355	454.56
411.578	459.56
411.802	473.56
412.025	457.56
412.249	463.56
412.472	482.56
412.695	446.56
412.919	454.56
413.142	458.56
413.365	459.56
413.589	486.56
413.812	450.56
414.035	474.56
414.258	460.56
414.482	463.56
414.705	475.56
414.928	469.56
415.151	471.56
415.374	454.56
415.597	462.56
415.821	449.56
416.044	451.56
416.267	451.56
416.49	458.56
416.713	448.56
416.936	460.56
417.159	451.56
417.382	442.56
417.605	443.56
417.828	456.56
418.051	449.56
418.274	462.56
418.497	446.56
418.72	445.56
418.943	469.56
419.166	484.56
419.389	494.56
419.611	487.56
419.834	463.56
420.057	486.56
420.28	466.56
420.503	460.56
420.726	482.56
420.948	466.56
421.171	478.56
421.394	469.56
421.617	492.56
421.839	460.56
422.062	465.56
422.285	481.56
422.507	462.56
422.73	473.56
422.953	492.56
423.175	468.56
423.398	471.56
423.621	478.56
423.843	466.56
424.066	501.56
424.288	501.56
424.511	478.56
424.733	472.56
424.956	468.56
425.178	476.56
425.401	489.56
425.623	484.56
425.846	466.56
426.068	456.56
426.291	452.56
426.513	440.56
426.735	441.56
426.958	446.56
427.18	431.56
427.402	459.56
427.625	453.56
427.847	430.56
428.069	448.56
428.292	447.56
428.514	429.56
428.736	424.56
428.958	457.56
429.181	415.56
429.403	427.56
429.625	457.56
429.847	452.56
430.069	419.56
430.292	456.56
430.514	432.56
430.736	460.56
430.958	432.56
431.18	436.56
431.402	470.56
431.624	419.56
431.846	409.56
432.068	414.56
432.29	408.56
432.512	432.56
432.734	427.56
432.956	458.56
433.178	448.56
433.4	482.56
433.622	456.56
433.844	435.56
434.066	432.56
434.287	412.56
434.509	408.56
434.731	430.56
434.953	444.56
435.175	451.56
435.397	442.56
435.618	442.56
435.84	433.56
436.062	422.56
436.284	418.56
436.505	426.56
436.727	456.56
436.949	438.56
437.17	431.56
437.392	445.56
437.614	416.56
437.835	407.56
438.057	405.56
438.278	416.56
438.5	445.56
438.721	441.56
438.943	458.56
439.165	453.56
439.386	449.56
439.608	483.56
439.829	464.56
440.05	455.56
440.272	472.56
440.493	476.56
440.715	485.56
440.936	475.56
441.158	500.56
441.379	495.56
441.6	505.56
441.822	482.56
442.043	483.56
442.264	493.56
442.486	496.56
442.707	465.56
442.928	474.56
443.149	463.56
443.371	495.56
443.592	479.56
443.813	495.56
444.034	499.56
444.255	515.56
444.476	514.56
444.698	519.56
444.919	522.56
445.14	691.56
445.361	581.56
445.582	504.56
445.803	478.56
446.024	487.56
446.245	466.56
446.466	486.56
446.687	476.56
446.908	490.56
447.129	478.56
447.35	461.56
447.571	480.56
447.792	483.56
448.013	458.56
448.234	444.56
448.455	451.56
448.675	463.56
448.896	448.56
449.117	440.56
449.338	440.56
449.559	448.56
449.779	425.56
450	437.56
450.221	456.56
450.442	456.56
450.662	425.56
450.883	421.56
451.104	450.56
451.324	437.56
451.545	433.56
451.766	460.56
451.986	437.56
452.207	454.56
452.428	459.56
452.648	444.56
452.869	442.56
453.089	442.56
453.31	439.56
453.53	456.56
453.751	434.56
453.971	447.56
454.192	443.56
454.412	410.56
454.633	428.56
454.853	431.56
455.073	419.56
455.294	417.56
455.514	416.56
455.734	403.56
455.955	413.56
456.175	409.56
456.395	408.56
456.616	388.56
456.836	392.56
457.056	382.56
457.276	385.56
457.497	381.56
457.717	370.56
457.937	379.56
458.157	378.56
458.377	408.56
458.598	386.56
458.818	370.56
459.038	386.56
459.258	393.56
459.478	385.56
459.698	381.56
459.918	416.56
460.138	415.56
460.358	439.56
460.578	459.56
460.798	436.56
461.018	453.56
461.238	444.56
461.458	468.56
461.678	475.56
461.898	472.56
462.118	473.56
462.338	470.56
462.558	492.56
462.777	504.56
462.997	520.56
463.217	526.56
463.437	525.56
463.657	529.56
463.876	513.56
464.096	511.56
464.316	497.56
464.536	524.56
464.755	514.56
464.975	486.56
465.195	503.56
465.414	484.56
465.634	445.56
465.854	486.56
466.073	508.56
466.293	542.56
466.512	566.56
466.732	559.56
466.951	541.56
467.171	521.56
467.391	524.56
467.61	492.56
467.829	490.56
468.049	461.56
468.268	482.56
468.488	483.56
468.707	479.56
468.927	462.56
469.146	438.56
469.365	469.56
469.585	478.56
469.804	475.56
470.023	497.56
470.243	489.56
470.462	474.56
470.681	497.56
470.901	481.56
471.12	490.56
471.339	494.56
471.558	489.56
471.777	484.56
471.997	481.56
472.216	451.56
472.435	443.56
472.654	448.56
472.873	436.56
473.092	469.56
473.311	488.56
473.53	538.56
473.749	583.56
473.968	566.56
474.187	543.56
474.406	562.56
474.625	563.56
474.844	599.56
475.063	551.56
475.282	504.56
475.501	476.56
475.72	489.56
475.939	488.56
476.158	464.56
476.377	470.56
476.596	441.56
476.814	448.56
477.033	446.56
477.252	440.56
477.471	455.56
477.69	440.56
477.908	488.56
478.127	475.56
478.346	453.56
478.564	477.56
478.783	475.56
479.002	501.56
479.22	488.56
479.439	496.56
479.658	475.56
479.876	477.56
480.095	452.56
480.313	479.56
480.532	485.56
480.751	481.56
480.969	427.56
481.188	430.56
481.406	437.56
481.624	414.56
481.843	395.56
482.061	430.56
482.28	435.56
482.498	440.56
482.717	437.56
482.935	449.56
483.153	489.56
483.372	478.56
483.59	479.56
483.808	466.56
484.027	451.56
484.245	482.56
484.463	597.56
484.681	594.56
484.9	537.56
485.118	531.56
485.336	539.56
485.554	522.56
485.772	507.56
485.99	512.56
486.209	499.56
486.427	499.56
486.645	547.56
486.863	575.56
487.081	560.56
487.299	532.56
487.517	554.56
487.735	582.56
487.953	592.56
488.171	594.56
488.389	576.56
488.607	530.56
488.825	521.56
489.043	514.56
489.261	530.56
489.479	522.56
489.696	519.56
489.914	515.56
490.132	518.56
490.35	552.56
490.568	546.56
490.786	571.56
491.003	584.56
491.221	593.56
491.439	572.56
491.657	583.56
491.874	606.56
492.092	612.56
492.31	650.56
492.527	616.56
492.745	581.56
492.963	554.56
493.18	584.56
493.398	557.56
493.615	575.56
493.833	558.56
494.05	546.56
494.268	561.56
494.485	563.56
494.703	531.56
494.92	562.56
495.138	565.56
495.355	553.56
495.573	561.56
495.79	562.56
496.008	565.56
496.225	552.56
496.442	534.56
496.66	548.56
496.877	542.56
497.094	543.56
497.312	524.56
497.529	554.56
497.746	573.56
497.963	545.56
498.181	563.56
498.398	575.56
498.615	570.56
498.832	573.56
499.049	641.56
499.267	637.56
499.484	659.56
499.701	708.56
499.918	750.56
500.135	803.56
500.352	859.56
500.569	841.56
500.786	824.56
501.003	796.56
501.22	791.56
501.437	728.56
501.654	675.56
501.871	643.56
502.088	631.56
502.305	593.56
