Data from SampC_HRD10591_00027.txt Node
Date: Mon Jan 19 11:37:38 EST 2026
User: Yrep
Spectrometer: HR+D1059
Trigger mode: 0
Integration Time (sec): 3.443000E-1
Scans to average: 1
Electric dark correction enabled: true
Nonlinearity correction enabled: false
Boxcar width: 0
XAxis mode: Wavelengths
Number of Pixels in Spectrum: 2048
>>>>>Begin Spectral Data<<<<<
223.165	-28
223.4	-28
223.635	-28
223.869	-13
224.104	-32
224.338	-30
224.573	-11
224.808	-8
225.042	3
225.277	-4
225.511	-7
225.746	-3
225.98	22
226.215	14
226.449	16
226.683	20
226.918	31
227.152	30
227.387	59
227.621	28
227.856	45
228.09	36
228.324	49
228.559	61
228.793	61
229.027	88
229.262	87
229.496	96
229.73	93
229.964	98
230.199	108
230.433	100
230.667	99
230.901	97
231.136	103
231.37	102
231.604	116
231.838	113
232.072	112
232.306	110
232.541	114
232.775	103
233.009	113
233.243	97
233.477	97
233.711	96
233.945	104
234.179	100
234.413	104
234.647	106
234.881	106
235.115	106
235.349	88
235.583	121
235.817	109
236.051	127
236.285	130
236.519	125
236.753	148
236.987	157
237.221	179
237.455	197
237.689	196
237.922	162
238.156	145
238.39	107
238.624	119
238.858	116
239.091	117
239.325	100
239.559	89
239.793	99
240.027	111
240.26	97
240.494	101
240.728	96
240.961	101
241.195	115
241.429	118
241.662	120
241.896	113
242.13	89
242.363	91
242.597	109
242.83	119
243.064	113
243.298	115
243.531	109
243.765	114
243.998	112
244.232	113
244.465	107
244.699	103
244.932	120
245.166	117
245.399	123
245.633	132
245.866	117
246.099	115
246.333	107
246.566	112
246.8	119
247.033	122
247.266	123
247.5	126
247.733	117
247.966	115
248.2	112
248.433	120
248.666	111
248.899	116
249.133	106
249.366	108
249.599	131
249.832	130
250.066	126
250.299	117
250.532	117
250.765	115
250.998	108
251.231	122
251.465	130
251.698	141
251.931	127
252.164	126
252.397	128
252.63	120
252.863	130
253.096	145
253.329	143
253.562	132
253.795	118
254.028	127
254.261	123
254.494	125
254.727	131
254.96	124
255.193	127
255.426	125
255.659	129
255.892	143
256.124	144
256.357	156
256.59	178
256.823	199
257.056	224
257.289	244
257.521	234
257.754	275
257.987	265
258.22	199
258.452	168
258.685	156
258.918	154
259.151	121
259.383	140
259.616	137
259.849	146
260.081	163
260.314	127
260.547	145
260.779	161
261.012	154
261.244	126
261.477	164
261.71	143
261.942	123
262.175	143
262.407	155
262.64	160
262.872	163
263.105	171
263.337	206
263.57	196
263.802	182
264.035	187
264.267	170
264.499	161
264.732	165
264.964	179
265.197	185
265.429	224
265.661	208
265.894	208
266.126	248
266.358	250
266.591	221
266.823	183
267.055	173
267.287	178
267.52	165
267.752	173
267.984	162
268.216	155
268.448	163
268.681	157
268.913	158
269.145	132
269.377	162
269.609	158
269.841	151
270.073	156
270.306	149
270.538	130
270.77	158
271.002	161
271.234	170
271.466	164
271.698	140
271.93	144
272.162	163
272.394	161
272.626	169
272.858	163
273.09	164
273.322	152
273.553	156
273.785	165
274.017	146
274.249	182
274.481	161
274.713	150
274.945	160
275.176	161
275.408	169
275.64	172
275.872	173
276.104	169
276.335	168
276.567	169
276.799	169
277.031	177
277.262	172
277.494	179
277.726	211
277.957	204
278.189	239
278.421	197
278.652	200
278.884	240
279.115	303
279.347	409
279.579	567
279.81	635
280.042	528
280.273	478
280.505	488
280.736	329
280.968	263
281.199	264
281.431	296
281.662	343
281.894	400
282.125	348
282.356	282
282.588	234
282.819	225
283.051	206
283.282	202
283.513	219
283.745	192
283.976	209
284.207	187
284.439	190
284.67	195
284.901	205
285.132	274
285.364	297
285.595	253
285.826	204
286.057	192
286.288	189
286.52	192
286.751	184
286.982	178
287.213	178
287.444	168
287.675	197
287.906	196
288.138	187
288.369	209
288.6	195
288.831	196
289.062	191
289.293	173
289.524	180
289.755	165
289.986	152
290.217	179
290.448	195
290.679	207
290.91	209
291.141	184
291.371	184
291.602	190
291.833	196
292.064	188
292.295	194
292.526	210
292.757	207
292.987	226
293.218	216
293.449	207
293.68	214
293.91	218
294.141	218
294.372	191
294.603	197
294.833	196
295.064	193
295.295	196
295.525	175
295.756	200
295.987	207
296.217	185
296.448	209
296.679	184
296.909	184
297.14	202
297.37	196
297.601	204
297.831	196
298.062	189
298.292	196
298.523	210
298.753	204
298.984	191
299.214	213
299.445	202
299.675	207
299.905	195
300.136	205
300.366	201
300.597	203
300.827	216
301.057	214
301.288	232
301.518	225
301.748	208
301.979	252
302.209	237
302.439	240
302.669	250
302.9	241
303.13	244
303.36	266
303.59	257
303.82	269
304.051	265
304.281	274
304.511	271
304.741	303
304.971	350
305.201	397
305.431	451
305.661	505
305.891	530
306.121	521
306.352	463
306.582	474
306.812	446
307.042	404
307.272	392
307.502	464
307.731	597
307.961	810
308.191	1156
308.421	1330
308.651	1123
308.881	1032
309.111	1278
309.341	1572
309.571	1543
309.8	967
310.03	678
310.26	499
310.49	438
310.72	381
310.949	354
311.179	352
311.409	327
311.639	325
311.868	303
312.098	282
312.328	275
312.557	276
312.787	264
313.017	263
313.246	257
313.476	253
313.706	256
313.935	263
314.165	247
314.394	248
314.624	252
314.853	258
315.083	229
315.312	253
315.542	238
315.771	224
316.001	251
316.23	225
316.46	236
316.689	234
316.919	231
317.148	234
317.377	234
317.607	228
317.836	217
318.065	224
318.295	223
318.524	219
318.753	226
318.983	231
319.212	228
319.441	221
319.67	220
319.9	234
320.129	203
320.358	233
320.587	236
320.816	220
321.046	227
321.275	223
321.504	199
321.733	227
321.962	213
322.191	230
322.42	217
322.649	228
322.878	239
323.108	220
323.337	243
323.566	239
323.795	240
324.024	229
324.253	241
324.482	249
324.71	250
324.939	236
325.168	241
325.397	218
325.626	234
325.855	244
326.084	244
326.313	220
326.542	220
326.77	223
326.999	226
327.228	234
327.457	219
327.686	227
327.914	236
328.143	226
328.372	222
328.6	241
328.829	215
329.058	213
329.287	229
329.515	225
329.744	251
329.972	248
330.201	229
330.43	253
330.658	256
330.887	219
331.115	217
331.344	240
331.572	256
331.801	235
332.03	242
332.258	230
332.486	243
332.715	239
332.943	255
333.172	253
333.4	258
333.629	275
333.857	262
334.085	276
334.314	261
334.542	236
334.771	253
334.999	256
335.227	258
335.455	254
335.684	265
335.912	257
336.14	243
336.369	244
336.597	245
336.825	251
337.053	250
337.281	250
337.51	243
337.738	247
337.966	238
338.194	244
338.422	246
338.65	239
338.878	235
339.106	241
339.334	252
339.562	241
339.79	229
340.018	241
340.246	246
340.474	236
340.702	235
340.93	250
341.158	236
341.386	224
341.614	231
341.842	237
342.07	243
342.298	243
342.526	253
342.754	241
342.981	242
343.209	238
343.437	289
343.665	262
343.893	265
344.12	260
344.348	265
344.576	263
344.804	244
345.031	231
345.259	247
345.487	238
345.714	240
345.942	236
346.17	259
346.397	251
346.625	233
346.853	231
347.08	246
347.308	247
347.535	253
347.763	264
347.99	241
348.218	249
348.445	232
348.673	248
348.9	246
349.128	250
349.355	234
349.583	235
349.81	240
350.037	251
350.265	264
350.492	246
350.72	237
350.947	249
351.174	250
351.402	263
351.629	241
351.856	243
352.083	252
352.311	258
352.538	272
352.765	261
352.992	285
353.22	277
353.447	276
353.674	257
353.901	267
354.128	289
354.355	261
354.583	279
354.81	277
355.037	283
355.264	277
355.491	283
355.718	291
355.945	299
356.172	315
356.399	324
356.626	316
356.853	332
357.08	356
357.307	371
357.534	371
357.761	417
357.988	469
358.215	544
358.441	604
358.668	666
358.895	635
359.122	541
359.349	496
359.576	447
359.802	383
360.029	370
360.256	372
360.483	352
360.709	349
360.936	363
361.163	320
361.39	337
361.616	318
361.843	305
362.07	320
362.296	301
362.523	287
362.749	310
362.976	279
363.203	285
363.429	268
363.656	284
363.882	271
364.109	283
364.335	289
364.562	273
364.788	270
365.015	268
365.241	267
365.468	283
365.694	259
365.92	265
366.147	251
366.373	260
366.599	260
366.826	262
367.052	272
367.278	268
367.505	261
367.731	289
367.957	260
368.184	251
368.41	268
368.636	273
368.862	260
369.089	274
369.315	257
369.541	275
369.767	257
369.993	271
370.219	265
370.445	244
370.672	256
370.898	267
371.124	265
371.35	268
371.576	274
371.802	279
372.028	282
372.254	290
372.48	274
372.706	274
372.932	266
373.158	279
373.384	286
373.61	288
373.835	266
374.061	258
374.287	282
374.513	279
374.739	269
374.965	301
375.191	273
375.416	259
375.642	273
375.868	291
376.094	275
376.319	268
376.545	275
376.771	276
376.997	268
377.222	242
377.448	251
377.674	254
377.899	258
378.125	258
378.35	257
378.576	265
378.802	254
379.027	271
379.253	275
379.478	264
379.704	271
379.929	244
380.155	280
380.38	283
380.606	268
380.831	279
381.057	294
381.282	280
381.507	276
381.733	312
381.958	292
382.184	283
382.409	314
382.634	317
382.86	332
383.085	357
383.31	380
383.535	354
383.761	400
383.986	385
384.211	354
384.436	303
384.662	284
384.887	316
385.112	302
385.337	323
385.562	299
385.787	320
386.013	301
386.238	299
386.463	315
386.688	349
386.913	309
387.138	313
387.363	308
387.588	345
387.813	324
388.038	321
388.263	315
388.488	316
388.713	301
388.938	317
389.163	309
389.387	324
389.612	327
389.837	324
390.062	328
390.287	327
390.512	332
390.736	319
390.961	331
391.186	340
391.411	345
391.636	351
391.86	363
392.085	371
392.31	357
392.534	369
392.759	396
392.984	391
393.208	443
393.433	491
393.658	548
393.882	641
394.107	1051
394.331	1809
394.556	2379
394.78	1680
395.005	972
395.229	773
395.454	770
395.678	958
395.903	1633
396.127	2623
396.352	3090
396.576	1855
396.801	1101
397.025	798
397.249	655
397.474	579
397.698	537
397.922	517
398.147	482
398.371	482
398.595	459
398.82	439
399.044	456
399.268	462
399.492	480
399.717	460
399.941	450
400.165	430
400.389	404
400.613	394
400.837	391
401.062	373
401.286	377
401.51	383
401.734	372
401.958	372
402.182	379
402.406	366
402.63	384
402.854	366
403.078	377
403.302	371
403.526	385
403.75	386
403.974	363
404.198	372
404.422	388
404.645	387
404.869	387
405.093	382
405.317	374
405.541	387
405.765	344
405.988	367
406.212	363
406.436	383
406.66	386
406.883	387
407.107	383
407.331	397
407.555	389
407.778	389
408.002	406
408.226	393
408.449	378
408.673	383
408.896	363
409.12	384
409.344	373
409.567	374
409.791	378
410.014	376
410.238	368
410.461	384
410.685	373
410.908	383
411.132	374
411.355	375
411.578	380
411.802	377
412.025	374
412.249	372
412.472	372
412.695	360
412.919	363
413.142	366
413.365	360
413.589	362
413.812	359
414.035	360
414.258	355
414.482	365
414.705	361
414.928	360
415.151	365
415.374	356
415.597	357
415.821	351
416.044	368
416.267	370
416.49	353
416.713	364
416.936	361
417.159	368
417.382	351
417.605	352
417.828	361
418.051	356
418.274	360
418.497	363
418.72	371
418.943	377
419.166	388
419.389	381
419.611	372
419.834	378
420.057	383
420.28	371
420.503	357
420.726	353
420.948	369
421.171	382
421.394	363
421.617	383
421.839	375
422.062	361
422.285	387
422.507	370
422.73	383
422.953	375
423.175	376
423.398	371
423.621	358
423.843	381
424.066	371
424.288	361
424.511	390
424.733	372
424.956	372
425.178	378
425.401	361
425.623	359
425.846	343
426.068	346
426.291	347
426.513	366
426.735	366
426.958	353
427.18	368
427.402	360
427.625	374
427.847	359
428.069	356
428.292	356
428.514	344
428.736	346
428.958	348
429.181	365
429.403	359
429.625	336
429.847	365
430.069	348
430.292	334
430.514	331
430.736	335
430.958	353
431.18	337
431.402	346
431.624	332
431.846	315
432.068	303
432.29	314
432.512	316
432.734	324
432.956	348
433.178	373
433.4	367
433.622	369
433.844	348
434.066	343
434.287	333
434.509	305
434.731	356
434.953	357
435.175	361
435.397	367
435.618	331
435.84	334
436.062	334
436.284	356
436.505	348
436.727	341
436.949	333
437.17	360
437.392	338
437.614	327
437.835	323
438.057	321
438.278	309
438.5	344
438.721	348
438.943	377
439.165	346
439.386	340
439.608	372
439.829	377
440.05	374
440.272	366
440.493	369
440.715	363
440.936	385
441.158	378
441.379	368
441.6	384
441.822	366
442.043	372
442.264	379
442.486	378
442.707	354
442.928	373
443.149	377
443.371	378
443.592	369
443.813	366
444.034	382
444.255	401
444.476	395
444.698	408
444.919	417
445.14	614
445.361	516
445.582	393
445.803	378
446.024	386
446.245	386
446.466	379
446.687	367
446.908	373
447.129	384
447.35	375
447.571	383
447.792	348
448.013	373
448.234	362
448.455	385
448.675	345
448.896	339
449.117	340
449.338	343
449.559	342
449.779	374
450	357
450.221	348
450.442	350
450.662	346
450.883	351
451.104	333
451.324	349
451.545	355
451.766	345
451.986	337
452.207	338
452.428	343
452.648	354
452.869	350
453.089	338
453.31	345
453.53	331
453.751	334
453.971	330
454.192	352
454.412	349
454.633	315
454.853	313
455.073	309
455.294	338
455.514	328
455.734	314
455.955	309
456.175	332
456.395	313
456.616	311
456.836	311
457.056	312
457.276	292
457.497	300
457.717	309
457.937	301
458.157	321
458.377	306
458.598	289
458.818	303
459.038	304
459.258	290
459.478	305
459.698	320
459.918	339
460.138	314
460.358	336
460.578	373
460.798	348
461.018	345
461.238	356
461.458	363
461.678	346
461.898	364
462.118	361
462.338	368
462.558	388
462.777	392
462.997	400
463.217	397
463.437	394
463.657	378
463.876	379
464.096	388
464.316	381
464.536	385
464.755	383
464.975	361
465.195	368
465.414	381
465.634	357
465.854	351
466.073	372
466.293	389
466.512	436
466.732	410
466.951	401
467.171	386
467.391	382
467.61	369
467.829	375
468.049	373
468.268	371
468.488	355
468.707	364
468.927	367
469.146	345
469.365	371
469.585	366
469.804	357
470.023	363
470.243	381
470.462	370
470.681	361
470.901	361
471.12	352
471.339	359
471.558	367
471.777	354
471.997	368
472.216	343
472.435	332
472.654	334
472.873	362
473.092	347
473.311	390
473.53	395
473.749	424
473.968	440
474.187	393
474.406	402
474.625	412
474.844	436
475.063	409
475.282	389
475.501	357
475.72	376
475.939	375
476.158	367
476.377	364
476.596	339
476.814	356
477.033	320
477.252	335
477.471	353
477.69	350
477.908	384
478.127	397
478.346	371
478.564	385
478.783	364
479.002	373
479.22	371
479.439	383
479.658	371
479.876	364
480.095	369
480.313	373
480.532	367
480.751	358
480.969	338
481.188	346
481.406	324
481.624	336
481.843	331
482.061	317
482.28	340
482.498	356
482.717	342
482.935	352
483.153	378
483.372	386
483.59	375
483.808	363
484.027	365
484.245	381
484.463	436
484.681	428
484.9	425
485.118	403
485.336	396
485.554	381
485.772	379
485.99	380
486.209	386
486.427	385
486.645	396
486.863	429
487.081	404
487.299	388
487.517	410
487.735	421
487.953	435
488.171	431
488.389	430
488.607	413
488.825	387
489.043	385
489.261	414
489.479	409
489.696	395
489.914	391
490.132	400
490.35	419
490.568	417
490.786	420
491.003	418
491.221	435
491.439	460
491.657	452
491.874	447
492.092	498
492.31	488
492.527	467
492.745	454
492.963	458
493.18	450
493.398	440
493.615	442
493.833	424
494.05	440
494.268	419
494.485	427
494.703	446
494.92	402
495.138	425
495.355	427
495.573	435
495.79	412
496.008	441
496.225	435
496.442	434
496.66	449
496.877	435
497.094	431
497.312	437
497.529	445
497.746	432
497.963	432
498.181	421
498.398	424
498.615	438
498.832	450
499.049	468
499.267	503
499.484	514
499.701	537
499.918	576
500.135	611
500.352	612
500.569	668
500.786	645
501.003	607
501.22	589
501.437	535
501.654	516
501.871	514
502.088	479
502.305	493
502.522	461
502.739	450
502.956	443
503.172	410
503.389	401
503.606	410
503.823	427
504.04	413
504.256	391
504.473	402
504.69	400
504.907	407
505.123	383
505.34	383
505.557	381
505.773	384
505.99	373
506.207	367
506.423	370
506.64	344
506.856	335
507.073	352
507.289	335
507.506	331
507.722	339
507.939	339
508.155	351
508.372	343
508.588	327
508.805	334
509.021	336
509.238	342
509.454	325
509.67	297
509.887	299
510.103	316
510.319	318
510.536	329
510.752	324
510.968	318
511.184	324
511.401	291
511.617	306
511.833	307
512.049	308
512.265	327
512.481	314
512.698	339
512.914	334
513.13	315
513.346	319
513.562	346
513.778	373
513.994	361
514.21	353
514.426	358
514.642	344
514.858	324
515.074	377
515.29	415
515.506	404
515.721	356
515.937	353
516.153	346
516.369	355
516.585	347
516.801	396
517.016	391
517.232	401
517.448	444
517.664	397
517.879	387
518.095	378
518.311	379
518.527	466
518.742	437
518.958	367
519.173	353
519.389	355
519.605	346
519.82	324
520.036	343
520.251	335
520.467	320
520.682	334
520.898	304
521.113	302
521.329	289
521.544	285
521.76	291
521.975	310
522.19	306
522.406	292
522.621	313
522.836	291
523.052	313
523.267	289
523.482	308
523.698	303
523.913	306
524.128	284
524.343	319
524.559	330
524.774	320
524.989	331
525.204	306
525.419	310
525.634	288
525.849	320
526.064	304
526.28	305
526.495	303
526.71	293
526.925	287
527.14	303
527.355	279
527.57	291
527.785	274
527.999	312
528.214	305
528.429	282
528.644	319
528.859	311
529.074	328
529.289	342
529.503	322
529.718	326
529.933	314
530.148	291
530.363	299
530.577	294
530.792	291
531.007	297
531.221	271
531.436	297
531.651	282
531.865	299
532.08	294
532.295	310
532.509	321
532.724	288
532.938	275
533.153	307
533.367	302
533.582	311
533.796	306
534.011	311
534.225	290
534.44	285
534.654	280
534.868	296
535.083	305
535.297	284
535.511	291
535.726	289
535.94	287
536.154	276
536.369	266
536.583	271
536.797	267
537.011	279
537.225	289
537.44	268
537.654	264
537.868	272
538.082	273
538.296	286
538.51	289
538.724	296
538.938	301
539.153	293
539.367	300
539.581	298
539.795	286
540.009	298
540.222	290
540.436	280
540.65	297
540.864	300
541.078	308
541.292	319
541.506	309
541.72	335
541.934	352
542.147	352
542.361	338
542.575	309
542.789	302
543.002	288
543.216	297
543.43	280
543.644	311
543.857	300
544.071	303
544.285	345
544.498	322
544.712	322
544.925	332
545.139	325
545.352	324
545.566	336
545.779	338
545.993	329
546.206	337
546.42	333
546.633	343
546.847	341
547.06	359
547.274	345
547.487	374
547.7	345
547.914	341
548.127	337
548.34	349
548.554	332
548.767	325
548.98	329
549.193	332
549.407	339
549.62	343
549.833	322
550.046	337
550.259	322
550.473	318
550.686	322
550.899	306
551.112	330
551.325	313
551.538	300
551.751	295
551.964	272
552.177	305
552.39	312
552.603	337
552.816	322
553.029	323
553.242	328
553.455	332
553.667	338
553.88	319
554.093	309
554.306	304
554.519	331
554.732	330
554.944	318
555.157	305
555.37	301
555.583	306
555.795	329
556.008	295
556.221	290
556.433	289
556.646	300
556.859	293
557.071	297
557.284	287
557.496	290
557.709	303
557.921	308
558.134	273
558.346	296
558.559	331
558.771	309
558.984	305
559.196	352
559.409	356
559.621	334
559.833	320
560.046	308
560.258	305
560.47	304
560.683	343
560.895	335
561.107	294
561.32	279
561.532	284
561.744	281
561.956	283
562.168	284
562.381	283
562.593	280
562.805	294
563.017	283
563.229	271
563.441	318
563.653	297
563.865	299
564.077	280
564.289	279
564.501	289
