Data from SampC_HRD10591_00076.txt Node
Date: Mon Jan 19 11:37:55 EST 2026
User: Yrep
Spectrometer: HR+D1059
Trigger mode: 0
Integration Time (sec): 3.443000E-1
Scans to average: 1
Electric dark correction enabled: true
Nonlinearity correction enabled: false
Boxcar width: 0
XAxis mode: Wavelengths
Number of Pixels in Spectrum: 2048
>>>>>Begin Spectral Data<<<<<
223.165	-29.56
223.4	-29.56
223.635	-29.56
223.869	-16.56
224.104	-18.56
224.338	-10.56
224.573	-9.56
224.808	-18.56
225.042	7.44
225.277	-11.56
225.511	3.44
225.746	11.44
225.98	2.44
226.215	10.44
226.449	12.44
226.683	19.44
226.918	22.44
227.152	25.44
227.387	30.44
227.621	41.44
227.856	52.44
228.09	39.44
228.324	42.44
228.559	60.44
228.793	66.44
229.027	91.44
229.262	74.44
229.496	88.44
229.73	83.44
229.964	101.44
230.199	95.44
230.433	87.44
230.667	90.44
230.901	87.44
231.136	96.44
231.37	76.44
231.604	98.44
231.838	90.44
232.072	89.44
232.306	98.44
232.541	83.44
232.775	95.44
233.009	91.44
233.243	102.44
233.477	103.44
233.711	89.44
233.945	100.44
234.179	101.44
234.413	90.44
234.647	115.44
234.881	102.44
235.115	89.44
235.349	98.44
235.583	128.44
235.817	94.44
236.051	110.44
236.285	113.44
236.519	109.44
236.753	135.44
236.987	150.44
237.221	151.44
237.455	169.44
237.689	166.44
237.922	143.44
238.156	122.44
238.39	106.44
238.624	103.44
238.858	105.44
239.091	113.44
239.325	103.44
239.559	99.44
239.793	79.44
240.027	94.44
240.26	101.44
240.494	86.44
240.728	99.44
240.961	102.44
241.195	102.44
241.429	96.44
241.662	95.44
241.896	100.44
242.13	92.44
242.363	110.44
242.597	105.44
242.83	94.44
243.064	81.44
243.298	89.44
243.531	114.44
243.765	104.44
243.998	105.44
244.232	122.44
244.465	100.44
244.699	110.44
244.932	98.44
245.166	100.44
245.399	111.44
245.633	110.44
245.866	107.44
246.099	119.44
246.333	114.44
246.566	104.44
246.8	112.44
247.033	111.44
247.266	110.44
247.5	114.44
247.733	112.44
247.966	95.44
248.2	106.44
248.433	108.44
248.666	118.44
248.899	98.44
249.133	103.44
249.366	114.44
249.599	107.44
249.832	103.44
250.066	122.44
250.299	121.44
250.532	112.44
250.765	109.44
250.998	106.44
251.231	110.44
251.465	112.44
251.698	125.44
251.931	126.44
252.164	113.44
252.397	119.44
252.63	107.44
252.863	128.44
253.096	116.44
253.329	114.44
253.562	124.44
253.795	130.44
254.028	107.44
254.261	120.44
254.494	131.44
254.727	134.44
254.96	131.44
255.193	119.44
255.426	111.44
255.659	100.44
255.892	122.44
256.124	138.44
256.357	148.44
256.59	145.44
256.823	163.44
257.056	211.44
257.289	200.44
257.521	207.44
257.754	231.44
257.987	218.44
258.22	188.44
258.452	160.44
258.685	155.44
258.918	130.44
259.151	139.44
259.383	138.44
259.616	120.44
259.849	127.44
260.081	125.44
260.314	127.44
260.547	143.44
260.779	146.44
261.012	151.44
261.244	139.44
261.477	142.44
261.71	122.44
261.942	142.44
262.175	128.44
262.407	146.44
262.64	146.44
262.872	155.44
263.105	179.44
263.337	183.44
263.57	174.44
263.802	172.44
264.035	170.44
264.267	161.44
264.499	152.44
264.732	154.44
264.964	153.44
265.197	156.44
265.429	173.44
265.661	183.44
265.894	177.44
266.126	195.44
266.358	195.44
266.591	162.44
266.823	158.44
267.055	141.44
267.287	152.44
267.52	122.44
267.752	126.44
267.984	134.44
268.216	136.44
268.448	135.44
268.681	162.44
268.913	152.44
269.145	133.44
269.377	135.44
269.609	124.44
269.841	136.44
270.073	137.44
270.306	118.44
270.538	145.44
270.77	148.44
271.002	140.44
271.234	174.44
271.466	144.44
271.698	144.44
271.93	136.44
272.162	143.44
272.394	155.44
272.626	141.44
272.858	127.44
273.09	152.44
273.322	142.44
273.553	144.44
273.785	150.44
274.017	139.44
274.249	132.44
274.481	140.44
274.713	143.44
274.945	159.44
275.176	151.44
275.408	147.44
275.64	151.44
275.872	159.44
276.104	152.44
276.335	143.44
276.567	140.44
276.799	144.44
277.031	153.44
277.262	161.44
277.494	171.44
277.726	171.44
277.957	192.44
278.189	187.44
278.421	192.44
278.652	194.44
278.884	220.44
279.115	283.44
279.347	372.44
279.579	504.44
279.81	567.44
280.042	451.44
280.273	408.44
280.505	411.44
280.736	273.44
280.968	232.44
281.199	227.44
281.431	267.44
281.662	328.44
281.894	381.44
282.125	295.44
282.356	229.44
282.588	222.44
282.819	191.44
283.051	209.44
283.282	193.44
283.513	192.44
283.745	185.44
283.976	194.44
284.207	184.44
284.439	186.44
284.67	186.44
284.901	192.44
285.132	209.44
285.364	237.44
285.595	201.44
285.826	184.44
286.057	185.44
286.288	161.44
286.52	184.44
286.751	184.44
286.982	197.44
287.213	172.44
287.444	161.44
287.675	168.44
287.906	170.44
288.138	191.44
288.369	170.44
288.6	169.44
288.831	186.44
289.062	179.44
289.293	176.44
289.524	158.44
289.755	177.44
289.986	175.44
290.217	178.44
290.448	160.44
290.679	177.44
290.91	172.44
291.141	171.44
291.371	178.44
291.602	177.44
291.833	169.44
292.064	200.44
292.295	193.44
292.526	177.44
292.757	201.44
292.987	198.44
293.218	182.44
293.449	192.44
293.68	214.44
293.91	185.44
294.141	193.44
294.372	191.44
294.603	160.44
294.833	171.44
295.064	177.44
295.295	171.44
295.525	184.44
295.756	174.44
295.987	176.44
296.217	183.44
296.448	170.44
296.679	188.44
296.909	191.44
297.14	180.44
297.37	207.44
297.601	202.44
297.831	197.44
298.062	175.44
298.292	195.44
298.523	174.44
298.753	185.44
298.984	192.44
299.214	174.44
299.445	195.44
299.675	191.44
299.905	182.44
300.136	179.44
300.366	194.44
300.597	187.44
300.827	201.44
301.057	183.44
301.288	191.44
301.518	195.44
301.748	199.44
301.979	245.44
302.209	212.44
302.439	198.44
302.669	211.44
302.9	203.44
303.13	214.44
303.36	227.44
303.59	212.44
303.82	215.44
304.051	227.44
304.281	219.44
304.511	245.44
304.741	248.44
304.971	270.44
305.201	330.44
305.431	380.44
305.661	411.44
305.891	449.44
306.121	401.44
306.352	366.44
306.582	383.44
306.812	383.44
307.042	354.44
307.272	339.44
307.502	382.44
307.731	500.44
307.961	679.44
308.191	938.44
308.421	1095.44
308.651	916.44
308.881	850.44
309.111	1036.44
309.341	1354.44
309.571	1292.44
309.8	814.44
310.03	497.44
310.26	418.44
310.49	353.44
310.72	319.44
310.949	298.44
311.179	270.44
311.409	258.44
311.639	256.44
311.868	233.44
312.098	250.44
312.328	242.44
312.557	221.44
312.787	218.44
313.017	234.44
313.246	236.44
313.476	232.44
313.706	232.44
313.935	220.44
314.165	221.44
314.394	221.44
314.624	235.44
314.853	225.44
315.083	213.44
315.312	218.44
315.542	221.44
315.771	227.44
316.001	218.44
316.23	220.44
316.46	217.44
316.689	208.44
316.919	202.44
317.148	202.44
317.377	215.44
317.607	224.44
317.836	204.44
318.065	210.44
318.295	214.44
318.524	205.44
318.753	209.44
318.983	199.44
319.212	217.44
319.441	184.44
319.67	199.44
319.9	200.44
320.129	210.44
320.358	210.44
320.587	208.44
320.816	189.44
321.046	203.44
321.275	209.44
321.504	193.44
321.733	194.44
321.962	206.44
322.191	196.44
322.42	210.44
322.649	224.44
322.878	210.44
323.108	222.44
323.337	214.44
323.566	204.44
323.795	222.44
324.024	211.44
324.253	223.44
324.482	212.44
324.71	220.44
324.939	226.44
325.168	201.44
325.397	191.44
325.626	198.44
325.855	214.44
326.084	187.44
326.313	220.44
326.542	192.44
326.77	226.44
326.999	205.44
327.228	202.44
327.457	208.44
327.686	211.44
327.914	223.44
328.143	227.44
328.372	221.44
328.6	209.44
328.829	197.44
329.058	212.44
329.287	225.44
329.515	225.44
329.744	215.44
329.972	211.44
330.201	211.44
330.43	203.44
330.658	195.44
330.887	222.44
331.115	214.44
331.344	227.44
331.572	221.44
331.801	214.44
332.03	230.44
332.258	228.44
332.486	223.44
332.715	216.44
332.943	226.44
333.172	254.44
333.4	221.44
333.629	231.44
333.857	237.44
334.085	236.44
334.314	238.44
334.542	228.44
334.771	230.44
334.999	224.44
335.227	239.44
335.455	226.44
335.684	238.44
335.912	243.44
336.14	226.44
336.369	231.44
336.597	229.44
336.825	218.44
337.053	235.44
337.281	228.44
337.51	226.44
337.738	234.44
337.966	214.44
338.194	221.44
338.422	215.44
338.65	222.44
338.878	232.44
339.106	207.44
339.334	241.44
339.562	223.44
339.79	216.44
340.018	233.44
340.246	213.44
340.474	209.44
340.702	216.44
340.93	206.44
341.158	208.44
341.386	219.44
341.614	208.44
341.842	215.44
342.07	212.44
342.298	219.44
342.526	210.44
342.754	222.44
342.981	224.44
343.209	219.44
343.437	259.44
343.665	243.44
343.893	242.44
344.12	246.44
344.348	230.44
344.576	219.44
344.804	231.44
345.031	221.44
345.259	202.44
345.487	217.44
345.714	228.44
345.942	222.44
346.17	222.44
346.397	226.44
346.625	205.44
346.853	194.44
347.08	222.44
347.308	218.44
347.535	232.44
347.763	216.44
347.99	217.44
348.218	225.44
348.445	218.44
348.673	205.44
348.9	240.44
349.128	226.44
349.355	225.44
349.583	226.44
349.81	229.44
350.037	219.44
350.265	224.44
350.492	254.44
350.72	225.44
350.947	238.44
351.174	219.44
351.402	228.44
351.629	224.44
351.856	237.44
352.083	223.44
352.311	232.44
352.538	215.44
352.765	245.44
352.992	242.44
353.22	233.44
353.447	238.44
353.674	227.44
353.901	249.44
354.128	234.44
354.355	237.44
354.583	258.44
354.81	268.44
355.037	270.44
355.264	281.44
355.491	276.44
355.718	275.44
355.945	302.44
356.172	280.44
356.399	303.44
356.626	289.44
356.853	321.44
357.08	346.44
357.307	357.44
357.534	389.44
357.761	394.44
357.988	448.44
358.215	489.44
358.441	581.44
358.668	650.44
358.895	611.44
359.122	521.44
359.349	444.44
359.576	406.44
359.802	374.44
360.029	360.44
360.256	339.44
360.483	327.44
360.709	326.44
360.936	326.44
361.163	303.44
361.39	315.44
361.616	288.44
361.843	278.44
362.07	279.44
362.296	272.44
362.523	266.44
362.749	254.44
362.976	254.44
363.203	279.44
363.429	251.44
363.656	253.44
363.882	240.44
364.109	249.44
364.335	249.44
364.562	231.44
364.788	242.44
365.015	249.44
365.241	244.44
365.468	251.44
365.694	239.44
365.92	236.44
366.147	243.44
366.373	240.44
366.599	248.44
366.826	240.44
367.052	238.44
367.278	241.44
367.505	252.44
367.731	251.44
367.957	220.44
368.184	226.44
368.41	233.44
368.636	237.44
368.862	232.44
369.089	219.44
369.315	239.44
369.541	249.44
369.767	237.44
369.993	236.44
370.219	232.44
370.445	240.44
370.672	234.44
370.898	237.44
371.124	251.44
371.35	237.44
371.576	240.44
371.802	249.44
372.028	246.44
372.254	239.44
372.48	248.44
372.706	240.44
372.932	254.44
373.158	253.44
373.384	254.44
373.61	239.44
373.835	240.44
374.061	230.44
374.287	235.44
374.513	249.44
374.739	269.44
374.965	243.44
375.191	244.44
375.416	232.44
375.642	242.44
375.868	258.44
376.094	244.44
376.319	241.44
376.545	240.44
376.771	251.44
376.997	239.44
377.222	241.44
377.448	244.44
377.674	235.44
377.899	240.44
378.125	227.44
378.35	239.44
378.576	244.44
378.802	239.44
379.027	229.44
379.253	250.44
379.478	247.44
379.704	228.44
379.929	245.44
380.155	236.44
380.38	240.44
380.606	233.44
380.831	235.44
381.057	251.44
381.282	250.44
381.507	255.44
381.733	258.44
381.958	242.44
382.184	247.44
382.409	247.44
382.634	283.44
382.86	272.44
383.085	307.44
383.31	319.44
383.535	314.44
383.761	322.44
383.986	323.44
384.211	290.44
384.436	256.44
384.662	249.44
384.887	260.44
385.112	274.44
385.337	280.44
385.562	270.44
385.787	276.44
386.013	280.44
386.238	288.44
386.463	273.44
386.688	296.44
386.913	290.44
387.138	258.44
387.363	264.44
387.588	280.44
387.813	275.44
388.038	268.44
388.263	271.44
388.488	278.44
388.713	265.44
388.938	267.44
389.163	277.44
389.387	273.44
389.612	250.44
389.837	284.44
390.062	278.44
390.287	297.44
390.512	288.44
390.736	274.44
390.961	297.44
391.186	284.44
391.411	279.44
391.636	291.44
391.86	297.44
392.085	287.44
392.31	304.44
392.534	313.44
392.759	304.44
392.984	341.44
393.208	373.44
393.433	409.44
393.658	447.44
393.882	513.44
394.107	802.44
394.331	1443.44
394.556	1939.44
394.78	1310.44
395.005	763.44
395.229	595.44
395.454	598.44
395.678	742.44
395.903	1242.44
396.127	2139.44
396.352	2499.44
396.576	1474.44
396.801	874.44
397.025	633.44
397.249	510.44
397.474	467.44
397.698	424.44
397.922	398.44
398.147	370.44
398.371	376.44
398.595	398.44
398.82	380.44
399.044	378.44
399.268	361.44
399.492	388.44
399.717	401.44
399.941	394.44
400.165	379.44
400.389	344.44
400.613	335.44
400.837	321.44
401.062	335.44
401.286	322.44
401.51	321.44
401.734	321.44
401.958	295.44
402.182	316.44
402.406	301.44
402.63	319.44
402.854	317.44
403.078	303.44
403.302	313.44
403.526	331.44
403.75	319.44
403.974	311.44
404.198	309.44
404.422	324.44
404.645	312.44
404.869	323.44
405.093	316.44
405.317	308.44
405.541	325.44
405.765	330.44
405.988	324.44
406.212	300.44
406.436	321.44
406.66	336.44
406.883	317.44
407.107	347.44
407.331	340.44
407.555	350.44
407.778	347.44
408.002	330.44
408.226	323.44
408.449	334.44
408.673	323.44
408.896	310.44
409.12	323.44
409.344	323.44
409.567	316.44
409.791	321.44
410.014	339.44
410.238	305.44
410.461	316.44
410.685	299.44
410.908	310.44
411.132	326.44
411.355	305.44
411.578	311.44
411.802	308.44
412.025	299.44
412.249	306.44
412.472	316.44
412.695	303.44
412.919	302.44
413.142	326.44
413.365	304.44
413.589	305.44
413.812	290.44
414.035	323.44
414.258	309.44
414.482	299.44
414.705	332.44
414.928	298.44
415.151	316.44
415.374	315.44
415.597	289.44
415.821	308.44
416.044	314.44
416.267	306.44
416.49	313.44
416.713	285.44
416.936	310.44
417.159	291.44
417.382	293.44
417.605	315.44
417.828	303.44
418.051	304.44
418.274	305.44
418.497	299.44
418.72	310.44
418.943	317.44
419.166	322.44
419.389	335.44
419.611	328.44
419.834	308.44
420.057	317.44
420.28	300.44
420.503	313.44
420.726	295.44
420.948	306.44
421.171	294.44
421.394	312.44
421.617	315.44
421.839	321.44
422.062	321.44
422.285	303.44
422.507	313.44
422.73	328.44
422.953	301.44
423.175	300.44
423.398	323.44
423.621	312.44
423.843	321.44
424.066	311.44
424.288	318.44
424.511	304.44
424.733	326.44
424.956	318.44
425.178	332.44
425.401	314.44
425.623	308.44
425.846	295.44
426.068	299.44
426.291	318.44
426.513	296.44
426.735	303.44
426.958	290.44
427.18	300.44
427.402	294.44
427.625	299.44
427.847	291.44
428.069	291.44
428.292	303.44
428.514	311.44
428.736	284.44
428.958	273.44
429.181	280.44
429.403	292.44
429.625	312.44
429.847	285.44
430.069	293.44
430.292	313.44
430.514	274.44
430.736	302.44
430.958	292.44
431.18	293.44
431.402	290.44
431.624	288.44
431.846	282.44
432.068	269.44
432.29	288.44
432.512	276.44
432.734	294.44
432.956	292.44
433.178	295.44
433.4	302.44
433.622	299.44
433.844	289.44
434.066	298.44
434.287	302.44
434.509	274.44
434.731	305.44
434.953	296.44
435.175	278.44
435.397	307.44
435.618	290.44
435.84	274.44
436.062	276.44
436.284	300.44
436.505	296.44
436.727	275.44
436.949	288.44
437.17	314.44
437.392	280.44
437.614	296.44
437.835	278.44
438.057	296.44
438.278	266.44
438.5	272.44
438.721	297.44
438.943	316.44
439.165	297.44
439.386	284.44
439.608	304.44
439.829	289.44
440.05	318.44
440.272	316.44
440.493	291.44
440.715	318.44
440.936	325.44
441.158	330.44
441.379	330.44
441.6	319.44
441.822	324.44
442.043	304.44
442.264	313.44
442.486	314.44
442.707	318.44
442.928	319.44
443.149	322.44
443.371	319.44
443.592	328.44
443.813	308.44
444.034	308.44
444.255	327.44
444.476	332.44
444.698	336.44
444.919	355.44
445.14	525.44
445.361	402.44
445.582	322.44
445.803	304.44
446.024	315.44
446.245	314.44
446.466	300.44
446.687	331.44
446.908	313.44
447.129	306.44
447.35	307.44
447.571	314.44
447.792	297.44
448.013	312.44
448.234	311.44
448.455	305.44
448.675	305.44
448.896	285.44
449.117	278.44
449.338	267.44
449.559	304.44
449.779	302.44
450	287.44
450.221	288.44
450.442	299.44
450.662	280.44
450.883	270.44
451.104	301.44
451.324	301.44
451.545	267.44
451.766	280.44
451.986	283.44
452.207	290.44
452.428	302.44
452.648	298.44
452.869	292.44
453.089	300.44
453.31	283.44
453.53	274.44
453.751	288.44
453.971	299.44
454.192	300.44
454.412	258.44
454.633	268.44
454.853	271.44
455.073	271.44
455.294	253.44
455.514	292.44
455.734	268.44
455.955	269.44
456.175	279.44
456.395	265.44
456.616	273.44
456.836	282.44
457.056	250.44
457.276	249.44
457.497	252.44
457.717	238.44
457.937	270.44
458.157	266.44
458.377	258.44
458.598	250.44
458.818	273.44
459.038	254.44
459.258	252.44
459.478	244.44
459.698	276.44
459.918	266.44
460.138	279.44
460.358	306.44
460.578	313.44
460.798	292.44
461.018	290.44
461.238	310.44
461.458	306.44
461.678	305.44
461.898	317.44
462.118	320.44
462.338	315.44
462.558	316.44
462.777	320.44
462.997	349.44
463.217	323.44
463.437	339.44
463.657	351.44
463.876	343.44
464.096	345.44
464.316	337.44
464.536	323.44
464.755	334.44
464.975	325.44
465.195	340.44
465.414	310.44
465.634	298.44
465.854	310.44
466.073	344.44
466.293	325.44
466.512	372.44
466.732	342.44
466.951	337.44
467.171	351.44
467.391	355.44
467.61	312.44
467.829	318.44
468.049	309.44
468.268	299.44
468.488	301.44
468.707	301.44
468.927	284.44
469.146	309.44
469.365	300.44
469.585	295.44
469.804	318.44
470.023	298.44
470.243	295.44
470.462	324.44
470.681	310.44
470.901	311.44
471.12	308.44
471.339	306.44
471.558	307.44
471.777	308.44
471.997	297.44
472.216	292.44
472.435	298.44
472.654	301.44
472.873	291.44
473.092	302.44
473.311	308.44
473.53	304.44
473.749	352.44
473.968	353.44
474.187	342.44
474.406	340.44
474.625	362.44
474.844	374.44
475.063	356.44
475.282	320.44
475.501	322.44
475.72	313.44
475.939	286.44
476.158	301.44
476.377	283.44
476.596	275.44
476.814	285.44
477.033	261.44
477.252	278.44
477.471	264.44
477.69	305.44
477.908	304.44
478.127	323.44
478.346	311.44
478.564	302.44
478.783	307.44
479.002	311.44
479.22	304.44
479.439	324.44
479.658	319.44
479.876	315.44
480.095	317.44
480.313	312.44
480.532	299.44
480.751	296.44
480.969	299.44
481.188	287.44
481.406	298.44
481.624	298.44
481.843	275.44
482.061	290.44
482.28	281.44
482.498	288.44
482.717	295.44
482.935	299.44
483.153	323.44
483.372	331.44
483.59	320.44
483.808	314.44
484.027	292.44
484.245	323.44
484.463	345.44
484.681	363.44
484.9	339.44
485.118	349.44
485.336	353.44
485.554	335.44
485.772	301.44
485.99	306.44
486.209	325.44
486.427	346.44
486.645	334.44
486.863	363.44
487.081	356.44
487.299	335.44
487.517	355.44
487.735	385.44
487.953	357.44
488.171	374.44
488.389	360.44
488.607	342.44
488.825	346.44
489.043	332.44
489.261	327.44
489.479	329.44
489.696	328.44
489.914	335.44
490.132	319.44
490.35	351.44
490.568	360.44
490.786	353.44
491.003	374.44
491.221	370.44
491.439	363.44
491.657	362.44
491.874	363.44
492.092	379.44
492.31	380.44
492.527	369.44
492.745	380.44
492.963	387.44
493.18	362.44
493.398	360.44
493.615	352.44
493.833	353.44
494.05	344.44
494.268	342.44
494.485	347.44
494.703	360.44
494.92	359.44
495.138	344.44
495.355	364.44
495.573	352.44
495.79	351.44
496.008	362.44
496.225	350.44
496.442	347.44
496.66	361.44
496.877	350.44
497.094	368.44
497.312	362.44
497.529	367.44
497.746	348.44
497.963	341.44
498.181	353.44
498.398	363.44
498.615	374.44
498.832	385.44
499.049	398.44
499.267	426.44
499.484	436.44
499.701	468.44
499.918	505.44
500.135	505.44
500.352	519.44
500.569	534.44
500.786	546.44
501.003	514.44
501.22	485.44
501.437	431.44
501.654	453.44
501.871	430.44
502.088	389.44
502.305	391.44
502.522	371.44
502.739	378.44
502.956	366.44
503.172	367.44
