Data from SampC_HRD10591_00052.txt Node
Date: Mon Jan 19 11:37:47 EST 2026
User: Yrep
Spectrometer: HR+D1059
Trigger mode: 0
Integration Time (sec): 3.443000E-1
Scans to average: 1
Electric dark correction enabled: true
Nonlinearity correction enabled: false
Boxcar width: 0
XAxis mode: Wavelengths
Number of Pixels in Spectrum: 2048
>>>>>Begin Spectral Data<<<<<
223.165	-8.25
223.4	-8.25
223.635	-8.25
223.869	-11.25
224.104	-18.25
224.338	-15.25
224.573	-21.25
224.808	-18.25
225.042	-7.25
225.277	-3.25
225.511	5.75
225.746	4.75
225.98	-7.25
226.215	10.75
226.449	14.75
226.683	13.75
226.918	29.75
227.152	30.75
227.387	37.75
227.621	37.75
227.856	48.75
228.09	42.75
228.324	38.75
228.559	54.75
228.793	60.75
229.027	78.75
229.262	79.75
229.496	99.75
229.73	115.75
229.964	94.75
230.199	110.75
230.433	82.75
230.667	107.75
230.901	110.75
231.136	109.75
231.37	99.75
231.604	104.75
231.838	114.75
232.072	109.75
232.306	119.75
232.541	120.75
232.775	107.75
233.009	107.75
233.243	106.75
233.477	121.75
233.711	114.75
233.945	103.75
234.179	101.75
234.413	93.75
234.647	120.75
234.881	91.75
235.115	113.75
235.349	129.75
235.583	114.75
235.817	114.75
236.051	106.75
236.285	123.75
236.519	157.75
236.753	155.75
236.987	173.75
237.221	174.75
237.455	192.75
237.689	172.75
237.922	185.75
238.156	141.75
238.39	126.75
238.624	124.75
238.858	120.75
239.091	121.75
239.325	121.75
239.559	114.75
239.793	121.75
240.027	116.75
240.26	98.75
240.494	109.75
240.728	114.75
240.961	94.75
241.195	110.75
241.429	102.75
241.662	103.75
241.896	95.75
242.13	110.75
242.363	125.75
242.597	117.75
242.83	117.75
243.064	111.75
243.298	111.75
243.531	96.75
243.765	111.75
243.998	119.75
244.232	129.75
244.465	113.75
244.699	117.75
244.932	127.75
245.166	116.75
245.399	117.75
245.633	112.75
245.866	118.75
246.099	125.75
246.333	124.75
246.566	120.75
246.8	124.75
247.033	114.75
247.266	113.75
247.5	112.75
247.733	125.75
247.966	131.75
248.2	125.75
248.433	121.75
248.666	105.75
248.899	124.75
249.133	127.75
249.366	132.75
249.599	127.75
249.832	107.75
250.066	116.75
250.299	118.75
250.532	133.75
250.765	130.75
250.998	130.75
251.231	118.75
251.465	109.75
251.698	118.75
251.931	129.75
252.164	132.75
252.397	137.75
252.63	137.75
252.863	127.75
253.096	124.75
253.329	141.75
253.562	133.75
253.795	134.75
254.028	144.75
254.261	136.75
254.494	133.75
254.727	144.75
254.96	144.75
255.193	142.75
255.426	132.75
255.659	119.75
255.892	151.75
256.124	142.75
256.357	162.75
256.59	170.75
256.823	194.75
257.056	222.75
257.289	233.75
257.521	241.75
257.754	271.75
257.987	226.75
258.22	206.75
258.452	179.75
258.685	154.75
258.918	169.75
259.151	144.75
259.383	165.75
259.616	154.75
259.849	167.75
260.081	176.75
260.314	147.75
260.547	133.75
260.779	142.75
261.012	165.75
261.244	159.75
261.477	165.75
261.71	149.75
261.942	154.75
262.175	164.75
262.407	173.75
262.64	162.75
262.872	165.75
263.105	184.75
263.337	212.75
263.57	202.75
263.802	189.75
264.035	192.75
264.267	193.75
264.499	177.75
264.732	178.75
264.964	172.75
265.197	197.75
265.429	224.75
265.661	220.75
265.894	224.75
266.126	250.75
266.358	244.75
266.591	225.75
266.823	172.75
267.055	174.75
267.287	168.75
267.52	170.75
267.752	175.75
267.984	153.75
268.216	139.75
268.448	169.75
268.681	163.75
268.913	166.75
269.145	178.75
269.377	189.75
269.609	165.75
269.841	167.75
270.073	162.75
270.306	156.75
270.538	167.75
270.77	162.75
271.002	168.75
271.234	166.75
271.466	168.75
271.698	159.75
271.93	173.75
272.162	156.75
272.394	174.75
272.626	159.75
272.858	147.75
273.09	177.75
273.322	162.75
273.553	179.75
273.785	176.75
274.017	161.75
274.249	177.75
274.481	174.75
274.713	168.75
274.945	184.75
275.176	169.75
275.408	173.75
275.64	183.75
275.872	194.75
276.104	184.75
276.335	177.75
276.567	176.75
276.799	181.75
277.031	192.75
277.262	180.75
277.494	203.75
277.726	217.75
277.957	224.75
278.189	219.75
278.421	225.75
278.652	221.75
278.884	253.75
279.115	316.75
279.347	408.75
279.579	556.75
279.81	630.75
280.042	535.75
280.273	489.75
280.505	465.75
280.736	336.75
280.968	265.75
281.199	261.75
281.431	313.75
281.662	398.75
281.894	434.75
282.125	358.75
282.356	302.75
282.588	280.75
282.819	240.75
283.051	237.75
283.282	215.75
283.513	230.75
283.745	212.75
283.976	228.75
284.207	210.75
284.439	202.75
284.67	206.75
284.901	217.75
285.132	252.75
285.364	274.75
285.595	262.75
285.826	206.75
286.057	211.75
286.288	202.75
286.52	205.75
286.751	204.75
286.982	197.75
287.213	202.75
287.444	208.75
287.675	213.75
287.906	192.75
288.138	208.75
288.369	217.75
288.6	208.75
288.831	204.75
289.062	203.75
289.293	214.75
289.524	194.75
289.755	201.75
289.986	198.75
290.217	210.75
290.448	200.75
290.679	192.75
290.91	195.75
291.141	206.75
291.371	208.75
291.602	195.75
291.833	220.75
292.064	211.75
292.295	203.75
292.526	214.75
292.757	221.75
292.987	235.75
293.218	233.75
293.449	233.75
293.68	227.75
293.91	240.75
294.141	232.75
294.372	213.75
294.603	210.75
294.833	205.75
295.064	217.75
295.295	206.75
295.525	208.75
295.756	214.75
295.987	224.75
296.217	217.75
296.448	196.75
296.679	205.75
296.909	218.75
297.14	212.75
297.37	193.75
297.601	205.75
297.831	198.75
298.062	198.75
298.292	223.75
298.523	215.75
298.753	219.75
298.984	213.75
299.214	216.75
299.445	205.75
299.675	215.75
299.905	219.75
300.136	216.75
300.366	236.75
300.597	219.75
300.827	212.75
301.057	237.75
301.288	233.75
301.518	219.75
301.748	245.75
301.979	271.75
302.209	256.75
302.439	250.75
302.669	252.75
302.9	257.75
303.13	253.75
303.36	240.75
303.59	275.75
303.82	253.75
304.051	274.75
304.281	280.75
304.511	302.75
304.741	316.75
304.971	343.75
305.201	401.75
305.431	427.75
305.661	515.75
305.891	536.75
306.121	508.75
306.352	482.75
306.582	486.75
306.812	477.75
307.042	427.75
307.272	436.75
307.502	463.75
307.731	594.75
307.961	812.75
308.191	1129.75
308.421	1306.75
308.651	1098.75
308.881	1000.75
309.111	1240.75
309.341	1557.75
309.571	1490.75
309.8	956.75
310.03	671.75
310.26	515.75
310.49	442.75
310.72	406.75
310.949	359.75
311.179	368.75
311.409	341.75
311.639	319.75
311.868	322.75
312.098	308.75
312.328	316.75
312.557	290.75
312.787	294.75
313.017	293.75
313.246	266.75
313.476	276.75
313.706	274.75
313.935	262.75
314.165	261.75
314.394	250.75
314.624	260.75
314.853	264.75
315.083	261.75
315.312	257.75
315.542	261.75
315.771	267.75
316.001	264.75
316.23	259.75
316.46	251.75
316.689	248.75
316.919	253.75
317.148	240.75
317.377	254.75
317.607	250.75
317.836	259.75
318.065	240.75
318.295	252.75
318.524	254.75
318.753	248.75
318.983	249.75
319.212	249.75
319.441	239.75
319.67	244.75
319.9	227.75
320.129	242.75
320.358	248.75
320.587	251.75
320.816	216.75
321.046	253.75
321.275	234.75
321.504	250.75
321.733	241.75
321.962	243.75
322.191	245.75
322.42	246.75
322.649	245.75
322.878	255.75
323.108	252.75
323.337	246.75
323.566	252.75
323.795	259.75
324.024	255.75
324.253	244.75
324.482	256.75
324.71	257.75
324.939	250.75
325.168	229.75
325.397	252.75
325.626	253.75
325.855	246.75
326.084	250.75
326.313	265.75
326.542	251.75
326.77	240.75
326.999	232.75
327.228	245.75
327.457	255.75
327.686	236.75
327.914	255.75
328.143	251.75
328.372	234.75
328.6	259.75
328.829	242.75
329.058	240.75
329.287	241.75
329.515	249.75
329.744	241.75
329.972	249.75
330.201	259.75
330.43	261.75
330.658	256.75
330.887	265.75
331.115	264.75
331.344	235.75
331.572	252.75
331.801	255.75
332.03	258.75
332.258	278.75
332.486	252.75
332.715	264.75
332.943	278.75
333.172	271.75
333.4	285.75
333.629	287.75
333.857	295.75
334.085	288.75
334.314	297.75
334.542	257.75
334.771	276.75
334.999	272.75
335.227	284.75
335.455	273.75
335.684	272.75
335.912	271.75
336.14	269.75
336.369	286.75
336.597	274.75
336.825	251.75
337.053	253.75
337.281	280.75
337.51	265.75
337.738	276.75
337.966	263.75
338.194	246.75
338.422	241.75
338.65	255.75
338.878	266.75
339.106	257.75
339.334	276.75
339.562	262.75
339.79	264.75
340.018	270.75
340.246	249.75
340.474	266.75
340.702	250.75
340.93	253.75
341.158	250.75
341.386	264.75
341.614	256.75
341.842	238.75
342.07	272.75
342.298	268.75
342.526	257.75
342.754	286.75
342.981	265.75
343.209	273.75
343.437	298.75
343.665	279.75
343.893	288.75
344.12	298.75
344.348	289.75
344.576	274.75
344.804	280.75
345.031	250.75
345.259	273.75
345.487	262.75
345.714	260.75
345.942	258.75
346.17	249.75
346.397	261.75
346.625	264.75
346.853	255.75
347.08	257.75
347.308	258.75
347.535	276.75
347.763	266.75
347.99	270.75
348.218	247.75
348.445	256.75
348.673	270.75
348.9	262.75
349.128	259.75
349.355	274.75
349.583	266.75
349.81	257.75
350.037	276.75
350.265	278.75
350.492	256.75
350.72	260.75
350.947	263.75
351.174	274.75
351.402	283.75
351.629	272.75
351.856	274.75
352.083	287.75
352.311	276.75
352.538	279.75
352.765	289.75
352.992	290.75
353.22	286.75
353.447	290.75
353.674	290.75
353.901	283.75
354.128	301.75
354.355	302.75
354.583	294.75
354.81	306.75
355.037	310.75
355.264	326.75
355.491	334.75
355.718	320.75
355.945	336.75
356.172	359.75
356.399	350.75
356.626	374.75
356.853	387.75
357.08	388.75
357.307	414.75
357.534	429.75
357.761	472.75
357.988	538.75
358.215	586.75
358.441	673.75
358.668	726.75
358.895	726.75
359.122	609.75
359.349	515.75
359.576	497.75
359.802	430.75
360.029	415.75
360.256	419.75
360.483	393.75
360.709	396.75
360.936	404.75
361.163	381.75
361.39	354.75
361.616	353.75
361.843	352.75
362.07	342.75
362.296	316.75
362.523	324.75
362.749	315.75
362.976	301.75
363.203	337.75
363.429	306.75
363.656	311.75
363.882	296.75
364.109	288.75
364.335	287.75
364.562	290.75
364.788	289.75
365.015	279.75
365.241	293.75
365.468	293.75
365.694	291.75
365.92	273.75
366.147	282.75
366.373	293.75
366.599	282.75
366.826	285.75
367.052	262.75
367.278	282.75
367.505	279.75
367.731	291.75
367.957	294.75
368.184	301.75
368.41	295.75
368.636	285.75
368.862	286.75
369.089	285.75
369.315	289.75
369.541	283.75
369.767	283.75
369.993	294.75
370.219	300.75
370.445	293.75
370.672	293.75
370.898	291.75
371.124	286.75
371.35	280.75
371.576	306.75
371.802	277.75
372.028	307.75
372.254	314.75
372.48	305.75
372.706	287.75
372.932	299.75
373.158	285.75
373.384	298.75
373.61	313.75
373.835	306.75
374.061	266.75
374.287	304.75
374.513	301.75
374.739	319.75
374.965	293.75
375.191	308.75
375.416	318.75
375.642	308.75
375.868	319.75
376.094	317.75
376.319	299.75
376.545	280.75
376.771	282.75
376.997	299.75
377.222	302.75
377.448	296.75
377.674	276.75
377.899	270.75
378.125	280.75
378.35	286.75
378.576	291.75
378.802	292.75
379.027	307.75
379.253	302.75
379.478	270.75
379.704	273.75
379.929	289.75
380.155	282.75
380.38	300.75
380.606	290.75
380.831	290.75
381.057	313.75
381.282	309.75
381.507	284.75
381.733	314.75
381.958	328.75
382.184	304.75
382.409	330.75
382.634	333.75
382.86	338.75
383.085	377.75
383.31	382.75
383.535	353.75
383.761	371.75
383.986	398.75
384.211	361.75
384.436	330.75
384.662	335.75
384.887	301.75
385.112	308.75
385.337	354.75
385.562	347.75
385.787	338.75
386.013	325.75
386.238	357.75
386.463	336.75
386.688	401.75
386.913	338.75
387.138	349.75
387.363	348.75
387.588	354.75
387.813	319.75
388.038	333.75
388.263	355.75
388.488	324.75
388.713	337.75
388.938	356.75
389.163	334.75
389.387	343.75
389.612	335.75
389.837	355.75
390.062	354.75
390.287	351.75
390.512	345.75
390.736	355.75
390.961	365.75
391.186	368.75
391.411	376.75
391.636	382.75
391.86	392.75
392.085	388.75
392.31	402.75
392.534	396.75
392.759	423.75
392.984	421.75
393.208	456.75
393.433	468.75
393.658	542.75
393.882	660.75
394.107	1012.75
394.331	1758.75
394.556	2272.75
394.78	1582.75
395.005	977.75
395.229	768.75
395.454	801.75
395.678	968.75
395.903	1528.75
396.127	2565.75
396.352	2924.75
396.576	1841.75
396.801	1071.75
397.025	797.75
397.249	687.75
397.474	626.75
397.698	542.75
397.922	539.75
398.147	489.75
398.371	500.75
398.595	481.75
398.82	471.75
399.044	487.75
399.268	477.75
399.492	496.75
399.717	502.75
399.941	498.75
400.165	466.75
400.389	451.75
400.613	429.75
400.837	441.75
401.062	435.75
401.286	424.75
401.51	406.75
401.734	400.75
401.958	400.75
402.182	380.75
402.406	410.75
402.63	423.75
402.854	405.75
403.078	389.75
403.302	430.75
403.526	416.75
403.75	390.75
403.974	420.75
404.198	395.75
404.422	446.75
404.645	406.75
404.869	405.75
405.093	420.75
405.317	417.75
405.541	399.75
405.765	388.75
405.988	408.75
406.212	427.75
406.436	418.75
406.66	424.75
406.883	408.75
407.107	419.75
407.331	440.75
407.555	432.75
407.778	433.75
408.002	402.75
408.226	457.75
408.449	412.75
408.673	412.75
408.896	413.75
409.12	394.75
409.344	422.75
409.567	418.75
409.791	417.75
410.014	414.75
410.238	394.75
410.461	394.75
410.685	410.75
410.908	393.75
411.132	392.75
411.355	393.75
411.578	410.75
411.802	394.75
412.025	376.75
412.249	386.75
412.472	405.75
412.695	394.75
412.919	381.75
413.142	404.75
413.365	386.75
413.589	382.75
413.812	373.75
414.035	389.75
414.258	388.75
414.482	374.75
414.705	394.75
414.928	389.75
415.151	396.75
415.374	402.75
415.597	377.75
415.821	388.75
416.044	372.75
416.267	371.75
416.49	411.75
416.713	405.75
416.936	383.75
417.159	405.75
417.382	397.75
417.605	389.75
417.828	402.75
418.051	409.75
418.274	401.75
418.497	400.75
418.72	403.75
418.943	403.75
419.166	412.75
419.389	426.75
419.611	432.75
419.834	412.75
420.057	417.75
420.28	393.75
420.503	389.75
420.726	415.75
420.948	380.75
421.171	392.75
421.394	398.75
421.617	401.75
421.839	413.75
422.062	398.75
422.285	389.75
422.507	381.75
422.73	398.75
422.953	392.75
423.175	409.75
423.398	400.75
423.621	408.75
423.843	427.75
424.066	397.75
424.288	417.75
424.511	387.75
424.733	381.75
424.956	399.75
425.178	393.75
425.401	401.75
425.623	411.75
425.846	380.75
426.068	399.75
426.291	380.75
426.513	383.75
426.735	383.75
426.958	366.75
427.18	372.75
427.402	377.75
427.625	369.75
427.847	354.75
428.069	368.75
428.292	363.75
428.514	386.75
428.736	378.75
428.958	373.75
429.181	382.75
429.403	349.75
429.625	363.75
429.847	382.75
430.069	396.75
430.292	357.75
430.514	366.75
430.736	378.75
430.958	342.75
431.18	377.75
431.402	379.75
431.624	357.75
431.846	336.75
432.068	334.75
432.29	346.75
432.512	348.75
432.734	349.75
432.956	380.75
433.178	390.75
433.4	389.75
433.622	360.75
433.844	389.75
434.066	372.75
434.287	341.75
434.509	365.75
434.731	354.75
434.953	381.75
435.175	404.75
435.397	383.75
435.618	361.75
435.84	366.75
436.062	364.75
436.284	366.75
436.505	370.75
436.727	380.75
436.949	386.75
437.17	386.75
437.392	354.75
437.614	360.75
437.835	335.75
438.057	338.75
438.278	328.75
438.5	362.75
438.721	379.75
438.943	360.75
439.165	370.75
439.386	386.75
439.608	403.75
439.829	397.75
440.05	409.75
440.272	381.75
440.493	374.75
440.715	428.75
440.936	433.75
441.158	411.75
441.379	422.75
441.6	417.75
441.822	417.75
442.043	416.75
442.264	409.75
442.486	406.75
442.707	406.75
442.928	396.75
443.149	401.75
443.371	408.75
443.592	408.75
443.813	426.75
444.034	406.75
444.255	420.75
444.476	412.75
444.698	433.75
444.919	443.75
445.14	598.75
445.361	517.75
445.582	430.75
445.803	422.75
446.024	421.75
446.245	397.75
446.466	414.75
446.687	414.75
446.908	414.75
447.129	405.75
447.35	406.75
447.571	399.75
447.792	381.75
448.013	396.75
448.234	379.75
448.455	366.75
448.675	382.75
448.896	376.75
449.117	373.75
449.338	373.75
449.559	369.75
449.779	380.75
450	358.75
450.221	352.75
450.442	375.75
450.662	384.75
450.883	363.75
451.104	376.75
451.324	382.75
451.545	372.75
451.766	357.75
451.986	352.75
452.207	380.75
452.428	376.75
452.648	385.75
452.869	372.75
453.089	358.75
453.31	358.75
453.53	350.75
453.751	355.75
453.971	359.75
454.192	363.75
454.412	355.75
454.633	345.75
454.853	341.75
455.073	353.75
455.294	354.75
455.514	351.75
455.734	316.75
455.955	340.75
456.175	328.75
456.395	327.75
456.616	330.75
456.836	337.75
457.056	355.75
457.276	306.75
457.497	316.75
457.717	340.75
457.937	313.75
458.157	316.75
458.377	319.75
458.598	321.75
458.818	321.75
459.038	317.75
459.258	308.75
459.478	336.75
459.698	349.75
459.918	352.75
460.138	388.75
460.358	370.75
460.578	371.75
460.798	377.75
461.018	380.75
461.238	374.75
461.458	392.75
461.678	373.75
461.898	388.75
462.118	376.75
462.338	398.75
462.558	412.75
462.777	427.75
462.997	430.75
463.217	409.75
463.437	423.75
463.657	406.75
463.876	398.75
464.096	420.75
464.316	414.75
464.536	414.75
464.755	413.75
464.975	410.75
465.195	412.75
465.414	393.75
465.634	388.75
465.854	370.75
466.073	414.75
466.293	428.75
466.512	453.75
466.732	459.75
466.951	445.75
467.171	444.75
467.391	424.75
467.61	392.75
467.829	398.75
468.049	389.75
468.268	397.75
468.488	378.75
468.707	381.75
468.927	385.75
469.146	367.75
469.365	383.75
469.585	383.75
469.804	385.75
470.023	388.75
470.243	389.75
470.462	393.75
470.681	395.75
470.901	403.75
471.12	379.75
471.339	390.75
471.558	386.75
471.777	361.75
471.997	382.75
472.216	401.75
472.435	367.75
472.654	359.75
472.873	363.75
473.092	348.75
473.311	405.75
473.53	414.75
473.749	435.75
473.968	445.75
474.187	444.75
474.406	424.75
474.625	469.75
474.844	444.75
475.063	444.75
475.282	404.75
475.501	393.75
475.72	389.75
475.939	382.75
476.158	373.75
476.377	368.75
476.596	361.75
476.814	358.75
477.033	361.75
477.252	365.75
477.471	369.75
477.69	391.75
477.908	416.75
478.127	410.75
478.346	385.75
478.564	405.75
478.783	416.75
479.002	408.75
479.22	403.75
479.439	391.75
479.658	401.75
479.876	373.75
480.095	380.75
480.313	402.75
480.532	398.75
480.751	382.75
480.969	369.75
481.188	348.75
481.406	342.75
481.624	356.75
481.843	340.75
482.061	374.75
482.28	368.75
482.498	369.75
482.717	355.75
482.935	361.75
483.153	389.75
483.372	407.75
483.59	422.75
483.808	376.75
484.027	390.75
484.245	401.75
484.463	434.75
484.681	469.75
484.9	442.75
485.118	418.75
485.336	423.75
485.554	413.75
485.772	387.75
485.99	396.75
486.209	408.75
486.427	375.75
486.645	414.75
486.863	440.75
487.081	442.75
487.299	417.75
487.517	453.75
487.735	477.75
487.953	499.75
488.171	448.75
488.389	432.75
488.607	449.75
488.825	406.75
489.043	432.75
489.261	436.75
489.479	436.75
489.696	431.75
489.914	426.75
490.132	426.75
490.35	433.75
490.568	453.75
490.786	464.75
491.003	466.75
491.221	465.75
491.439	473.75
491.657	493.75
491.874	507.75
492.092	517.75
492.31	520.75
492.527	526.75
492.745	500.75
492.963	490.75
493.18	485.75
493.398	472.75
493.615	470.75
493.833	462.75
494.05	477.75
494.268	437.75
494.485	460.75
494.703	480.75
494.92	464.75
495.138	456.75
495.355	462.75
495.573	458.75
495.79	462.75
496.008	458.75
496.225	459.75
496.442	448.75
496.66	478.75
496.877	444.75
497.094	466.75
497.312	481.75
497.529	482.75
497.746	480.75
497.963	463.75
498.181	454.75
498.398	472.75
498.615	474.75
498.832	492.75
499.049	501.75
499.267	527.75
499.484	560.75
499.701	595.75
499.918	626.75
500.135	665.75
500.352	701.75
500.569	692.75
500.786	713.75
501.003	668.75
501.22	627.75
501.437	580.75
501.654	553.75
501.871	528.75
502.088	507.75
502.305	495.75
502.522	467.75
502.739	495.75
