Data from SampC_HRD10591_00086.txt Node
Date: Mon Jan 19 11:37:59 EST 2026
User: Yrep
Spectrometer: HR+D1059
Trigger mode: 0
Integration Time (sec): 3.443000E-1
Scans to average: 1
Electric dark correction enabled: true
Nonlinearity correction enabled: false
Boxcar width: 0
XAxis mode: Wavelengths
Number of Pixels in Spectrum: 2048
>>>>>Begin Spectral Data<<<<<
223.165	-27.88
223.4	-27.88
223.635	-27.88
223.869	-22.88
224.104	-24.88
224.338	-18.88
224.573	-14.88
224.808	-18.88
225.042	-22.88
225.277	2.12
225.511	-11.88
225.746	3.12
225.98	10.12
226.215	26.12
226.449	19.12
226.683	29.12
226.918	31.12
227.152	42.12
227.387	51.12
227.621	48.12
227.856	58.12
228.09	45.12
228.324	40.12
228.559	63.12
228.793	75.12
229.027	96.12
229.262	62.12
229.496	57.12
229.73	70.12
229.964	102.12
230.199	92.12
230.433	81.12
230.667	91.12
230.901	84.12
231.136	84.12
231.37	83.12
231.604	96.12
231.838	108.12
232.072	100.12
232.306	97.12
232.541	104.12
232.775	96.12
233.009	95.12
233.243	114.12
233.477	91.12
233.711	96.12
233.945	91.12
234.179	96.12
234.413	109.12
234.647	101.12
234.881	92.12
235.115	110.12
235.349	88.12
235.583	103.12
235.817	97.12
236.051	89.12
236.285	102.12
236.519	104.12
236.753	124.12
236.987	136.12
237.221	150.12
237.455	152.12
237.689	142.12
237.922	130.12
238.156	108.12
238.39	107.12
238.624	100.12
238.858	110.12
239.091	83.12
239.325	102.12
239.559	95.12
239.793	92.12
240.027	109.12
240.26	106.12
240.494	108.12
240.728	94.12
240.961	91.12
241.195	108.12
241.429	101.12
241.662	108.12
241.896	97.12
242.13	95.12
242.363	102.12
242.597	101.12
242.83	100.12
243.064	99.12
243.298	98.12
243.531	96.12
243.765	108.12
243.998	127.12
244.232	106.12
244.465	97.12
244.699	102.12
244.932	111.12
245.166	113.12
245.399	108.12
245.633	109.12
245.866	102.12
246.099	96.12
246.333	100.12
246.566	116.12
246.8	95.12
247.033	113.12
247.266	94.12
247.5	105.12
247.733	89.12
247.966	109.12
248.2	101.12
248.433	102.12
248.666	100.12
248.899	108.12
249.133	105.12
249.366	113.12
249.599	107.12
249.832	115.12
250.066	115.12
250.299	105.12
250.532	106.12
250.765	109.12
250.998	105.12
251.231	110.12
251.465	101.12
251.698	109.12
251.931	115.12
252.164	117.12
252.397	103.12
252.63	108.12
252.863	118.12
253.096	118.12
253.329	103.12
253.562	106.12
253.795	124.12
254.028	112.12
254.261	133.12
254.494	121.12
254.727	123.12
254.96	108.12
255.193	118.12
255.426	125.12
255.659	122.12
255.892	113.12
256.124	117.12
256.357	126.12
256.59	137.12
256.823	153.12
257.056	183.12
257.289	175.12
257.521	147.12
257.754	185.12
257.987	169.12
258.22	147.12
258.452	145.12
258.685	133.12
258.918	135.12
259.151	108.12
259.383	118.12
259.616	122.12
259.849	132.12
260.081	131.12
260.314	133.12
260.547	129.12
260.779	117.12
261.012	116.12
261.244	122.12
261.477	143.12
261.71	110.12
261.942	134.12
262.175	129.12
262.407	141.12
262.64	145.12
262.872	148.12
263.105	152.12
263.337	171.12
263.57	156.12
263.802	169.12
264.035	142.12
264.267	139.12
264.499	152.12
264.732	131.12
264.964	142.12
265.197	148.12
265.429	150.12
265.661	174.12
265.894	148.12
266.126	189.12
266.358	192.12
266.591	175.12
266.823	154.12
267.055	152.12
267.287	141.12
267.52	141.12
267.752	139.12
267.984	137.12
268.216	124.12
268.448	143.12
268.681	141.12
268.913	130.12
269.145	130.12
269.377	118.12
269.609	125.12
269.841	122.12
270.073	118.12
270.306	131.12
270.538	141.12
270.77	123.12
271.002	141.12
271.234	152.12
271.466	128.12
271.698	135.12
271.93	138.12
272.162	135.12
272.394	142.12
272.626	136.12
272.858	138.12
273.09	131.12
273.322	152.12
273.553	146.12
273.785	133.12
274.017	143.12
274.249	158.12
274.481	139.12
274.713	144.12
274.945	144.12
275.176	152.12
275.408	157.12
275.64	157.12
275.872	145.12
276.104	125.12
276.335	135.12
276.567	146.12
276.799	129.12
277.031	154.12
277.262	158.12
277.494	154.12
277.726	160.12
277.957	167.12
278.189	178.12
278.421	184.12
278.652	180.12
278.884	194.12
279.115	235.12
279.347	309.12
279.579	434.12
279.81	485.12
280.042	413.12
280.273	361.12
280.505	368.12
280.736	257.12
280.968	209.12
281.199	218.12
281.431	236.12
281.662	284.12
281.894	322.12
282.125	268.12
282.356	219.12
282.588	186.12
282.819	188.12
283.051	191.12
283.282	162.12
283.513	178.12
283.745	164.12
283.976	169.12
284.207	174.12
284.439	166.12
284.67	158.12
284.901	170.12
285.132	200.12
285.364	205.12
285.595	181.12
285.826	172.12
286.057	169.12
286.288	144.12
286.52	155.12
286.751	162.12
286.982	161.12
287.213	143.12
287.444	151.12
287.675	165.12
287.906	156.12
288.138	169.12
288.369	163.12
288.6	156.12
288.831	155.12
289.062	151.12
289.293	165.12
289.524	173.12
289.755	160.12
289.986	159.12
290.217	153.12
290.448	162.12
290.679	153.12
290.91	162.12
291.141	143.12
291.371	154.12
291.602	172.12
291.833	176.12
292.064	168.12
292.295	174.12
292.526	176.12
292.757	168.12
292.987	176.12
293.218	178.12
293.449	178.12
293.68	184.12
293.91	185.12
294.141	181.12
294.372	191.12
294.603	166.12
294.833	154.12
295.064	168.12
295.295	157.12
295.525	164.12
295.756	172.12
295.987	164.12
296.217	166.12
296.448	179.12
296.679	160.12
296.909	173.12
297.14	173.12
297.37	162.12
297.601	168.12
297.831	177.12
298.062	170.12
298.292	162.12
298.523	178.12
298.753	171.12
298.984	155.12
299.214	162.12
299.445	159.12
299.675	181.12
299.905	180.12
300.136	167.12
300.366	166.12
300.597	186.12
300.827	173.12
301.057	168.12
301.288	190.12
301.518	182.12
301.748	164.12
301.979	219.12
302.209	190.12
302.439	184.12
302.669	192.12
302.9	200.12
303.13	193.12
303.36	213.12
303.59	211.12
303.82	210.12
304.051	208.12
304.281	224.12
304.511	222.12
304.741	229.12
304.971	237.12
305.201	276.12
305.431	306.12
305.661	356.12
305.891	379.12
306.121	348.12
306.352	304.12
306.582	323.12
306.812	330.12
307.042	282.12
307.272	286.12
307.502	315.12
307.731	397.12
307.961	515.12
308.191	673.12
308.421	778.12
308.651	674.12
308.881	635.12
309.111	759.12
309.341	925.12
309.571	920.12
309.8	641.12
310.03	461.12
310.26	348.12
310.49	309.12
310.72	280.12
310.949	260.12
311.179	237.12
311.409	235.12
311.639	239.12
311.868	221.12
312.098	243.12
312.328	210.12
312.557	219.12
312.787	217.12
313.017	200.12
313.246	207.12
313.476	203.12
313.706	201.12
313.935	189.12
314.165	202.12
314.394	206.12
314.624	183.12
314.853	196.12
315.083	197.12
315.312	208.12
315.542	186.12
315.771	208.12
316.001	194.12
316.23	180.12
316.46	180.12
316.689	179.12
316.919	170.12
317.148	202.12
317.377	198.12
317.607	195.12
317.836	189.12
318.065	203.12
318.295	200.12
318.524	181.12
318.753	184.12
318.983	195.12
319.212	195.12
319.441	186.12
319.67	199.12
319.9	190.12
320.129	187.12
320.358	183.12
320.587	198.12
320.816	183.12
321.046	197.12
321.275	203.12
321.504	189.12
321.733	187.12
321.962	212.12
322.191	177.12
322.42	183.12
322.649	188.12
322.878	192.12
323.108	180.12
323.337	181.12
323.566	197.12
323.795	193.12
324.024	197.12
324.253	189.12
324.482	173.12
324.71	187.12
324.939	206.12
325.168	174.12
325.397	180.12
325.626	205.12
325.855	180.12
326.084	195.12
326.313	180.12
326.542	177.12
326.77	188.12
326.999	192.12
327.228	174.12
327.457	202.12
327.686	203.12
327.914	197.12
328.143	215.12
328.372	187.12
328.6	167.12
328.829	185.12
329.058	195.12
329.287	193.12
329.515	175.12
329.744	189.12
329.972	190.12
330.201	188.12
330.43	202.12
330.658	180.12
330.887	196.12
331.115	200.12
331.344	194.12
331.572	199.12
331.801	201.12
332.03	214.12
332.258	214.12
332.486	203.12
332.715	204.12
332.943	204.12
333.172	218.12
333.4	208.12
333.629	229.12
333.857	224.12
334.085	225.12
334.314	221.12
334.542	201.12
334.771	206.12
334.999	205.12
335.227	202.12
335.455	207.12
335.684	209.12
335.912	238.12
336.14	212.12
336.369	186.12
336.597	210.12
336.825	192.12
337.053	217.12
337.281	229.12
337.51	196.12
337.738	204.12
337.966	206.12
338.194	208.12
338.422	201.12
338.65	208.12
338.878	203.12
339.106	187.12
339.334	195.12
339.562	194.12
339.79	198.12
340.018	208.12
340.246	203.12
340.474	217.12
340.702	197.12
340.93	181.12
341.158	194.12
341.386	191.12
341.614	185.12
341.842	220.12
342.07	185.12
342.298	205.12
342.526	201.12
342.754	210.12
342.981	203.12
343.209	208.12
343.437	243.12
343.665	214.12
343.893	218.12
344.12	229.12
344.348	211.12
344.576	208.12
344.804	222.12
345.031	206.12
345.259	194.12
345.487	189.12
345.714	204.12
345.942	187.12
346.17	183.12
346.397	204.12
346.625	205.12
346.853	200.12
347.08	187.12
347.308	208.12
347.535	191.12
347.763	212.12
347.99	207.12
348.218	213.12
348.445	194.12
348.673	208.12
348.9	226.12
349.128	210.12
349.355	185.12
349.583	193.12
349.81	194.12
350.037	188.12
350.265	201.12
350.492	190.12
350.72	215.12
350.947	193.12
351.174	193.12
351.402	203.12
351.629	204.12
351.856	206.12
352.083	208.12
352.311	212.12
352.538	214.12
352.765	219.12
352.992	229.12
353.22	214.12
353.447	222.12
353.674	218.12
353.901	213.12
354.128	220.12
354.355	215.12
354.583	236.12
354.81	227.12
355.037	225.12
355.264	230.12
355.491	238.12
355.718	227.12
355.945	258.12
356.172	254.12
356.399	261.12
356.626	265.12
356.853	262.12
357.08	298.12
357.307	292.12
357.534	305.12
357.761	340.12
357.988	397.12
358.215	407.12
358.441	480.12
358.668	534.12
358.895	517.12
359.122	422.12
359.349	356.12
359.576	320.12
359.802	319.12
360.029	290.12
360.256	295.12
360.483	298.12
360.709	270.12
360.936	293.12
361.163	269.12
361.39	257.12
361.616	257.12
361.843	251.12
362.07	264.12
362.296	259.12
362.523	242.12
362.749	225.12
362.976	233.12
363.203	248.12
363.429	208.12
363.656	217.12
363.882	218.12
364.109	236.12
364.335	218.12
364.562	219.12
364.788	234.12
365.015	244.12
365.241	205.12
365.468	233.12
365.694	213.12
365.92	226.12
366.147	211.12
366.373	213.12
366.599	212.12
366.826	211.12
367.052	227.12
367.278	195.12
367.505	213.12
367.731	229.12
367.957	214.12
368.184	225.12
368.41	220.12
368.636	208.12
368.862	209.12
369.089	216.12
369.315	209.12
369.541	210.12
369.767	226.12
369.993	215.12
370.219	204.12
370.445	220.12
370.672	212.12
370.898	235.12
371.124	217.12
371.35	222.12
371.576	220.12
371.802	224.12
372.028	224.12
372.254	221.12
372.48	220.12
372.706	244.12
372.932	218.12
373.158	224.12
373.384	234.12
373.61	229.12
373.835	216.12
374.061	223.12
374.287	212.12
374.513	232.12
374.739	228.12
374.965	230.12
375.191	224.12
375.416	220.12
375.642	224.12
375.868	229.12
376.094	232.12
376.319	212.12
376.545	217.12
376.771	206.12
376.997	222.12
377.222	195.12
377.448	214.12
377.674	193.12
377.899	223.12
378.125	214.12
378.35	221.12
378.576	234.12
378.802	221.12
379.027	216.12
379.253	223.12
379.478	217.12
379.704	207.12
379.929	207.12
380.155	205.12
380.38	210.12
380.606	218.12
380.831	220.12
381.057	244.12
381.282	210.12
381.507	242.12
381.733	227.12
381.958	224.12
382.184	236.12
382.409	234.12
382.634	247.12
382.86	263.12
383.085	292.12
383.31	284.12
383.535	299.12
383.761	291.12
383.986	306.12
384.211	272.12
384.436	243.12
384.662	256.12
384.887	240.12
385.112	239.12
385.337	234.12
385.562	235.12
385.787	257.12
386.013	262.12
386.238	236.12
386.463	243.12
386.688	267.12
386.913	258.12
387.138	259.12
387.363	254.12
387.588	244.12
387.813	245.12
388.038	264.12
388.263	256.12
388.488	241.12
388.713	245.12
388.938	265.12
389.163	244.12
389.387	232.12
389.612	261.12
389.837	259.12
390.062	261.12
390.287	259.12
390.512	253.12
390.736	261.12
390.961	255.12
391.186	260.12
391.411	273.12
391.636	262.12
391.86	274.12
392.085	260.12
392.31	272.12
392.534	286.12
392.759	286.12
392.984	338.12
393.208	359.12
393.433	438.12
393.658	448.12
393.882	443.12
394.107	629.12
394.331	1013.12
394.556	1333.12
394.78	995.12
395.005	613.12
395.229	498.12
395.454	499.12
395.678	583.12
395.903	925.12
396.127	1458.12
396.352	1725.12
396.576	1146.12
396.801	736.12
397.025	558.12
397.249	450.12
397.474	412.12
397.698	385.12
397.922	358.12
398.147	340.12
398.371	333.12
398.595	339.12
398.82	318.12
399.044	341.12
399.268	322.12
399.492	350.12
399.717	361.12
399.941	342.12
400.165	318.12
400.389	307.12
400.613	305.12
400.837	300.12
401.062	272.12
401.286	295.12
401.51	297.12
401.734	276.12
401.958	289.12
402.182	283.12
402.406	280.12
402.63	300.12
402.854	270.12
403.078	275.12
403.302	269.12
403.526	300.12
403.75	281.12
403.974	291.12
404.198	291.12
404.422	302.12
404.645	302.12
404.869	294.12
405.093	305.12
405.317	286.12
405.541	284.12
405.765	281.12
405.988	284.12
406.212	281.12
406.436	300.12
406.66	284.12
406.883	305.12
407.107	305.12
407.331	301.12
407.555	318.12
407.778	315.12
408.002	307.12
408.226	293.12
408.449	299.12
408.673	289.12
408.896	283.12
409.12	284.12
409.344	300.12
409.567	274.12
409.791	281.12
410.014	304.12
410.238	292.12
410.461	309.12
410.685	281.12
410.908	277.12
411.132	298.12
411.355	281.12
411.578	295.12
411.802	283.12
412.025	286.12
412.249	290.12
412.472	259.12
412.695	278.12
412.919	266.12
413.142	284.12
413.365	278.12
413.589	268.12
413.812	259.12
414.035	261.12
414.258	271.12
414.482	294.12
414.705	295.12
414.928	289.12
415.151	288.12
415.374	280.12
415.597	268.12
415.821	265.12
416.044	273.12
416.267	275.12
416.49	270.12
416.713	273.12
416.936	305.12
417.159	281.12
417.382	274.12
417.605	284.12
417.828	274.12
418.051	285.12
418.274	287.12
418.497	272.12
418.72	276.12
418.943	291.12
419.166	278.12
419.389	300.12
419.611	292.12
419.834	275.12
420.057	282.12
420.28	284.12
420.503	287.12
420.726	277.12
420.948	278.12
421.171	292.12
421.394	270.12
421.617	300.12
421.839	290.12
422.062	272.12
422.285	279.12
422.507	282.12
422.73	311.12
422.953	307.12
423.175	283.12
423.398	287.12
423.621	285.12
423.843	270.12
424.066	311.12
424.288	306.12
424.511	269.12
424.733	283.12
424.956	280.12
425.178	285.12
425.401	292.12
425.623	281.12
425.846	278.12
426.068	264.12
426.291	277.12
426.513	266.12
426.735	286.12
426.958	288.12
427.18	270.12
427.402	274.12
427.625	266.12
427.847	258.12
428.069	262.12
428.292	264.12
428.514	272.12
428.736	264.12
428.958	254.12
429.181	268.12
429.403	249.12
429.625	268.12
429.847	265.12
430.069	256.12
430.292	279.12
430.514	258.12
430.736	268.12
430.958	277.12
431.18	257.12
431.402	256.12
431.624	249.12
431.846	245.12
432.068	257.12
432.29	255.12
432.512	256.12
432.734	265.12
432.956	248.12
433.178	260.12
433.4	274.12
433.622	272.12
433.844	261.12
434.066	259.12
434.287	255.12
434.509	253.12
434.731	257.12
434.953	259.12
435.175	289.12
435.397	289.12
435.618	265.12
435.84	282.12
436.062	261.12
436.284	273.12
436.505	280.12
436.727	261.12
436.949	264.12
437.17	276.12
437.392	255.12
437.614	255.12
437.835	249.12
438.057	256.12
438.278	253.12
438.5	255.12
438.721	248.12
438.943	272.12
439.165	248.12
439.386	271.12
439.608	269.12
439.829	270.12
440.05	276.12
440.272	282.12
440.493	273.12
440.715	272.12
440.936	269.12
441.158	289.12
441.379	286.12
441.6	302.12
441.822	294.12
442.043	289.12
442.264	278.12
442.486	293.12
442.707	293.12
442.928	305.12
443.149	288.12
443.371	302.12
443.592	289.12
443.813	298.12
444.034	291.12
444.255	270.12
444.476	301.12
444.698	303.12
444.919	309.12
445.14	477.12
445.361	377.12
445.582	306.12
445.803	276.12
446.024	278.12
446.245	268.12
446.466	302.12
446.687	278.12
446.908	307.12
447.129	291.12
447.35	280.12
447.571	285.12
447.792	257.12
448.013	272.12
448.234	282.12
448.455	291.12
448.675	253.12
448.896	278.12
449.117	267.12
449.338	251.12
449.559	258.12
449.779	262.12
450	259.12
450.221	247.12
450.442	258.12
450.662	268.12
450.883	250.12
451.104	268.12
451.324	264.12
451.545	270.12
451.766	281.12
451.986	250.12
452.207	268.12
452.428	266.12
452.648	247.12
452.869	262.12
453.089	250.12
453.31	267.12
453.53	252.12
453.751	272.12
453.971	268.12
454.192	268.12
454.412	245.12
454.633	222.12
454.853	258.12
455.073	253.12
455.294	268.12
455.514	256.12
455.734	224.12
455.955	238.12
456.175	257.12
456.395	235.12
456.616	229.12
456.836	245.12
457.056	231.12
457.276	225.12
457.497	233.12
457.717	236.12
457.937	250.12
458.157	233.12
458.377	230.12
458.598	221.12
458.818	229.12
459.038	237.12
459.258	244.12
459.478	249.12
459.698	239.12
459.918	250.12
460.138	257.12
460.358	269.12
460.578	278.12
460.798	262.12
461.018	278.12
461.238	282.12
461.458	279.12
461.678	295.12
461.898	287.12
462.118	293.12
462.338	307.12
462.558	295.12
462.777	296.12
462.997	301.12
463.217	293.12
463.437	301.12
463.657	296.12
463.876	302.12
464.096	291.12
464.316	292.12
464.536	309.12
464.755	282.12
464.975	294.12
465.195	293.12
465.414	290.12
465.634	290.12
465.854	274.12
466.073	292.12
466.293	301.12
466.512	319.12
466.732	326.12
466.951	326.12
467.171	305.12
467.391	291.12
467.61	283.12
467.829	294.12
468.049	262.12
468.268	254.12
468.488	254.12
468.707	268.12
468.927	255.12
469.146	261.12
469.365	289.12
469.585	281.12
469.804	287.12
470.023	267.12
470.243	274.12
470.462	277.12
470.681	287.12
470.901	271.12
471.12	277.12
471.339	278.12
471.558	266.12
471.777	268.12
471.997	242.12
472.216	260.12
472.435	261.12
472.654	240.12
472.873	265.12
473.092	264.12
473.311	275.12
473.53	280.12
473.749	310.12
473.968	296.12
474.187	306.12
474.406	303.12
474.625	299.12
474.844	318.12
475.063	316.12
475.282	281.12
475.501	260.12
475.72	296.12
475.939	271.12
476.158	278.12
476.377	283.12
476.596	273.12
476.814	262.12
477.033	254.12
477.252	267.12
477.471	264.12
477.69	276.12
477.908	292.12
478.127	295.12
478.346	288.12
478.564	290.12
478.783	285.12
479.002	277.12
479.22	278.12
479.439	280.12
479.658	288.12
479.876	275.12
480.095	281.12
480.313	281.12
480.532	301.12
480.751	291.12
480.969	253.12
481.188	269.12
481.406	262.12
481.624	268.12
481.843	249.12
482.061	268.12
482.28	260.12
482.498	271.12
482.717	262.12
482.935	267.12
483.153	281.12
483.372	304.12
483.59	286.12
483.808	290.12
484.027	285.12
484.245	300.12
484.463	292.12
484.681	337.12
484.9	297.12
485.118	303.12
485.336	324.12
485.554	275.12
485.772	290.12
485.99	280.12
486.209	298.12
486.427	282.12
486.645	277.12
486.863	314.12
487.081	304.12
487.299	290.12
487.517	307.12
487.735	330.12
487.953	320.12
488.171	322.12
488.389	312.12
488.607	309.12
488.825	262.12
489.043	293.12
489.261	305.12
489.479	291.12
489.696	300.12
489.914	302.12
490.132	299.12
490.35	315.12
490.568	300.12
490.786	307.12
491.003	319.12
491.221	313.12
491.439	333.12
491.657	317.12
491.874	363.12
492.092	336.12
492.31	353.12
492.527	350.12
492.745	342.12
492.963	323.12
493.18	321.12
493.398	330.12
493.615	330.12
493.833	317.12
494.05	340.12
494.268	315.12
494.485	330.12
494.703	302.12
494.92	305.12
495.138	347.12
495.355	324.12
495.573	315.12
495.79	299.12
496.008	339.12
496.225	323.12
496.442	304.12
496.66	307.12
496.877	325.12
497.094	344.12
497.312	328.12
497.529	333.12
497.746	317.12
497.963	328.12
498.181	320.12
498.398	328.12
498.615	334.12
498.832	331.12
499.049	348.12
499.267	366.12
499.484	360.12
499.701	416.12
499.918	442.12
500.135	458.12
500.352	470.12
500.569	473.12
500.786	475.12
501.003	450.12
501.22	439.12
501.437	437.12
501.654	404.12
501.871	374.12
502.088	377.12
502.305	356.12
502.522	350.12
502.739	326.12
502.956	340.12
503.172	315.12
