Data from SampC_HRD10591_00002.txt Node
Date: Mon Jan 19 11:37:30 EST 2026
User: Yrep
Spectrometer: HR+D1059
Trigger mode: 0
Integration Time (sec): 3.443000E-1
Scans to average: 1
Electric dark correction enabled: true
Nonlinearity correction enabled: false
Boxcar width: 0
XAxis mode: Wavelengths
Number of Pixels in Spectrum: 2048
>>>>>Begin Spectral Data<<<<<
223.165	-27.75
223.4	-27.75
223.635	-27.75
223.869	-32.75
224.104	-28.75
224.338	-8.75
224.573	-18.75
224.808	-11.75
225.042	-9.75
225.277	-11.75
225.511	23.25
225.746	11.25
225.98	3.25
226.215	4.25
226.449	21.25
226.683	13.25
226.918	36.25
227.152	37.25
227.387	39.25
227.621	31.25
227.856	50.25
228.09	40.25
228.324	49.25
228.559	65.25
228.793	71.25
229.027	104.25
229.262	91.25
229.496	98.25
229.73	115.25
229.964	98.25
230.199	106.25
230.433	101.25
230.667	105.25
230.901	108.25
231.136	111.25
231.37	108.25
231.604	108.25
231.838	113.25
232.072	127.25
232.306	119.25
232.541	138.25
232.775	112.25
233.009	115.25
233.243	113.25
233.477	124.25
233.711	131.25
233.945	120.25
234.179	135.25
234.413	123.25
234.647	124.25
234.881	116.25
235.115	124.25
235.349	140.25
235.583	123.25
235.817	126.25
236.051	150.25
236.285	131.25
236.519	153.25
236.753	184.25
236.987	239.25
237.221	265.25
237.455	283.25
237.689	265.25
237.922	234.25
238.156	180.25
238.39	144.25
238.624	154.25
238.858	128.25
239.091	138.25
239.325	127.25
239.559	124.25
239.793	143.25
240.027	143.25
240.26	129.25
240.494	131.25
240.728	119.25
240.961	135.25
241.195	145.25
241.429	130.25
241.662	127.25
241.896	126.25
242.13	128.25
242.363	126.25
242.597	117.25
242.83	130.25
243.064	132.25
243.298	138.25
243.531	123.25
243.765	140.25
243.998	143.25
244.232	147.25
244.465	133.25
244.699	146.25
244.932	138.25
245.166	144.25
245.399	139.25
245.633	153.25
245.866	143.25
246.099	145.25
246.333	144.25
246.566	145.25
246.8	149.25
247.033	152.25
247.266	137.25
247.5	156.25
247.733	158.25
247.966	144.25
248.2	144.25
248.433	156.25
248.666	148.25
248.899	155.25
249.133	149.25
249.366	157.25
249.599	155.25
249.832	155.25
250.066	152.25
250.299	141.25
250.532	153.25
250.765	147.25
250.998	162.25
251.231	164.25
251.465	149.25
251.698	173.25
251.931	165.25
252.164	171.25
252.397	172.25
252.63	173.25
252.863	173.25
253.096	178.25
253.329	171.25
253.562	157.25
253.795	151.25
254.028	168.25
254.261	180.25
254.494	160.25
254.727	158.25
254.96	158.25
255.193	176.25
255.426	178.25
255.659	166.25
255.892	189.25
256.124	173.25
256.357	197.25
256.59	224.25
256.823	258.25
257.056	301.25
257.289	301.25
257.521	313.25
257.754	385.25
257.987	348.25
258.22	273.25
258.452	232.25
258.685	220.25
258.918	188.25
259.151	200.25
259.383	201.25
259.616	182.25
259.849	196.25
260.081	202.25
260.314	218.25
260.547	205.25
260.779	199.25
261.012	209.25
261.244	203.25
261.477	213.25
261.71	195.25
261.942	205.25
262.175	209.25
262.407	234.25
262.64	220.25
262.872	241.25
263.105	275.25
263.337	305.25
263.57	322.25
263.802	287.25
264.035	270.25
264.267	247.25
264.499	247.25
264.732	231.25
264.964	258.25
265.197	253.25
265.429	284.25
265.661	290.25
265.894	276.25
266.126	308.25
266.358	339.25
266.591	298.25
266.823	237.25
267.055	229.25
267.287	218.25
267.52	199.25
267.752	204.25
267.984	216.25
268.216	203.25
268.448	206.25
268.681	205.25
268.913	201.25
269.145	209.25
269.377	202.25
269.609	191.25
269.841	208.25
270.073	226.25
270.306	226.25
270.538	213.25
270.77	205.25
271.002	208.25
271.234	218.25
271.466	213.25
271.698	226.25
271.93	217.25
272.162	223.25
272.394	219.25
272.626	215.25
272.858	222.25
273.09	226.25
273.322	234.25
273.553	228.25
273.785	233.25
274.017	228.25
274.249	239.25
274.481	241.25
274.713	256.25
274.945	264.25
275.176	233.25
275.408	236.25
275.64	244.25
275.872	249.25
276.104	236.25
276.335	234.25
276.567	223.25
276.799	240.25
277.031	256.25
277.262	256.25
277.494	252.25
277.726	273.25
277.957	275.25
278.189	302.25
278.421	307.25
278.652	302.25
278.884	360.25
279.115	495.25
279.347	697.25
279.579	1005.25
279.81	1161.25
280.042	943.25
280.273	851.25
280.505	847.25
280.736	563.25
280.968	395.25
281.199	420.25
281.431	519.25
281.662	679.25
281.894	785.25
282.125	601.25
282.356	463.25
282.588	398.25
282.819	371.25
283.051	334.25
283.282	301.25
283.513	293.25
283.745	306.25
283.976	291.25
284.207	279.25
284.439	274.25
284.67	282.25
284.901	313.25
285.132	380.25
285.364	404.25
285.595	358.25
285.826	296.25
286.057	276.25
286.288	266.25
286.52	280.25
286.751	272.25
286.982	283.25
287.213	265.25
287.444	269.25
287.675	256.25
287.906	302.25
288.138	294.25
288.369	304.25
288.6	279.25
288.831	287.25
289.062	287.25
289.293	292.25
289.524	256.25
289.755	283.25
289.986	271.25
290.217	257.25
290.448	273.25
290.679	271.25
290.91	281.25
291.141	288.25
291.371	285.25
291.602	293.25
291.833	303.25
292.064	316.25
292.295	297.25
292.526	320.25
292.757	314.25
292.987	337.25
293.218	321.25
293.449	340.25
293.68	334.25
293.91	314.25
294.141	305.25
294.372	296.25
294.603	294.25
294.833	293.25
295.064	292.25
295.295	289.25
295.525	273.25
295.756	285.25
295.987	271.25
296.217	285.25
296.448	286.25
296.679	281.25
296.909	299.25
297.14	278.25
297.37	282.25
297.601	283.25
297.831	283.25
298.062	297.25
298.292	285.25
298.523	292.25
298.753	303.25
298.984	301.25
299.214	297.25
299.445	303.25
299.675	292.25
299.905	311.25
300.136	292.25
300.366	288.25
300.597	307.25
300.827	315.25
301.057	323.25
301.288	347.25
301.518	318.25
301.748	329.25
301.979	367.25
302.209	357.25
302.439	361.25
302.669	340.25
302.9	354.25
303.13	365.25
303.36	381.25
303.59	364.25
303.82	392.25
304.051	397.25
304.281	417.25
304.511	408.25
304.741	477.25
304.971	522.25
305.201	625.25
305.431	707.25
305.661	826.25
305.891	884.25
306.121	793.25
306.352	734.25
306.582	755.25
306.812	731.25
307.042	677.25
307.272	616.25
307.502	701.25
307.731	921.25
307.961	1313.25
308.191	1910.25
308.421	2269.25
308.651	1863.25
308.881	1691.25
309.111	2135.25
309.341	2797.25
309.571	2657.25
309.8	1607.25
310.03	1045.25
310.26	753.25
310.49	662.25
310.72	577.25
310.949	550.25
311.179	514.25
311.409	475.25
311.639	488.25
311.868	453.25
312.098	429.25
312.328	418.25
312.557	432.25
312.787	404.25
313.017	388.25
313.246	392.25
313.476	395.25
313.706	381.25
313.935	367.25
314.165	374.25
314.394	383.25
314.624	355.25
314.853	357.25
315.083	349.25
315.312	343.25
315.542	367.25
315.771	369.25
316.001	353.25
316.23	349.25
316.46	352.25
316.689	350.25
316.919	353.25
317.148	345.25
317.377	342.25
317.607	350.25
317.836	344.25
318.065	338.25
318.295	353.25
318.524	361.25
318.753	349.25
318.983	352.25
319.212	358.25
319.441	348.25
319.67	338.25
319.9	320.25
320.129	343.25
320.358	339.25
320.587	330.25
320.816	346.25
321.046	344.25
321.275	328.25
321.504	339.25
321.733	361.25
321.962	344.25
322.191	340.25
322.42	351.25
322.649	349.25
322.878	329.25
323.108	359.25
323.337	351.25
323.566	360.25
323.795	366.25
324.024	367.25
324.253	364.25
324.482	338.25
324.71	358.25
324.939	380.25
325.168	366.25
325.397	351.25
325.626	368.25
325.855	349.25
326.084	355.25
326.313	360.25
326.542	357.25
326.77	389.25
326.999	377.25
327.228	369.25
327.457	372.25
327.686	370.25
327.914	344.25
328.143	349.25
328.372	355.25
328.6	368.25
328.829	360.25
329.058	344.25
329.287	352.25
329.515	362.25
329.744	333.25
329.972	341.25
330.201	358.25
330.43	357.25
330.658	360.25
330.887	373.25
331.115	379.25
331.344	375.25
331.572	379.25
331.801	382.25
332.03	390.25
332.258	387.25
332.486	384.25
332.715	370.25
332.943	400.25
333.172	409.25
333.4	406.25
333.629	441.25
333.857	439.25
334.085	420.25
334.314	407.25
334.542	408.25
334.771	408.25
334.999	424.25
335.227	411.25
335.455	387.25
335.684	413.25
335.912	402.25
336.14	417.25
336.369	392.25
336.597	410.25
336.825	385.25
337.053	381.25
337.281	387.25
337.51	385.25
337.738	381.25
337.966	392.25
338.194	386.25
338.422	358.25
338.65	388.25
338.878	394.25
339.106	374.25
339.334	398.25
339.562	386.25
339.79	391.25
340.018	381.25
340.246	364.25
340.474	371.25
340.702	388.25
340.93	389.25
341.158	366.25
341.386	387.25
341.614	372.25
341.842	384.25
342.07	377.25
342.298	388.25
342.526	388.25
342.754	393.25
342.981	388.25
343.209	387.25
343.437	434.25
343.665	418.25
343.893	427.25
344.12	441.25
344.348	448.25
344.576	406.25
344.804	409.25
345.031	413.25
345.259	382.25
345.487	402.25
345.714	397.25
345.942	387.25
346.17	391.25
346.397	380.25
346.625	397.25
346.853	375.25
347.08	381.25
347.308	409.25
347.535	404.25
347.763	393.25
347.99	401.25
348.218	401.25
348.445	403.25
348.673	394.25
348.9	384.25
349.128	378.25
349.355	386.25
349.583	400.25
349.81	384.25
350.037	393.25
350.265	403.25
350.492	376.25
350.72	384.25
350.947	405.25
351.174	373.25
351.402	385.25
351.629	407.25
351.856	401.25
352.083	404.25
352.311	413.25
352.538	391.25
352.765	398.25
352.992	422.25
353.22	428.25
353.447	427.25
353.674	427.25
353.901	442.25
354.128	453.25
354.355	450.25
354.583	471.25
354.81	479.25
355.037	473.25
355.264	494.25
355.491	509.25
355.718	499.25
355.945	527.25
356.172	539.25
356.399	557.25
356.626	560.25
356.853	603.25
357.08	634.25
357.307	680.25
357.534	713.25
357.761	799.25
357.988	910.25
358.215	1073.25
358.441	1246.25
358.668	1437.25
358.895	1396.25
359.122	1132.25
359.349	926.25
359.576	817.25
359.802	714.25
360.029	685.25
360.256	676.25
360.483	633.25
360.709	581.25
360.936	602.25
361.163	571.25
361.39	557.25
361.616	552.25
361.843	539.25
362.07	553.25
362.296	515.25
362.523	472.25
362.749	468.25
362.976	477.25
363.203	490.25
363.429	464.25
363.656	464.25
363.882	472.25
364.109	489.25
364.335	446.25
364.562	455.25
364.788	444.25
365.015	455.25
365.241	426.25
365.468	458.25
365.694	447.25
365.92	450.25
366.147	421.25
366.373	436.25
366.599	433.25
366.826	407.25
367.052	421.25
367.278	413.25
367.505	435.25
367.731	431.25
367.957	430.25
368.184	427.25
368.41	426.25
368.636	442.25
368.862	431.25
369.089	421.25
369.315	401.25
369.541	437.25
369.767	431.25
369.993	429.25
370.219	425.25
370.445	410.25
370.672	401.25
370.898	443.25
371.124	431.25
371.35	429.25
371.576	415.25
371.802	446.25
372.028	450.25
372.254	456.25
372.48	435.25
372.706	434.25
372.932	427.25
373.158	432.25
373.384	444.25
373.61	468.25
373.835	463.25
374.061	433.25
374.287	449.25
374.513	443.25
374.739	447.25
374.965	472.25
375.191	444.25
375.416	433.25
375.642	437.25
375.868	450.25
376.094	461.25
376.319	429.25
376.545	426.25
376.771	459.25
376.997	429.25
377.222	438.25
377.448	434.25
377.674	447.25
377.899	438.25
378.125	411.25
378.35	435.25
378.576	428.25
378.802	431.25
379.027	418.25
379.253	426.25
379.478	409.25
379.704	434.25
379.929	422.25
380.155	418.25
380.38	437.25
380.606	418.25
380.831	447.25
381.057	469.25
381.282	448.25
381.507	453.25
381.733	443.25
381.958	452.25
382.184	467.25
382.409	476.25
382.634	505.25
382.86	526.25
383.085	550.25
383.31	576.25
383.535	567.25
383.761	595.25
383.986	585.25
384.211	522.25
384.436	499.25
384.662	488.25
384.887	481.25
385.112	467.25
385.337	513.25
385.562	491.25
385.787	513.25
386.013	508.25
386.238	495.25
386.463	511.25
386.688	540.25
386.913	494.25
387.138	512.25
387.363	538.25
387.588	519.25
387.813	502.25
388.038	500.25
388.263	506.25
388.488	503.25
388.713	513.25
388.938	528.25
389.163	501.25
389.387	502.25
389.612	521.25
389.837	504.25
390.062	543.25
390.287	535.25
390.512	524.25
390.736	507.25
390.961	531.25
391.186	513.25
391.411	549.25
391.636	550.25
391.86	569.25
392.085	599.25
392.31	596.25
392.534	569.25
392.759	613.25
392.984	628.25
393.208	703.25
393.433	772.25
393.658	816.25
393.882	1003.25
394.107	1585.25
394.331	2991.25
394.556	3955.25
394.78	2671.25
395.005	1485.25
395.229	1183.25
395.454	1185.25
395.678	1472.25
395.903	2478.25
396.127	4472.25
396.352	5283.25
396.576	3095.25
396.801	1739.25
397.025	1251.25
397.249	1005.25
397.474	885.25
397.698	826.25
397.922	771.25
398.147	736.25
398.371	740.25
398.595	705.25
398.82	709.25
399.044	728.25
399.268	730.25
399.492	760.25
399.717	798.25
399.941	769.25
400.165	733.25
400.389	658.25
400.613	661.25
400.837	631.25
401.062	602.25
401.286	587.25
401.51	602.25
401.734	594.25
401.958	604.25
402.182	589.25
402.406	612.25
402.63	618.25
402.854	605.25
403.078	613.25
403.302	619.25
403.526	627.25
403.75	649.25
403.974	621.25
404.198	617.25
404.422	641.25
404.645	600.25
404.869	632.25
405.093	638.25
405.317	620.25
405.541	621.25
405.765	621.25
405.988	626.25
406.212	618.25
406.436	612.25
406.66	644.25
406.883	632.25
407.107	656.25
407.331	633.25
407.555	629.25
407.778	657.25
408.002	633.25
408.226	621.25
408.449	642.25
408.673	610.25
408.896	628.25
409.12	611.25
409.344	610.25
409.567	583.25
409.791	605.25
410.014	606.25
410.238	607.25
410.461	589.25
410.685	625.25
410.908	600.25
411.132	597.25
411.355	565.25
411.578	595.25
411.802	581.25
412.025	597.25
412.249	571.25
412.472	578.25
412.695	586.25
412.919	568.25
413.142	579.25
413.365	573.25
413.589	573.25
413.812	564.25
414.035	571.25
414.258	580.25
414.482	595.25
414.705	573.25
414.928	583.25
415.151	601.25
415.374	586.25
415.597	565.25
415.821	563.25
416.044	564.25
416.267	583.25
416.49	575.25
416.713	586.25
416.936	569.25
417.159	575.25
417.382	587.25
417.605	547.25
417.828	574.25
418.051	581.25
418.274	595.25
418.497	564.25
418.72	598.25
418.943	564.25
419.166	596.25
419.389	644.25
419.611	609.25
419.834	588.25
420.057	607.25
420.28	565.25
420.503	579.25
420.726	573.25
420.948	577.25
421.171	597.25
421.394	607.25
421.617	593.25
421.839	592.25
422.062	586.25
422.285	594.25
422.507	580.25
422.73	589.25
422.953	585.25
423.175	563.25
423.398	576.25
423.621	596.25
423.843	586.25
424.066	602.25
424.288	608.25
424.511	626.25
424.733	606.25
424.956	603.25
425.178	608.25
425.401	601.25
425.623	575.25
425.846	559.25
426.068	579.25
426.291	567.25
426.513	575.25
426.735	575.25
426.958	585.25
427.18	559.25
427.402	573.25
427.625	557.25
427.847	549.25
428.069	537.25
428.292	567.25
428.514	538.25
428.736	538.25
428.958	564.25
429.181	549.25
429.403	539.25
429.625	523.25
429.847	541.25
430.069	542.25
430.292	558.25
430.514	538.25
430.736	535.25
430.958	552.25
431.18	543.25
431.402	536.25
431.624	535.25
431.846	514.25
432.068	504.25
432.29	507.25
432.512	535.25
432.734	561.25
432.956	571.25
433.178	547.25
433.4	554.25
433.622	571.25
433.844	556.25
434.066	545.25
434.287	540.25
434.509	512.25
434.731	556.25
434.953	578.25
435.175	562.25
435.397	585.25
435.618	559.25
435.84	522.25
436.062	537.25
436.284	537.25
436.505	545.25
436.727	550.25
436.949	561.25
437.17	549.25
437.392	544.25
437.614	516.25
437.835	498.25
438.057	523.25
438.278	511.25
438.5	537.25
438.721	535.25
438.943	557.25
439.165	542.25
439.386	541.25
439.608	577.25
439.829	546.25
440.05	566.25
440.272	567.25
440.493	575.25
440.715	570.25
440.936	591.25
441.158	574.25
441.379	593.25
441.6	599.25
441.822	592.25
442.043	609.25
442.264	608.25
442.486	589.25
442.707	605.25
442.928	580.25
443.149	580.25
443.371	574.25
443.592	601.25
443.813	611.25
444.034	610.25
444.255	639.25
444.476	637.25
444.698	628.25
444.919	634.25
445.14	828.25
445.361	721.25
445.582	621.25
445.803	604.25
446.024	559.25
446.245	572.25
446.466	587.25
446.687	583.25
446.908	572.25
447.129	601.25
447.35	576.25
447.571	594.25
447.792	560.25
448.013	591.25
448.234	579.25
448.455	559.25
448.675	545.25
448.896	551.25
449.117	535.25
449.338	547.25
449.559	549.25
449.779	516.25
450	539.25
450.221	527.25
450.442	547.25
450.662	538.25
450.883	533.25
451.104	530.25
451.324	514.25
451.545	543.25
451.766	527.25
451.986	535.25
452.207	542.25
452.428	529.25
452.648	536.25
452.869	553.25
453.089	535.25
453.31	542.25
453.53	519.25
453.751	530.25
453.971	535.25
454.192	524.25
454.412	521.25
454.633	508.25
454.853	516.25
455.073	488.25
455.294	492.25
455.514	505.25
455.734	488.25
455.955	496.25
456.175	501.25
456.395	500.25
456.616	485.25
456.836	510.25
457.056	484.25
457.276	461.25
457.497	476.25
457.717	474.25
457.937	463.25
458.157	475.25
458.377	471.25
458.598	483.25
458.818	485.25
459.038	477.25
459.258	491.25
459.478	511.25
459.698	492.25
459.918	523.25
460.138	517.25
460.358	564.25
460.578	587.25
460.798	557.25
461.018	547.25
461.238	571.25
461.458	572.25
461.678	575.25
461.898	593.25
462.118	602.25
462.338	594.25
462.558	628.25
462.777	632.25
462.997	686.25
463.217	685.25
463.437	676.25
463.657	655.25
463.876	635.25
464.096	650.25
464.316	644.25
464.536	636.25
464.755	649.25
464.975	618.25
465.195	609.25
465.414	617.25
465.634	596.25
465.854	610.25
466.073	619.25
466.293	704.25
466.512	771.25
466.732	727.25
466.951	695.25
467.171	657.25
467.391	643.25
467.61	622.25
467.829	602.25
468.049	608.25
468.268	579.25
468.488	576.25
468.707	564.25
468.927	574.25
469.146	558.25
469.365	544.25
469.585	577.25
469.804	578.25
470.023	587.25
470.243	585.25
470.462	570.25
470.681	589.25
470.901	591.25
471.12	588.25
471.339	585.25
471.558	549.25
471.777	572.25
471.997	559.25
472.216	551.25
472.435	548.25
472.654	511.25
472.873	529.25
473.092	539.25
473.311	579.25
473.53	617.25
473.749	653.25
473.968	687.25
474.187	674.25
474.406	657.25
474.625	668.25
474.844	697.25
475.063	688.25
475.282	638.25
475.501	580.25
475.72	575.25
475.939	567.25
476.158	565.25
476.377	561.25
476.596	536.25
476.814	536.25
477.033	538.25
477.252	553.25
477.471	551.25
477.69	570.25
477.908	586.25
478.127	596.25
478.346	586.25
478.564	581.25
478.783	586.25
479.002	615.25
479.22	611.25
479.439	589.25
479.658	589.25
479.876	597.25
480.095	618.25
480.313	595.25
480.532	600.25
480.751	604.25
480.969	565.25
481.188	571.25
481.406	555.25
481.624	536.25
481.843	543.25
482.061	535.25
482.28	567.25
482.498	553.25
482.717	541.25
482.935	571.25
483.153	592.25
483.372	619.25
483.59	592.25
483.808	580.25
484.027	565.25
484.245	596.25
484.463	685.25
484.681	690.25
484.9	629.25
485.118	656.25
485.336	644.25
485.554	615.25
485.772	599.25
485.99	583.25
486.209	596.25
486.427	626.25
486.645	605.25
486.863	684.25
487.081	664.25
487.299	619.25
487.517	651.25
487.735	700.25
487.953	683.25
488.171	715.25
488.389	663.25
488.607	617.25
488.825	609.25
489.043	629.25
489.261	631.25
489.479	622.25
489.696	629.25
489.914	636.25
490.132	667.25
490.35	653.25
490.568	662.25
490.786	647.25
491.003	678.25
491.221	684.25
491.439	676.25
491.657	697.25
491.874	732.25
492.092	718.25
492.31	767.25
492.527	726.25
492.745	695.25
492.963	698.25
493.18	692.25
493.398	698.25
493.615	691.25
493.833	674.25
494.05	690.25
494.268	652.25
494.485	665.25
494.703	701.25
494.92	675.25
495.138	669.25
495.355	674.25
495.573	676.25
495.79	663.25
496.008	689.25
496.225	661.25
496.442	687.25
496.66	688.25
496.877	693.25
497.094	700.25
497.312	672.25
497.529	685.25
497.746	682.25
497.963	704.25
498.181	683.25
498.398	747.25
498.615	746.25
498.832	771.25
499.049	791.25
499.267	831.25
499.484	904.25
499.701	934.25
499.918	1013.25
500.135	1082.25
500.352	1149.25
500.569	1122.25
500.786	1121.25
501.003	1079.25
501.22	1027.25
501.437	962.25
501.654	881.25
501.871	843.25
502.088	807.25
502.305	760.25
