Data from SampC_HRD10591_00100.txt Node
Date: Mon Jan 19 11:38:03 EST 2026
User: Yrep
Spectrometer: HR+D1059
Trigger mode: 0
Integration Time (sec): 3.443000E-1
Scans to average: 1
Electric dark correction enabled: true
Nonlinearity correction enabled: false
Boxcar width: 0
XAxis mode: Wavelengths
Number of Pixels in Spectrum: 2048
>>>>>Begin Spectral Data<<<<<
223.165	-9.25
223.4	-9.25
223.635	-9.25
223.869	-19.25
224.104	-24.25
224.338	-11.25
224.573	-23.25
224.808	-20.25
225.042	3.75
225.277	-1.25
225.511	-0.25
225.746	-8.25
225.98	14.75
226.215	20.75
226.449	15.75
226.683	13.75
226.918	19.75
227.152	28.75
227.387	51.75
227.621	36.75
227.856	55.75
228.09	42.75
228.324	51.75
228.559	56.75
228.793	64.75
229.027	91.75
229.262	109.75
229.496	86.75
229.73	94.75
229.964	102.75
230.199	108.75
230.433	100.75
230.667	111.75
230.901	112.75
231.136	108.75
231.37	102.75
231.604	107.75
231.838	114.75
232.072	114.75
232.306	130.75
232.541	128.75
232.775	122.75
233.009	121.75
233.243	115.75
233.477	125.75
233.711	104.75
233.945	112.75
234.179	110.75
234.413	129.75
234.647	127.75
234.881	118.75
235.115	110.75
235.349	123.75
235.583	115.75
235.817	135.75
236.051	131.75
236.285	157.75
236.519	168.75
236.753	189.75
236.987	217.75
237.221	243.75
237.455	263.75
237.689	234.75
237.922	223.75
238.156	199.75
238.39	150.75
238.624	136.75
238.858	130.75
239.091	145.75
239.325	131.75
239.559	120.75
239.793	133.75
240.027	118.75
240.26	120.75
240.494	133.75
240.728	104.75
240.961	103.75
241.195	141.75
241.429	110.75
241.662	109.75
241.896	112.75
242.13	107.75
242.363	125.75
242.597	112.75
242.83	131.75
243.064	131.75
243.298	104.75
243.531	118.75
243.765	144.75
243.998	137.75
244.232	117.75
244.465	125.75
244.699	127.75
244.932	138.75
245.166	141.75
245.399	152.75
245.633	135.75
245.866	137.75
246.099	131.75
246.333	149.75
246.566	144.75
246.8	152.75
247.033	146.75
247.266	149.75
247.5	141.75
247.733	129.75
247.966	135.75
248.2	150.75
248.433	119.75
248.666	136.75
248.899	134.75
249.133	147.75
249.366	150.75
249.599	150.75
249.832	131.75
250.066	149.75
250.299	150.75
250.532	145.75
250.765	139.75
250.998	163.75
251.231	157.75
251.465	144.75
251.698	145.75
251.931	147.75
252.164	165.75
252.397	146.75
252.63	168.75
252.863	158.75
253.096	156.75
253.329	170.75
253.562	156.75
253.795	155.75
254.028	156.75
254.261	161.75
254.494	147.75
254.727	152.75
254.96	155.75
255.193	166.75
255.426	172.75
255.659	142.75
255.892	178.75
256.124	170.75
256.357	191.75
256.59	215.75
256.823	247.75
257.056	321.75
257.289	322.75
257.521	338.75
257.754	398.75
257.987	359.75
258.22	257.75
258.452	233.75
258.685	210.75
258.918	201.75
259.151	183.75
259.383	191.75
259.616	174.75
259.849	179.75
260.081	177.75
260.314	171.75
260.547	170.75
260.779	187.75
261.012	171.75
261.244	168.75
261.477	192.75
261.71	177.75
261.942	185.75
262.175	188.75
262.407	183.75
262.64	188.75
262.872	200.75
263.105	214.75
263.337	266.75
263.57	270.75
263.802	242.75
264.035	229.75
264.267	217.75
264.499	219.75
264.732	212.75
264.964	205.75
265.197	266.75
265.429	272.75
265.661	287.75
265.894	286.75
266.126	335.75
266.358	354.75
266.591	302.75
266.823	227.75
267.055	227.75
267.287	218.75
267.52	198.75
267.752	196.75
267.984	208.75
268.216	194.75
268.448	180.75
268.681	178.75
268.913	182.75
269.145	179.75
269.377	178.75
269.609	196.75
269.841	193.75
270.073	169.75
270.306	184.75
270.538	201.75
270.77	194.75
271.002	198.75
271.234	177.75
271.466	183.75
271.698	191.75
271.93	181.75
272.162	212.75
272.394	204.75
272.626	193.75
272.858	195.75
273.09	189.75
273.322	209.75
273.553	201.75
273.785	200.75
274.017	217.75
274.249	215.75
274.481	207.75
274.713	221.75
274.945	205.75
275.176	203.75
275.408	215.75
275.64	213.75
275.872	210.75
276.104	202.75
276.335	206.75
276.567	208.75
276.799	206.75
277.031	210.75
277.262	218.75
277.494	220.75
277.726	258.75
277.957	252.75
278.189	282.75
278.421	266.75
278.652	282.75
278.884	340.75
279.115	442.75
279.347	606.75
279.579	832.75
279.81	961.75
280.042	785.75
280.273	701.75
280.505	704.75
280.736	471.75
280.968	348.75
281.199	354.75
281.431	408.75
281.662	541.75
281.894	594.75
282.125	468.75
282.356	372.75
282.588	313.75
282.819	300.75
283.051	291.75
283.282	276.75
283.513	274.75
283.745	266.75
283.976	263.75
284.207	279.75
284.439	267.75
284.67	255.75
284.901	277.75
285.132	346.75
285.364	410.75
285.595	332.75
285.826	271.75
286.057	241.75
286.288	245.75
286.52	260.75
286.751	239.75
286.982	236.75
287.213	243.75
287.444	236.75
287.675	240.75
287.906	252.75
288.138	260.75
288.369	274.75
288.6	261.75
288.831	235.75
289.062	253.75
289.293	247.75
289.524	226.75
289.755	232.75
289.986	244.75
290.217	251.75
290.448	258.75
290.679	237.75
290.91	251.75
291.141	245.75
291.371	234.75
291.602	241.75
291.833	237.75
292.064	274.75
292.295	266.75
292.526	286.75
292.757	292.75
292.987	288.75
293.218	276.75
293.449	291.75
293.68	297.75
293.91	277.75
294.141	306.75
294.372	244.75
294.603	257.75
294.833	270.75
295.064	248.75
295.295	236.75
295.525	243.75
295.756	239.75
295.987	249.75
296.217	256.75
296.448	259.75
296.679	242.75
296.909	254.75
297.14	264.75
297.37	272.75
297.601	274.75
297.831	247.75
298.062	246.75
298.292	269.75
298.523	280.75
298.753	282.75
298.984	265.75
299.214	255.75
299.445	257.75
299.675	269.75
299.905	266.75
300.136	259.75
300.366	274.75
300.597	258.75
300.827	274.75
301.057	280.75
301.288	284.75
301.518	299.75
301.748	281.75
301.979	323.75
302.209	297.75
302.439	302.75
302.669	313.75
302.9	330.75
303.13	321.75
303.36	316.75
303.59	342.75
303.82	356.75
304.051	367.75
304.281	383.75
304.511	419.75
304.741	431.75
304.971	499.75
305.201	616.75
305.431	682.75
305.661	776.75
305.891	854.75
306.121	761.75
306.352	688.75
306.582	735.75
306.812	708.75
307.042	607.75
307.272	598.75
307.502	686.75
307.731	910.75
307.961	1315.75
308.191	1929.75
308.421	2265.75
308.651	1897.75
308.881	1659.75
309.111	2125.75
309.341	2683.75
309.571	2588.75
309.8	1662.75
310.03	1072.75
310.26	798.75
310.49	660.75
310.72	564.75
310.949	515.75
311.179	476.75
311.409	466.75
311.639	428.75
311.868	424.75
312.098	440.75
312.328	397.75
312.557	382.75
312.787	369.75
313.017	350.75
313.246	377.75
313.476	364.75
313.706	338.75
313.935	344.75
314.165	349.75
314.394	360.75
314.624	331.75
314.853	330.75
315.083	342.75
315.312	306.75
315.542	313.75
315.771	318.75
316.001	326.75
316.23	326.75
316.46	308.75
316.689	314.75
316.919	300.75
317.148	314.75
317.377	303.75
317.607	298.75
317.836	318.75
318.065	314.75
318.295	318.75
318.524	307.75
318.753	309.75
318.983	304.75
319.212	304.75
319.441	285.75
319.67	291.75
319.9	289.75
320.129	297.75
320.358	300.75
320.587	300.75
320.816	312.75
321.046	298.75
321.275	302.75
321.504	292.75
321.733	296.75
321.962	291.75
322.191	301.75
322.42	292.75
322.649	309.75
322.878	321.75
323.108	299.75
323.337	300.75
323.566	318.75
323.795	310.75
324.024	302.75
324.253	308.75
324.482	306.75
324.71	321.75
324.939	335.75
325.168	306.75
325.397	309.75
325.626	323.75
325.855	298.75
326.084	302.75
326.313	316.75
326.542	305.75
326.77	314.75
326.999	304.75
327.228	296.75
327.457	317.75
327.686	308.75
327.914	306.75
328.143	299.75
328.372	290.75
328.6	293.75
328.829	304.75
329.058	302.75
329.287	307.75
329.515	315.75
329.744	285.75
329.972	304.75
330.201	295.75
330.43	315.75
330.658	317.75
330.887	343.75
331.115	326.75
331.344	315.75
331.572	318.75
331.801	312.75
332.03	323.75
332.258	336.75
332.486	326.75
332.715	330.75
332.943	355.75
333.172	343.75
333.4	346.75
333.629	329.75
333.857	352.75
334.085	355.75
334.314	349.75
334.542	338.75
334.771	352.75
334.999	335.75
335.227	348.75
335.455	330.75
335.684	338.75
335.912	344.75
336.14	339.75
336.369	335.75
336.597	338.75
336.825	349.75
337.053	317.75
337.281	332.75
337.51	336.75
337.738	337.75
337.966	313.75
338.194	321.75
338.422	337.75
338.65	321.75
338.878	343.75
339.106	316.75
339.334	329.75
339.562	332.75
339.79	333.75
340.018	310.75
340.246	300.75
340.474	319.75
340.702	302.75
340.93	315.75
341.158	313.75
341.386	310.75
341.614	326.75
341.842	305.75
342.07	324.75
342.298	326.75
342.526	321.75
342.754	337.75
342.981	319.75
343.209	327.75
343.437	357.75
343.665	337.75
343.893	368.75
344.12	371.75
344.348	365.75
344.576	334.75
344.804	327.75
345.031	331.75
345.259	338.75
345.487	327.75
345.714	338.75
345.942	315.75
346.17	332.75
346.397	322.75
346.625	319.75
346.853	315.75
347.08	317.75
347.308	329.75
347.535	305.75
347.763	322.75
347.99	328.75
348.218	331.75
348.445	317.75
348.673	321.75
348.9	332.75
349.128	310.75
349.355	312.75
349.583	330.75
349.81	308.75
350.037	326.75
350.265	304.75
350.492	323.75
350.72	308.75
350.947	322.75
351.174	332.75
351.402	326.75
351.629	327.75
351.856	355.75
352.083	330.75
352.311	343.75
352.538	333.75
352.765	329.75
352.992	365.75
353.22	352.75
353.447	330.75
353.674	354.75
353.901	368.75
354.128	363.75
354.355	339.75
354.583	378.75
354.81	403.75
355.037	384.75
355.264	377.75
355.491	380.75
355.718	386.75
355.945	410.75
356.172	409.75
356.399	454.75
356.626	451.75
356.853	480.75
357.08	510.75
357.307	519.75
357.534	548.75
357.761	618.75
357.988	684.75
358.215	777.75
358.441	920.75
358.668	1038.75
358.895	991.75
359.122	812.75
359.349	693.75
359.576	600.75
359.802	568.75
360.029	519.75
360.256	524.75
360.483	497.75
360.709	451.75
360.936	485.75
361.163	451.75
361.39	432.75
361.616	422.75
361.843	429.75
362.07	396.75
362.296	425.75
362.523	400.75
362.749	405.75
362.976	378.75
363.203	402.75
363.429	368.75
363.656	365.75
363.882	370.75
364.109	365.75
364.335	368.75
364.562	381.75
364.788	356.75
365.015	345.75
365.241	363.75
365.468	366.75
365.694	342.75
365.92	367.75
366.147	333.75
366.373	356.75
366.599	364.75
366.826	357.75
367.052	344.75
367.278	344.75
367.505	334.75
367.731	355.75
367.957	343.75
368.184	342.75
368.41	346.75
368.636	350.75
368.862	349.75
369.089	353.75
369.315	334.75
369.541	356.75
369.767	335.75
369.993	352.75
370.219	349.75
370.445	344.75
370.672	351.75
370.898	356.75
371.124	348.75
371.35	350.75
371.576	363.75
371.802	364.75
372.028	371.75
372.254	370.75
372.48	366.75
372.706	373.75
372.932	360.75
373.158	380.75
373.384	365.75
373.61	376.75
373.835	370.75
374.061	379.75
374.287	359.75
374.513	376.75
374.739	380.75
374.965	378.75
375.191	370.75
375.416	361.75
375.642	369.75
375.868	370.75
376.094	361.75
376.319	376.75
376.545	351.75
376.771	353.75
376.997	351.75
377.222	356.75
377.448	336.75
377.674	370.75
377.899	344.75
378.125	355.75
378.35	361.75
378.576	354.75
378.802	332.75
379.027	345.75
379.253	381.75
379.478	354.75
379.704	351.75
379.929	342.75
380.155	366.75
380.38	369.75
380.606	358.75
380.831	359.75
381.057	378.75
381.282	375.75
381.507	374.75
381.733	373.75
381.958	405.75
382.184	404.75
382.409	422.75
382.634	448.75
382.86	480.75
383.085	546.75
383.31	561.75
383.535	543.75
383.761	554.75
383.986	590.75
384.211	497.75
384.436	424.75
384.662	427.75
384.887	394.75
385.112	404.75
385.337	423.75
385.562	438.75
385.787	430.75
386.013	436.75
386.238	428.75
386.463	423.75
386.688	470.75
386.913	439.75
387.138	427.75
387.363	428.75
387.588	430.75
387.813	442.75
388.038	409.75
388.263	449.75
388.488	417.75
388.713	425.75
388.938	424.75
389.163	441.75
389.387	430.75
389.612	416.75
389.837	444.75
390.062	465.75
390.287	438.75
390.512	436.75
390.736	459.75
390.961	458.75
391.186	472.75
391.411	491.75
391.636	461.75
391.86	507.75
392.085	522.75
392.31	533.75
392.534	565.75
392.759	566.75
392.984	617.75
393.208	705.75
393.433	816.75
393.658	911.75
393.882	1043.75
394.107	1769.75
394.331	3278.75
394.556	4347.75
394.78	2905.75
395.005	1618.75
395.229	1240.75
395.454	1256.75
395.678	1586.75
395.903	2793.75
396.127	4781.75
396.352	5495.75
396.576	3276.75
396.801	1821.75
397.025	1327.75
397.249	992.75
397.474	867.75
397.698	792.75
397.922	739.75
398.147	690.75
398.371	658.75
398.595	651.75
398.82	601.75
399.044	632.75
399.268	632.75
399.492	644.75
399.717	669.75
399.941	643.75
400.165	584.75
400.389	579.75
400.613	554.75
400.837	530.75
401.062	499.75
401.286	480.75
401.51	523.75
401.734	496.75
401.958	505.75
402.182	497.75
402.406	493.75
402.63	513.75
402.854	554.75
403.078	538.75
403.302	510.75
403.526	538.75
403.75	518.75
403.974	510.75
404.198	524.75
404.422	520.75
404.645	496.75
404.869	519.75
405.093	524.75
405.317	534.75
405.541	514.75
405.765	506.75
405.988	508.75
406.212	513.75
406.436	496.75
406.66	533.75
406.883	532.75
407.107	526.75
407.331	515.75
407.555	526.75
407.778	540.75
408.002	544.75
408.226	531.75
408.449	536.75
408.673	507.75
408.896	483.75
409.12	484.75
409.344	518.75
409.567	472.75
409.791	536.75
410.014	509.75
410.238	511.75
410.461	497.75
410.685	497.75
410.908	490.75
411.132	502.75
411.355	487.75
411.578	503.75
411.802	489.75
412.025	488.75
412.249	498.75
412.472	494.75
412.695	488.75
412.919	494.75
413.142	480.75
413.365	466.75
413.589	490.75
413.812	498.75
414.035	474.75
414.258	476.75
414.482	487.75
414.705	481.75
414.928	476.75
415.151	499.75
415.374	481.75
415.597	504.75
415.821	489.75
416.044	465.75
416.267	489.75
416.49	489.75
416.713	496.75
416.936	478.75
417.159	493.75
417.382	485.75
417.605	484.75
417.828	496.75
418.051	488.75
418.274	506.75
418.497	482.75
418.72	515.75
418.943	494.75
419.166	508.75
419.389	529.75
419.611	522.75
419.834	509.75
420.057	516.75
420.28	482.75
420.503	498.75
420.726	482.75
420.948	478.75
421.171	487.75
421.394	489.75
421.617	492.75
421.839	489.75
422.062	480.75
422.285	491.75
422.507	514.75
422.73	521.75
422.953	509.75
423.175	502.75
423.398	484.75
423.621	480.75
423.843	498.75
424.066	504.75
424.288	513.75
424.511	524.75
424.733	507.75
424.956	492.75
425.178	509.75
425.401	488.75
425.623	500.75
425.846	472.75
426.068	487.75
426.291	484.75
426.513	488.75
426.735	478.75
426.958	462.75
427.18	455.75
427.402	471.75
427.625	476.75
427.847	457.75
428.069	463.75
428.292	464.75
428.514	441.75
428.736	449.75
428.958	487.75
429.181	459.75
429.403	448.75
429.625	472.75
429.847	455.75
430.069	443.75
430.292	472.75
430.514	453.75
430.736	492.75
430.958	457.75
431.18	451.75
431.402	468.75
431.624	442.75
431.846	432.75
432.068	418.75
432.29	436.75
432.512	474.75
432.734	475.75
432.956	498.75
433.178	496.75
433.4	479.75
433.622	488.75
433.844	463.75
434.066	465.75
434.287	441.75
434.509	433.75
434.731	463.75
434.953	458.75
435.175	462.75
435.397	499.75
435.618	440.75
435.84	435.75
436.062	441.75
436.284	463.75
436.505	452.75
436.727	448.75
436.949	456.75
437.17	458.75
437.392	452.75
437.614	440.75
437.835	429.75
438.057	414.75
438.278	457.75
438.5	478.75
438.721	480.75
438.943	458.75
439.165	476.75
439.386	479.75
439.608	482.75
439.829	498.75
440.05	492.75
440.272	475.75
440.493	464.75
440.715	484.75
440.936	514.75
441.158	485.75
441.379	526.75
441.6	504.75
441.822	506.75
442.043	534.75
442.264	538.75
442.486	513.75
442.707	500.75
442.928	521.75
443.149	493.75
443.371	493.75
443.592	495.75
443.813	503.75
444.034	518.75
444.255	530.75
444.476	534.75
444.698	543.75
444.919	544.75
445.14	718.75
445.361	586.75
445.582	527.75
445.803	487.75
446.024	496.75
446.245	556.75
446.466	504.75
446.687	507.75
446.908	509.75
447.129	511.75
447.35	499.75
447.571	505.75
447.792	498.75
448.013	488.75
448.234	490.75
448.455	478.75
448.675	475.75
448.896	481.75
449.117	457.75
449.338	478.75
449.559	489.75
449.779	463.75
450	488.75
450.221	460.75
450.442	472.75
450.662	464.75
450.883	458.75
451.104	458.75
451.324	458.75
451.545	456.75
451.766	463.75
451.986	468.75
452.207	454.75
452.428	449.75
452.648	472.75
452.869	471.75
453.089	470.75
453.31	446.75
453.53	449.75
453.751	450.75
453.971	479.75
454.192	456.75
454.412	451.75
454.633	436.75
454.853	428.75
455.073	442.75
455.294	433.75
455.514	443.75
455.734	431.75
455.955	421.75
456.175	432.75
456.395	394.75
456.616	414.75
456.836	427.75
457.056	404.75
457.276	399.75
457.497	413.75
457.717	394.75
457.937	412.75
458.157	399.75
458.377	414.75
458.598	386.75
458.818	419.75
459.038	384.75
459.258	409.75
459.478	417.75
459.698	412.75
459.918	432.75
460.138	446.75
460.358	459.75
460.578	476.75
460.798	480.75
461.018	482.75
461.238	488.75
461.458	477.75
461.678	475.75
461.898	491.75
462.118	506.75
462.338	495.75
462.558	516.75
462.777	536.75
462.997	548.75
463.217	545.75
463.437	559.75
463.657	536.75
463.876	536.75
464.096	540.75
464.316	529.75
464.536	515.75
464.755	526.75
464.975	501.75
465.195	508.75
465.414	476.75
465.634	498.75
465.854	502.75
466.073	526.75
466.293	563.75
466.512	624.75
466.732	562.75
466.951	566.75
467.171	527.75
467.391	545.75
467.61	502.75
467.829	509.75
468.049	512.75
468.268	496.75
468.488	499.75
468.707	471.75
468.927	465.75
469.146	493.75
469.365	488.75
469.585	486.75
469.804	488.75
470.023	498.75
470.243	507.75
470.462	510.75
470.681	497.75
470.901	511.75
471.12	481.75
471.339	489.75
471.558	496.75
471.777	498.75
471.997	497.75
472.216	490.75
472.435	478.75
472.654	466.75
472.873	458.75
473.092	489.75
473.311	526.75
473.53	552.75
473.749	578.75
473.968	611.75
474.187	563.75
474.406	576.75
474.625	579.75
474.844	598.75
475.063	578.75
475.282	528.75
475.501	528.75
475.72	514.75
475.939	477.75
476.158	494.75
476.377	506.75
476.596	483.75
476.814	449.75
477.033	471.75
477.252	464.75
477.471	474.75
477.69	503.75
477.908	509.75
478.127	516.75
478.346	500.75
478.564	508.75
478.783	496.75
479.002	518.75
479.22	503.75
479.439	502.75
479.658	463.75
479.876	474.75
480.095	489.75
480.313	486.75
480.532	499.75
480.751	484.75
480.969	458.75
481.188	448.75
481.406	453.75
481.624	438.75
481.843	446.75
482.061	433.75
482.28	464.75
482.498	468.75
482.717	464.75
482.935	471.75
483.153	490.75
483.372	509.75
483.59	525.75
483.808	501.75
484.027	491.75
484.245	530.75
484.463	624.75
484.681	616.75
484.9	577.75
485.118	586.75
485.336	539.75
485.554	562.75
485.772	529.75
485.99	521.75
486.209	540.75
486.427	532.75
486.645	565.75
486.863	580.75
487.081	582.75
487.299	575.75
487.517	585.75
487.735	593.75
487.953	598.75
488.171	613.75
488.389	574.75
488.607	568.75
488.825	549.75
489.043	537.75
489.261	546.75
489.479	537.75
489.696	561.75
489.914	563.75
490.132	567.75
490.35	576.75
490.568	593.75
490.786	574.75
491.003	579.75
491.221	588.75
491.439	616.75
491.657	607.75
491.874	608.75
492.092	639.75
492.31	653.75
492.527	634.75
492.745	600.75
492.963	599.75
493.18	615.75
493.398	625.75
493.615	596.75
493.833	585.75
494.05	590.75
494.268	555.75
494.485	576.75
494.703	579.75
494.92	573.75
495.138	553.75
495.355	576.75
495.573	560.75
495.79	598.75
496.008	594.75
496.225	558.75
496.442	560.75
496.66	591.75
496.877	574.75
497.094	601.75
497.312	594.75
497.529	564.75
497.746	584.75
497.963	588.75
498.181	570.75
498.398	597.75
498.615	592.75
498.832	616.75
499.049	647.75
499.267	676.75
499.484	706.75
499.701	739.75
499.918	797.75
500.135	852.75
500.352	872.75
500.569	884.75
500.786	874.75
501.003	840.75
501.22	803.75
501.437	749.75
501.654	704.75
501.871	633.75
502.088	654.75
502.305	617.75
502.522	619.75
