Data from SampC_HRD10591_00017.txt Node
Date: Mon Jan 19 11:37:35 EST 2026
User: Yrep
Spectrometer: HR+D1059
Trigger mode: 0
Integration Time (sec): 3.443000E-1
Scans to average: 1
Electric dark correction enabled: true
Nonlinearity correction enabled: false
Boxcar width: 0
XAxis mode: Wavelengths
Number of Pixels in Spectrum: 2048
>>>>>Begin Spectral Data<<<<<
223.165	-26.56
223.4	-26.56
223.635	-26.56
223.869	-20.56
224.104	-22.56
224.338	-0.56
224.573	-9.56
224.808	7.44
225.042	-7.56
225.277	2.44
225.511	-9.56
225.746	8.44
225.98	0.44
226.215	16.44
226.449	3.44
226.683	6.44
226.918	30.44
227.152	21.44
227.387	49.44
227.621	30.44
227.856	53.44
228.09	42.44
228.324	47.44
228.559	65.44
228.793	55.44
229.027	80.44
229.262	72.44
229.496	90.44
229.73	99.44
229.964	108.44
230.199	98.44
230.433	87.44
230.667	103.44
230.901	120.44
231.136	110.44
231.37	119.44
231.604	129.44
231.838	120.44
232.072	132.44
232.306	109.44
232.541	110.44
232.775	110.44
233.009	100.44
233.243	118.44
233.477	124.44
233.711	109.44
233.945	123.44
234.179	123.44
234.413	120.44
234.647	121.44
234.881	113.44
235.115	94.44
235.349	116.44
235.583	116.44
235.817	121.44
236.051	120.44
236.285	120.44
236.519	124.44
236.753	158.44
236.987	186.44
237.221	211.44
237.455	201.44
237.689	235.44
237.922	177.44
238.156	148.44
238.39	148.44
238.624	126.44
238.858	126.44
239.091	119.44
239.325	102.44
239.559	107.44
239.793	115.44
240.027	135.44
240.26	111.44
240.494	113.44
240.728	108.44
240.961	124.44
241.195	109.44
241.429	111.44
241.662	107.44
241.896	104.44
242.13	112.44
242.363	119.44
242.597	117.44
242.83	120.44
243.064	135.44
243.298	113.44
243.531	109.44
243.765	126.44
243.998	131.44
244.232	122.44
244.465	123.44
244.699	127.44
244.932	114.44
245.166	119.44
245.399	136.44
245.633	120.44
245.866	134.44
246.099	139.44
246.333	136.44
246.566	151.44
246.8	155.44
247.033	139.44
247.266	130.44
247.5	130.44
247.733	139.44
247.966	141.44
248.2	131.44
248.433	154.44
248.666	141.44
248.899	124.44
249.133	138.44
249.366	154.44
249.599	146.44
249.832	133.44
250.066	141.44
250.299	134.44
250.532	157.44
250.765	137.44
250.998	142.44
251.231	129.44
251.465	137.44
251.698	146.44
251.931	153.44
252.164	137.44
252.397	145.44
252.63	150.44
252.863	149.44
253.096	154.44
253.329	138.44
253.562	153.44
253.795	134.44
254.028	157.44
254.261	145.44
254.494	170.44
254.727	163.44
254.96	150.44
255.193	151.44
255.426	143.44
255.659	148.44
255.892	160.44
256.124	160.44
256.357	166.44
256.59	177.44
256.823	208.44
257.056	251.44
257.289	255.44
257.521	273.44
257.754	289.44
257.987	287.44
258.22	226.44
258.452	185.44
258.685	183.44
258.918	176.44
259.151	178.44
259.383	191.44
259.616	180.44
259.849	169.44
260.081	171.44
260.314	186.44
260.547	172.44
260.779	170.44
261.012	174.44
261.244	173.44
261.477	195.44
261.71	188.44
261.942	189.44
262.175	190.44
262.407	186.44
262.64	205.44
262.872	210.44
263.105	244.44
263.337	259.44
263.57	278.44
263.802	255.44
264.035	252.44
264.267	234.44
264.499	210.44
264.732	222.44
264.964	209.44
265.197	224.44
265.429	245.44
265.661	250.44
265.894	247.44
266.126	259.44
266.358	277.44
266.591	238.44
266.823	224.44
267.055	210.44
267.287	201.44
267.52	184.44
267.752	182.44
267.984	189.44
268.216	183.44
268.448	184.44
268.681	201.44
268.913	195.44
269.145	182.44
269.377	188.44
269.609	186.44
269.841	197.44
270.073	180.44
270.306	192.44
270.538	199.44
270.77	179.44
271.002	202.44
271.234	211.44
271.466	206.44
271.698	178.44
271.93	192.44
272.162	184.44
272.394	206.44
272.626	194.44
272.858	194.44
273.09	204.44
273.322	202.44
273.553	204.44
273.785	179.44
274.017	199.44
274.249	186.44
274.481	213.44
274.713	200.44
274.945	227.44
275.176	216.44
275.408	209.44
275.64	211.44
275.872	200.44
276.104	202.44
276.335	220.44
276.567	207.44
276.799	203.44
277.031	204.44
277.262	216.44
277.494	243.44
277.726	231.44
277.957	242.44
278.189	276.44
278.421	269.44
278.652	288.44
278.884	304.44
279.115	396.44
279.347	570.44
279.579	768.44
279.81	921.44
280.042	733.44
280.273	666.44
280.505	642.44
280.736	456.44
280.968	347.44
281.199	332.44
281.431	435.44
281.662	542.44
281.894	621.44
282.125	494.44
282.356	384.44
282.588	338.44
282.819	316.44
283.051	286.44
283.282	269.44
283.513	279.44
283.745	258.44
283.976	260.44
284.207	257.44
284.439	259.44
284.67	249.44
284.901	266.44
285.132	307.44
285.364	331.44
285.595	280.44
285.826	236.44
286.057	248.44
286.288	232.44
286.52	247.44
286.751	256.44
286.982	251.44
287.213	234.44
287.444	248.44
287.675	231.44
287.906	251.44
288.138	249.44
288.369	270.44
288.6	262.44
288.831	242.44
289.062	250.44
289.293	246.44
289.524	227.44
289.755	231.44
289.986	227.44
290.217	250.44
290.448	239.44
290.679	251.44
290.91	256.44
291.141	257.44
291.371	243.44
291.602	256.44
291.833	267.44
292.064	251.44
292.295	255.44
292.526	266.44
292.757	290.44
292.987	298.44
293.218	282.44
293.449	269.44
293.68	300.44
293.91	282.44
294.141	265.44
294.372	246.44
294.603	254.44
294.833	245.44
295.064	259.44
295.295	258.44
295.525	250.44
295.756	246.44
295.987	251.44
296.217	244.44
296.448	249.44
296.679	240.44
296.909	247.44
297.14	273.44
297.37	269.44
297.601	260.44
297.831	256.44
298.062	251.44
298.292	256.44
298.523	239.44
298.753	274.44
298.984	260.44
299.214	250.44
299.445	247.44
299.675	274.44
299.905	259.44
300.136	251.44
300.366	279.44
300.597	284.44
300.827	284.44
301.057	282.44
301.288	287.44
301.518	280.44
301.748	281.44
301.979	313.44
302.209	290.44
302.439	286.44
302.669	292.44
302.9	297.44
303.13	308.44
303.36	323.44
303.59	313.44
303.82	323.44
304.051	344.44
304.281	332.44
304.511	350.44
304.741	383.44
304.971	430.44
305.201	492.44
305.431	540.44
305.661	626.44
305.891	679.44
306.121	615.44
306.352	565.44
306.582	584.44
306.812	577.44
307.042	524.44
307.272	503.44
307.502	531.44
307.731	716.44
307.961	950.44
308.191	1338.44
308.421	1547.44
308.651	1324.44
308.881	1255.44
309.111	1496.44
309.341	1906.44
309.571	1854.44
309.8	1186.44
310.03	826.44
310.26	641.44
310.49	566.44
310.72	478.44
310.949	441.44
311.179	438.44
311.409	409.44
311.639	396.44
311.868	384.44
312.098	362.44
312.328	357.44
312.557	372.44
312.787	353.44
313.017	315.44
313.246	348.44
313.476	347.44
313.706	324.44
313.935	320.44
314.165	326.44
314.394	310.44
314.624	313.44
314.853	321.44
315.083	303.44
315.312	297.44
315.542	321.44
315.771	329.44
316.001	312.44
316.23	305.44
316.46	304.44
316.689	285.44
316.919	286.44
317.148	320.44
317.377	318.44
317.607	311.44
317.836	312.44
318.065	295.44
318.295	303.44
318.524	302.44
318.753	299.44
318.983	294.44
319.212	305.44
319.441	291.44
319.67	297.44
319.9	296.44
320.129	301.44
320.358	293.44
320.587	293.44
320.816	289.44
321.046	290.44
321.275	307.44
321.504	297.44
321.733	305.44
321.962	290.44
322.191	290.44
322.42	293.44
322.649	292.44
322.878	299.44
323.108	299.44
323.337	303.44
323.566	327.44
323.795	309.44
324.024	303.44
324.253	315.44
324.482	309.44
324.71	305.44
324.939	310.44
325.168	307.44
325.397	320.44
325.626	304.44
325.855	288.44
326.084	299.44
326.313	312.44
326.542	320.44
326.77	312.44
326.999	312.44
327.228	321.44
327.457	318.44
327.686	321.44
327.914	323.44
328.143	331.44
328.372	314.44
328.6	308.44
328.829	306.44
329.058	307.44
329.287	326.44
329.515	334.44
329.744	318.44
329.972	316.44
330.201	322.44
330.43	302.44
330.658	317.44
330.887	323.44
331.115	312.44
331.344	314.44
331.572	313.44
331.801	330.44
332.03	326.44
332.258	336.44
332.486	330.44
332.715	334.44
332.943	323.44
333.172	349.44
333.4	377.44
333.629	366.44
333.857	376.44
334.085	375.44
334.314	347.44
334.542	360.44
334.771	347.44
334.999	356.44
335.227	349.44
335.455	360.44
335.684	361.44
335.912	346.44
336.14	354.44
336.369	356.44
336.597	334.44
336.825	337.44
337.053	348.44
337.281	357.44
337.51	350.44
337.738	370.44
337.966	333.44
338.194	329.44
338.422	315.44
338.65	349.44
338.878	319.44
339.106	334.44
339.334	334.44
339.562	329.44
339.79	327.44
340.018	320.44
340.246	331.44
340.474	332.44
340.702	324.44
340.93	335.44
341.158	315.44
341.386	321.44
341.614	320.44
341.842	326.44
342.07	342.44
342.298	329.44
342.526	335.44
342.754	338.44
342.981	328.44
343.209	341.44
343.437	357.44
343.665	362.44
343.893	379.44
344.12	379.44
344.348	366.44
344.576	361.44
344.804	333.44
345.031	340.44
345.259	334.44
345.487	334.44
345.714	346.44
345.942	334.44
346.17	342.44
346.397	338.44
346.625	343.44
346.853	332.44
347.08	310.44
347.308	317.44
347.535	328.44
347.763	328.44
347.99	343.44
348.218	335.44
348.445	329.44
348.673	340.44
348.9	334.44
349.128	339.44
349.355	332.44
349.583	345.44
349.81	333.44
350.037	327.44
350.265	331.44
350.492	354.44
350.72	335.44
350.947	353.44
351.174	363.44
351.402	370.44
351.629	328.44
351.856	353.44
352.083	353.44
352.311	342.44
352.538	354.44
352.765	340.44
352.992	371.44
353.22	347.44
353.447	361.44
353.674	370.44
353.901	385.44
354.128	379.44
354.355	398.44
354.583	400.44
354.81	400.44
355.037	403.44
355.264	409.44
355.491	425.44
355.718	420.44
355.945	453.44
356.172	450.44
356.399	468.44
356.626	488.44
356.853	514.44
357.08	528.44
357.307	572.44
357.534	584.44
357.761	651.44
357.988	728.44
358.215	863.44
358.441	978.44
358.668	1068.44
358.895	1068.44
359.122	869.44
359.349	734.44
359.576	637.44
359.802	590.44
360.029	593.44
360.256	555.44
360.483	533.44
360.709	507.44
360.936	503.44
361.163	475.44
361.39	465.44
361.616	461.44
361.843	455.44
362.07	440.44
362.296	437.44
362.523	435.44
362.749	393.44
362.976	401.44
363.203	394.44
363.429	391.44
363.656	392.44
363.882	402.44
364.109	376.44
364.335	382.44
364.562	379.44
364.788	395.44
365.015	378.44
365.241	349.44
365.468	366.44
365.694	353.44
365.92	372.44
366.147	360.44
366.373	360.44
366.599	361.44
366.826	362.44
367.052	359.44
367.278	374.44
367.505	371.44
367.731	379.44
367.957	369.44
368.184	363.44
368.41	360.44
368.636	360.44
368.862	363.44
369.089	355.44
369.315	360.44
369.541	366.44
369.767	369.44
369.993	401.44
370.219	376.44
370.445	357.44
370.672	350.44
370.898	387.44
371.124	362.44
371.35	370.44
371.576	354.44
371.802	374.44
372.028	362.44
372.254	366.44
372.48	388.44
372.706	387.44
372.932	380.44
373.158	388.44
373.384	370.44
373.61	383.44
373.835	394.44
374.061	365.44
374.287	383.44
374.513	376.44
374.739	378.44
374.965	391.44
375.191	368.44
375.416	393.44
375.642	382.44
375.868	374.44
376.094	374.44
376.319	374.44
376.545	378.44
376.771	368.44
376.997	360.44
377.222	366.44
377.448	393.44
377.674	370.44
377.899	351.44
378.125	350.44
378.35	347.44
378.576	352.44
378.802	351.44
379.027	356.44
379.253	375.44
379.478	377.44
379.704	377.44
379.929	377.44
380.155	372.44
380.38	375.44
380.606	364.44
380.831	405.44
381.057	402.44
381.282	391.44
381.507	371.44
381.733	393.44
381.958	378.44
382.184	401.44
382.409	414.44
382.634	414.44
382.86	442.44
383.085	443.44
383.31	474.44
383.535	482.44
383.761	482.44
383.986	485.44
384.211	437.44
384.436	444.44
384.662	428.44
384.887	402.44
385.112	423.44
385.337	428.44
385.562	432.44
385.787	436.44
386.013	437.44
386.238	441.44
386.463	419.44
386.688	443.44
386.913	407.44
387.138	434.44
387.363	456.44
387.588	459.44
387.813	440.44
388.038	451.44
388.263	435.44
388.488	440.44
388.713	440.44
388.938	427.44
389.163	424.44
389.387	416.44
389.612	447.44
389.837	455.44
390.062	457.44
390.287	455.44
390.512	464.44
390.736	450.44
390.961	448.44
391.186	447.44
391.411	479.44
391.636	473.44
391.86	495.44
392.085	491.44
392.31	491.44
392.534	472.44
392.759	529.44
392.984	527.44
393.208	567.44
393.433	616.44
393.658	635.44
393.882	768.44
394.107	1155.44
394.331	2006.44
394.556	2620.44
394.78	1883.44
395.005	1175.44
395.229	920.44
395.454	934.44
395.678	1104.44
395.903	1796.44
396.127	2942.44
396.352	3405.44
396.576	2231.44
396.801	1324.44
397.025	976.44
397.249	852.44
397.474	755.44
397.698	684.44
397.922	684.44
398.147	627.44
398.371	653.44
398.595	623.44
398.82	602.44
399.044	613.44
399.268	606.44
399.492	625.44
399.717	666.44
399.941	633.44
400.165	615.44
400.389	573.44
400.613	545.44
400.837	523.44
401.062	509.44
401.286	516.44
401.51	513.44
401.734	505.44
401.958	523.44
402.182	503.44
402.406	492.44
402.63	500.44
402.854	523.44
403.078	522.44
403.302	506.44
403.526	554.44
403.75	530.44
403.974	544.44
404.198	512.44
404.422	518.44
404.645	516.44
404.869	530.44
405.093	528.44
405.317	506.44
405.541	536.44
405.765	548.44
405.988	514.44
406.212	545.44
406.436	534.44
406.66	543.44
406.883	539.44
407.107	545.44
407.331	558.44
407.555	567.44
407.778	572.44
408.002	555.44
408.226	552.44
408.449	549.44
408.673	521.44
408.896	513.44
409.12	523.44
409.344	528.44
409.567	529.44
409.791	516.44
410.014	522.44
410.238	540.44
410.461	533.44
410.685	511.44
410.908	506.44
411.132	524.44
411.355	499.44
411.578	520.44
411.802	501.44
412.025	510.44
412.249	512.44
412.472	514.44
412.695	488.44
412.919	494.44
413.142	489.44
413.365	500.44
413.589	498.44
413.812	500.44
414.035	514.44
414.258	500.44
414.482	498.44
414.705	491.44
414.928	490.44
415.151	495.44
415.374	488.44
415.597	513.44
415.821	500.44
416.044	515.44
416.267	510.44
416.49	484.44
416.713	506.44
416.936	495.44
417.159	503.44
417.382	497.44
417.605	484.44
417.828	496.44
418.051	523.44
418.274	503.44
418.497	512.44
418.72	525.44
418.943	499.44
419.166	524.44
419.389	540.44
419.611	528.44
419.834	521.44
420.057	523.44
420.28	496.44
420.503	503.44
420.726	495.44
420.948	488.44
421.171	496.44
421.394	499.44
421.617	513.44
421.839	512.44
422.062	522.44
422.285	470.44
422.507	518.44
422.73	507.44
422.953	502.44
423.175	498.44
423.398	531.44
423.621	488.44
423.843	512.44
424.066	523.44
424.288	521.44
424.511	518.44
424.733	511.44
424.956	524.44
425.178	502.44
425.401	514.44
425.623	522.44
425.846	516.44
426.068	480.44
426.291	488.44
426.513	500.44
426.735	495.44
426.958	494.44
427.18	479.44
427.402	483.44
427.625	496.44
427.847	470.44
428.069	469.44
428.292	483.44
428.514	466.44
428.736	479.44
428.958	462.44
429.181	471.44
429.403	500.44
429.625	481.44
429.847	466.44
430.069	467.44
430.292	461.44
430.514	448.44
430.736	466.44
430.958	486.44
431.18	484.44
431.402	481.44
431.624	443.44
431.846	456.44
432.068	439.44
432.29	445.44
432.512	479.44
432.734	463.44
432.956	480.44
433.178	476.44
433.4	489.44
433.622	490.44
433.844	494.44
434.066	466.44
434.287	439.44
434.509	455.44
434.731	460.44
434.953	462.44
435.175	480.44
435.397	502.44
435.618	477.44
435.84	454.44
436.062	485.44
436.284	457.44
436.505	493.44
436.727	468.44
436.949	479.44
437.17	472.44
437.392	470.44
437.614	441.44
437.835	426.44
438.057	447.44
438.278	438.44
438.5	462.44
438.721	466.44
438.943	514.44
439.165	490.44
439.386	477.44
439.608	489.44
439.829	482.44
440.05	487.44
440.272	516.44
440.493	495.44
440.715	508.44
440.936	497.44
441.158	512.44
441.379	499.44
441.6	536.44
441.822	515.44
442.043	533.44
442.264	542.44
442.486	510.44
442.707	530.44
442.928	497.44
443.149	514.44
443.371	492.44
443.592	511.44
443.813	513.44
444.034	517.44
444.255	534.44
444.476	531.44
444.698	549.44
444.919	573.44
445.14	795.44
445.361	644.44
445.582	516.44
445.803	526.44
446.024	516.44
446.245	530.44
446.466	529.44
446.687	529.44
446.908	516.44
447.129	511.44
447.35	503.44
447.571	492.44
447.792	466.44
448.013	471.44
448.234	490.44
448.455	505.44
448.675	488.44
448.896	480.44
449.117	476.44
449.338	510.44
449.559	483.44
449.779	456.44
450	466.44
450.221	450.44
450.442	473.44
450.662	474.44
450.883	462.44
451.104	460.44
451.324	465.44
451.545	446.44
451.766	467.44
451.986	450.44
452.207	474.44
452.428	457.44
452.648	483.44
452.869	459.44
453.089	447.44
453.31	446.44
453.53	454.44
453.751	446.44
453.971	465.44
454.192	457.44
454.412	424.44
454.633	438.44
454.853	440.44
455.073	441.44
455.294	432.44
455.514	439.44
455.734	432.44
455.955	418.44
456.175	415.44
456.395	404.44
456.616	425.44
456.836	428.44
457.056	415.44
457.276	388.44
457.497	420.44
457.717	404.44
457.937	412.44
458.157	427.44
458.377	427.44
458.598	396.44
458.818	402.44
459.038	414.44
459.258	421.44
459.478	432.44
459.698	422.44
459.918	426.44
460.138	488.44
460.358	466.44
460.578	482.44
460.798	487.44
461.018	490.44
461.238	475.44
461.458	518.44
461.678	482.44
461.898	514.44
462.118	511.44
462.338	514.44
462.558	530.44
462.777	563.44
462.997	562.44
463.217	577.44
463.437	573.44
463.657	547.44
463.876	548.44
464.096	532.44
464.316	543.44
464.536	538.44
464.755	547.44
464.975	528.44
465.195	531.44
465.414	515.44
465.634	483.44
465.854	539.44
466.073	527.44
466.293	580.44
466.512	608.44
466.732	616.44
466.951	582.44
467.171	535.44
467.391	540.44
467.61	540.44
467.829	513.44
468.049	507.44
468.268	509.44
468.488	522.44
468.707	495.44
468.927	486.44
469.146	475.44
469.365	496.44
469.585	495.44
469.804	498.44
470.023	496.44
470.243	511.44
470.462	499.44
470.681	485.44
470.901	498.44
471.12	481.44
471.339	506.44
471.558	497.44
471.777	501.44
471.997	486.44
472.216	463.44
472.435	468.44
472.654	444.44
472.873	450.44
473.092	463.44
473.311	506.44
473.53	504.44
473.749	555.44
473.968	563.44
474.187	534.44
474.406	535.44
474.625	565.44
474.844	588.44
475.063	544.44
475.282	526.44
475.501	479.44
475.72	489.44
475.939	478.44
476.158	471.44
476.377	489.44
476.596	465.44
476.814	464.44
477.033	472.44
477.252	477.44
477.471	490.44
477.69	496.44
477.908	503.44
478.127	529.44
478.346	499.44
478.564	504.44
478.783	505.44
479.002	544.44
479.22	510.44
479.439	520.44
479.658	498.44
479.876	508.44
480.095	489.44
480.313	510.44
480.532	526.44
480.751	496.44
480.969	493.44
481.188	465.44
481.406	463.44
481.624	442.44
481.843	456.44
482.061	480.44
482.28	482.44
482.498	474.44
482.717	473.44
482.935	482.44
483.153	506.44
483.372	521.44
483.59	509.44
483.808	476.44
484.027	482.44
484.245	514.44
484.463	549.44
484.681	561.44
484.9	552.44
485.118	539.44
485.336	512.44
485.554	515.44
485.772	516.44
485.99	504.44
486.209	507.44
486.427	503.44
486.645	535.44
486.863	554.44
487.081	537.44
487.299	531.44
487.517	552.44
487.735	584.44
487.953	590.44
488.171	602.44
488.389	558.44
488.607	573.44
488.825	524.44
489.043	524.44
489.261	543.44
489.479	536.44
489.696	555.44
489.914	532.44
490.132	551.44
490.35	557.44
490.568	562.44
490.786	599.44
491.003	565.44
491.221	595.44
491.439	609.44
491.657	575.44
491.874	601.44
492.092	640.44
492.31	653.44
492.527	613.44
492.745	615.44
492.963	629.44
493.18	598.44
493.398	592.44
493.615	583.44
493.833	593.44
494.05	599.44
494.268	586.44
494.485	601.44
494.703	593.44
494.92	569.44
495.138	557.44
495.355	602.44
495.573	591.44
495.79	599.44
496.008	584.44
496.225	572.44
496.442	586.44
496.66	573.44
496.877	592.44
497.094	595.44
497.312	582.44
497.529	595.44
497.746	596.44
497.963	594.44
498.181	603.44
498.398	630.44
498.615	604.44
498.832	629.44
499.049	683.44
499.267	710.44
499.484	746.44
499.701	778.44
499.918	838.44
500.135	910.44
500.352	956.44
500.569	977.44
500.786	938.44
501.003	921.44
501.22	862.44
501.437	807.44
501.654	734.44
501.871	721.44
502.088	688.44
502.305	662.44
502.522	635.44
