Data from SampC_HRD10591_00066.txt Node
Date: Mon Jan 19 11:37:52 EST 2026
User: Yrep
Spectrometer: HR+D1059
Trigger mode: 0
Integration Time (sec): 3.443000E-1
Scans to average: 1
Electric dark correction enabled: true
Nonlinearity correction enabled: false
Boxcar width: 0
XAxis mode: Wavelengths
Number of Pixels in Spectrum: 2048
>>>>>Begin Spectral Data<<<<<
223.165	-25.38
223.4	-25.38
223.635	-25.38
223.869	-16.38
224.104	-23.38
224.338	-12.38
224.573	-15.38
224.808	-10.38
225.042	-10.38
225.277	0.62
225.511	0.62
225.746	16.62
225.98	6.62
226.215	6.62
226.449	20.62
226.683	20.62
226.918	2.62
227.152	38.62
227.387	30.62
227.621	29.62
227.856	63.62
228.09	49.62
228.324	50.62
228.559	61.62
228.793	59.62
229.027	89.62
229.262	97.62
229.496	89.62
229.73	94.62
229.964	99.62
230.199	95.62
230.433	94.62
230.667	115.62
230.901	106.62
231.136	101.62
231.37	118.62
231.604	117.62
231.838	117.62
232.072	118.62
232.306	120.62
232.541	123.62
232.775	116.62
233.009	115.62
233.243	110.62
233.477	100.62
233.711	112.62
233.945	111.62
234.179	115.62
234.413	120.62
234.647	118.62
234.881	109.62
235.115	120.62
235.349	112.62
235.583	122.62
235.817	117.62
236.051	127.62
236.285	138.62
236.519	164.62
236.753	186.62
236.987	210.62
237.221	229.62
237.455	250.62
237.689	224.62
237.922	192.62
238.156	174.62
238.39	145.62
238.624	138.62
238.858	140.62
239.091	114.62
239.325	122.62
239.559	124.62
239.793	107.62
240.027	120.62
240.26	118.62
240.494	123.62
240.728	100.62
240.961	120.62
241.195	126.62
241.429	117.62
241.662	131.62
241.896	117.62
242.13	115.62
242.363	117.62
242.597	133.62
242.83	139.62
243.064	133.62
243.298	132.62
243.531	123.62
243.765	122.62
243.998	126.62
244.232	117.62
244.465	116.62
244.699	128.62
244.932	118.62
245.166	116.62
245.399	125.62
245.633	110.62
245.866	130.62
246.099	120.62
246.333	158.62
246.566	139.62
246.8	142.62
247.033	114.62
247.266	123.62
247.5	110.62
247.733	125.62
247.966	122.62
248.2	132.62
248.433	130.62
248.666	137.62
248.899	132.62
249.133	135.62
249.366	162.62
249.599	130.62
249.832	147.62
250.066	140.62
250.299	137.62
250.532	146.62
250.765	157.62
250.998	131.62
251.231	136.62
251.465	135.62
251.698	147.62
251.931	157.62
252.164	155.62
252.397	153.62
252.63	151.62
252.863	147.62
253.096	143.62
253.329	149.62
253.562	145.62
253.795	145.62
254.028	152.62
254.261	152.62
254.494	157.62
254.727	145.62
254.96	148.62
255.193	125.62
255.426	141.62
255.659	154.62
255.892	165.62
256.124	162.62
256.357	172.62
256.59	200.62
256.823	242.62
257.056	315.62
257.289	314.62
257.521	307.62
257.754	377.62
257.987	357.62
258.22	244.62
258.452	191.62
258.685	186.62
258.918	185.62
259.151	164.62
259.383	178.62
259.616	165.62
259.849	172.62
260.081	174.62
260.314	170.62
260.547	164.62
260.779	164.62
261.012	155.62
261.244	165.62
261.477	176.62
261.71	154.62
261.942	177.62
262.175	176.62
262.407	174.62
262.64	171.62
262.872	190.62
263.105	212.62
263.337	248.62
263.57	233.62
263.802	227.62
264.035	213.62
264.267	202.62
264.499	205.62
264.732	202.62
264.964	203.62
265.197	240.62
265.429	259.62
265.661	275.62
265.894	284.62
266.126	294.62
266.358	315.62
266.591	264.62
266.823	212.62
267.055	218.62
267.287	198.62
267.52	179.62
267.752	175.62
267.984	181.62
268.216	169.62
268.448	186.62
268.681	193.62
268.913	175.62
269.145	177.62
269.377	190.62
269.609	162.62
269.841	155.62
270.073	164.62
270.306	184.62
270.538	175.62
270.77	176.62
271.002	188.62
271.234	165.62
271.466	165.62
271.698	174.62
271.93	179.62
272.162	183.62
272.394	186.62
272.626	188.62
272.858	190.62
273.09	189.62
273.322	186.62
273.553	186.62
273.785	187.62
274.017	181.62
274.249	196.62
274.481	189.62
274.713	187.62
274.945	204.62
275.176	206.62
275.408	166.62
275.64	193.62
275.872	176.62
276.104	191.62
276.335	190.62
276.567	180.62
276.799	180.62
277.031	210.62
277.262	192.62
277.494	223.62
277.726	244.62
277.957	235.62
278.189	261.62
278.421	265.62
278.652	254.62
278.884	286.62
279.115	389.62
279.347	544.62
279.579	755.62
279.81	853.62
280.042	668.62
280.273	627.62
280.505	636.62
280.736	396.62
280.968	306.62
281.199	332.62
281.431	367.62
281.662	440.62
281.894	512.62
282.125	417.62
282.356	334.62
282.588	286.62
282.819	257.62
283.051	238.62
283.282	234.62
283.513	253.62
283.745	242.62
283.976	229.62
284.207	233.62
284.439	240.62
284.67	248.62
284.901	261.62
285.132	316.62
285.364	372.62
285.595	313.62
285.826	250.62
286.057	222.62
286.288	214.62
286.52	233.62
286.751	216.62
286.982	220.62
287.213	218.62
287.444	229.62
287.675	221.62
287.906	219.62
288.138	230.62
288.369	233.62
288.6	246.62
288.831	241.62
289.062	218.62
289.293	211.62
289.524	224.62
289.755	230.62
289.986	232.62
290.217	216.62
290.448	232.62
290.679	229.62
290.91	241.62
291.141	221.62
291.371	242.62
291.602	230.62
291.833	237.62
292.064	241.62
292.295	230.62
292.526	257.62
292.757	254.62
292.987	268.62
293.218	276.62
293.449	254.62
293.68	269.62
293.91	252.62
294.141	260.62
294.372	243.62
294.603	235.62
294.833	250.62
295.064	234.62
295.295	242.62
295.525	225.62
295.756	233.62
295.987	220.62
296.217	235.62
296.448	237.62
296.679	236.62
296.909	237.62
297.14	244.62
297.37	245.62
297.601	240.62
297.831	239.62
298.062	216.62
298.292	244.62
298.523	246.62
298.753	254.62
298.984	234.62
299.214	236.62
299.445	229.62
299.675	246.62
299.905	258.62
300.136	260.62
300.366	238.62
300.597	259.62
300.827	243.62
301.057	268.62
301.288	268.62
301.518	264.62
301.748	277.62
301.979	309.62
302.209	302.62
302.439	285.62
302.669	290.62
302.9	300.62
303.13	328.62
303.36	320.62
303.59	329.62
303.82	323.62
304.051	333.62
304.281	353.62
304.511	365.62
304.741	406.62
304.971	460.62
305.201	562.62
305.431	632.62
305.661	701.62
305.891	745.62
306.121	668.62
306.352	634.62
306.582	643.62
306.812	642.62
307.042	561.62
307.272	545.62
307.502	620.62
307.731	868.62
307.961	1246.62
308.191	1758.62
308.421	2090.62
308.651	1741.62
308.881	1599.62
309.111	1986.62
309.341	2474.62
309.571	2334.62
309.8	1494.62
310.03	987.62
310.26	738.62
310.49	600.62
310.72	542.62
310.949	462.62
311.179	434.62
311.409	423.62
311.639	425.62
311.868	364.62
312.098	378.62
312.328	374.62
312.557	354.62
312.787	344.62
313.017	350.62
313.246	326.62
313.476	319.62
313.706	322.62
313.935	311.62
314.165	292.62
314.394	280.62
314.624	300.62
314.853	310.62
315.083	276.62
315.312	312.62
315.542	284.62
315.771	290.62
316.001	284.62
316.23	282.62
316.46	272.62
316.689	292.62
316.919	288.62
317.148	272.62
317.377	292.62
317.607	277.62
317.836	262.62
318.065	282.62
318.295	282.62
318.524	271.62
318.753	283.62
318.983	282.62
319.212	266.62
319.441	257.62
319.67	285.62
319.9	263.62
320.129	268.62
320.358	286.62
320.587	271.62
320.816	244.62
321.046	274.62
321.275	276.62
321.504	256.62
321.733	250.62
321.962	275.62
322.191	270.62
322.42	268.62
322.649	277.62
322.878	264.62
323.108	283.62
323.337	289.62
323.566	294.62
323.795	287.62
324.024	277.62
324.253	272.62
324.482	284.62
324.71	290.62
324.939	291.62
325.168	286.62
325.397	289.62
325.626	271.62
325.855	280.62
326.084	276.62
326.313	273.62
326.542	284.62
326.77	291.62
326.999	276.62
327.228	271.62
327.457	273.62
327.686	281.62
327.914	286.62
328.143	273.62
328.372	278.62
328.6	276.62
328.829	272.62
329.058	271.62
329.287	274.62
329.515	273.62
329.744	284.62
329.972	275.62
330.201	280.62
330.43	259.62
330.658	278.62
330.887	289.62
331.115	284.62
331.344	283.62
331.572	305.62
331.801	304.62
332.03	286.62
332.258	305.62
332.486	288.62
332.715	302.62
332.943	300.62
333.172	311.62
333.4	311.62
333.629	325.62
333.857	329.62
334.085	318.62
334.314	293.62
334.542	325.62
334.771	328.62
334.999	309.62
335.227	311.62
335.455	305.62
335.684	316.62
335.912	309.62
336.14	307.62
336.369	299.62
336.597	294.62
336.825	306.62
337.053	300.62
337.281	292.62
337.51	285.62
337.738	301.62
337.966	288.62
338.194	290.62
338.422	297.62
338.65	292.62
338.878	299.62
339.106	280.62
339.334	283.62
339.562	284.62
339.79	290.62
340.018	273.62
340.246	284.62
340.474	279.62
340.702	273.62
340.93	288.62
341.158	278.62
341.386	260.62
341.614	286.62
341.842	293.62
342.07	278.62
342.298	285.62
342.526	293.62
342.754	283.62
342.981	290.62
343.209	283.62
343.437	333.62
343.665	314.62
343.893	334.62
344.12	336.62
344.348	313.62
344.576	313.62
344.804	289.62
345.031	294.62
345.259	298.62
345.487	305.62
345.714	286.62
345.942	298.62
346.17	293.62
346.397	279.62
346.625	274.62
346.853	273.62
347.08	294.62
347.308	293.62
347.535	277.62
347.763	282.62
347.99	297.62
348.218	293.62
348.445	281.62
348.673	288.62
348.9	290.62
349.128	308.62
349.355	287.62
349.583	305.62
349.81	284.62
350.037	287.62
350.265	297.62
350.492	293.62
350.72	300.62
350.947	295.62
351.174	305.62
351.402	286.62
351.629	291.62
351.856	292.62
352.083	297.62
352.311	288.62
352.538	288.62
352.765	293.62
352.992	306.62
353.22	304.62
353.447	290.62
353.674	316.62
353.901	295.62
354.128	316.62
354.355	314.62
354.583	316.62
354.81	355.62
355.037	341.62
355.264	346.62
355.491	367.62
355.718	378.62
355.945	382.62
356.172	363.62
356.399	392.62
356.626	401.62
356.853	422.62
357.08	442.62
357.307	452.62
357.534	466.62
357.761	548.62
357.988	597.62
358.215	701.62
358.441	757.62
358.668	892.62
358.895	844.62
359.122	691.62
359.349	581.62
359.576	545.62
359.802	497.62
360.029	479.62
360.256	431.62
360.483	419.62
360.709	427.62
360.936	427.62
361.163	393.62
361.39	383.62
361.616	384.62
361.843	365.62
362.07	376.62
362.296	358.62
362.523	343.62
362.749	359.62
362.976	337.62
363.203	357.62
363.429	340.62
363.656	326.62
363.882	322.62
364.109	325.62
364.335	337.62
364.562	324.62
364.788	323.62
365.015	333.62
365.241	319.62
365.468	320.62
365.694	293.62
365.92	322.62
366.147	294.62
366.373	317.62
366.599	320.62
366.826	302.62
367.052	302.62
367.278	315.62
367.505	332.62
367.731	328.62
367.957	307.62
368.184	309.62
368.41	290.62
368.636	313.62
368.862	324.62
369.089	326.62
369.315	313.62
369.541	325.62
369.767	309.62
369.993	299.62
370.219	324.62
370.445	305.62
370.672	300.62
370.898	310.62
371.124	320.62
371.35	319.62
371.576	321.62
371.802	315.62
372.028	322.62
372.254	330.62
372.48	319.62
372.706	339.62
372.932	322.62
373.158	322.62
373.384	323.62
373.61	337.62
373.835	330.62
374.061	345.62
374.287	338.62
374.513	335.62
374.739	343.62
374.965	331.62
375.191	349.62
375.416	330.62
375.642	323.62
375.868	349.62
376.094	334.62
376.319	345.62
376.545	344.62
376.771	325.62
376.997	325.62
377.222	326.62
377.448	327.62
377.674	319.62
377.899	318.62
378.125	321.62
378.35	325.62
378.576	329.62
378.802	322.62
379.027	319.62
379.253	320.62
379.478	326.62
379.704	330.62
379.929	338.62
380.155	329.62
380.38	348.62
380.606	313.62
380.831	340.62
381.057	351.62
381.282	341.62
381.507	360.62
381.733	341.62
381.958	340.62
382.184	365.62
382.409	372.62
382.634	406.62
382.86	435.62
383.085	479.62
383.31	502.62
383.535	504.62
383.761	519.62
383.986	517.62
384.211	437.62
384.436	365.62
384.662	358.62
384.887	372.62
385.112	376.62
385.337	367.62
385.562	376.62
385.787	394.62
386.013	403.62
386.238	400.62
386.463	390.62
386.688	404.62
386.913	373.62
387.138	403.62
387.363	387.62
387.588	413.62
387.813	377.62
388.038	396.62
388.263	398.62
388.488	390.62
388.713	396.62
388.938	412.62
389.163	385.62
389.387	394.62
389.612	381.62
389.837	403.62
390.062	408.62
390.287	400.62
390.512	413.62
390.736	412.62
390.961	414.62
391.186	419.62
391.411	432.62
391.636	448.62
391.86	435.62
392.085	478.62
392.31	466.62
392.534	502.62
392.759	518.62
392.984	529.62
393.208	622.62
393.433	687.62
393.658	785.62
393.882	986.62
394.107	1660.62
394.331	3093.62
394.556	4043.62
394.78	2744.62
395.005	1520.62
395.229	1124.62
395.454	1165.62
395.678	1529.62
395.903	2555.62
396.127	4440.62
396.352	5109.62
396.576	3049.62
396.801	1701.62
397.025	1177.62
397.249	918.62
397.474	821.62
397.698	698.62
397.922	670.62
398.147	623.62
398.371	605.62
398.595	613.62
398.82	554.62
399.044	574.62
399.268	556.62
399.492	595.62
399.717	579.62
399.941	589.62
400.165	539.62
400.389	503.62
400.613	481.62
400.837	492.62
401.062	487.62
401.286	473.62
401.51	464.62
401.734	485.62
401.958	462.62
402.182	457.62
402.406	454.62
402.63	475.62
402.854	459.62
403.078	444.62
403.302	453.62
403.526	492.62
403.75	468.62
403.974	477.62
404.198	472.62
404.422	481.62
404.645	465.62
404.869	451.62
405.093	452.62
405.317	441.62
405.541	478.62
405.765	462.62
405.988	469.62
406.212	474.62
406.436	469.62
406.66	472.62
406.883	476.62
407.107	483.62
407.331	497.62
407.555	486.62
407.778	479.62
408.002	472.62
408.226	468.62
408.449	487.62
408.673	460.62
408.896	459.62
409.12	470.62
409.344	467.62
409.567	466.62
409.791	473.62
410.014	456.62
410.238	440.62
410.461	445.62
410.685	454.62
410.908	436.62
411.132	448.62
411.355	425.62
411.578	448.62
411.802	444.62
412.025	431.62
412.249	452.62
412.472	450.62
412.695	446.62
412.919	418.62
413.142	439.62
413.365	450.62
413.589	441.62
413.812	442.62
414.035	433.62
414.258	449.62
414.482	460.62
414.705	440.62
414.928	450.62
415.151	442.62
415.374	470.62
415.597	444.62
415.821	420.62
416.044	435.62
416.267	434.62
416.49	444.62
416.713	433.62
416.936	440.62
417.159	437.62
417.382	446.62
417.605	435.62
417.828	444.62
418.051	430.62
418.274	465.62
418.497	416.62
418.72	445.62
418.943	451.62
419.166	466.62
419.389	478.62
419.611	474.62
419.834	471.62
420.057	457.62
420.28	435.62
420.503	466.62
420.726	432.62
420.948	437.62
421.171	452.62
421.394	450.62
421.617	444.62
421.839	473.62
422.062	466.62
422.285	445.62
422.507	482.62
422.73	458.62
422.953	468.62
423.175	443.62
423.398	434.62
423.621	443.62
423.843	443.62
424.066	475.62
424.288	462.62
424.511	451.62
424.733	442.62
424.956	454.62
425.178	485.62
425.401	436.62
425.623	452.62
425.846	432.62
426.068	440.62
426.291	428.62
426.513	435.62
426.735	434.62
426.958	419.62
427.18	440.62
427.402	429.62
427.625	403.62
427.847	405.62
428.069	417.62
428.292	409.62
428.514	423.62
428.736	410.62
428.958	429.62
429.181	420.62
429.403	423.62
429.625	399.62
429.847	410.62
430.069	415.62
430.292	440.62
430.514	409.62
430.736	438.62
430.958	396.62
431.18	417.62
431.402	409.62
431.624	398.62
431.846	372.62
432.068	386.62
432.29	382.62
432.512	407.62
432.734	408.62
432.956	425.62
433.178	439.62
433.4	446.62
433.622	427.62
433.844	421.62
434.066	422.62
434.287	402.62
434.509	403.62
434.731	421.62
434.953	430.62
435.175	438.62
435.397	430.62
435.618	417.62
435.84	416.62
436.062	418.62
436.284	428.62
436.505	420.62
436.727	422.62
436.949	443.62
437.17	397.62
437.392	403.62
437.614	404.62
437.835	372.62
438.057	391.62
438.278	404.62
438.5	417.62
438.721	433.62
438.943	420.62
439.165	442.62
439.386	433.62
439.608	444.62
439.829	430.62
440.05	443.62
440.272	469.62
440.493	443.62
440.715	459.62
440.936	464.62
441.158	460.62
441.379	476.62
441.6	477.62
441.822	483.62
442.043	467.62
442.264	463.62
442.486	462.62
442.707	460.62
442.928	454.62
443.149	458.62
443.371	448.62
443.592	430.62
443.813	455.62
444.034	449.62
444.255	478.62
444.476	502.62
444.698	485.62
444.919	486.62
445.14	700.62
445.361	551.62
445.582	479.62
445.803	463.62
446.024	457.62
446.245	482.62
446.466	468.62
446.687	466.62
446.908	459.62
447.129	464.62
447.35	428.62
447.571	453.62
447.792	448.62
448.013	456.62
448.234	460.62
448.455	449.62
448.675	454.62
448.896	448.62
449.117	444.62
449.338	412.62
449.559	432.62
449.779	417.62
450	416.62
450.221	435.62
450.442	402.62
450.662	412.62
450.883	420.62
451.104	395.62
451.324	405.62
451.545	405.62
451.766	430.62
451.986	425.62
452.207	411.62
452.428	414.62
452.648	416.62
452.869	431.62
453.089	426.62
453.31	397.62
453.53	398.62
453.751	411.62
453.971	418.62
454.192	409.62
454.412	419.62
454.633	396.62
454.853	432.62
455.073	385.62
455.294	397.62
455.514	386.62
455.734	376.62
455.955	388.62
456.175	394.62
456.395	383.62
456.616	361.62
456.836	361.62
457.056	373.62
457.276	353.62
457.497	372.62
457.717	355.62
457.937	371.62
458.157	358.62
458.377	368.62
458.598	368.62
458.818	355.62
459.038	359.62
459.258	372.62
459.478	370.62
459.698	388.62
459.918	410.62
460.138	398.62
460.358	419.62
460.578	430.62
460.798	438.62
461.018	434.62
461.238	454.62
461.458	448.62
461.678	453.62
461.898	432.62
462.118	442.62
462.338	473.62
462.558	484.62
462.777	486.62
462.997	483.62
463.217	495.62
463.437	505.62
463.657	473.62
463.876	474.62
464.096	491.62
464.316	476.62
464.536	478.62
464.755	474.62
464.975	489.62
465.195	473.62
465.414	489.62
465.634	435.62
465.854	448.62
466.073	466.62
466.293	509.62
466.512	539.62
466.732	538.62
466.951	514.62
467.171	502.62
467.391	505.62
467.61	475.62
467.829	469.62
468.049	449.62
468.268	448.62
468.488	440.62
468.707	434.62
468.927	447.62
469.146	440.62
469.365	458.62
469.585	426.62
469.804	449.62
470.023	434.62
470.243	453.62
470.462	474.62
470.681	473.62
470.901	454.62
471.12	446.62
471.339	458.62
471.558	440.62
471.777	461.62
471.997	444.62
472.216	429.62
472.435	426.62
472.654	425.62
472.873	455.62
473.092	428.62
473.311	454.62
473.53	524.62
473.749	512.62
473.968	528.62
474.187	534.62
474.406	511.62
474.625	537.62
474.844	540.62
475.063	524.62
475.282	509.62
475.501	456.62
475.72	469.62
475.939	462.62
476.158	451.62
476.377	448.62
476.596	427.62
476.814	429.62
477.033	419.62
477.252	440.62
477.471	443.62
477.69	431.62
477.908	444.62
478.127	460.62
478.346	468.62
478.564	466.62
478.783	441.62
479.002	465.62
479.22	477.62
479.439	468.62
479.658	456.62
479.876	428.62
480.095	434.62
480.313	462.62
480.532	464.62
480.751	442.62
480.969	412.62
481.188	437.62
481.406	402.62
481.624	381.62
481.843	403.62
482.061	412.62
482.28	431.62
482.498	414.62
482.717	384.62
482.935	448.62
483.153	464.62
483.372	464.62
483.59	458.62
483.808	419.62
484.027	453.62
484.245	483.62
484.463	546.62
484.681	553.62
484.9	548.62
485.118	540.62
485.336	518.62
485.554	496.62
485.772	472.62
485.99	487.62
486.209	490.62
486.427	481.62
486.645	526.62
486.863	560.62
487.081	534.62
487.299	510.62
487.517	515.62
487.735	556.62
487.953	573.62
488.171	565.62
488.389	549.62
488.607	523.62
488.825	509.62
489.043	499.62
489.261	521.62
489.479	505.62
489.696	507.62
489.914	500.62
490.132	506.62
490.35	523.62
490.568	532.62
490.786	528.62
491.003	508.62
491.221	550.62
491.439	548.62
491.657	557.62
491.874	586.62
492.092	595.62
492.31	606.62
492.527	589.62
492.745	564.62
492.963	557.62
493.18	561.62
493.398	544.62
493.615	516.62
493.833	505.62
494.05	508.62
494.268	531.62
494.485	525.62
494.703	536.62
494.92	529.62
495.138	528.62
495.355	527.62
495.573	493.62
495.79	494.62
496.008	529.62
496.225	540.62
496.442	518.62
496.66	514.62
496.877	516.62
497.094	529.62
497.312	505.62
497.529	525.62
497.746	505.62
497.963	517.62
498.181	514.62
498.398	531.62
498.615	538.62
498.832	538.62
499.049	585.62
499.267	595.62
499.484	626.62
499.701	680.62
499.918	697.62
500.135	754.62
500.352	788.62
500.569	784.62
500.786	785.62
501.003	751.62
501.22	712.62
501.437	704.62
501.654	643.62
501.871	612.62
502.088	578.62
502.305	566.62
502.522	573.62
