Data from SampC_HRD10591_00041.txt Node
Date: Mon Jan 19 11:37:43 EST 2026
User: Yrep
Spectrometer: HR+D1059
Trigger mode: 0
Integration Time (sec): 3.443000E-1
Scans to average: 1
Electric dark correction enabled: true
Nonlinearity correction enabled: false
Boxcar width: 0
XAxis mode: Wavelengths
Number of Pixels in Spectrum: 2048
>>>>>Begin Spectral Data<<<<<
223.165	-18.56
223.4	-18.56
223.635	-18.56
223.869	-14.56
224.104	-17.56
224.338	0.44
224.573	-6.56
224.808	-22.56
225.042	1.44
225.277	-5.56
225.511	-10.56
225.746	-11.56
225.98	2.44
226.215	28.44
226.449	19.44
226.683	16.44
226.918	25.44
227.152	13.44
227.387	23.44
227.621	35.44
227.856	53.44
228.09	42.44
228.324	56.44
228.559	55.44
228.793	52.44
229.027	80.44
229.262	72.44
229.496	94.44
229.73	95.44
229.964	106.44
230.199	93.44
230.433	93.44
230.667	113.44
230.901	96.44
231.136	110.44
231.37	104.44
231.604	100.44
231.838	121.44
232.072	115.44
232.306	101.44
232.541	109.44
232.775	102.44
233.009	111.44
233.243	110.44
233.477	102.44
233.711	110.44
233.945	114.44
234.179	108.44
234.413	109.44
234.647	108.44
234.881	115.44
235.115	100.44
235.349	104.44
235.583	115.44
235.817	113.44
236.051	120.44
236.285	137.44
236.519	130.44
236.753	147.44
236.987	173.44
237.221	179.44
237.455	197.44
237.689	191.44
237.922	161.44
238.156	139.44
238.39	141.44
238.624	127.44
238.858	120.44
239.091	109.44
239.325	86.44
239.559	115.44
239.793	105.44
240.027	118.44
240.26	105.44
240.494	116.44
240.728	110.44
240.961	94.44
241.195	125.44
241.429	118.44
241.662	101.44
241.896	101.44
242.13	107.44
242.363	110.44
242.597	116.44
242.83	130.44
243.064	115.44
243.298	102.44
243.531	104.44
243.765	120.44
243.998	117.44
244.232	120.44
244.465	111.44
244.699	114.44
244.932	113.44
245.166	114.44
245.399	118.44
245.633	106.44
245.866	135.44
246.099	129.44
246.333	104.44
246.566	112.44
246.8	114.44
247.033	108.44
247.266	82.44
247.5	124.44
247.733	114.44
247.966	134.44
248.2	127.44
248.433	121.44
248.666	120.44
248.899	118.44
249.133	124.44
249.366	138.44
249.599	123.44
249.832	125.44
250.066	137.44
250.299	115.44
250.532	118.44
250.765	122.44
250.998	100.44
251.231	127.44
251.465	108.44
251.698	139.44
251.931	140.44
252.164	133.44
252.397	130.44
252.63	127.44
252.863	144.44
253.096	114.44
253.329	133.44
253.562	132.44
253.795	132.44
254.028	117.44
254.261	144.44
254.494	120.44
254.727	146.44
254.96	144.44
255.193	127.44
255.426	128.44
255.659	129.44
255.892	146.44
256.124	145.44
256.357	141.44
256.59	161.44
256.823	194.44
257.056	235.44
257.289	248.44
257.521	243.44
257.754	280.44
257.987	267.44
258.22	204.44
258.452	160.44
258.685	155.44
258.918	163.44
259.151	139.44
259.383	147.44
259.616	156.44
259.849	154.44
260.081	154.44
260.314	145.44
260.547	141.44
260.779	138.44
261.012	152.44
261.244	142.44
261.477	143.44
261.71	164.44
261.942	134.44
262.175	131.44
262.407	147.44
262.64	155.44
262.872	164.44
263.105	173.44
263.337	193.44
263.57	184.44
263.802	200.44
264.035	180.44
264.267	187.44
264.499	186.44
264.732	181.44
264.964	190.44
265.197	201.44
265.429	225.44
265.661	210.44
265.894	206.44
266.126	264.44
266.358	245.44
266.591	221.44
266.823	186.44
267.055	184.44
267.287	170.44
267.52	180.44
267.752	167.44
267.984	160.44
268.216	162.44
268.448	159.44
268.681	165.44
268.913	150.44
269.145	137.44
269.377	160.44
269.609	144.44
269.841	162.44
270.073	156.44
270.306	148.44
270.538	176.44
270.77	162.44
271.002	159.44
271.234	154.44
271.466	157.44
271.698	154.44
271.93	157.44
272.162	159.44
272.394	172.44
272.626	158.44
272.858	156.44
273.09	169.44
273.322	155.44
273.553	164.44
273.785	172.44
274.017	162.44
274.249	158.44
274.481	166.44
274.713	173.44
274.945	163.44
275.176	162.44
275.408	162.44
275.64	159.44
275.872	179.44
276.104	179.44
276.335	171.44
276.567	165.44
276.799	180.44
277.031	172.44
277.262	169.44
277.494	166.44
277.726	191.44
277.957	207.44
278.189	207.44
278.421	204.44
278.652	229.44
278.884	246.44
279.115	312.44
279.347	446.44
279.579	589.44
279.81	664.44
280.042	538.44
280.273	525.44
280.505	501.44
280.736	344.44
280.968	274.44
281.199	250.44
281.431	321.44
281.662	356.44
281.894	383.44
282.125	353.44
282.356	271.44
282.588	228.44
282.819	220.44
283.051	216.44
283.282	221.44
283.513	228.44
283.745	189.44
283.976	197.44
284.207	191.44
284.439	197.44
284.67	210.44
284.901	226.44
285.132	265.44
285.364	296.44
285.595	264.44
285.826	211.44
286.057	188.44
286.288	190.44
286.52	200.44
286.751	179.44
286.982	168.44
287.213	187.44
287.444	189.44
287.675	206.44
287.906	195.44
288.138	200.44
288.369	221.44
288.6	217.44
288.831	205.44
289.062	190.44
289.293	195.44
289.524	184.44
289.755	203.44
289.986	202.44
290.217	189.44
290.448	194.44
290.679	188.44
290.91	204.44
291.141	204.44
291.371	204.44
291.602	190.44
291.833	195.44
292.064	204.44
292.295	204.44
292.526	224.44
292.757	218.44
292.987	220.44
293.218	208.44
293.449	210.44
293.68	227.44
293.91	226.44
294.141	200.44
294.372	192.44
294.603	201.44
294.833	204.44
295.064	195.44
295.295	203.44
295.525	192.44
295.756	198.44
295.987	196.44
296.217	197.44
296.448	195.44
296.679	197.44
296.909	188.44
297.14	218.44
297.37	190.44
297.601	205.44
297.831	201.44
298.062	207.44
298.292	207.44
298.523	203.44
298.753	209.44
298.984	199.44
299.214	192.44
299.445	196.44
299.675	214.44
299.905	213.44
300.136	194.44
300.366	213.44
300.597	216.44
300.827	212.44
301.057	198.44
301.288	214.44
301.518	217.44
301.748	219.44
301.979	254.44
302.209	236.44
302.439	224.44
302.669	235.44
302.9	252.44
303.13	243.44
303.36	253.44
303.59	257.44
303.82	269.44
304.051	257.44
304.281	286.44
304.511	294.44
304.741	309.44
304.971	336.44
305.201	392.44
305.431	459.44
305.661	521.44
305.891	559.44
306.121	511.44
306.352	484.44
306.582	477.44
306.812	469.44
307.042	430.44
307.272	418.44
307.502	454.44
307.731	636.44
307.961	857.44
308.191	1274.44
308.421	1414.44
308.651	1205.44
308.881	1130.44
309.111	1353.44
309.341	1700.44
309.571	1626.44
309.8	1061.44
310.03	704.44
310.26	556.44
310.49	477.44
310.72	421.44
310.949	375.44
311.179	348.44
311.409	339.44
311.639	314.44
311.868	308.44
312.098	315.44
312.328	295.44
312.557	299.44
312.787	269.44
313.017	265.44
313.246	284.44
313.476	254.44
313.706	276.44
313.935	280.44
314.165	259.44
314.394	255.44
314.624	245.44
314.853	237.44
315.083	236.44
315.312	244.44
315.542	250.44
315.771	249.44
316.001	238.44
316.23	249.44
316.46	250.44
316.689	228.44
316.919	223.44
317.148	236.44
317.377	247.44
317.607	232.44
317.836	243.44
318.065	234.44
318.295	243.44
318.524	237.44
318.753	253.44
318.983	229.44
319.212	234.44
319.441	221.44
319.67	230.44
319.9	236.44
320.129	224.44
320.358	232.44
320.587	232.44
320.816	220.44
321.046	222.44
321.275	242.44
321.504	231.44
321.733	229.44
321.962	213.44
322.191	235.44
322.42	237.44
322.649	219.44
322.878	205.44
323.108	246.44
323.337	236.44
323.566	235.44
323.795	227.44
324.024	247.44
324.253	236.44
324.482	247.44
324.71	224.44
324.939	247.44
325.168	253.44
325.397	246.44
325.626	238.44
325.855	229.44
326.084	233.44
326.313	249.44
326.542	210.44
326.77	229.44
326.999	235.44
327.228	234.44
327.457	237.44
327.686	228.44
327.914	243.44
328.143	245.44
328.372	246.44
328.6	243.44
328.829	248.44
329.058	228.44
329.287	229.44
329.515	232.44
329.744	232.44
329.972	218.44
330.201	235.44
330.43	243.44
330.658	227.44
330.887	250.44
331.115	262.44
331.344	264.44
331.572	270.44
331.801	245.44
332.03	234.44
332.258	248.44
332.486	243.44
332.715	252.44
332.943	278.44
333.172	272.44
333.4	267.44
333.629	278.44
333.857	254.44
334.085	257.44
334.314	259.44
334.542	258.44
334.771	264.44
334.999	254.44
335.227	264.44
335.455	252.44
335.684	268.44
335.912	260.44
336.14	272.44
336.369	266.44
336.597	256.44
336.825	248.44
337.053	257.44
337.281	246.44
337.51	257.44
337.738	247.44
337.966	255.44
338.194	239.44
338.422	238.44
338.65	246.44
338.878	258.44
339.106	245.44
339.334	252.44
339.562	256.44
339.79	249.44
340.018	251.44
340.246	228.44
340.474	243.44
340.702	237.44
340.93	241.44
341.158	257.44
341.386	235.44
341.614	245.44
341.842	228.44
342.07	239.44
342.298	247.44
342.526	259.44
342.754	235.44
342.981	240.44
343.209	241.44
343.437	278.44
343.665	253.44
343.893	268.44
344.12	279.44
344.348	274.44
344.576	254.44
344.804	264.44
345.031	258.44
345.259	237.44
345.487	249.44
345.714	241.44
345.942	234.44
346.17	245.44
346.397	246.44
346.625	251.44
346.853	230.44
347.08	263.44
347.308	245.44
347.535	242.44
347.763	252.44
347.99	267.44
348.218	247.44
348.445	238.44
348.673	212.44
348.9	257.44
349.128	244.44
349.355	237.44
349.583	255.44
349.81	261.44
350.037	253.44
350.265	253.44
350.492	257.44
350.72	243.44
350.947	240.44
351.174	251.44
351.402	243.44
351.629	251.44
351.856	243.44
352.083	249.44
352.311	260.44
352.538	245.44
352.765	238.44
352.992	277.44
353.22	250.44
353.447	256.44
353.674	265.44
353.901	271.44
354.128	265.44
354.355	274.44
354.583	273.44
354.81	277.44
355.037	285.44
355.264	285.44
355.491	258.44
355.718	299.44
355.945	311.44
356.172	317.44
356.399	317.44
356.626	344.44
356.853	340.44
357.08	364.44
357.307	370.44
357.534	404.44
357.761	446.44
357.988	464.44
358.215	517.44
358.441	584.44
358.668	670.44
358.895	644.44
359.122	538.44
359.349	458.44
359.576	424.44
359.802	389.44
360.029	373.44
360.256	364.44
360.483	356.44
360.709	339.44
360.936	337.44
361.163	328.44
361.39	324.44
361.616	319.44
361.843	324.44
362.07	301.44
362.296	300.44
362.523	289.44
362.749	298.44
362.976	291.44
363.203	280.44
363.429	306.44
363.656	291.44
363.882	283.44
364.109	277.44
364.335	292.44
364.562	291.44
364.788	260.44
365.015	276.44
365.241	258.44
365.468	266.44
365.694	252.44
365.92	257.44
366.147	258.44
366.373	255.44
366.599	260.44
366.826	269.44
367.052	266.44
367.278	272.44
367.505	265.44
367.731	267.44
367.957	285.44
368.184	258.44
368.41	267.44
368.636	272.44
368.862	280.44
369.089	276.44
369.315	267.44
369.541	279.44
369.767	271.44
369.993	269.44
370.219	261.44
370.445	274.44
370.672	257.44
370.898	284.44
371.124	264.44
371.35	263.44
371.576	271.44
371.802	265.44
372.028	274.44
372.254	277.44
372.48	262.44
372.706	271.44
372.932	257.44
373.158	280.44
373.384	288.44
373.61	289.44
373.835	309.44
374.061	300.44
374.287	286.44
374.513	287.44
374.739	280.44
374.965	289.44
375.191	285.44
375.416	281.44
375.642	285.44
375.868	278.44
376.094	254.44
376.319	280.44
376.545	272.44
376.771	273.44
376.997	255.44
377.222	272.44
377.448	264.44
377.674	250.44
377.899	272.44
378.125	256.44
378.35	275.44
378.576	276.44
378.802	265.44
379.027	265.44
379.253	277.44
379.478	274.44
379.704	271.44
379.929	273.44
380.155	277.44
380.38	264.44
380.606	257.44
380.831	269.44
381.057	288.44
381.282	277.44
381.507	289.44
381.733	297.44
381.958	314.44
382.184	318.44
382.409	290.44
382.634	352.44
382.86	323.44
383.085	372.44
383.31	386.44
383.535	412.44
383.761	428.44
383.986	398.44
384.211	352.44
384.436	323.44
384.662	314.44
384.887	292.44
385.112	316.44
385.337	305.44
385.562	332.44
385.787	310.44
386.013	337.44
386.238	321.44
386.463	305.44
386.688	347.44
386.913	306.44
387.138	335.44
387.363	335.44
387.588	343.44
387.813	316.44
388.038	330.44
388.263	315.44
388.488	312.44
388.713	339.44
388.938	321.44
389.163	341.44
389.387	338.44
389.612	316.44
389.837	329.44
390.062	324.44
390.287	332.44
390.512	334.44
390.736	332.44
390.961	322.44
391.186	340.44
391.411	352.44
391.636	369.44
391.86	352.44
392.085	365.44
392.31	373.44
392.534	378.44
392.759	390.44
392.984	419.44
393.208	495.44
393.433	560.44
393.658	596.44
393.882	703.44
394.107	1138.44
394.331	2049.44
394.556	2631.44
394.78	1809.44
395.005	1058.44
395.229	830.44
395.454	828.44
395.678	1045.44
395.903	1726.44
396.127	2969.44
396.352	3402.44
396.576	2020.44
396.801	1193.44
397.025	886.44
397.249	695.44
397.474	624.44
397.698	548.44
397.922	543.44
398.147	515.44
398.371	482.44
398.595	478.44
398.82	463.44
399.044	434.44
399.268	485.44
399.492	487.44
399.717	494.44
399.941	489.44
400.165	459.44
400.389	428.44
400.613	391.44
400.837	404.44
401.062	352.44
401.286	382.44
401.51	395.44
401.734	380.44
401.958	377.44
402.182	386.44
402.406	384.44
402.63	393.44
402.854	380.44
403.078	384.44
403.302	402.44
403.526	383.44
403.75	400.44
403.974	390.44
404.198	390.44
404.422	393.44
404.645	384.44
404.869	363.44
405.093	366.44
405.317	393.44
405.541	370.44
405.765	353.44
405.988	380.44
406.212	399.44
406.436	399.44
406.66	420.44
406.883	397.44
407.107	400.44
407.331	400.44
407.555	396.44
407.778	402.44
408.002	378.44
408.226	379.44
408.449	385.44
408.673	388.44
408.896	385.44
409.12	373.44
409.344	378.44
409.567	371.44
409.791	389.44
410.014	393.44
410.238	365.44
410.461	383.44
410.685	368.44
410.908	370.44
411.132	398.44
411.355	374.44
411.578	375.44
411.802	383.44
412.025	363.44
412.249	378.44
412.472	369.44
412.695	362.44
412.919	376.44
413.142	374.44
413.365	365.44
413.589	371.44
413.812	366.44
414.035	379.44
414.258	355.44
414.482	356.44
414.705	373.44
414.928	383.44
415.151	374.44
415.374	365.44
415.597	365.44
415.821	368.44
416.044	374.44
416.267	367.44
416.49	367.44
416.713	374.44
416.936	371.44
417.159	357.44
417.382	370.44
417.605	352.44
417.828	376.44
418.051	355.44
418.274	368.44
418.497	362.44
418.72	350.44
418.943	383.44
419.166	411.44
419.389	418.44
419.611	379.44
419.834	373.44
420.057	386.44
420.28	384.44
420.503	373.44
420.726	369.44
420.948	381.44
421.171	380.44
421.394	381.44
421.617	371.44
421.839	363.44
422.062	372.44
422.285	373.44
422.507	393.44
422.73	378.44
422.953	383.44
423.175	367.44
423.398	365.44
423.621	373.44
423.843	362.44
424.066	366.44
424.288	395.44
424.511	378.44
424.733	403.44
424.956	372.44
425.178	360.44
425.401	380.44
425.623	397.44
425.846	380.44
426.068	360.44
426.291	363.44
426.513	372.44
426.735	379.44
426.958	386.44
427.18	348.44
427.402	366.44
427.625	337.44
427.847	344.44
428.069	379.44
428.292	349.44
428.514	357.44
428.736	360.44
428.958	361.44
429.181	353.44
429.403	353.44
429.625	355.44
429.847	333.44
430.069	344.44
430.292	347.44
430.514	350.44
430.736	353.44
430.958	358.44
431.18	344.44
431.402	360.44
431.624	352.44
431.846	310.44
432.068	322.44
432.29	321.44
432.512	340.44
432.734	358.44
432.956	352.44
433.178	363.44
433.4	366.44
433.622	385.44
433.844	349.44
434.066	344.44
434.287	348.44
434.509	297.44
434.731	318.44
434.953	360.44
435.175	366.44
435.397	380.44
435.618	349.44
435.84	335.44
436.062	362.44
436.284	354.44
436.505	371.44
436.727	341.44
436.949	342.44
437.17	359.44
437.392	360.44
437.614	316.44
437.835	311.44
438.057	321.44
438.278	322.44
438.5	353.44
438.721	358.44
438.943	381.44
439.165	360.44
439.386	360.44
439.608	339.44
439.829	369.44
440.05	366.44
440.272	382.44
440.493	377.44
440.715	386.44
440.936	398.44
441.158	385.44
441.379	377.44
441.6	390.44
441.822	378.44
442.043	398.44
442.264	398.44
442.486	392.44
442.707	402.44
442.928	387.44
443.149	388.44
443.371	392.44
443.592	384.44
443.813	378.44
444.034	383.44
444.255	386.44
444.476	400.44
444.698	398.44
444.919	444.44
445.14	666.44
445.361	507.44
445.582	396.44
445.803	398.44
446.024	363.44
446.245	380.44
446.466	387.44
446.687	381.44
446.908	383.44
447.129	379.44
447.35	382.44
447.571	403.44
447.792	390.44
448.013	370.44
448.234	376.44
448.455	360.44
448.675	353.44
448.896	358.44
449.117	355.44
449.338	363.44
449.559	356.44
449.779	343.44
450	360.44
450.221	348.44
450.442	375.44
450.662	349.44
450.883	346.44
451.104	349.44
451.324	359.44
451.545	329.44
451.766	355.44
451.986	352.44
452.207	349.44
452.428	341.44
452.648	347.44
452.869	370.44
453.089	338.44
453.31	333.44
453.53	329.44
453.751	348.44
453.971	353.44
454.192	347.44
454.412	336.44
454.633	323.44
454.853	329.44
455.073	333.44
455.294	342.44
455.514	337.44
455.734	315.44
455.955	318.44
456.175	334.44
456.395	331.44
456.616	302.44
456.836	314.44
457.056	315.44
457.276	294.44
457.497	307.44
457.717	308.44
457.937	299.44
458.157	309.44
458.377	310.44
458.598	300.44
458.818	307.44
459.038	282.44
459.258	302.44
459.478	305.44
459.698	317.44
459.918	318.44
460.138	328.44
460.358	336.44
460.578	357.44
460.798	360.44
461.018	350.44
461.238	354.44
461.458	363.44
461.678	352.44
461.898	355.44
462.118	366.44
462.338	385.44
462.558	399.44
462.777	383.44
462.997	408.44
463.217	434.44
463.437	423.44
463.657	395.44
463.876	421.44
464.096	408.44
464.316	382.44
464.536	368.44
464.755	383.44
464.975	388.44
465.195	378.44
465.414	377.44
465.634	358.44
465.854	379.44
466.073	379.44
466.293	399.44
466.512	415.44
466.732	419.44
466.951	400.44
467.171	393.44
467.391	361.44
467.61	368.44
467.829	371.44
468.049	358.44
468.268	353.44
468.488	361.44
468.707	354.44
468.927	366.44
469.146	341.44
469.365	343.44
469.585	375.44
469.804	359.44
470.023	365.44
470.243	358.44
470.462	372.44
470.681	365.44
470.901	365.44
471.12	364.44
471.339	371.44
471.558	358.44
471.777	363.44
471.997	364.44
472.216	367.44
472.435	342.44
472.654	307.44
472.873	328.44
473.092	361.44
473.311	356.44
473.53	379.44
473.749	429.44
473.968	413.44
474.187	410.44
474.406	382.44
474.625	424.44
474.844	435.44
475.063	418.44
475.282	385.44
475.501	368.44
475.72	380.44
475.939	364.44
476.158	377.44
476.377	365.44
476.596	352.44
476.814	354.44
477.033	329.44
477.252	349.44
477.471	337.44
477.69	371.44
477.908	370.44
478.127	377.44
478.346	373.44
478.564	380.44
478.783	370.44
479.002	398.44
479.22	392.44
479.439	383.44
479.658	377.44
479.876	348.44
480.095	370.44
480.313	366.44
480.532	357.44
480.751	359.44
480.969	349.44
481.188	339.44
481.406	322.44
481.624	338.44
481.843	327.44
482.061	330.44
482.28	362.44
482.498	346.44
482.717	347.44
482.935	360.44
483.153	374.44
483.372	395.44
483.59	385.44
483.808	377.44
484.027	350.44
484.245	381.44
484.463	410.44
484.681	443.44
484.9	417.44
485.118	428.44
485.336	383.44
485.554	383.44
485.772	370.44
485.99	347.44
486.209	366.44
486.427	373.44
486.645	392.44
486.863	424.44
487.081	419.44
487.299	415.44
487.517	427.44
487.735	440.44
487.953	443.44
488.171	448.44
488.389	415.44
488.607	408.44
488.825	397.44
489.043	379.44
489.261	406.44
489.479	403.44
489.696	396.44
489.914	392.44
490.132	430.44
490.35	413.44
490.568	416.44
490.786	452.44
491.003	439.44
491.221	431.44
491.439	462.44
491.657	451.44
491.874	479.44
492.092	493.44
492.31	488.44
492.527	494.44
492.745	451.44
492.963	481.44
493.18	437.44
493.398	450.44
493.615	450.44
493.833	457.44
494.05	456.44
494.268	430.44
494.485	450.44
494.703	427.44
494.92	428.44
495.138	426.44
495.355	437.44
495.573	433.44
495.79	420.44
496.008	448.44
496.225	405.44
496.442	426.44
496.66	429.44
496.877	437.44
497.094	459.44
497.312	448.44
497.529	440.44
497.746	444.44
497.963	458.44
498.181	434.44
498.398	416.44
498.615	461.44
498.832	440.44
499.049	464.44
499.267	512.44
499.484	527.44
499.701	561.44
499.918	577.44
500.135	628.44
500.352	632.44
500.569	640.44
500.786	668.44
501.003	603.44
501.22	577.44
501.437	568.44
501.654	529.44
501.871	531.44
502.088	470.44
502.305	473.44
502.522	449.44
