Data from SampC_HRD10591_00045.txt Node
Date: Mon Jan 19 11:37:44 EST 2026
User: Yrep
Spectrometer: HR+D1059
Trigger mode: 0
Integration Time (sec): 3.443000E-1
Scans to average: 1
Electric dark correction enabled: true
Nonlinearity correction enabled: false
Boxcar width: 0
XAxis mode: Wavelengths
Number of Pixels in Spectrum: 2048
>>>>>Begin Spectral Data<<<<<
223.165	-22.69
223.4	-22.69
223.635	-22.69
223.869	-28.69
224.104	-23.69
224.338	-9.69
224.573	-13.69
224.808	-27.69
225.042	-5.69
225.277	-9.69
225.511	6.31
225.746	-2.69
225.98	13.31
226.215	20.31
226.449	21.31
226.683	20.31
226.918	26.31
227.152	36.31
227.387	33.31
227.621	42.31
227.856	45.31
228.09	47.31
228.324	53.31
228.559	56.31
228.793	68.31
229.027	66.31
229.262	77.31
229.496	92.31
229.73	85.31
229.964	115.31
230.199	101.31
230.433	97.31
230.667	95.31
230.901	96.31
231.136	98.31
231.37	101.31
231.604	100.31
231.838	103.31
232.072	107.31
232.306	116.31
232.541	113.31
232.775	102.31
233.009	104.31
233.243	92.31
233.477	101.31
233.711	103.31
233.945	115.31
234.179	120.31
234.413	120.31
234.647	112.31
234.881	103.31
235.115	106.31
235.349	120.31
235.583	91.31
235.817	124.31
236.051	115.31
236.285	124.31
236.519	119.31
236.753	136.31
236.987	167.31
237.221	175.31
237.455	196.31
237.689	200.31
237.922	149.31
238.156	130.31
238.39	130.31
238.624	114.31
238.858	121.31
239.091	109.31
239.325	108.31
239.559	96.31
239.793	108.31
240.027	112.31
240.26	110.31
240.494	111.31
240.728	109.31
240.961	97.31
241.195	105.31
241.429	103.31
241.662	105.31
241.896	102.31
242.13	102.31
242.363	109.31
242.597	126.31
242.83	127.31
243.064	104.31
243.298	114.31
243.531	99.31
243.765	120.31
243.998	113.31
244.232	140.31
244.465	117.31
244.699	128.31
244.932	114.31
245.166	127.31
245.399	112.31
245.633	117.31
245.866	126.31
246.099	100.31
246.333	135.31
246.566	122.31
246.8	115.31
247.033	114.31
247.266	123.31
247.5	123.31
247.733	116.31
247.966	112.31
248.2	117.31
248.433	94.31
248.666	114.31
248.899	129.31
249.133	124.31
249.366	132.31
249.599	127.31
249.832	119.31
250.066	137.31
250.299	115.31
250.532	126.31
250.765	130.31
250.998	144.31
251.231	126.31
251.465	122.31
251.698	137.31
251.931	140.31
252.164	141.31
252.397	122.31
252.63	122.31
252.863	130.31
253.096	126.31
253.329	121.31
253.562	135.31
253.795	126.31
254.028	154.31
254.261	115.31
254.494	138.31
254.727	148.31
254.96	142.31
255.193	130.31
255.426	146.31
255.659	129.31
255.892	136.31
256.124	150.31
256.357	167.31
256.59	172.31
256.823	177.31
257.056	224.31
257.289	216.31
257.521	221.31
257.754	261.31
257.987	237.31
258.22	186.31
258.452	158.31
258.685	157.31
258.918	145.31
259.151	149.31
259.383	149.31
259.616	123.31
259.849	158.31
260.081	155.31
260.314	141.31
260.547	138.31
260.779	152.31
261.012	143.31
261.244	143.31
261.477	145.31
261.71	157.31
261.942	151.31
262.175	152.31
262.407	153.31
262.64	155.31
262.872	164.31
263.105	195.31
263.337	194.31
263.57	200.31
263.802	179.31
264.035	171.31
264.267	177.31
264.499	162.31
264.732	198.31
264.964	171.31
265.197	196.31
265.429	200.31
265.661	212.31
265.894	199.31
266.126	221.31
266.358	270.31
266.591	204.31
266.823	194.31
267.055	156.31
267.287	185.31
267.52	161.31
267.752	159.31
267.984	159.31
268.216	166.31
268.448	175.31
268.681	169.31
268.913	155.31
269.145	160.31
269.377	169.31
269.609	148.31
269.841	156.31
270.073	173.31
270.306	152.31
270.538	163.31
270.77	158.31
271.002	166.31
271.234	161.31
271.466	161.31
271.698	158.31
271.93	137.31
272.162	170.31
272.394	170.31
272.626	153.31
272.858	156.31
273.09	142.31
273.322	159.31
273.553	160.31
273.785	177.31
274.017	146.31
274.249	178.31
274.481	175.31
274.713	178.31
274.945	169.31
275.176	176.31
275.408	166.31
275.64	169.31
275.872	192.31
276.104	182.31
276.335	175.31
276.567	170.31
276.799	176.31
277.031	178.31
277.262	184.31
277.494	177.31
277.726	191.31
277.957	202.31
278.189	200.31
278.421	223.31
278.652	227.31
278.884	232.31
279.115	292.31
279.347	400.31
279.579	550.31
279.81	604.31
280.042	490.31
280.273	454.31
280.505	461.31
280.736	332.31
280.968	273.31
281.199	266.31
281.431	287.31
281.662	368.31
281.894	405.31
282.125	351.31
282.356	277.31
282.588	254.31
282.819	248.31
283.051	209.31
283.282	209.31
283.513	227.31
283.745	208.31
283.976	201.31
284.207	196.31
284.439	188.31
284.67	225.31
284.901	199.31
285.132	249.31
285.364	265.31
285.595	234.31
285.826	201.31
286.057	208.31
286.288	177.31
286.52	202.31
286.751	208.31
286.982	190.31
287.213	188.31
287.444	204.31
287.675	179.31
287.906	202.31
288.138	204.31
288.369	196.31
288.6	210.31
288.831	185.31
289.062	213.31
289.293	195.31
289.524	198.31
289.755	192.31
289.986	203.31
290.217	192.31
290.448	186.31
290.679	195.31
290.91	206.31
291.141	213.31
291.371	203.31
291.602	209.31
291.833	184.31
292.064	200.31
292.295	200.31
292.526	212.31
292.757	214.31
292.987	233.31
293.218	214.31
293.449	234.31
293.68	228.31
293.91	222.31
294.141	219.31
294.372	210.31
294.603	204.31
294.833	192.31
295.064	211.31
295.295	204.31
295.525	187.31
295.756	205.31
295.987	193.31
296.217	186.31
296.448	201.31
296.679	201.31
296.909	197.31
297.14	195.31
297.37	204.31
297.601	187.31
297.831	219.31
298.062	204.31
298.292	188.31
298.523	215.31
298.753	211.31
298.984	216.31
299.214	225.31
299.445	208.31
299.675	206.31
299.905	216.31
300.136	215.31
300.366	214.31
300.597	195.31
300.827	208.31
301.057	208.31
301.288	219.31
301.518	230.31
301.748	232.31
301.979	268.31
302.209	222.31
302.439	213.31
302.669	246.31
302.9	237.31
303.13	245.31
303.36	264.31
303.59	251.31
303.82	262.31
304.051	275.31
304.281	279.31
304.511	288.31
304.741	303.31
304.971	340.31
305.201	419.31
305.431	442.31
305.661	480.31
305.891	521.31
306.121	500.31
306.352	446.31
306.582	446.31
306.812	433.31
307.042	411.31
307.272	422.31
307.502	438.31
307.731	565.31
307.961	769.31
308.191	1071.31
308.421	1216.31
308.651	1038.31
308.881	954.31
309.111	1160.31
309.341	1456.31
309.571	1406.31
309.8	936.31
310.03	639.31
310.26	504.31
310.49	412.31
310.72	373.31
310.949	378.31
311.179	351.31
311.409	324.31
311.639	294.31
311.868	305.31
312.098	305.31
312.328	295.31
312.557	284.31
312.787	279.31
313.017	267.31
313.246	254.31
313.476	271.31
313.706	250.31
313.935	262.31
314.165	266.31
314.394	255.31
314.624	243.31
314.853	253.31
315.083	250.31
315.312	249.31
315.542	248.31
315.771	227.31
316.001	251.31
316.23	243.31
316.46	238.31
316.689	232.31
316.919	240.31
317.148	232.31
317.377	236.31
317.607	226.31
317.836	239.31
318.065	238.31
318.295	224.31
318.524	236.31
318.753	236.31
318.983	235.31
319.212	235.31
319.441	221.31
319.67	230.31
319.9	240.31
320.129	232.31
320.358	242.31
320.587	228.31
320.816	240.31
321.046	226.31
321.275	233.31
321.504	240.31
321.733	225.31
321.962	232.31
322.191	222.31
322.42	228.31
322.649	234.31
322.878	221.31
323.108	236.31
323.337	258.31
323.566	230.31
323.795	242.31
324.024	226.31
324.253	221.31
324.482	249.31
324.71	243.31
324.939	242.31
325.168	211.31
325.397	243.31
325.626	242.31
325.855	232.31
326.084	242.31
326.313	224.31
326.542	233.31
326.77	234.31
326.999	240.31
327.228	248.31
327.457	242.31
327.686	238.31
327.914	230.31
328.143	244.31
328.372	252.31
328.6	238.31
328.829	240.31
329.058	235.31
329.287	224.31
329.515	243.31
329.744	238.31
329.972	245.31
330.201	231.31
330.43	237.31
330.658	248.31
330.887	250.31
331.115	239.31
331.344	248.31
331.572	251.31
331.801	259.31
332.03	256.31
332.258	257.31
332.486	241.31
332.715	260.31
332.943	254.31
333.172	249.31
333.4	274.31
333.629	276.31
333.857	275.31
334.085	259.31
334.314	267.31
334.542	295.31
334.771	270.31
334.999	271.31
335.227	269.31
335.455	277.31
335.684	272.31
335.912	253.31
336.14	257.31
336.369	246.31
336.597	275.31
336.825	245.31
337.053	255.31
337.281	253.31
337.51	251.31
337.738	256.31
337.966	264.31
338.194	245.31
338.422	243.31
338.65	251.31
338.878	259.31
339.106	252.31
339.334	250.31
339.562	251.31
339.79	241.31
340.018	255.31
340.246	245.31
340.474	244.31
340.702	257.31
340.93	225.31
341.158	252.31
341.386	238.31
341.614	244.31
341.842	240.31
342.07	236.31
342.298	254.31
342.526	267.31
342.754	249.31
342.981	253.31
343.209	255.31
343.437	286.31
343.665	270.31
343.893	276.31
344.12	287.31
344.348	286.31
344.576	250.31
344.804	247.31
345.031	257.31
345.259	240.31
345.487	249.31
345.714	244.31
345.942	234.31
346.17	254.31
346.397	260.31
346.625	256.31
346.853	242.31
347.08	233.31
347.308	235.31
347.535	237.31
347.763	258.31
347.99	255.31
348.218	260.31
348.445	258.31
348.673	246.31
348.9	260.31
349.128	252.31
349.355	255.31
349.583	269.31
349.81	257.31
350.037	255.31
350.265	252.31
350.492	271.31
350.72	252.31
350.947	246.31
351.174	248.31
351.402	264.31
351.629	254.31
351.856	261.31
352.083	257.31
352.311	254.31
352.538	249.31
352.765	268.31
352.992	270.31
353.22	275.31
353.447	270.31
353.674	275.31
353.901	290.31
354.128	294.31
354.355	286.31
354.583	290.31
354.81	289.31
355.037	288.31
355.264	307.31
355.491	300.31
355.718	313.31
355.945	314.31
356.172	330.31
356.399	336.31
356.626	363.31
356.853	362.31
357.08	351.31
357.307	387.31
357.534	411.31
357.761	435.31
357.988	510.31
358.215	556.31
358.441	613.31
358.668	674.31
358.895	664.31
359.122	564.31
359.349	513.31
359.576	444.31
359.802	412.31
360.029	388.31
360.256	384.31
360.483	370.31
360.709	364.31
360.936	362.31
361.163	350.31
361.39	326.31
361.616	321.31
361.843	317.31
362.07	328.31
362.296	314.31
362.523	302.31
362.749	301.31
362.976	291.31
363.203	291.31
363.429	287.31
363.656	296.31
363.882	294.31
364.109	300.31
364.335	288.31
364.562	276.31
364.788	277.31
365.015	290.31
365.241	282.31
365.468	268.31
365.694	269.31
365.92	270.31
366.147	277.31
366.373	261.31
366.599	284.31
366.826	264.31
367.052	262.31
367.278	264.31
367.505	267.31
367.731	270.31
367.957	266.31
368.184	253.31
368.41	270.31
368.636	279.31
368.862	272.31
369.089	281.31
369.315	287.31
369.541	276.31
369.767	276.31
369.993	271.31
370.219	273.31
370.445	289.31
370.672	275.31
370.898	273.31
371.124	254.31
371.35	268.31
371.576	282.31
371.802	289.31
372.028	289.31
372.254	294.31
372.48	292.31
372.706	280.31
372.932	286.31
373.158	272.31
373.384	280.31
373.61	278.31
373.835	283.31
374.061	282.31
374.287	286.31
374.513	278.31
374.739	282.31
374.965	291.31
375.191	280.31
375.416	285.31
375.642	291.31
375.868	274.31
376.094	265.31
376.319	276.31
376.545	276.31
376.771	280.31
376.997	282.31
377.222	269.31
377.448	287.31
377.674	281.31
377.899	283.31
378.125	277.31
378.35	285.31
378.576	270.31
378.802	261.31
379.027	300.31
379.253	274.31
379.478	284.31
379.704	278.31
379.929	266.31
380.155	285.31
380.38	276.31
380.606	293.31
380.831	281.31
381.057	302.31
381.282	286.31
381.507	292.31
381.733	292.31
381.958	305.31
382.184	309.31
382.409	314.31
382.634	322.31
382.86	333.31
383.085	341.31
383.31	358.31
383.535	351.31
383.761	354.31
383.986	357.31
384.211	336.31
384.436	321.31
384.662	330.31
384.887	316.31
385.112	319.31
385.337	314.31
385.562	328.31
385.787	317.31
386.013	320.31
386.238	321.31
386.463	340.31
386.688	361.31
386.913	355.31
387.138	317.31
387.363	334.31
387.588	326.31
387.813	330.31
388.038	334.31
388.263	347.31
388.488	353.31
388.713	338.31
388.938	328.31
389.163	333.31
389.387	315.31
389.612	332.31
389.837	323.31
390.062	334.31
390.287	328.31
390.512	328.31
390.736	369.31
390.961	335.31
391.186	337.31
391.411	354.31
391.636	361.31
391.86	363.31
392.085	371.31
392.31	362.31
392.534	390.31
392.759	384.31
392.984	390.31
393.208	446.31
393.433	460.31
393.658	522.31
393.882	625.31
394.107	987.31
394.331	1678.31
394.556	2142.31
394.78	1524.31
395.005	914.31
395.229	762.31
395.454	760.31
395.678	886.31
395.903	1423.31
396.127	2315.31
396.352	2704.31
396.576	1705.31
396.801	1045.31
397.025	766.31
397.249	638.31
397.474	590.31
397.698	547.31
397.922	506.31
398.147	458.31
398.371	466.31
398.595	456.31
398.82	447.31
399.044	458.31
399.268	456.31
399.492	485.31
399.717	495.31
399.941	463.31
400.165	473.31
400.389	421.31
400.613	408.31
400.837	396.31
401.062	379.31
401.286	418.31
401.51	385.31
401.734	391.31
401.958	385.31
402.182	389.31
402.406	399.31
402.63	381.31
402.854	378.31
403.078	380.31
403.302	377.31
403.526	396.31
403.75	411.31
403.974	414.31
404.198	413.31
404.422	402.31
404.645	389.31
404.869	389.31
405.093	391.31
405.317	402.31
405.541	392.31
405.765	389.31
405.988	380.31
406.212	416.31
406.436	406.31
406.66	410.31
406.883	396.31
407.107	404.31
407.331	395.31
407.555	420.31
407.778	410.31
408.002	425.31
408.226	412.31
408.449	395.31
408.673	389.31
408.896	380.31
409.12	398.31
409.344	387.31
409.567	379.31
409.791	377.31
410.014	408.31
410.238	368.31
410.461	373.31
410.685	370.31
410.908	383.31
411.132	411.31
411.355	389.31
411.578	380.31
411.802	380.31
412.025	392.31
412.249	386.31
412.472	361.31
412.695	380.31
412.919	370.31
413.142	377.31
413.365	372.31
413.589	395.31
413.812	382.31
414.035	382.31
414.258	363.31
414.482	365.31
414.705	375.31
414.928	369.31
415.151	370.31
415.374	356.31
415.597	378.31
415.821	367.31
416.044	343.31
416.267	368.31
416.49	359.31
416.713	363.31
416.936	381.31
417.159	361.31
417.382	405.31
417.605	386.31
417.828	382.31
418.051	363.31
418.274	378.31
418.497	383.31
418.72	373.31
418.943	394.31
419.166	404.31
419.389	391.31
419.611	388.31
419.834	388.31
420.057	381.31
420.28	369.31
420.503	379.31
420.726	372.31
420.948	365.31
421.171	376.31
421.394	379.31
421.617	392.31
421.839	382.31
422.062	378.31
422.285	387.31
422.507	413.31
422.73	369.31
422.953	371.31
423.175	365.31
423.398	386.31
423.621	384.31
423.843	375.31
424.066	362.31
424.288	381.31
424.511	379.31
424.733	386.31
424.956	370.31
425.178	376.31
425.401	395.31
425.623	386.31
425.846	387.31
426.068	366.31
426.291	360.31
426.513	353.31
426.735	357.31
426.958	368.31
427.18	338.31
427.402	366.31
427.625	364.31
427.847	354.31
428.069	348.31
428.292	359.31
428.514	377.31
428.736	364.31
428.958	358.31
429.181	363.31
429.403	369.31
429.625	350.31
429.847	354.31
430.069	373.31
430.292	339.31
430.514	341.31
430.736	338.31
430.958	365.31
431.18	350.31
431.402	349.31
431.624	353.31
431.846	326.31
432.068	310.31
432.29	307.31
432.512	339.31
432.734	361.31
432.956	369.31
433.178	367.31
433.4	375.31
433.622	375.31
433.844	364.31
434.066	356.31
434.287	332.31
434.509	337.31
434.731	339.31
434.953	349.31
435.175	379.31
435.397	373.31
435.618	350.31
435.84	335.31
436.062	353.31
436.284	360.31
436.505	348.31
436.727	373.31
436.949	348.31
437.17	345.31
437.392	342.31
437.614	342.31
437.835	309.31
438.057	318.31
438.278	334.31
438.5	350.31
438.721	355.31
438.943	366.31
439.165	358.31
439.386	369.31
439.608	386.31
439.829	357.31
440.05	369.31
440.272	381.31
440.493	381.31
440.715	406.31
440.936	405.31
441.158	393.31
441.379	384.31
441.6	398.31
441.822	400.31
442.043	376.31
442.264	414.31
442.486	379.31
442.707	382.31
442.928	381.31
443.149	402.31
443.371	391.31
443.592	386.31
443.813	387.31
444.034	399.31
444.255	398.31
444.476	417.31
444.698	408.31
444.919	422.31
445.14	643.31
445.361	525.31
445.582	406.31
445.803	399.31
446.024	378.31
446.245	398.31
446.466	389.31
446.687	386.31
446.908	407.31
447.129	388.31
447.35	393.31
447.571	379.31
447.792	363.31
448.013	385.31
448.234	362.31
448.455	375.31
448.675	358.31
448.896	368.31
449.117	362.31
449.338	365.31
449.559	368.31
449.779	356.31
450	357.31
450.221	366.31
450.442	350.31
450.662	364.31
450.883	352.31
451.104	363.31
451.324	337.31
451.545	348.31
451.766	349.31
451.986	350.31
452.207	357.31
452.428	333.31
452.648	350.31
452.869	357.31
453.089	346.31
453.31	362.31
453.53	320.31
453.751	330.31
453.971	352.31
454.192	346.31
454.412	337.31
454.633	340.31
454.853	331.31
455.073	333.31
455.294	306.31
455.514	328.31
455.734	311.31
455.955	316.31
456.175	324.31
456.395	319.31
456.616	308.31
456.836	326.31
457.056	298.31
457.276	320.31
457.497	321.31
457.717	297.31
457.937	303.31
458.157	310.31
458.377	285.31
458.598	301.31
458.818	295.31
459.038	320.31
459.258	313.31
459.478	315.31
459.698	322.31
459.918	329.31
460.138	353.31
460.358	356.31
460.578	357.31
460.798	377.31
461.018	350.31
461.238	357.31
461.458	356.31
461.678	373.31
461.898	387.31
462.118	354.31
462.338	366.31
462.558	351.31
462.777	400.31
462.997	413.31
463.217	399.31
463.437	421.31
463.657	412.31
463.876	396.31
464.096	398.31
464.316	401.31
464.536	410.31
464.755	413.31
464.975	382.31
465.195	379.31
465.414	365.31
465.634	362.31
465.854	385.31
466.073	394.31
466.293	419.31
466.512	423.31
466.732	428.31
466.951	421.31
467.171	405.31
467.391	401.31
467.61	400.31
467.829	387.31
468.049	403.31
468.268	368.31
468.488	362.31
468.707	361.31
468.927	361.31
469.146	363.31
469.365	374.31
469.585	369.31
469.804	369.31
470.023	360.31
470.243	369.31
470.462	382.31
470.681	371.31
470.901	363.31
471.12	363.31
471.339	350.31
471.558	357.31
471.777	351.31
471.997	373.31
472.216	358.31
472.435	340.31
472.654	350.31
472.873	362.31
473.092	371.31
473.311	371.31
473.53	389.31
473.749	412.31
473.968	408.31
474.187	421.31
474.406	405.31
474.625	422.31
474.844	427.31
475.063	416.31
475.282	375.31
475.501	346.31
475.72	378.31
475.939	374.31
476.158	377.31
476.377	381.31
476.596	354.31
476.814	343.31
477.033	334.31
477.252	342.31
477.471	355.31
477.69	374.31
477.908	382.31
478.127	388.31
478.346	358.31
478.564	365.31
478.783	365.31
479.002	387.31
479.22	394.31
479.439	385.31
479.658	359.31
479.876	368.31
480.095	354.31
480.313	386.31
480.532	381.31
480.751	368.31
480.969	330.31
481.188	344.31
481.406	342.31
481.624	324.31
481.843	348.31
482.061	346.31
482.28	359.31
482.498	362.31
482.717	355.31
482.935	332.31
483.153	356.31
483.372	387.31
483.59	381.31
483.808	361.31
484.027	381.31
484.245	406.31
484.463	408.31
484.681	418.31
484.9	397.31
485.118	393.31
485.336	396.31
485.554	369.31
485.772	362.31
485.99	372.31
486.209	370.31
486.427	378.31
486.645	389.31
486.863	415.31
487.081	404.31
487.299	415.31
487.517	411.31
487.735	438.31
487.953	456.31
488.171	440.31
488.389	458.31
488.607	432.31
488.825	415.31
489.043	400.31
489.261	402.31
489.479	399.31
489.696	402.31
489.914	394.31
490.132	416.31
490.35	423.31
490.568	428.31
490.786	410.31
491.003	442.31
491.221	437.31
491.439	429.31
491.657	474.31
491.874	482.31
492.092	504.31
492.31	505.31
492.527	480.31
492.745	494.31
492.963	466.31
493.18	460.31
493.398	468.31
493.615	449.31
493.833	443.31
494.05	429.31
494.268	451.31
494.485	446.31
494.703	437.31
494.92	438.31
495.138	433.31
495.355	452.31
495.573	442.31
495.79	449.31
496.008	437.31
496.225	451.31
496.442	438.31
496.66	465.31
496.877	449.31
497.094	452.31
497.312	436.31
497.529	443.31
497.746	454.31
497.963	429.31
498.181	440.31
498.398	440.31
498.615	445.31
498.832	457.31
499.049	480.31
499.267	501.31
499.484	546.31
499.701	562.31
499.918	597.31
500.135	639.31
500.352	669.31
500.569	677.31
500.786	660.31
501.003	624.31
501.22	611.31
501.437	570.31
501.654	535.31
501.871	508.31
502.088	472.31
502.305	461.31
502.522	482.31
502.739	476.31
