Data from SampC_HRD10591_00062.txt Node
Date: Mon Jan 19 11:37:50 EST 2026
User: Yrep
Spectrometer: HR+D1059
Trigger mode: 0
Integration Time (sec): 3.443000E-1
Scans to average: 1
Electric dark correction enabled: true
Nonlinearity correction enabled: false
Boxcar width: 0
XAxis mode: Wavelengths
Number of Pixels in Spectrum: 2048
>>>>>Begin Spectral Data<<<<<
223.165	-23.25
223.4	-23.25
223.635	-23.25
223.869	-26.25
224.104	-30.25
224.338	-11.25
224.573	-15.25
224.808	-14.25
225.042	0.75
225.277	2.75
225.511	-9.25
225.746	5.75
225.98	2.75
226.215	10.75
226.449	28.75
226.683	27.75
226.918	27.75
227.152	22.75
227.387	18.75
227.621	27.75
227.856	37.75
228.09	43.75
228.324	49.75
228.559	56.75
228.793	97.75
229.027	95.75
229.262	100.75
229.496	86.75
229.73	94.75
229.964	97.75
230.199	101.75
230.433	97.75
230.667	106.75
230.901	107.75
231.136	101.75
231.37	113.75
231.604	117.75
231.838	120.75
232.072	116.75
232.306	132.75
232.541	127.75
232.775	123.75
233.009	117.75
233.243	102.75
233.477	114.75
233.711	116.75
233.945	113.75
234.179	120.75
234.413	114.75
234.647	136.75
234.881	102.75
235.115	118.75
235.349	112.75
235.583	113.75
235.817	117.75
236.051	118.75
236.285	143.75
236.519	134.75
236.753	163.75
236.987	191.75
237.221	190.75
237.455	221.75
237.689	213.75
237.922	177.75
238.156	146.75
238.39	144.75
238.624	129.75
238.858	125.75
239.091	124.75
239.325	127.75
239.559	123.75
239.793	111.75
240.027	121.75
240.26	116.75
240.494	109.75
240.728	98.75
240.961	105.75
241.195	105.75
241.429	122.75
241.662	100.75
241.896	110.75
242.13	104.75
242.363	113.75
242.597	125.75
242.83	108.75
243.064	128.75
243.298	117.75
243.531	107.75
243.765	138.75
243.998	132.75
244.232	129.75
244.465	123.75
244.699	103.75
244.932	121.75
245.166	115.75
245.399	125.75
245.633	112.75
245.866	125.75
246.099	113.75
246.333	133.75
246.566	127.75
246.8	125.75
247.033	140.75
247.266	146.75
247.5	134.75
247.733	138.75
247.966	127.75
248.2	123.75
248.433	109.75
248.666	135.75
248.899	134.75
249.133	129.75
249.366	145.75
249.599	151.75
249.832	129.75
250.066	138.75
250.299	137.75
250.532	141.75
250.765	133.75
250.998	139.75
251.231	142.75
251.465	138.75
251.698	159.75
251.931	132.75
252.164	143.75
252.397	141.75
252.63	147.75
252.863	143.75
253.096	155.75
253.329	152.75
253.562	153.75
253.795	151.75
254.028	135.75
254.261	131.75
254.494	139.75
254.727	139.75
254.96	152.75
255.193	140.75
255.426	147.75
255.659	160.75
255.892	166.75
256.124	165.75
256.357	180.75
256.59	184.75
256.823	205.75
257.056	267.75
257.289	270.75
257.521	278.75
257.754	308.75
257.987	287.75
258.22	227.75
258.452	192.75
258.685	179.75
258.918	175.75
259.151	182.75
259.383	159.75
259.616	169.75
259.849	164.75
260.081	164.75
260.314	164.75
260.547	153.75
260.779	161.75
261.012	174.75
261.244	171.75
261.477	187.75
261.71	160.75
261.942	167.75
262.175	165.75
262.407	179.75
262.64	168.75
262.872	182.75
263.105	201.75
263.337	229.75
263.57	219.75
263.802	209.75
264.035	192.75
264.267	197.75
264.499	177.75
264.732	192.75
264.964	189.75
265.197	218.75
265.429	257.75
265.661	256.75
265.894	246.75
266.126	267.75
266.358	281.75
266.591	244.75
266.823	223.75
267.055	197.75
267.287	193.75
267.52	190.75
267.752	191.75
267.984	181.75
268.216	174.75
268.448	176.75
268.681	181.75
268.913	177.75
269.145	168.75
269.377	179.75
269.609	187.75
269.841	171.75
270.073	180.75
270.306	165.75
270.538	183.75
270.77	170.75
271.002	175.75
271.234	159.75
271.466	175.75
271.698	181.75
271.93	171.75
272.162	197.75
272.394	180.75
272.626	170.75
272.858	160.75
273.09	180.75
273.322	197.75
273.553	173.75
273.785	205.75
274.017	187.75
274.249	204.75
274.481	198.75
274.713	194.75
274.945	209.75
275.176	198.75
275.408	199.75
275.64	183.75
275.872	195.75
276.104	199.75
276.335	193.75
276.567	196.75
276.799	198.75
277.031	182.75
277.262	212.75
277.494	225.75
277.726	227.75
277.957	263.75
278.189	274.75
278.421	249.75
278.652	270.75
278.884	281.75
279.115	411.75
279.347	544.75
279.579	738.75
279.81	816.75
280.042	673.75
280.273	638.75
280.505	612.75
280.736	404.75
280.968	309.75
281.199	313.75
281.431	370.75
281.662	461.75
281.894	516.75
282.125	397.75
282.356	313.75
282.588	265.75
282.819	258.75
283.051	247.75
283.282	242.75
283.513	237.75
283.745	229.75
283.976	238.75
284.207	232.75
284.439	240.75
284.67	240.75
284.901	240.75
285.132	299.75
285.364	346.75
285.595	306.75
285.826	250.75
286.057	217.75
286.288	206.75
286.52	198.75
286.751	211.75
286.982	201.75
287.213	222.75
287.444	228.75
287.675	221.75
287.906	246.75
288.138	251.75
288.369	236.75
288.6	225.75
288.831	205.75
289.062	228.75
289.293	215.75
289.524	217.75
289.755	223.75
289.986	245.75
290.217	214.75
290.448	225.75
290.679	225.75
290.91	229.75
291.141	215.75
291.371	241.75
291.602	240.75
291.833	236.75
292.064	230.75
292.295	231.75
292.526	239.75
292.757	255.75
292.987	268.75
293.218	238.75
293.449	271.75
293.68	274.75
293.91	253.75
294.141	249.75
294.372	263.75
294.603	253.75
294.833	220.75
295.064	241.75
295.295	226.75
295.525	224.75
295.756	216.75
295.987	215.75
296.217	231.75
296.448	221.75
296.679	240.75
296.909	238.75
297.14	242.75
297.37	235.75
297.601	216.75
297.831	226.75
298.062	226.75
298.292	235.75
298.523	229.75
298.753	251.75
298.984	240.75
299.214	237.75
299.445	227.75
299.675	226.75
299.905	251.75
300.136	238.75
300.366	243.75
300.597	248.75
300.827	262.75
301.057	252.75
301.288	262.75
301.518	251.75
301.748	259.75
301.979	311.75
302.209	279.75
302.439	276.75
302.669	283.75
302.9	288.75
303.13	294.75
303.36	313.75
303.59	310.75
303.82	299.75
304.051	331.75
304.281	329.75
304.511	350.75
304.741	360.75
304.971	419.75
305.201	488.75
305.431	557.75
305.661	606.75
305.891	645.75
306.121	593.75
306.352	528.75
306.582	556.75
306.812	553.75
307.042	517.75
307.272	473.75
307.502	540.75
307.731	692.75
307.961	1000.75
308.191	1435.75
308.421	1648.75
308.651	1414.75
308.881	1324.75
309.111	1574.75
309.341	1976.75
309.571	1898.75
309.8	1191.75
310.03	811.75
310.26	630.75
310.49	514.75
310.72	481.75
310.949	420.75
311.179	400.75
311.409	377.75
311.639	366.75
311.868	358.75
312.098	349.75
312.328	354.75
312.557	334.75
312.787	335.75
313.017	338.75
313.246	303.75
313.476	289.75
313.706	309.75
313.935	281.75
314.165	310.75
314.394	277.75
314.624	285.75
314.853	295.75
315.083	290.75
315.312	290.75
315.542	302.75
315.771	296.75
316.001	276.75
316.23	286.75
316.46	279.75
316.689	275.75
316.919	294.75
317.148	295.75
317.377	298.75
317.607	278.75
317.836	264.75
318.065	287.75
318.295	273.75
318.524	284.75
318.753	275.75
318.983	270.75
319.212	273.75
319.441	259.75
319.67	254.75
319.9	262.75
320.129	270.75
320.358	262.75
320.587	275.75
320.816	269.75
321.046	266.75
321.275	271.75
321.504	261.75
321.733	250.75
321.962	272.75
322.191	269.75
322.42	268.75
322.649	269.75
322.878	273.75
323.108	265.75
323.337	272.75
323.566	266.75
323.795	290.75
324.024	285.75
324.253	276.75
324.482	273.75
324.71	251.75
324.939	267.75
325.168	275.75
325.397	273.75
325.626	274.75
325.855	270.75
326.084	250.75
326.313	290.75
326.542	289.75
326.77	261.75
326.999	259.75
327.228	275.75
327.457	277.75
327.686	280.75
327.914	283.75
328.143	286.75
328.372	272.75
328.6	273.75
328.829	278.75
329.058	277.75
329.287	274.75
329.515	257.75
329.744	283.75
329.972	283.75
330.201	286.75
330.43	259.75
330.658	277.75
330.887	289.75
331.115	293.75
331.344	272.75
331.572	289.75
331.801	286.75
332.03	281.75
332.258	295.75
332.486	280.75
332.715	289.75
332.943	295.75
333.172	299.75
333.4	303.75
333.629	303.75
333.857	324.75
334.085	315.75
334.314	331.75
334.542	299.75
334.771	313.75
334.999	321.75
335.227	340.75
335.455	293.75
335.684	295.75
335.912	306.75
336.14	303.75
336.369	306.75
336.597	299.75
336.825	289.75
337.053	313.75
337.281	303.75
337.51	292.75
337.738	302.75
337.966	291.75
338.194	280.75
338.422	295.75
338.65	281.75
338.878	312.75
339.106	293.75
339.334	294.75
339.562	285.75
339.79	282.75
340.018	278.75
340.246	288.75
340.474	282.75
340.702	294.75
340.93	276.75
341.158	261.75
341.386	292.75
341.614	288.75
341.842	285.75
342.07	281.75
342.298	292.75
342.526	280.75
342.754	287.75
342.981	282.75
343.209	279.75
343.437	322.75
343.665	307.75
343.893	335.75
344.12	324.75
344.348	299.75
344.576	295.75
344.804	299.75
345.031	291.75
345.259	285.75
345.487	297.75
345.714	292.75
345.942	284.75
346.17	300.75
346.397	279.75
346.625	275.75
346.853	287.75
347.08	281.75
347.308	293.75
347.535	288.75
347.763	290.75
347.99	303.75
348.218	295.75
348.445	273.75
348.673	293.75
348.9	295.75
349.128	291.75
349.355	292.75
349.583	275.75
349.81	301.75
350.037	274.75
350.265	298.75
350.492	283.75
350.72	294.75
350.947	279.75
351.174	309.75
351.402	310.75
351.629	270.75
351.856	305.75
352.083	307.75
352.311	289.75
352.538	304.75
352.765	303.75
352.992	311.75
353.22	312.75
353.447	317.75
353.674	315.75
353.901	330.75
354.128	319.75
354.355	333.75
354.583	338.75
354.81	338.75
355.037	333.75
355.264	347.75
355.491	359.75
355.718	348.75
355.945	363.75
356.172	358.75
356.399	373.75
356.626	410.75
356.853	427.75
357.08	429.75
357.307	451.75
357.534	485.75
357.761	506.75
357.988	571.75
358.215	657.75
358.441	745.75
358.668	825.75
358.895	813.75
359.122	680.75
359.349	581.75
359.576	509.75
359.802	463.75
360.029	455.75
360.256	449.75
360.483	442.75
360.709	419.75
360.936	410.75
361.163	420.75
361.39	412.75
361.616	375.75
361.843	364.75
362.07	366.75
362.296	356.75
362.523	356.75
362.749	374.75
362.976	332.75
363.203	359.75
363.429	325.75
363.656	325.75
363.882	324.75
364.109	338.75
364.335	326.75
364.562	335.75
364.788	301.75
365.015	331.75
365.241	329.75
365.468	322.75
365.694	309.75
365.92	324.75
366.147	298.75
366.373	305.75
366.599	293.75
366.826	308.75
367.052	321.75
367.278	318.75
367.505	312.75
367.731	314.75
367.957	295.75
368.184	302.75
368.41	331.75
368.636	313.75
368.862	295.75
369.089	316.75
369.315	308.75
369.541	316.75
369.767	313.75
369.993	308.75
370.219	308.75
370.445	306.75
370.672	327.75
370.898	315.75
371.124	319.75
371.35	293.75
371.576	330.75
371.802	340.75
372.028	343.75
372.254	326.75
372.48	326.75
372.706	332.75
372.932	330.75
373.158	336.75
373.384	324.75
373.61	339.75
373.835	337.75
374.061	319.75
374.287	343.75
374.513	340.75
374.739	352.75
374.965	344.75
375.191	347.75
375.416	325.75
375.642	325.75
375.868	322.75
376.094	325.75
376.319	308.75
376.545	307.75
376.771	318.75
376.997	316.75
377.222	319.75
377.448	320.75
377.674	319.75
377.899	319.75
378.125	310.75
378.35	311.75
378.576	307.75
378.802	320.75
379.027	318.75
379.253	326.75
379.478	336.75
379.704	321.75
379.929	317.75
380.155	333.75
380.38	334.75
380.606	333.75
380.831	319.75
381.057	342.75
381.282	325.75
381.507	338.75
381.733	348.75
381.958	354.75
382.184	358.75
382.409	371.75
382.634	374.75
382.86	428.75
383.085	461.75
383.31	498.75
383.535	475.75
383.761	483.75
383.986	498.75
384.211	431.75
384.436	390.75
384.662	374.75
384.887	383.75
385.112	374.75
385.337	365.75
385.562	379.75
385.787	369.75
386.013	383.75
386.238	394.75
386.463	381.75
386.688	388.75
386.913	390.75
387.138	388.75
387.363	378.75
387.588	398.75
387.813	392.75
388.038	396.75
388.263	379.75
388.488	398.75
388.713	385.75
388.938	374.75
389.163	357.75
389.387	386.75
389.612	385.75
389.837	397.75
390.062	400.75
390.287	389.75
390.512	393.75
390.736	406.75
390.961	399.75
391.186	406.75
391.411	430.75
391.636	428.75
391.86	437.75
392.085	423.75
392.31	436.75
392.534	441.75
392.759	477.75
392.984	548.75
393.208	657.75
393.433	809.75
393.658	819.75
393.882	882.75
394.107	1362.75
394.331	2397.75
394.556	3136.75
394.78	2126.75
395.005	1222.75
395.229	962.75
395.454	964.75
395.678	1227.75
395.903	2037.75
396.127	3457.75
396.352	4011.75
396.576	2406.75
396.801	1481.75
397.025	1109.75
397.249	841.75
397.474	737.75
397.698	637.75
397.922	614.75
398.147	560.75
398.371	564.75
398.595	575.75
398.82	508.75
399.044	539.75
399.268	555.75
399.492	590.75
399.717	580.75
399.941	551.75
400.165	537.75
400.389	501.75
400.613	491.75
400.837	485.75
401.062	471.75
401.286	470.75
401.51	469.75
401.734	444.75
401.958	454.75
402.182	446.75
402.406	443.75
402.63	473.75
402.854	465.75
403.078	487.75
403.302	462.75
403.526	467.75
403.75	461.75
403.974	468.75
404.198	437.75
404.422	450.75
404.645	470.75
404.869	451.75
405.093	453.75
405.317	444.75
405.541	431.75
405.765	449.75
405.988	448.75
406.212	471.75
406.436	446.75
406.66	471.75
406.883	463.75
407.107	483.75
407.331	441.75
407.555	463.75
407.778	486.75
408.002	477.75
408.226	470.75
408.449	478.75
408.673	463.75
408.896	485.75
409.12	464.75
409.344	446.75
409.567	471.75
409.791	466.75
410.014	435.75
410.238	433.75
410.461	462.75
410.685	469.75
410.908	437.75
411.132	441.75
411.355	425.75
411.578	450.75
411.802	450.75
412.025	422.75
412.249	426.75
412.472	435.75
412.695	441.75
412.919	433.75
413.142	441.75
413.365	452.75
413.589	422.75
413.812	425.75
414.035	445.75
414.258	435.75
414.482	427.75
414.705	442.75
414.928	438.75
415.151	424.75
415.374	433.75
415.597	420.75
415.821	419.75
416.044	430.75
416.267	437.75
416.49	428.75
416.713	427.75
416.936	444.75
417.159	421.75
417.382	449.75
417.605	421.75
417.828	431.75
418.051	433.75
418.274	427.75
418.497	428.75
418.72	449.75
418.943	443.75
419.166	443.75
419.389	481.75
419.611	452.75
419.834	427.75
420.057	444.75
420.28	413.75
420.503	423.75
420.726	429.75
420.948	456.75
421.171	444.75
421.394	438.75
421.617	446.75
421.839	442.75
422.062	445.75
422.285	436.75
422.507	473.75
422.73	479.75
422.953	454.75
423.175	420.75
423.398	424.75
423.621	420.75
423.843	446.75
424.066	438.75
424.288	478.75
424.511	468.75
424.733	460.75
424.956	431.75
425.178	478.75
425.401	441.75
425.623	453.75
425.846	427.75
426.068	453.75
426.291	419.75
426.513	420.75
426.735	413.75
426.958	442.75
427.18	433.75
427.402	417.75
427.625	432.75
427.847	409.75
428.069	404.75
428.292	438.75
428.514	422.75
428.736	401.75
428.958	415.75
429.181	401.75
429.403	399.75
429.625	405.75
429.847	401.75
430.069	411.75
430.292	432.75
430.514	406.75
430.736	403.75
430.958	409.75
431.18	386.75
431.402	415.75
431.624	383.75
431.846	365.75
432.068	366.75
432.29	389.75
432.512	375.75
432.734	400.75
432.956	411.75
433.178	407.75
433.4	414.75
433.622	452.75
433.844	432.75
434.066	419.75
434.287	385.75
434.509	391.75
434.731	386.75
434.953	404.75
435.175	428.75
435.397	418.75
435.618	393.75
435.84	414.75
436.062	381.75
436.284	409.75
436.505	415.75
436.727	405.75
436.949	403.75
437.17	413.75
437.392	419.75
437.614	424.75
437.835	390.75
438.057	386.75
438.278	392.75
438.5	399.75
438.721	396.75
438.943	417.75
439.165	420.75
439.386	429.75
439.608	445.75
439.829	429.75
440.05	447.75
440.272	449.75
440.493	435.75
440.715	423.75
440.936	426.75
441.158	445.75
441.379	462.75
441.6	457.75
441.822	458.75
442.043	450.75
442.264	446.75
442.486	457.75
442.707	436.75
442.928	452.75
443.149	447.75
443.371	434.75
443.592	433.75
443.813	455.75
444.034	436.75
444.255	467.75
444.476	464.75
444.698	475.75
444.919	486.75
445.14	673.75
445.361	547.75
445.582	467.75
445.803	470.75
446.024	444.75
446.245	458.75
446.466	429.75
446.687	449.75
446.908	467.75
447.129	454.75
447.35	457.75
447.571	461.75
447.792	446.75
448.013	441.75
448.234	442.75
448.455	416.75
448.675	403.75
448.896	421.75
449.117	398.75
449.338	417.75
449.559	408.75
449.779	409.75
450	410.75
450.221	401.75
450.442	410.75
450.662	401.75
450.883	391.75
451.104	421.75
451.324	406.75
451.545	423.75
451.766	424.75
451.986	410.75
452.207	415.75
452.428	402.75
452.648	414.75
452.869	396.75
453.089	398.75
453.31	413.75
453.53	388.75
453.751	374.75
453.971	397.75
454.192	401.75
454.412	406.75
454.633	380.75
454.853	390.75
455.073	400.75
455.294	389.75
455.514	383.75
455.734	370.75
455.955	367.75
456.175	363.75
456.395	375.75
456.616	354.75
456.836	349.75
457.056	353.75
457.276	341.75
457.497	342.75
457.717	358.75
457.937	361.75
458.157	374.75
458.377	370.75
458.598	356.75
458.818	362.75
459.038	347.75
459.258	378.75
459.478	378.75
459.698	393.75
459.918	383.75
460.138	406.75
460.358	427.75
460.578	422.75
460.798	428.75
461.018	429.75
461.238	414.75
461.458	436.75
461.678	406.75
461.898	419.75
462.118	426.75
462.338	452.75
462.558	452.75
462.777	454.75
462.997	483.75
463.217	499.75
463.437	491.75
463.657	477.75
463.876	461.75
464.096	432.75
464.316	456.75
464.536	455.75
464.755	458.75
464.975	458.75
465.195	425.75
465.414	459.75
465.634	442.75
465.854	444.75
466.073	437.75
466.293	480.75
466.512	531.75
466.732	505.75
466.951	491.75
467.171	455.75
467.391	468.75
467.61	461.75
467.829	439.75
468.049	429.75
468.268	430.75
468.488	423.75
468.707	416.75
468.927	432.75
469.146	430.75
469.365	413.75
469.585	435.75
469.804	432.75
470.023	444.75
470.243	457.75
470.462	451.75
470.681	455.75
470.901	435.75
471.12	429.75
471.339	441.75
471.558	446.75
471.777	428.75
471.997	425.75
472.216	428.75
472.435	396.75
472.654	380.75
472.873	415.75
473.092	407.75
473.311	439.75
473.53	484.75
473.749	493.75
473.968	500.75
474.187	461.75
474.406	493.75
474.625	517.75
474.844	528.75
475.063	498.75
475.282	467.75
475.501	435.75
475.72	463.75
475.939	425.75
476.158	419.75
476.377	432.75
476.596	409.75
476.814	418.75
477.033	402.75
477.252	434.75
477.471	411.75
477.69	430.75
477.908	435.75
478.127	450.75
478.346	438.75
478.564	444.75
478.783	437.75
479.002	479.75
479.22	448.75
479.439	441.75
479.658	427.75
479.876	427.75
480.095	427.75
480.313	451.75
480.532	435.75
480.751	452.75
480.969	402.75
481.188	429.75
481.406	402.75
481.624	397.75
481.843	388.75
482.061	415.75
482.28	416.75
482.498	395.75
482.717	386.75
482.935	405.75
483.153	447.75
483.372	453.75
483.59	430.75
483.808	413.75
484.027	443.75
484.245	467.75
484.463	516.75
484.681	543.75
484.9	494.75
485.118	497.75
485.336	495.75
485.554	476.75
485.772	474.75
485.99	463.75
486.209	459.75
486.427	450.75
486.645	477.75
486.863	515.75
487.081	494.75
487.299	488.75
487.517	490.75
487.735	510.75
487.953	523.75
488.171	531.75
488.389	506.75
488.607	495.75
488.825	481.75
489.043	443.75
489.261	466.75
489.479	498.75
489.696	479.75
489.914	470.75
490.132	498.75
490.35	498.75
490.568	494.75
490.786	502.75
491.003	537.75
491.221	521.75
491.439	521.75
491.657	537.75
491.874	556.75
492.092	574.75
492.31	598.75
492.527	567.75
492.745	541.75
492.963	530.75
493.18	541.75
493.398	533.75
493.615	508.75
493.833	502.75
494.05	491.75
494.268	513.75
494.485	534.75
494.703	524.75
494.92	501.75
495.138	496.75
495.355	520.75
495.573	527.75
495.79	509.75
496.008	525.75
496.225	513.75
496.442	516.75
496.66	518.75
496.877	518.75
497.094	519.75
497.312	518.75
497.529	526.75
497.746	522.75
497.963	502.75
498.181	507.75
498.398	517.75
498.615	542.75
498.832	553.75
499.049	580.75
499.267	580.75
499.484	606.75
499.701	645.75
499.918	717.75
500.135	743.75
500.352	773.75
500.569	777.75
500.786	764.75
501.003	718.75
501.22	692.75
501.437	668.75
501.654	624.75
501.871	599.75
502.088	582.75
502.305	557.75
502.522	533.75
