Data from SampC_HRD10591_00020.txt Node
Date: Mon Jan 19 11:37:36 EST 2026
User: Yrep
Spectrometer: HR+D1059
Trigger mode: 0
Integration Time (sec): 3.443000E-1
Scans to average: 1
Electric dark correction enabled: true
Nonlinearity correction enabled: false
Boxcar width: 0
XAxis mode: Wavelengths
Number of Pixels in Spectrum: 2048
>>>>>Begin Spectral Data<<<<<
223.165	-20.44
223.4	-20.44
223.635	-20.44
223.869	-42.44
224.104	-28.44
224.338	-23.44
224.573	-26.44
224.808	-8.44
225.042	-7.44
225.277	1.56
225.511	2.56
225.746	12.56
225.98	9.56
226.215	23.56
226.449	14.56
226.683	30.56
226.918	24.56
227.152	37.56
227.387	31.56
227.621	34.56
227.856	42.56
228.09	34.56
228.324	23.56
228.559	54.56
228.793	45.56
229.027	92.56
229.262	86.56
229.496	98.56
229.73	87.56
229.964	98.56
230.199	96.56
230.433	98.56
230.667	108.56
230.901	117.56
231.136	101.56
231.37	106.56
231.604	117.56
231.838	110.56
232.072	119.56
232.306	125.56
232.541	118.56
232.775	110.56
233.009	114.56
233.243	112.56
233.477	110.56
233.711	112.56
233.945	119.56
234.179	108.56
234.413	121.56
234.647	128.56
234.881	115.56
235.115	123.56
235.349	112.56
235.583	106.56
235.817	114.56
236.051	114.56
236.285	130.56
236.519	125.56
236.753	141.56
236.987	199.56
237.221	206.56
237.455	222.56
237.689	224.56
237.922	184.56
238.156	137.56
238.39	132.56
238.624	122.56
238.858	136.56
239.091	122.56
239.325	105.56
239.559	105.56
239.793	111.56
240.027	115.56
240.26	113.56
240.494	104.56
240.728	117.56
240.961	125.56
241.195	110.56
241.429	126.56
241.662	119.56
241.896	123.56
242.13	122.56
242.363	105.56
242.597	108.56
242.83	129.56
243.064	107.56
243.298	121.56
243.531	124.56
243.765	117.56
243.998	128.56
244.232	114.56
244.465	129.56
244.699	123.56
244.932	122.56
245.166	128.56
245.399	136.56
245.633	128.56
245.866	122.56
246.099	130.56
246.333	130.56
246.566	136.56
246.8	126.56
247.033	122.56
247.266	126.56
247.5	132.56
247.733	120.56
247.966	131.56
248.2	121.56
248.433	130.56
248.666	148.56
248.899	123.56
249.133	141.56
249.366	133.56
249.599	145.56
249.832	151.56
250.066	133.56
250.299	148.56
250.532	137.56
250.765	151.56
250.998	136.56
251.231	132.56
251.465	139.56
251.698	146.56
251.931	158.56
252.164	144.56
252.397	146.56
252.63	145.56
252.863	128.56
253.096	135.56
253.329	155.56
253.562	153.56
253.795	161.56
254.028	151.56
254.261	170.56
254.494	154.56
254.727	156.56
254.96	143.56
255.193	169.56
255.426	151.56
255.659	155.56
255.892	152.56
256.124	157.56
256.357	162.56
256.59	186.56
256.823	214.56
257.056	251.56
257.289	264.56
257.521	263.56
257.754	310.56
257.987	316.56
258.22	244.56
258.452	179.56
258.685	186.56
258.918	176.56
259.151	166.56
259.383	169.56
259.616	169.56
259.849	157.56
260.081	182.56
260.314	168.56
260.547	176.56
260.779	168.56
261.012	163.56
261.244	182.56
261.477	187.56
261.71	182.56
261.942	178.56
262.175	189.56
262.407	197.56
262.64	184.56
262.872	191.56
263.105	247.56
263.337	264.56
263.57	271.56
263.802	259.56
264.035	230.56
264.267	211.56
264.499	233.56
264.732	211.56
264.964	233.56
265.197	221.56
265.429	262.56
265.661	253.56
265.894	245.56
266.126	278.56
266.358	280.56
266.591	239.56
266.823	226.56
267.055	210.56
267.287	187.56
267.52	182.56
267.752	187.56
267.984	183.56
268.216	199.56
268.448	193.56
268.681	186.56
268.913	174.56
269.145	189.56
269.377	173.56
269.609	183.56
269.841	181.56
270.073	186.56
270.306	180.56
270.538	201.56
270.77	189.56
271.002	178.56
271.234	197.56
271.466	185.56
271.698	184.56
271.93	185.56
272.162	192.56
272.394	199.56
272.626	186.56
272.858	175.56
273.09	207.56
273.322	202.56
273.553	183.56
273.785	205.56
274.017	192.56
274.249	200.56
274.481	195.56
274.713	211.56
274.945	211.56
275.176	206.56
275.408	210.56
275.64	233.56
275.872	199.56
276.104	214.56
276.335	203.56
276.567	220.56
276.799	205.56
277.031	211.56
277.262	231.56
277.494	222.56
277.726	240.56
277.957	255.56
278.189	271.56
278.421	267.56
278.652	286.56
278.884	330.56
279.115	443.56
279.347	591.56
279.579	790.56
279.81	957.56
280.042	767.56
280.273	722.56
280.505	685.56
280.736	454.56
280.968	343.56
281.199	373.56
281.431	429.56
281.662	554.56
281.894	623.56
282.125	519.56
282.356	369.56
282.588	334.56
282.819	303.56
283.051	288.56
283.282	273.56
283.513	287.56
283.745	267.56
283.976	264.56
284.207	254.56
284.439	252.56
284.67	268.56
284.901	273.56
285.132	295.56
285.364	343.56
285.595	317.56
285.826	265.56
286.057	255.56
286.288	241.56
286.52	236.56
286.751	223.56
286.982	241.56
287.213	252.56
287.444	241.56
287.675	241.56
287.906	250.56
288.138	249.56
288.369	256.56
288.6	252.56
288.831	248.56
289.062	234.56
289.293	246.56
289.524	221.56
289.755	243.56
289.986	227.56
290.217	257.56
290.448	246.56
290.679	236.56
290.91	238.56
291.141	243.56
291.371	263.56
291.602	254.56
291.833	237.56
292.064	270.56
292.295	274.56
292.526	278.56
292.757	286.56
292.987	272.56
293.218	290.56
293.449	274.56
293.68	290.56
293.91	288.56
294.141	287.56
294.372	261.56
294.603	254.56
294.833	247.56
295.064	270.56
295.295	251.56
295.525	235.56
295.756	246.56
295.987	255.56
296.217	251.56
296.448	232.56
296.679	253.56
296.909	263.56
297.14	254.56
297.37	267.56
297.601	253.56
297.831	253.56
298.062	261.56
298.292	254.56
298.523	251.56
298.753	268.56
298.984	249.56
299.214	252.56
299.445	254.56
299.675	267.56
299.905	260.56
300.136	261.56
300.366	281.56
300.597	250.56
300.827	269.56
301.057	272.56
301.288	269.56
301.518	275.56
301.748	275.56
301.979	322.56
302.209	291.56
302.439	296.56
302.669	277.56
302.9	301.56
303.13	311.56
303.36	312.56
303.59	301.56
303.82	317.56
304.051	328.56
304.281	354.56
304.511	364.56
304.741	393.56
304.971	431.56
305.201	519.56
305.431	606.56
305.661	660.56
305.891	730.56
306.121	661.56
306.352	583.56
306.582	608.56
306.812	605.56
307.042	538.56
307.272	503.56
307.502	545.56
307.731	753.56
307.961	1002.56
308.191	1453.56
308.421	1685.56
308.651	1435.56
308.881	1286.56
309.111	1575.56
309.341	2034.56
309.571	1953.56
309.8	1291.56
310.03	823.56
310.26	651.56
310.49	553.56
310.72	503.56
310.949	443.56
311.179	431.56
311.409	412.56
311.639	405.56
311.868	351.56
312.098	372.56
312.328	370.56
312.557	345.56
312.787	356.56
313.017	345.56
313.246	338.56
313.476	330.56
313.706	316.56
313.935	327.56
314.165	339.56
314.394	331.56
314.624	325.56
314.853	316.56
315.083	311.56
315.312	309.56
315.542	310.56
315.771	301.56
316.001	301.56
316.23	310.56
316.46	309.56
316.689	302.56
316.919	292.56
317.148	281.56
317.377	314.56
317.607	315.56
317.836	294.56
318.065	305.56
318.295	312.56
318.524	285.56
318.753	295.56
318.983	274.56
319.212	297.56
319.441	302.56
319.67	285.56
319.9	283.56
320.129	320.56
320.358	284.56
320.587	289.56
320.816	291.56
321.046	300.56
321.275	288.56
321.504	299.56
321.733	300.56
321.962	309.56
322.191	298.56
322.42	282.56
322.649	298.56
322.878	297.56
323.108	303.56
323.337	302.56
323.566	315.56
323.795	323.56
324.024	314.56
324.253	303.56
324.482	307.56
324.71	296.56
324.939	318.56
325.168	311.56
325.397	311.56
325.626	292.56
325.855	303.56
326.084	296.56
326.313	292.56
326.542	295.56
326.77	297.56
326.999	304.56
327.228	306.56
327.457	310.56
327.686	301.56
327.914	315.56
328.143	335.56
328.372	310.56
328.6	283.56
328.829	311.56
329.058	304.56
329.287	307.56
329.515	293.56
329.744	298.56
329.972	315.56
330.201	311.56
330.43	296.56
330.658	309.56
330.887	336.56
331.115	312.56
331.344	319.56
331.572	312.56
331.801	314.56
332.03	317.56
332.258	321.56
332.486	320.56
332.715	322.56
332.943	342.56
333.172	345.56
333.4	336.56
333.629	353.56
333.857	364.56
334.085	363.56
334.314	344.56
334.542	335.56
334.771	354.56
334.999	368.56
335.227	355.56
335.455	346.56
335.684	362.56
335.912	337.56
336.14	339.56
336.369	344.56
336.597	326.56
336.825	338.56
337.053	351.56
337.281	328.56
337.51	323.56
337.738	333.56
337.966	321.56
338.194	341.56
338.422	338.56
338.65	334.56
338.878	341.56
339.106	299.56
339.334	336.56
339.562	309.56
339.79	317.56
340.018	308.56
340.246	321.56
340.474	336.56
340.702	331.56
340.93	320.56
341.158	327.56
341.386	313.56
341.614	315.56
341.842	313.56
342.07	318.56
342.298	328.56
342.526	326.56
342.754	326.56
342.981	317.56
343.209	330.56
343.437	370.56
343.665	341.56
343.893	365.56
344.12	359.56
344.348	347.56
344.576	328.56
344.804	321.56
345.031	347.56
345.259	333.56
345.487	317.56
345.714	326.56
345.942	352.56
346.17	322.56
346.397	323.56
346.625	333.56
346.853	335.56
347.08	314.56
347.308	354.56
347.535	336.56
347.763	325.56
347.99	331.56
348.218	332.56
348.445	313.56
348.673	332.56
348.9	363.56
349.128	345.56
349.355	338.56
349.583	341.56
349.81	324.56
350.037	330.56
350.265	338.56
350.492	344.56
350.72	338.56
350.947	349.56
351.174	345.56
351.402	345.56
351.629	353.56
351.856	344.56
352.083	346.56
352.311	357.56
352.538	364.56
352.765	374.56
352.992	367.56
353.22	371.56
353.447	377.56
353.674	367.56
353.901	392.56
354.128	381.56
354.355	391.56
354.583	385.56
354.81	419.56
355.037	397.56
355.264	414.56
355.491	401.56
355.718	438.56
355.945	436.56
356.172	474.56
356.399	473.56
356.626	482.56
356.853	520.56
357.08	533.56
357.307	583.56
357.534	616.56
357.761	643.56
357.988	755.56
358.215	878.56
358.441	1026.56
358.668	1115.56
358.895	1121.56
359.122	911.56
359.349	791.56
359.576	659.56
359.802	606.56
360.029	561.56
360.256	562.56
360.483	521.56
360.709	539.56
360.936	547.56
361.163	476.56
361.39	467.56
361.616	437.56
361.843	451.56
362.07	454.56
362.296	436.56
362.523	431.56
362.749	416.56
362.976	405.56
363.203	420.56
363.429	380.56
363.656	388.56
363.882	365.56
364.109	384.56
364.335	375.56
364.562	375.56
364.788	384.56
365.015	376.56
365.241	376.56
365.468	370.56
365.694	352.56
365.92	364.56
366.147	360.56
366.373	344.56
366.599	352.56
366.826	366.56
367.052	352.56
367.278	360.56
367.505	351.56
367.731	384.56
367.957	360.56
368.184	356.56
368.41	337.56
368.636	343.56
368.862	355.56
369.089	367.56
369.315	358.56
369.541	335.56
369.767	328.56
369.993	362.56
370.219	346.56
370.445	360.56
370.672	366.56
370.898	366.56
371.124	381.56
371.35	362.56
371.576	366.56
371.802	376.56
372.028	372.56
372.254	359.56
372.48	396.56
372.706	389.56
372.932	389.56
373.158	358.56
373.384	386.56
373.61	385.56
373.835	377.56
374.061	372.56
374.287	380.56
374.513	381.56
374.739	390.56
374.965	389.56
375.191	389.56
375.416	374.56
375.642	389.56
375.868	392.56
376.094	387.56
376.319	360.56
376.545	377.56
376.771	360.56
376.997	370.56
377.222	359.56
377.448	355.56
377.674	343.56
377.899	372.56
378.125	367.56
378.35	351.56
378.576	357.56
378.802	377.56
379.027	352.56
379.253	369.56
379.478	353.56
379.704	369.56
379.929	367.56
380.155	365.56
380.38	366.56
380.606	374.56
380.831	368.56
381.057	392.56
381.282	390.56
381.507	378.56
381.733	395.56
381.958	405.56
382.184	402.56
382.409	405.56
382.634	438.56
382.86	427.56
383.085	491.56
383.31	506.56
383.535	514.56
383.761	522.56
383.986	510.56
384.211	447.56
384.436	435.56
384.662	418.56
384.887	425.56
385.112	413.56
385.337	405.56
385.562	437.56
385.787	443.56
386.013	436.56
386.238	429.56
386.463	436.56
386.688	461.56
386.913	419.56
387.138	424.56
387.363	428.56
387.588	440.56
387.813	451.56
388.038	437.56
388.263	433.56
388.488	435.56
388.713	426.56
388.938	418.56
389.163	427.56
389.387	431.56
389.612	440.56
389.837	431.56
390.062	457.56
390.287	453.56
390.512	442.56
390.736	434.56
390.961	429.56
391.186	450.56
391.411	464.56
391.636	451.56
391.86	491.56
392.085	501.56
392.31	475.56
392.534	512.56
392.759	527.56
392.984	537.56
393.208	574.56
393.433	650.56
393.658	725.56
393.882	775.56
394.107	1261.56
394.331	2226.56
394.556	2969.56
394.78	2055.56
395.005	1212.56
395.229	978.56
395.454	1007.56
395.678	1210.56
395.903	1967.56
396.127	3273.56
396.352	3932.56
396.576	2385.56
396.801	1389.56
397.025	1054.56
397.249	876.56
397.474	773.56
397.698	731.56
397.922	676.56
398.147	638.56
398.371	633.56
398.595	608.56
398.82	614.56
399.044	594.56
399.268	633.56
399.492	632.56
399.717	651.56
399.941	623.56
400.165	597.56
400.389	589.56
400.613	542.56
400.837	530.56
401.062	531.56
401.286	522.56
401.51	514.56
401.734	523.56
401.958	506.56
402.182	512.56
402.406	502.56
402.63	527.56
402.854	521.56
403.078	510.56
403.302	519.56
403.526	525.56
403.75	528.56
403.974	526.56
404.198	531.56
404.422	516.56
404.645	514.56
404.869	529.56
405.093	527.56
405.317	519.56
405.541	540.56
405.765	527.56
405.988	521.56
406.212	535.56
406.436	513.56
406.66	525.56
406.883	547.56
407.107	547.56
407.331	554.56
407.555	551.56
407.778	547.56
408.002	549.56
408.226	538.56
408.449	531.56
408.673	523.56
408.896	517.56
409.12	530.56
409.344	513.56
409.567	525.56
409.791	531.56
410.014	509.56
410.238	498.56
410.461	535.56
410.685	521.56
410.908	514.56
411.132	510.56
411.355	514.56
411.578	508.56
411.802	522.56
412.025	508.56
412.249	512.56
412.472	525.56
412.695	506.56
412.919	493.56
413.142	498.56
413.365	493.56
413.589	495.56
413.812	476.56
414.035	474.56
414.258	512.56
414.482	484.56
414.705	494.56
414.928	506.56
415.151	485.56
415.374	471.56
415.597	476.56
415.821	478.56
416.044	499.56
416.267	501.56
416.49	502.56
416.713	480.56
416.936	502.56
417.159	512.56
417.382	494.56
417.605	505.56
417.828	490.56
418.051	489.56
418.274	507.56
418.497	502.56
418.72	490.56
418.943	498.56
419.166	514.56
419.389	539.56
419.611	521.56
419.834	514.56
420.057	509.56
420.28	499.56
420.503	502.56
420.726	493.56
420.948	493.56
421.171	509.56
421.394	506.56
421.617	529.56
421.839	526.56
422.062	504.56
422.285	526.56
422.507	517.56
422.73	522.56
422.953	494.56
423.175	501.56
423.398	503.56
423.621	498.56
423.843	523.56
424.066	501.56
424.288	514.56
424.511	517.56
424.733	519.56
424.956	518.56
425.178	521.56
425.401	537.56
425.623	504.56
425.846	506.56
426.068	481.56
426.291	491.56
426.513	494.56
426.735	493.56
426.958	481.56
427.18	470.56
427.402	467.56
427.625	476.56
427.847	479.56
428.069	479.56
428.292	466.56
428.514	468.56
428.736	459.56
428.958	474.56
429.181	495.56
429.403	478.56
429.625	474.56
429.847	485.56
430.069	483.56
430.292	467.56
430.514	454.56
430.736	460.56
430.958	476.56
431.18	460.56
431.402	468.56
431.624	439.56
431.846	438.56
432.068	438.56
432.29	460.56
432.512	472.56
432.734	461.56
432.956	490.56
433.178	484.56
433.4	481.56
433.622	501.56
433.844	472.56
434.066	469.56
434.287	453.56
434.509	443.56
434.731	444.56
434.953	477.56
435.175	484.56
435.397	495.56
435.618	472.56
435.84	465.56
436.062	473.56
436.284	473.56
436.505	465.56
436.727	475.56
436.949	470.56
437.17	466.56
437.392	455.56
437.614	446.56
437.835	445.56
438.057	445.56
438.278	446.56
438.5	466.56
438.721	482.56
438.943	491.56
439.165	469.56
439.386	489.56
439.608	504.56
439.829	488.56
440.05	489.56
440.272	493.56
440.493	510.56
440.715	495.56
440.936	497.56
441.158	512.56
441.379	522.56
441.6	531.56
441.822	524.56
442.043	523.56
442.264	500.56
442.486	519.56
442.707	515.56
442.928	502.56
443.149	524.56
443.371	513.56
443.592	501.56
443.813	506.56
444.034	537.56
444.255	520.56
444.476	540.56
444.698	539.56
444.919	573.56
445.14	768.56
445.361	634.56
445.582	557.56
445.803	521.56
446.024	515.56
446.245	526.56
446.466	502.56
446.687	481.56
446.908	506.56
447.129	508.56
447.35	498.56
447.571	532.56
447.792	486.56
448.013	483.56
448.234	495.56
448.455	473.56
448.675	470.56
448.896	496.56
449.117	475.56
449.338	449.56
449.559	467.56
449.779	479.56
450	465.56
450.221	477.56
450.442	479.56
450.662	458.56
450.883	480.56
451.104	463.56
451.324	466.56
451.545	480.56
451.766	472.56
451.986	448.56
452.207	471.56
452.428	481.56
452.648	487.56
452.869	463.56
453.089	467.56
453.31	461.56
453.53	450.56
453.751	451.56
453.971	455.56
454.192	460.56
454.412	455.56
454.633	457.56
454.853	443.56
455.073	436.56
455.294	439.56
455.514	431.56
455.734	423.56
455.955	414.56
456.175	415.56
456.395	414.56
456.616	402.56
456.836	417.56
457.056	400.56
457.276	384.56
457.497	401.56
457.717	392.56
457.937	401.56
458.157	420.56
458.377	388.56
458.598	391.56
458.818	399.56
459.038	394.56
459.258	407.56
459.478	428.56
459.698	435.56
459.918	439.56
460.138	441.56
460.358	471.56
460.578	477.56
460.798	487.56
461.018	496.56
461.238	480.56
461.458	482.56
461.678	491.56
461.898	498.56
462.118	495.56
462.338	528.56
462.558	537.56
462.777	537.56
462.997	564.56
463.217	566.56
463.437	565.56
463.657	549.56
463.876	532.56
464.096	533.56
464.316	551.56
464.536	543.56
464.755	573.56
464.975	524.56
465.195	528.56
465.414	526.56
465.634	514.56
465.854	537.56
466.073	531.56
466.293	577.56
466.512	619.56
466.732	620.56
466.951	595.56
467.171	558.56
467.391	545.56
467.61	523.56
467.829	514.56
468.049	505.56
468.268	499.56
468.488	484.56
468.707	482.56
468.927	493.56
469.146	481.56
469.365	497.56
469.585	486.56
469.804	510.56
470.023	502.56
470.243	491.56
470.462	495.56
470.681	536.56
470.901	489.56
471.12	484.56
471.339	506.56
471.558	486.56
471.777	509.56
471.997	506.56
472.216	489.56
472.435	472.56
472.654	459.56
472.873	461.56
473.092	490.56
473.311	515.56
473.53	526.56
473.749	569.56
473.968	532.56
474.187	539.56
474.406	536.56
474.625	560.56
474.844	598.56
475.063	568.56
475.282	519.56
475.501	505.56
475.72	481.56
475.939	470.56
476.158	480.56
476.377	502.56
476.596	472.56
476.814	453.56
477.033	466.56
477.252	467.56
477.471	496.56
477.69	504.56
477.908	491.56
478.127	519.56
478.346	521.56
478.564	497.56
478.783	502.56
479.002	529.56
479.22	527.56
479.439	530.56
479.658	506.56
479.876	513.56
480.095	494.56
480.313	520.56
480.532	512.56
480.751	503.56
480.969	496.56
481.188	471.56
481.406	456.56
481.624	458.56
481.843	468.56
482.061	476.56
482.28	475.56
482.498	470.56
482.717	465.56
482.935	490.56
483.153	489.56
483.372	524.56
483.59	509.56
483.808	515.56
484.027	513.56
484.245	543.56
484.463	579.56
484.681	599.56
484.9	573.56
485.118	576.56
485.336	541.56
485.554	540.56
485.772	543.56
485.99	530.56
486.209	539.56
486.427	531.56
486.645	533.56
486.863	597.56
487.081	566.56
487.299	563.56
487.517	551.56
487.735	589.56
487.953	611.56
488.171	607.56
488.389	589.56
488.607	566.56
488.825	553.56
489.043	532.56
489.261	555.56
489.479	533.56
489.696	555.56
489.914	529.56
490.132	554.56
490.35	577.56
490.568	559.56
490.786	592.56
491.003	578.56
491.221	576.56
491.439	603.56
491.657	608.56
491.874	629.56
492.092	625.56
492.31	684.56
492.527	611.56
492.745	617.56
492.963	600.56
493.18	600.56
493.398	622.56
493.615	603.56
493.833	584.56
494.05	594.56
494.268	595.56
494.485	590.56
494.703	594.56
494.92	594.56
495.138	584.56
495.355	594.56
495.573	591.56
495.79	597.56
496.008	594.56
496.225	597.56
496.442	615.56
496.66	586.56
496.877	610.56
497.094	628.56
497.312	587.56
497.529	571.56
497.746	605.56
497.963	579.56
498.181	606.56
498.398	614.56
498.615	645.56
498.832	615.56
499.049	657.56
499.267	713.56
499.484	737.56
499.701	780.56
499.918	825.56
500.135	872.56
500.352	938.56
500.569	934.56
500.786	903.56
501.003	888.56
501.22	851.56
501.437	809.56
501.654	771.56
501.871	719.56
502.088	666.56
502.305	667.56
502.522	642.56
