Data from SampC_HRD10591_00080.txt Node
Date: Mon Jan 19 11:37:56 EST 2026
User: Yrep
Spectrometer: HR+D1059
Trigger mode: 0
Integration Time (sec): 3.443000E-1
Scans to average: 1
Electric dark correction enabled: true
Nonlinearity correction enabled: false
Boxcar width: 0
XAxis mode: Wavelengths
Number of Pixels in Spectrum: 2048
>>>>>Begin Spectral Data<<<<<
223.165	-24.31
223.4	-24.31
223.635	-24.31
223.869	-12.31
224.104	-12.31
224.338	-17.31
224.573	-24.31
224.808	-10.31
225.042	-11.31
225.277	-2.31
225.511	-1.31
225.746	4.69
225.98	9.69
226.215	20.69
226.449	13.69
226.683	-0.31
226.918	25.69
227.152	41.69
227.387	46.69
227.621	50.69
227.856	55.69
228.09	38.69
228.324	49.69
228.559	47.69
228.793	59.69
229.027	85.69
229.262	98.69
229.496	109.69
229.73	108.69
229.964	112.69
230.199	94.69
230.433	94.69
230.667	117.69
230.901	112.69
231.136	103.69
231.37	119.69
231.604	132.69
231.838	120.69
232.072	121.69
232.306	137.69
232.541	125.69
232.775	113.69
233.009	111.69
233.243	116.69
233.477	116.69
233.711	105.69
233.945	125.69
234.179	119.69
234.413	124.69
234.647	126.69
234.881	131.69
235.115	149.69
235.349	127.69
235.583	134.69
235.817	119.69
236.051	146.69
236.285	135.69
236.519	137.69
236.753	181.69
236.987	219.69
237.221	255.69
237.455	236.69
237.689	246.69
237.922	233.69
238.156	192.69
238.39	167.69
238.624	141.69
238.858	138.69
239.091	130.69
239.325	126.69
239.559	132.69
239.793	128.69
240.027	138.69
240.26	131.69
240.494	128.69
240.728	125.69
240.961	117.69
241.195	121.69
241.429	120.69
241.662	117.69
241.896	137.69
242.13	136.69
242.363	118.69
242.597	117.69
242.83	117.69
243.064	126.69
243.298	141.69
243.531	145.69
243.765	142.69
243.998	137.69
244.232	130.69
244.465	141.69
244.699	142.69
244.932	130.69
245.166	139.69
245.399	142.69
245.633	135.69
245.866	140.69
246.099	146.69
246.333	154.69
246.566	154.69
246.8	140.69
247.033	154.69
247.266	153.69
247.5	130.69
247.733	133.69
247.966	149.69
248.2	135.69
248.433	147.69
248.666	153.69
248.899	156.69
249.133	149.69
249.366	166.69
249.599	148.69
249.832	132.69
250.066	167.69
250.299	153.69
250.532	154.69
250.765	138.69
250.998	157.69
251.231	134.69
251.465	151.69
251.698	150.69
251.931	161.69
252.164	176.69
252.397	164.69
252.63	138.69
252.863	154.69
253.096	159.69
253.329	164.69
253.562	164.69
253.795	170.69
254.028	165.69
254.261	170.69
254.494	164.69
254.727	184.69
254.96	169.69
255.193	169.69
255.426	165.69
255.659	158.69
255.892	166.69
256.124	178.69
256.357	198.69
256.59	208.69
256.823	247.69
257.056	301.69
257.289	310.69
257.521	314.69
257.754	355.69
257.987	349.69
258.22	254.69
258.452	229.69
258.685	206.69
258.918	206.69
259.151	198.69
259.383	186.69
259.616	194.69
259.849	198.69
260.081	185.69
260.314	196.69
260.547	189.69
260.779	179.69
261.012	186.69
261.244	174.69
261.477	202.69
261.71	201.69
261.942	199.69
262.175	219.69
262.407	205.69
262.64	214.69
262.872	231.69
263.105	254.69
263.337	285.69
263.57	311.69
263.802	275.69
264.035	270.69
264.267	242.69
264.499	257.69
264.732	233.69
264.964	251.69
265.197	257.69
265.429	281.69
265.661	300.69
265.894	269.69
266.126	310.69
266.358	331.69
266.591	273.69
266.823	231.69
267.055	227.69
267.287	229.69
267.52	210.69
267.752	214.69
267.984	218.69
268.216	205.69
268.448	231.69
268.681	212.69
268.913	210.69
269.145	206.69
269.377	208.69
269.609	207.69
269.841	213.69
270.073	188.69
270.306	224.69
270.538	198.69
270.77	201.69
271.002	205.69
271.234	211.69
271.466	200.69
271.698	215.69
271.93	209.69
272.162	208.69
272.394	214.69
272.626	231.69
272.858	205.69
273.09	214.69
273.322	209.69
273.553	211.69
273.785	214.69
274.017	228.69
274.249	230.69
274.481	219.69
274.713	218.69
274.945	220.69
275.176	224.69
275.408	234.69
275.64	229.69
275.872	237.69
276.104	231.69
276.335	216.69
276.567	243.69
276.799	234.69
277.031	235.69
277.262	245.69
277.494	236.69
277.726	253.69
277.957	280.69
278.189	283.69
278.421	285.69
278.652	305.69
278.884	344.69
279.115	449.69
279.347	623.69
279.579	872.69
279.81	1028.69
280.042	785.69
280.273	743.69
280.505	724.69
280.736	511.69
280.968	381.69
281.199	369.69
281.431	448.69
281.662	608.69
281.894	657.69
282.125	539.69
282.356	421.69
282.588	376.69
282.819	322.69
283.051	297.69
283.282	304.69
283.513	289.69
283.745	291.69
283.976	269.69
284.207	275.69
284.439	287.69
284.67	292.69
284.901	282.69
285.132	323.69
285.364	385.69
285.595	334.69
285.826	260.69
286.057	274.69
286.288	257.69
286.52	235.69
286.751	262.69
286.982	272.69
287.213	260.69
287.444	251.69
287.675	274.69
287.906	262.69
288.138	269.69
288.369	289.69
288.6	289.69
288.831	245.69
289.062	273.69
289.293	260.69
289.524	269.69
289.755	262.69
289.986	263.69
290.217	278.69
290.448	275.69
290.679	271.69
290.91	289.69
291.141	261.69
291.371	281.69
291.602	271.69
291.833	265.69
292.064	281.69
292.295	295.69
292.526	295.69
292.757	284.69
292.987	313.69
293.218	307.69
293.449	300.69
293.68	315.69
293.91	315.69
294.141	294.69
294.372	292.69
294.603	276.69
294.833	274.69
295.064	287.69
295.295	277.69
295.525	260.69
295.756	277.69
295.987	257.69
296.217	271.69
296.448	273.69
296.679	271.69
296.909	279.69
297.14	291.69
297.37	275.69
297.601	270.69
297.831	273.69
298.062	285.69
298.292	293.69
298.523	284.69
298.753	276.69
298.984	291.69
299.214	282.69
299.445	286.69
299.675	296.69
299.905	277.69
300.136	306.69
300.366	294.69
300.597	294.69
300.827	296.69
301.057	295.69
301.288	287.69
301.518	310.69
301.748	298.69
301.979	338.69
302.209	337.69
302.439	332.69
302.669	323.69
302.9	311.69
303.13	333.69
303.36	331.69
303.59	359.69
303.82	368.69
304.051	377.69
304.281	389.69
304.511	400.69
304.741	443.69
304.971	481.69
305.201	589.69
305.431	672.69
305.661	753.69
305.891	803.69
306.121	742.69
306.352	677.69
306.582	682.69
306.812	681.69
307.042	613.69
307.272	550.69
307.502	642.69
307.731	867.69
307.961	1253.69
308.191	1761.69
308.421	2098.69
308.651	1767.69
308.881	1605.69
309.111	2022.69
309.341	2609.69
309.571	2448.69
309.8	1502.69
310.03	999.69
310.26	765.69
310.49	634.69
310.72	576.69
310.949	535.69
311.179	484.69
311.409	451.69
311.639	435.69
311.868	420.69
312.098	433.69
312.328	413.69
312.557	398.69
312.787	375.69
313.017	389.69
313.246	384.69
313.476	365.69
313.706	373.69
313.935	367.69
314.165	372.69
314.394	341.69
314.624	359.69
314.853	356.69
315.083	330.69
315.312	339.69
315.542	352.69
315.771	316.69
316.001	333.69
316.23	340.69
316.46	338.69
316.689	347.69
316.919	335.69
317.148	320.69
317.377	336.69
317.607	314.69
317.836	319.69
318.065	327.69
318.295	334.69
318.524	306.69
318.753	306.69
318.983	331.69
319.212	321.69
319.441	330.69
319.67	319.69
319.9	317.69
320.129	330.69
320.358	337.69
320.587	317.69
320.816	316.69
321.046	333.69
321.275	330.69
321.504	332.69
321.733	338.69
321.962	316.69
322.191	327.69
322.42	317.69
322.649	325.69
322.878	330.69
323.108	321.69
323.337	333.69
323.566	339.69
323.795	326.69
324.024	356.69
324.253	331.69
324.482	339.69
324.71	326.69
324.939	338.69
325.168	342.69
325.397	336.69
325.626	334.69
325.855	339.69
326.084	328.69
326.313	329.69
326.542	332.69
326.77	325.69
326.999	320.69
327.228	317.69
327.457	325.69
327.686	342.69
327.914	345.69
328.143	359.69
328.372	350.69
328.6	317.69
328.829	329.69
329.058	332.69
329.287	330.69
329.515	327.69
329.744	342.69
329.972	352.69
330.201	351.69
330.43	339.69
330.658	334.69
330.887	314.69
331.115	355.69
331.344	358.69
331.572	369.69
331.801	355.69
332.03	361.69
332.258	365.69
332.486	350.69
332.715	373.69
332.943	379.69
333.172	388.69
333.4	368.69
333.629	374.69
333.857	374.69
334.085	423.69
334.314	408.69
334.542	386.69
334.771	397.69
334.999	378.69
335.227	406.69
335.455	398.69
335.684	391.69
335.912	377.69
336.14	382.69
336.369	367.69
336.597	361.69
336.825	371.69
337.053	368.69
337.281	386.69
337.51	363.69
337.738	355.69
337.966	350.69
338.194	361.69
338.422	357.69
338.65	365.69
338.878	356.69
339.106	363.69
339.334	373.69
339.562	357.69
339.79	354.69
340.018	369.69
340.246	338.69
340.474	345.69
340.702	335.69
340.93	371.69
341.158	347.69
341.386	348.69
341.614	334.69
341.842	365.69
342.07	371.69
342.298	351.69
342.526	359.69
342.754	359.69
342.981	356.69
343.209	373.69
343.437	389.69
343.665	390.69
343.893	396.69
344.12	397.69
344.348	406.69
344.576	380.69
344.804	377.69
345.031	375.69
345.259	362.69
345.487	361.69
345.714	371.69
345.942	339.69
346.17	350.69
346.397	363.69
346.625	353.69
346.853	359.69
347.08	339.69
347.308	384.69
347.535	358.69
347.763	357.69
347.99	354.69
348.218	392.69
348.445	353.69
348.673	347.69
348.9	360.69
349.128	369.69
349.355	374.69
349.583	359.69
349.81	351.69
350.037	382.69
350.265	371.69
350.492	363.69
350.72	374.69
350.947	340.69
351.174	362.69
351.402	373.69
351.629	374.69
351.856	376.69
352.083	362.69
352.311	383.69
352.538	383.69
352.765	386.69
352.992	405.69
353.22	373.69
353.447	409.69
353.674	397.69
353.901	387.69
354.128	415.69
354.355	407.69
354.583	427.69
354.81	422.69
355.037	401.69
355.264	434.69
355.491	449.69
355.718	440.69
355.945	477.69
356.172	489.69
356.399	516.69
356.626	513.69
356.853	550.69
357.08	582.69
357.307	615.69
357.534	642.69
357.761	702.69
357.988	827.69
358.215	937.69
358.441	1066.69
358.668	1203.69
358.895	1163.69
359.122	949.69
359.349	786.69
359.576	700.69
359.802	609.69
360.029	605.69
360.256	596.69
360.483	564.69
360.709	532.69
360.936	555.69
361.163	534.69
361.39	523.69
361.616	490.69
361.843	484.69
362.07	476.69
362.296	463.69
362.523	441.69
362.749	450.69
362.976	435.69
363.203	457.69
363.429	437.69
363.656	423.69
363.882	420.69
364.109	431.69
364.335	429.69
364.562	404.69
364.788	360.69
365.015	399.69
365.241	397.69
365.468	398.69
365.694	400.69
365.92	387.69
366.147	393.69
366.373	384.69
366.599	382.69
366.826	379.69
367.052	363.69
367.278	366.69
367.505	387.69
367.731	416.69
367.957	381.69
368.184	384.69
368.41	384.69
368.636	383.69
368.862	386.69
369.089	412.69
369.315	385.69
369.541	388.69
369.767	394.69
369.993	366.69
370.219	373.69
370.445	390.69
370.672	403.69
370.898	393.69
371.124	408.69
371.35	401.69
371.576	384.69
371.802	409.69
372.028	432.69
372.254	417.69
372.48	398.69
372.706	427.69
372.932	401.69
373.158	409.69
373.384	418.69
373.61	429.69
373.835	409.69
374.061	400.69
374.287	407.69
374.513	415.69
374.739	437.69
374.965	427.69
375.191	433.69
375.416	423.69
375.642	420.69
375.868	429.69
376.094	401.69
376.319	387.69
376.545	411.69
376.771	389.69
376.997	384.69
377.222	395.69
377.448	404.69
377.674	394.69
377.899	374.69
378.125	380.69
378.35	402.69
378.576	403.69
378.802	396.69
379.027	417.69
379.253	402.69
379.478	399.69
379.704	411.69
379.929	412.69
380.155	393.69
380.38	386.69
380.606	389.69
380.831	404.69
381.057	419.69
381.282	409.69
381.507	428.69
381.733	431.69
381.958	437.69
382.184	445.69
382.409	449.69
382.634	467.69
382.86	487.69
383.085	521.69
383.31	544.69
383.535	549.69
383.761	537.69
383.986	539.69
384.211	474.69
384.436	473.69
384.662	430.69
384.887	463.69
385.112	443.69
385.337	461.69
385.562	460.69
385.787	476.69
386.013	481.69
386.238	458.69
386.463	476.69
386.688	516.69
386.913	472.69
387.138	474.69
387.363	474.69
387.588	478.69
387.813	505.69
388.038	479.69
388.263	468.69
388.488	477.69
388.713	457.69
388.938	484.69
389.163	486.69
389.387	486.69
389.612	471.69
389.837	493.69
390.062	486.69
390.287	491.69
390.512	504.69
390.736	483.69
390.961	489.69
391.186	527.69
391.411	506.69
391.636	521.69
391.86	531.69
392.085	539.69
392.31	557.69
392.534	548.69
392.759	563.69
392.984	596.69
393.208	659.69
393.433	700.69
393.658	776.69
393.882	971.69
394.107	1591.69
394.331	2844.69
394.556	3929.69
394.78	2539.69
395.005	1439.69
395.229	1124.69
395.454	1133.69
395.678	1466.69
395.903	2416.69
396.127	4350.69
396.352	5101.69
396.576	2991.69
396.801	1648.69
397.025	1163.69
397.249	975.69
397.474	863.69
397.698	778.69
397.922	738.69
398.147	699.69
398.371	707.69
398.595	677.69
398.82	663.69
399.044	671.69
399.268	639.69
399.492	683.69
399.717	708.69
399.941	697.69
400.165	678.69
400.389	616.69
400.613	599.69
400.837	566.69
401.062	574.69
401.286	591.69
401.51	580.69
401.734	532.69
401.958	564.69
402.182	574.69
402.406	539.69
402.63	571.69
402.854	582.69
403.078	581.69
403.302	561.69
403.526	567.69
403.75	580.69
403.974	575.69
404.198	589.69
404.422	586.69
404.645	551.69
404.869	572.69
405.093	565.69
405.317	569.69
405.541	546.69
405.765	567.69
405.988	559.69
406.212	576.69
406.436	565.69
406.66	569.69
406.883	554.69
407.107	589.69
407.331	589.69
407.555	627.69
407.778	621.69
408.002	599.69
408.226	565.69
408.449	580.69
408.673	567.69
408.896	533.69
409.12	567.69
409.344	557.69
409.567	570.69
409.791	577.69
410.014	587.69
410.238	547.69
410.461	564.69
410.685	538.69
410.908	573.69
411.132	549.69
411.355	548.69
411.578	537.69
411.802	545.69
412.025	534.69
412.249	531.69
412.472	537.69
412.695	541.69
412.919	525.69
413.142	524.69
413.365	541.69
413.589	553.69
413.812	555.69
414.035	541.69
414.258	521.69
414.482	527.69
414.705	556.69
414.928	562.69
415.151	530.69
415.374	545.69
415.597	515.69
415.821	513.69
416.044	538.69
416.267	513.69
416.49	529.69
416.713	532.69
416.936	537.69
417.159	530.69
417.382	511.69
417.605	525.69
417.828	550.69
418.051	521.69
418.274	535.69
418.497	536.69
418.72	555.69
418.943	550.69
419.166	544.69
419.389	592.69
419.611	588.69
419.834	562.69
420.057	539.69
420.28	549.69
420.503	514.69
420.726	544.69
420.948	519.69
421.171	530.69
421.394	543.69
421.617	534.69
421.839	531.69
422.062	541.69
422.285	526.69
422.507	532.69
422.73	566.69
422.953	551.69
423.175	525.69
423.398	536.69
423.621	554.69
423.843	544.69
424.066	543.69
424.288	559.69
424.511	564.69
424.733	537.69
424.956	563.69
425.178	546.69
425.401	562.69
425.623	555.69
425.846	528.69
426.068	517.69
426.291	530.69
426.513	541.69
426.735	532.69
426.958	541.69
427.18	511.69
427.402	521.69
427.625	518.69
427.847	527.69
428.069	529.69
428.292	491.69
428.514	504.69
428.736	507.69
428.958	482.69
429.181	516.69
429.403	498.69
429.625	506.69
429.847	493.69
430.069	503.69
430.292	517.69
430.514	497.69
430.736	505.69
430.958	513.69
431.18	501.69
431.402	511.69
431.624	486.69
431.846	482.69
432.068	457.69
432.29	487.69
432.512	490.69
432.734	473.69
432.956	517.69
433.178	525.69
433.4	519.69
433.622	528.69
433.844	526.69
434.066	532.69
434.287	467.69
434.509	484.69
434.731	503.69
434.953	548.69
435.175	515.69
435.397	518.69
435.618	499.69
435.84	511.69
436.062	479.69
436.284	495.69
436.505	497.69
436.727	500.69
436.949	502.69
437.17	508.69
437.392	500.69
437.614	512.69
437.835	458.69
438.057	473.69
438.278	465.69
438.5	519.69
438.721	519.69
438.943	518.69
439.165	502.69
439.386	525.69
439.608	510.69
439.829	522.69
440.05	545.69
440.272	526.69
440.493	539.69
440.715	547.69
440.936	567.69
441.158	553.69
441.379	564.69
441.6	570.69
441.822	567.69
442.043	569.69
442.264	570.69
442.486	553.69
442.707	547.69
442.928	541.69
443.149	559.69
443.371	567.69
443.592	537.69
443.813	554.69
444.034	564.69
444.255	574.69
444.476	577.69
444.698	587.69
444.919	590.69
445.14	760.69
445.361	657.69
445.582	564.69
445.803	565.69
446.024	543.69
446.245	543.69
446.466	537.69
446.687	543.69
446.908	558.69
447.129	534.69
447.35	531.69
447.571	533.69
447.792	537.69
448.013	532.69
448.234	527.69
448.455	515.69
448.675	533.69
448.896	501.69
449.117	510.69
449.338	513.69
449.559	521.69
449.779	499.69
450	494.69
450.221	501.69
450.442	503.69
450.662	496.69
450.883	506.69
451.104	512.69
451.324	490.69
451.545	516.69
451.766	519.69
451.986	485.69
452.207	511.69
452.428	502.69
452.648	527.69
452.869	499.69
453.089	491.69
453.31	505.69
453.53	494.69
453.751	486.69
453.971	499.69
454.192	494.69
454.412	472.69
454.633	509.69
454.853	492.69
455.073	479.69
455.294	469.69
455.514	486.69
455.734	441.69
455.955	456.69
456.175	459.69
456.395	470.69
456.616	454.69
456.836	447.69
457.056	450.69
457.276	428.69
457.497	438.69
457.717	442.69
457.937	434.69
458.157	462.69
458.377	430.69
458.598	449.69
458.818	441.69
459.038	441.69
459.258	445.69
459.478	470.69
459.698	464.69
459.918	481.69
460.138	475.69
460.358	500.69
460.578	521.69
460.798	529.69
461.018	510.69
461.238	532.69
461.458	531.69
461.678	517.69
461.898	549.69
462.118	544.69
462.338	571.69
462.558	564.69
462.777	573.69
462.997	591.69
463.217	607.69
463.437	598.69
463.657	578.69
463.876	585.69
464.096	585.69
464.316	568.69
464.536	597.69
464.755	593.69
464.975	571.69
465.195	569.69
465.414	535.69
465.634	530.69
465.854	554.69
466.073	597.69
466.293	634.69
466.512	676.69
466.732	640.69
466.951	592.69
467.171	613.69
467.391	569.69
467.61	551.69
467.829	554.69
468.049	549.69
468.268	542.69
468.488	527.69
468.707	532.69
468.927	525.69
469.146	552.69
469.365	528.69
469.585	515.69
469.804	539.69
470.023	562.69
470.243	550.69
470.462	541.69
470.681	533.69
470.901	528.69
471.12	540.69
471.339	531.69
471.558	517.69
471.777	546.69
471.997	517.69
472.216	516.69
472.435	517.69
472.654	484.69
472.873	502.69
473.092	531.69
473.311	564.69
473.53	584.69
473.749	615.69
473.968	603.69
474.187	601.69
474.406	620.69
474.625	622.69
474.844	621.69
475.063	614.69
475.282	563.69
475.501	533.69
475.72	540.69
475.939	538.69
476.158	510.69
476.377	521.69
476.596	490.69
476.814	489.69
477.033	490.69
477.252	494.69
477.471	517.69
477.69	532.69
477.908	561.69
478.127	535.69
478.346	556.69
478.564	557.69
478.783	566.69
479.002	567.69
479.22	543.69
479.439	554.69
479.658	525.69
479.876	533.69
480.095	527.69
480.313	528.69
480.532	552.69
480.751	537.69
480.969	493.69
481.188	508.69
481.406	501.69
481.624	465.69
481.843	491.69
482.061	494.69
482.28	492.69
482.498	505.69
482.717	493.69
482.935	515.69
483.153	528.69
483.372	528.69
483.59	543.69
483.808	546.69
484.027	542.69
484.245	558.69
484.463	625.69
484.681	658.69
484.9	596.69
485.118	603.69
485.336	574.69
485.554	568.69
485.772	566.69
485.99	537.69
486.209	585.69
486.427	565.69
486.645	593.69
486.863	611.69
487.081	612.69
487.299	609.69
487.517	594.69
487.735	652.69
487.953	649.69
488.171	614.69
488.389	612.69
488.607	598.69
488.825	587.69
489.043	591.69
489.261	598.69
489.479	603.69
489.696	591.69
489.914	567.69
490.132	601.69
490.35	628.69
490.568	603.69
490.786	631.69
491.003	618.69
491.221	634.69
491.439	654.69
491.657	649.69
491.874	674.69
492.092	698.69
492.31	714.69
492.527	680.69
492.745	651.69
492.963	645.69
493.18	651.69
493.398	634.69
493.615	653.69
493.833	613.69
494.05	630.69
494.268	626.69
494.485	613.69
494.703	627.69
494.92	623.69
495.138	620.69
495.355	629.69
495.573	642.69
495.79	597.69
496.008	640.69
496.225	618.69
496.442	611.69
496.66	623.69
496.877	614.69
497.094	631.69
497.312	625.69
497.529	628.69
497.746	630.69
497.963	624.69
498.181	655.69
498.398	640.69
498.615	657.69
498.832	683.69
499.049	711.69
499.267	751.69
499.484	792.69
499.701	863.69
499.918	890.69
500.135	964.69
500.352	1025.69
500.569	1024.69
500.786	1014.69
501.003	956.69
501.22	886.69
501.437	855.69
501.654	799.69
501.871	770.69
502.088	721.69
502.305	699.69
