Data from SampC_HRD10591_00004.txt Node
Date: Mon Jan 19 11:37:30 EST 2026
User: Yrep
Spectrometer: HR+D1059
Trigger mode: 0
Integration Time (sec): 3.443000E-1
Scans to average: 1
Electric dark correction enabled: true
Nonlinearity correction enabled: false
Boxcar width: 0
XAxis mode: Wavelengths
Number of Pixels in Spectrum: 2048
>>>>>Begin Spectral Data<<<<<
223.165	-18.31
223.4	-18.31
223.635	-18.31
223.869	-25.31
224.104	-26.31
224.338	-17.31
224.573	-12.31
224.808	-18.31
225.042	10.69
225.277	-2.31
225.511	-7.31
225.746	3.69
225.98	16.69
226.215	17.69
226.449	12.69
226.683	24.69
226.918	23.69
227.152	17.69
227.387	38.69
227.621	41.69
227.856	46.69
228.09	46.69
228.324	48.69
228.559	63.69
228.793	65.69
229.027	103.69
229.262	109.69
229.496	81.69
229.73	79.69
229.964	93.69
230.199	76.69
230.433	82.69
230.667	97.69
230.901	91.69
231.136	97.69
231.37	88.69
231.604	91.69
231.838	117.69
232.072	105.69
232.306	96.69
232.541	103.69
232.775	100.69
233.009	100.69
233.243	93.69
233.477	87.69
233.711	93.69
233.945	106.69
234.179	119.69
234.413	81.69
234.647	92.69
234.881	101.69
235.115	103.69
235.349	102.69
235.583	109.69
235.817	99.69
236.051	104.69
236.285	110.69
236.519	117.69
236.753	130.69
236.987	157.69
237.221	164.69
237.455	170.69
237.689	165.69
237.922	144.69
238.156	121.69
238.39	120.69
238.624	111.69
238.858	113.69
239.091	94.69
239.325	111.69
239.559	89.69
239.793	88.69
240.027	118.69
240.26	99.69
240.494	102.69
240.728	86.69
240.961	91.69
241.195	111.69
241.429	103.69
241.662	109.69
241.896	103.69
242.13	115.69
242.363	103.69
242.597	104.69
242.83	111.69
243.064	109.69
243.298	112.69
243.531	102.69
243.765	92.69
243.998	126.69
244.232	114.69
244.465	109.69
244.699	101.69
244.932	100.69
245.166	114.69
245.399	115.69
245.633	126.69
245.866	106.69
246.099	105.69
246.333	122.69
246.566	109.69
246.8	112.69
247.033	110.69
247.266	103.69
247.5	108.69
247.733	101.69
247.966	120.69
248.2	116.69
248.433	115.69
248.666	121.69
248.899	131.69
249.133	124.69
249.366	135.69
249.599	114.69
249.832	105.69
250.066	117.69
250.299	111.69
250.532	115.69
250.765	109.69
250.998	100.69
251.231	121.69
251.465	121.69
251.698	131.69
251.931	117.69
252.164	106.69
252.397	117.69
252.63	119.69
252.863	132.69
253.096	103.69
253.329	141.69
253.562	122.69
253.795	128.69
254.028	121.69
254.261	134.69
254.494	141.69
254.727	144.69
254.96	127.69
255.193	126.69
255.426	129.69
255.659	127.69
255.892	114.69
256.124	130.69
256.357	116.69
256.59	161.69
256.823	157.69
257.056	171.69
257.289	191.69
257.521	211.69
257.754	213.69
257.987	210.69
258.22	181.69
258.452	161.69
258.685	156.69
258.918	126.69
259.151	142.69
259.383	131.69
259.616	132.69
259.849	131.69
260.081	122.69
260.314	134.69
260.547	131.69
260.779	133.69
261.012	137.69
261.244	143.69
261.477	158.69
261.71	142.69
261.942	142.69
262.175	141.69
262.407	142.69
262.64	154.69
262.872	176.69
263.105	164.69
263.337	191.69
263.57	216.69
263.802	180.69
264.035	174.69
264.267	164.69
264.499	157.69
264.732	158.69
264.964	159.69
265.197	186.69
265.429	177.69
265.661	187.69
265.894	187.69
266.126	190.69
266.358	203.69
266.591	179.69
266.823	169.69
267.055	157.69
267.287	152.69
267.52	154.69
267.752	138.69
267.984	153.69
268.216	157.69
268.448	157.69
268.681	153.69
268.913	156.69
269.145	143.69
269.377	158.69
269.609	130.69
269.841	144.69
270.073	153.69
270.306	143.69
270.538	158.69
270.77	166.69
271.002	160.69
271.234	150.69
271.466	153.69
271.698	155.69
271.93	142.69
272.162	145.69
272.394	161.69
272.626	156.69
272.858	146.69
273.09	165.69
273.322	161.69
273.553	127.69
273.785	155.69
274.017	137.69
274.249	169.69
274.481	163.69
274.713	155.69
274.945	166.69
275.176	159.69
275.408	154.69
275.64	148.69
275.872	145.69
276.104	172.69
276.335	171.69
276.567	171.69
276.799	174.69
277.031	166.69
277.262	178.69
277.494	185.69
277.726	159.69
277.957	194.69
278.189	186.69
278.421	184.69
278.652	210.69
278.884	223.69
279.115	267.69
279.347	397.69
279.579	501.69
279.81	586.69
280.042	485.69
280.273	447.69
280.505	427.69
280.736	321.69
280.968	253.69
281.199	239.69
281.431	298.69
281.662	401.69
281.894	416.69
282.125	350.69
282.356	266.69
282.588	251.69
282.819	225.69
283.051	188.69
283.282	194.69
283.513	193.69
283.745	202.69
283.976	196.69
284.207	185.69
284.439	191.69
284.67	213.69
284.901	199.69
285.132	223.69
285.364	234.69
285.595	205.69
285.826	182.69
286.057	191.69
286.288	189.69
286.52	189.69
286.751	187.69
286.982	190.69
287.213	187.69
287.444	179.69
287.675	188.69
287.906	190.69
288.138	178.69
288.369	175.69
288.6	190.69
288.831	175.69
289.062	205.69
289.293	194.69
289.524	177.69
289.755	188.69
289.986	171.69
290.217	181.69
290.448	191.69
290.679	190.69
290.91	197.69
291.141	189.69
291.371	208.69
291.602	194.69
291.833	184.69
292.064	176.69
292.295	197.69
292.526	193.69
292.757	214.69
292.987	205.69
293.218	205.69
293.449	212.69
293.68	194.69
293.91	200.69
294.141	209.69
294.372	201.69
294.603	188.69
294.833	197.69
295.064	189.69
295.295	188.69
295.525	189.69
295.756	193.69
295.987	188.69
296.217	185.69
296.448	181.69
296.679	187.69
296.909	186.69
297.14	196.69
297.37	193.69
297.601	198.69
297.831	175.69
298.062	187.69
298.292	194.69
298.523	191.69
298.753	188.69
298.984	164.69
299.214	177.69
299.445	211.69
299.675	194.69
299.905	194.69
300.136	193.69
300.366	195.69
300.597	193.69
300.827	193.69
301.057	213.69
301.288	209.69
301.518	201.69
301.748	211.69
301.979	229.69
302.209	208.69
302.439	220.69
302.669	219.69
302.9	221.69
303.13	234.69
303.36	240.69
303.59	238.69
303.82	245.69
304.051	251.69
304.281	245.69
304.511	247.69
304.741	271.69
304.971	293.69
305.201	364.69
305.431	386.69
305.661	436.69
305.891	458.69
306.121	423.69
306.352	384.69
306.582	384.69
306.812	380.69
307.042	343.69
307.272	335.69
307.502	366.69
307.731	462.69
307.961	649.69
308.191	893.69
308.421	1050.69
308.651	865.69
308.881	814.69
309.111	963.69
309.341	1268.69
309.571	1185.69
309.8	785.69
310.03	527.69
310.26	424.69
310.49	345.69
310.72	326.69
310.949	321.69
311.179	293.69
311.409	282.69
311.639	277.69
311.868	279.69
312.098	243.69
312.328	254.69
312.557	249.69
312.787	251.69
313.017	237.69
313.246	230.69
313.476	230.69
313.706	240.69
313.935	222.69
314.165	243.69
314.394	234.69
314.624	232.69
314.853	222.69
315.083	228.69
315.312	243.69
315.542	224.69
315.771	239.69
316.001	216.69
316.23	222.69
316.46	216.69
316.689	214.69
316.919	221.69
317.148	227.69
317.377	235.69
317.607	213.69
317.836	235.69
318.065	204.69
318.295	215.69
318.524	218.69
318.753	224.69
318.983	217.69
319.212	216.69
319.441	209.69
319.67	215.69
319.9	213.69
320.129	201.69
320.358	213.69
320.587	237.69
320.816	214.69
321.046	217.69
321.275	220.69
321.504	216.69
321.733	208.69
321.962	218.69
322.191	213.69
322.42	229.69
322.649	217.69
322.878	219.69
323.108	225.69
323.337	213.69
323.566	221.69
323.795	236.69
324.024	222.69
324.253	214.69
324.482	215.69
324.71	217.69
324.939	229.69
325.168	221.69
325.397	213.69
325.626	227.69
325.855	218.69
326.084	241.69
326.313	220.69
326.542	217.69
326.77	245.69
326.999	241.69
327.228	221.69
327.457	244.69
327.686	219.69
327.914	231.69
328.143	223.69
328.372	211.69
328.6	225.69
328.829	227.69
329.058	232.69
329.287	222.69
329.515	225.69
329.744	242.69
329.972	227.69
330.201	224.69
330.43	226.69
330.658	220.69
330.887	256.69
331.115	225.69
331.344	226.69
331.572	247.69
331.801	248.69
332.03	234.69
332.258	239.69
332.486	218.69
332.715	244.69
332.943	267.69
333.172	255.69
333.4	257.69
333.629	258.69
333.857	248.69
334.085	244.69
334.314	258.69
334.542	254.69
334.771	258.69
334.999	258.69
335.227	249.69
335.455	252.69
335.684	262.69
335.912	253.69
336.14	269.69
336.369	250.69
336.597	249.69
336.825	235.69
337.053	244.69
337.281	247.69
337.51	242.69
337.738	263.69
337.966	229.69
338.194	221.69
338.422	254.69
338.65	250.69
338.878	240.69
339.106	246.69
339.334	249.69
339.562	246.69
339.79	228.69
340.018	228.69
340.246	238.69
340.474	249.69
340.702	246.69
340.93	227.69
341.158	236.69
341.386	228.69
341.614	238.69
341.842	237.69
342.07	241.69
342.298	226.69
342.526	249.69
342.754	226.69
342.981	230.69
343.209	225.69
343.437	271.69
343.665	249.69
343.893	267.69
344.12	270.69
344.348	260.69
344.576	249.69
344.804	249.69
345.031	240.69
345.259	234.69
345.487	239.69
345.714	247.69
345.942	235.69
346.17	244.69
346.397	244.69
346.625	237.69
346.853	233.69
347.08	220.69
347.308	231.69
347.535	254.69
347.763	221.69
347.99	238.69
348.218	231.69
348.445	236.69
348.673	243.69
348.9	249.69
349.128	246.69
349.355	240.69
349.583	227.69
349.81	240.69
350.037	227.69
350.265	232.69
350.492	248.69
350.72	227.69
350.947	230.69
351.174	230.69
351.402	249.69
351.629	252.69
351.856	234.69
352.083	244.69
352.311	250.69
352.538	246.69
352.765	268.69
352.992	264.69
353.22	261.69
353.447	256.69
353.674	275.69
353.901	274.69
354.128	256.69
354.355	263.69
354.583	274.69
354.81	281.69
355.037	287.69
355.264	281.69
355.491	286.69
355.718	306.69
355.945	308.69
356.172	290.69
356.399	297.69
356.626	336.69
356.853	357.69
357.08	366.69
357.307	372.69
357.534	401.69
357.761	440.69
357.988	487.69
358.215	556.69
358.441	655.69
358.668	724.69
358.895	705.69
359.122	573.69
359.349	501.69
359.576	428.69
359.802	402.69
360.029	379.69
360.256	369.69
360.483	353.69
360.709	332.69
360.936	359.69
361.163	327.69
361.39	329.69
361.616	301.69
361.843	296.69
362.07	318.69
362.296	294.69
362.523	282.69
362.749	302.69
362.976	285.69
363.203	275.69
363.429	268.69
363.656	283.69
363.882	276.69
364.109	267.69
364.335	276.69
364.562	262.69
364.788	261.69
365.015	261.69
365.241	276.69
365.468	254.69
365.694	252.69
365.92	271.69
366.147	255.69
366.373	242.69
366.599	279.69
366.826	245.69
367.052	255.69
367.278	268.69
367.505	262.69
367.731	265.69
367.957	261.69
368.184	245.69
368.41	253.69
368.636	258.69
368.862	261.69
369.089	260.69
369.315	249.69
369.541	253.69
369.767	253.69
369.993	243.69
370.219	254.69
370.445	246.69
370.672	263.69
370.898	249.69
371.124	270.69
371.35	249.69
371.576	270.69
371.802	271.69
372.028	256.69
372.254	254.69
372.48	245.69
372.706	253.69
372.932	247.69
373.158	300.69
373.384	270.69
373.61	267.69
373.835	267.69
374.061	251.69
374.287	272.69
374.513	272.69
374.739	276.69
374.965	266.69
375.191	260.69
375.416	257.69
375.642	266.69
375.868	259.69
376.094	282.69
376.319	262.69
376.545	266.69
376.771	255.69
376.997	257.69
377.222	272.69
377.448	256.69
377.674	257.69
377.899	249.69
378.125	248.69
378.35	272.69
378.576	258.69
378.802	265.69
379.027	257.69
379.253	264.69
379.478	238.69
379.704	268.69
379.929	273.69
380.155	266.69
380.38	262.69
380.606	275.69
380.831	252.69
381.057	269.69
381.282	272.69
381.507	267.69
381.733	266.69
381.958	257.69
382.184	259.69
382.409	270.69
382.634	281.69
382.86	308.69
383.085	333.69
383.31	339.69
383.535	306.69
383.761	324.69
383.986	323.69
384.211	284.69
384.436	283.69
384.662	295.69
384.887	284.69
385.112	275.69
385.337	295.69
385.562	308.69
385.787	272.69
386.013	295.69
386.238	316.69
386.463	285.69
386.688	332.69
386.913	303.69
387.138	290.69
387.363	291.69
387.588	321.69
387.813	311.69
388.038	310.69
388.263	301.69
388.488	293.69
388.713	297.69
388.938	283.69
389.163	285.69
389.387	300.69
389.612	309.69
389.837	297.69
390.062	314.69
390.287	295.69
390.512	304.69
390.736	316.69
390.961	303.69
391.186	315.69
391.411	333.69
391.636	314.69
391.86	317.69
392.085	319.69
392.31	348.69
392.534	327.69
392.759	357.69
392.984	340.69
393.208	359.69
393.433	402.69
393.658	440.69
393.882	504.69
394.107	783.69
394.331	1341.69
394.556	1750.69
394.78	1231.69
395.005	758.69
395.229	601.69
395.454	625.69
395.678	736.69
395.903	1179.69
396.127	1928.69
396.352	2279.69
396.576	1401.69
396.801	833.69
397.025	633.69
397.249	538.69
397.474	494.69
397.698	461.69
397.922	434.69
398.147	423.69
398.371	418.69
398.595	413.69
398.82	382.69
399.044	393.69
399.268	417.69
399.492	424.69
399.717	423.69
399.941	403.69
400.165	388.69
400.389	380.69
400.613	377.69
400.837	361.69
401.062	344.69
401.286	340.69
401.51	353.69
401.734	343.69
401.958	346.69
402.182	341.69
402.406	337.69
402.63	346.69
402.854	347.69
403.078	356.69
403.302	340.69
403.526	368.69
403.75	366.69
403.974	356.69
404.198	345.69
404.422	371.69
404.645	349.69
404.869	339.69
405.093	359.69
405.317	345.69
405.541	359.69
405.765	358.69
405.988	347.69
406.212	349.69
406.436	343.69
406.66	369.69
406.883	355.69
407.107	362.69
407.331	378.69
407.555	373.69
407.778	368.69
408.002	358.69
408.226	369.69
408.449	349.69
408.673	348.69
408.896	359.69
409.12	348.69
409.344	354.69
409.567	316.69
409.791	335.69
410.014	342.69
410.238	368.69
410.461	354.69
410.685	344.69
410.908	340.69
411.132	341.69
411.355	346.69
411.578	341.69
411.802	338.69
412.025	334.69
412.249	330.69
412.472	348.69
412.695	359.69
412.919	324.69
413.142	338.69
413.365	350.69
413.589	340.69
413.812	329.69
414.035	330.69
414.258	336.69
414.482	345.69
414.705	348.69
414.928	333.69
415.151	356.69
415.374	341.69
415.597	337.69
415.821	335.69
416.044	322.69
416.267	338.69
416.49	323.69
416.713	337.69
416.936	357.69
417.159	333.69
417.382	343.69
417.605	320.69
417.828	313.69
418.051	330.69
418.274	337.69
418.497	322.69
418.72	335.69
418.943	339.69
419.166	355.69
419.389	359.69
419.611	332.69
419.834	335.69
420.057	325.69
420.28	331.69
420.503	343.69
420.726	345.69
420.948	328.69
421.171	338.69
421.394	323.69
421.617	325.69
421.839	334.69
422.062	335.69
422.285	328.69
422.507	338.69
422.73	330.69
422.953	351.69
423.175	337.69
423.398	342.69
423.621	351.69
423.843	343.69
424.066	346.69
424.288	351.69
424.511	340.69
424.733	351.69
424.956	352.69
425.178	367.69
425.401	339.69
425.623	338.69
425.846	330.69
426.068	333.69
426.291	322.69
426.513	323.69
426.735	325.69
426.958	334.69
427.18	349.69
427.402	312.69
427.625	330.69
427.847	321.69
428.069	315.69
428.292	311.69
428.514	329.69
428.736	339.69
428.958	314.69
429.181	323.69
429.403	304.69
429.625	306.69
429.847	305.69
430.069	295.69
430.292	315.69
430.514	313.69
430.736	327.69
430.958	321.69
431.18	323.69
431.402	296.69
431.624	298.69
431.846	292.69
432.068	296.69
432.29	297.69
432.512	320.69
432.734	313.69
432.956	316.69
433.178	335.69
433.4	325.69
433.622	318.69
433.844	325.69
434.066	303.69
434.287	306.69
434.509	328.69
434.731	304.69
434.953	336.69
435.175	307.69
435.397	351.69
435.618	312.69
435.84	307.69
436.062	302.69
436.284	302.69
436.505	316.69
436.727	301.69
436.949	321.69
437.17	307.69
437.392	288.69
437.614	310.69
437.835	304.69
438.057	293.69
438.278	300.69
438.5	311.69
438.721	304.69
438.943	330.69
439.165	293.69
439.386	316.69
439.608	317.69
439.829	317.69
440.05	346.69
440.272	334.69
440.493	330.69
440.715	332.69
440.936	334.69
441.158	347.69
441.379	347.69
441.6	347.69
441.822	340.69
442.043	345.69
442.264	352.69
442.486	339.69
442.707	338.69
442.928	339.69
443.149	341.69
443.371	350.69
443.592	332.69
443.813	333.69
444.034	342.69
444.255	363.69
444.476	363.69
444.698	374.69
444.919	373.69
445.14	548.69
445.361	459.69
445.582	353.69
445.803	323.69
446.024	329.69
446.245	353.69
446.466	351.69
446.687	337.69
446.908	353.69
447.129	322.69
447.35	311.69
447.571	345.69
447.792	331.69
448.013	329.69
448.234	316.69
448.455	316.69
448.675	313.69
448.896	313.69
449.117	313.69
449.338	304.69
449.559	304.69
449.779	320.69
450	308.69
450.221	316.69
450.442	322.69
450.662	326.69
450.883	301.69
451.104	326.69
451.324	306.69
451.545	304.69
451.766	319.69
451.986	302.69
452.207	299.69
452.428	299.69
452.648	309.69
452.869	332.69
453.089	311.69
453.31	306.69
453.53	281.69
453.751	325.69
453.971	300.69
454.192	302.69
454.412	292.69
454.633	287.69
454.853	281.69
455.073	285.69
455.294	303.69
455.514	292.69
455.734	286.69
455.955	276.69
456.175	294.69
456.395	273.69
456.616	289.69
456.836	295.69
457.056	272.69
457.276	268.69
457.497	287.69
457.717	282.69
457.937	267.69
458.157	300.69
458.377	295.69
458.598	285.69
458.818	280.69
459.038	275.69
459.258	289.69
459.478	300.69
459.698	302.69
459.918	298.69
460.138	311.69
460.358	332.69
460.578	319.69
460.798	331.69
461.018	325.69
461.238	326.69
461.458	331.69
461.678	345.69
461.898	351.69
462.118	319.69
462.338	332.69
462.558	359.69
462.777	357.69
462.997	373.69
463.217	369.69
463.437	377.69
463.657	359.69
463.876	372.69
464.096	357.69
464.316	371.69
464.536	348.69
464.755	362.69
464.975	345.69
465.195	371.69
465.414	347.69
465.634	335.69
465.854	335.69
466.073	354.69
466.293	377.69
466.512	410.69
466.732	401.69
466.951	381.69
467.171	356.69
467.391	356.69
467.61	345.69
467.829	347.69
468.049	323.69
468.268	323.69
468.488	313.69
468.707	324.69
468.927	320.69
469.146	325.69
469.365	335.69
469.585	305.69
469.804	308.69
470.023	324.69
470.243	343.69
470.462	343.69
470.681	322.69
470.901	303.69
471.12	315.69
471.339	313.69
471.558	306.69
471.777	314.69
471.997	338.69
472.216	314.69
472.435	318.69
472.654	312.69
472.873	305.69
473.092	337.69
473.311	344.69
473.53	355.69
473.749	379.69
473.968	370.69
474.187	373.69
474.406	360.69
474.625	390.69
474.844	393.69
475.063	370.69
475.282	363.69
475.501	311.69
475.72	332.69
475.939	306.69
476.158	333.69
476.377	338.69
476.596	330.69
476.814	317.69
477.033	311.69
477.252	302.69
477.471	319.69
477.69	342.69
477.908	337.69
478.127	355.69
478.346	345.69
478.564	338.69
478.783	329.69
479.002	330.69
479.22	362.69
479.439	364.69
479.658	332.69
479.876	311.69
480.095	329.69
480.313	344.69
480.532	350.69
480.751	341.69
480.969	348.69
481.188	331.69
481.406	326.69
481.624	295.69
481.843	300.69
482.061	320.69
482.28	307.69
482.498	325.69
482.717	316.69
482.935	321.69
483.153	333.69
483.372	332.69
483.59	345.69
483.808	342.69
484.027	331.69
484.245	359.69
484.463	362.69
484.681	382.69
484.9	382.69
485.118	359.69
485.336	375.69
485.554	362.69
485.772	345.69
485.99	347.69
486.209	337.69
486.427	354.69
486.645	357.69
486.863	375.69
487.081	367.69
487.299	368.69
487.517	361.69
487.735	387.69
487.953	388.69
488.171	393.69
488.389	395.69
488.607	380.69
488.825	365.69
489.043	356.69
489.261	358.69
489.479	347.69
489.696	355.69
489.914	371.69
490.132	368.69
490.35	377.69
490.568	387.69
490.786	370.69
491.003	386.69
491.221	358.69
491.439	364.69
491.657	388.69
491.874	389.69
492.092	400.69
492.31	418.69
492.527	398.69
492.745	413.69
492.963	401.69
493.18	398.69
493.398	396.69
493.615	382.69
493.833	376.69
494.05	379.69
494.268	382.69
494.485	384.69
494.703	380.69
494.92	382.69
495.138	355.69
495.355	390.69
495.573	374.69
495.79	366.69
496.008	397.69
496.225	382.69
496.442	393.69
496.66	395.69
496.877	386.69
497.094	407.69
497.312	383.69
497.529	377.69
497.746	399.69
497.963	392.69
498.181	413.69
498.398	423.69
498.615	411.69
498.832	438.69
499.049	460.69
499.267	473.69
499.484	475.69
499.701	525.69
499.918	571.69
500.135	595.69
500.352	626.69
500.569	627.69
500.786	604.69
501.003	606.69
501.22	541.69
501.437	513.69
501.654	497.69
501.871	468.69
502.088	454.69
502.305	435.69
502.522	427.69
502.739	406.69
502.956	409.69
