Data from SampC_HRD10591_00031.txt Node
Date: Mon Jan 19 11:37:40 EST 2026
User: Yrep
Spectrometer: HR+D1059
Trigger mode: 0
Integration Time (sec): 3.443000E-1
Scans to average: 1
Electric dark correction enabled: true
Nonlinearity correction enabled: false
Boxcar width: 0
XAxis mode: Wavelengths
Number of Pixels in Spectrum: 2048
>>>>>Begin Spectral Data<<<<<
223.165	-16.25
223.4	-16.25
223.635	-16.25
223.869	-22.25
224.104	-27.25
224.338	-16.25
224.573	-27.25
224.808	-11.25
225.042	-3.25
225.277	-4.25
225.511	0.75
225.746	0.75
225.98	7.75
226.215	15.75
226.449	14.75
226.683	20.75
226.918	30.75
227.152	36.75
227.387	28.75
227.621	56.75
227.856	34.75
228.09	51.75
228.324	59.75
228.559	57.75
228.793	79.75
229.027	81.75
229.262	91.75
229.496	83.75
229.73	99.75
229.964	104.75
230.199	87.75
230.433	89.75
230.667	92.75
230.901	90.75
231.136	89.75
231.37	120.75
231.604	106.75
231.838	103.75
232.072	102.75
232.306	106.75
232.541	114.75
232.775	100.75
233.009	112.75
233.243	106.75
233.477	103.75
233.711	111.75
233.945	100.75
234.179	113.75
234.413	109.75
234.647	100.75
234.881	89.75
235.115	119.75
235.349	125.75
235.583	124.75
235.817	117.75
236.051	131.75
236.285	113.75
236.519	141.75
236.753	161.75
236.987	184.75
237.221	196.75
237.455	186.75
237.689	188.75
237.922	194.75
238.156	150.75
238.39	139.75
238.624	130.75
238.858	128.75
239.091	123.75
239.325	109.75
239.559	95.75
239.793	114.75
240.027	110.75
240.26	109.75
240.494	111.75
240.728	104.75
240.961	111.75
241.195	94.75
241.429	108.75
241.662	95.75
241.896	82.75
242.13	105.75
242.363	107.75
242.597	106.75
242.83	112.75
243.064	120.75
243.298	97.75
243.531	114.75
243.765	108.75
243.998	113.75
244.232	106.75
244.465	132.75
244.699	114.75
244.932	118.75
245.166	121.75
245.399	101.75
245.633	110.75
245.866	109.75
246.099	118.75
246.333	114.75
246.566	97.75
246.8	121.75
247.033	107.75
247.266	116.75
247.5	100.75
247.733	126.75
247.966	105.75
248.2	103.75
248.433	136.75
248.666	115.75
248.899	132.75
249.133	116.75
249.366	126.75
249.599	113.75
249.832	136.75
250.066	131.75
250.299	124.75
250.532	126.75
250.765	115.75
250.998	136.75
251.231	124.75
251.465	135.75
251.698	141.75
251.931	128.75
252.164	153.75
252.397	131.75
252.63	128.75
252.863	119.75
253.096	129.75
253.329	139.75
253.562	126.75
253.795	124.75
254.028	155.75
254.261	132.75
254.494	139.75
254.727	145.75
254.96	133.75
255.193	127.75
255.426	137.75
255.659	137.75
255.892	144.75
256.124	132.75
256.357	144.75
256.59	174.75
256.823	214.75
257.056	272.75
257.289	279.75
257.521	276.75
257.754	328.75
257.987	283.75
258.22	222.75
258.452	182.75
258.685	171.75
258.918	160.75
259.151	169.75
259.383	145.75
259.616	148.75
259.849	146.75
260.081	151.75
260.314	149.75
260.547	165.75
260.779	154.75
261.012	156.75
261.244	156.75
261.477	171.75
261.71	141.75
261.942	146.75
262.175	156.75
262.407	148.75
262.64	155.75
262.872	164.75
263.105	178.75
263.337	187.75
263.57	184.75
263.802	168.75
264.035	168.75
264.267	163.75
264.499	171.75
264.732	171.75
264.964	192.75
265.197	207.75
265.429	233.75
265.661	243.75
265.894	235.75
266.126	261.75
266.358	287.75
266.591	230.75
266.823	196.75
267.055	167.75
267.287	169.75
267.52	162.75
267.752	145.75
267.984	143.75
268.216	159.75
268.448	154.75
268.681	162.75
268.913	164.75
269.145	155.75
269.377	162.75
269.609	166.75
269.841	158.75
270.073	141.75
270.306	149.75
270.538	169.75
270.77	149.75
271.002	159.75
271.234	165.75
271.466	169.75
271.698	158.75
271.93	153.75
272.162	159.75
272.394	159.75
272.626	144.75
272.858	152.75
273.09	166.75
273.322	175.75
273.553	152.75
273.785	171.75
274.017	152.75
274.249	177.75
274.481	184.75
274.713	173.75
274.945	170.75
275.176	165.75
275.408	175.75
275.64	156.75
275.872	169.75
276.104	170.75
276.335	177.75
276.567	156.75
276.799	169.75
277.031	185.75
277.262	176.75
277.494	209.75
277.726	207.75
277.957	223.75
278.189	233.75
278.421	224.75
278.652	242.75
278.884	266.75
279.115	334.75
279.347	477.75
279.579	632.75
279.81	698.75
280.042	564.75
280.273	547.75
280.505	530.75
280.736	358.75
280.968	254.75
281.199	255.75
281.431	309.75
281.662	363.75
281.894	419.75
282.125	331.75
282.356	284.75
282.588	238.75
282.819	221.75
283.051	213.75
283.282	222.75
283.513	218.75
283.745	221.75
283.976	195.75
284.207	181.75
284.439	186.75
284.67	211.75
284.901	245.75
285.132	288.75
285.364	312.75
285.595	276.75
285.826	213.75
286.057	196.75
286.288	193.75
286.52	202.75
286.751	180.75
286.982	203.75
287.213	191.75
287.444	211.75
287.675	185.75
287.906	206.75
288.138	209.75
288.369	210.75
288.6	183.75
288.831	191.75
289.062	191.75
289.293	196.75
289.524	192.75
289.755	187.75
289.986	184.75
290.217	202.75
290.448	177.75
290.679	183.75
290.91	196.75
291.141	190.75
291.371	197.75
291.602	212.75
291.833	211.75
292.064	200.75
292.295	224.75
292.526	216.75
292.757	213.75
292.987	232.75
293.218	213.75
293.449	227.75
293.68	221.75
293.91	233.75
294.141	232.75
294.372	224.75
294.603	208.75
294.833	188.75
295.064	190.75
295.295	193.75
295.525	192.75
295.756	201.75
295.987	191.75
296.217	199.75
296.448	208.75
296.679	197.75
296.909	203.75
297.14	202.75
297.37	194.75
297.601	205.75
297.831	196.75
298.062	207.75
298.292	207.75
298.523	196.75
298.753	186.75
298.984	207.75
299.214	199.75
299.445	203.75
299.675	215.75
299.905	221.75
300.136	204.75
300.366	196.75
300.597	216.75
300.827	215.75
301.057	204.75
301.288	227.75
301.518	238.75
301.748	228.75
301.979	275.75
302.209	247.75
302.439	234.75
302.669	241.75
302.9	246.75
303.13	248.75
303.36	276.75
303.59	259.75
303.82	267.75
304.051	293.75
304.281	307.75
304.511	307.75
304.741	323.75
304.971	382.75
305.201	452.75
305.431	487.75
305.661	566.75
305.891	617.75
306.121	583.75
306.352	516.75
306.582	531.75
306.812	535.75
307.042	480.75
307.272	468.75
307.502	555.75
307.731	747.75
307.961	1025.75
308.191	1443.75
308.421	1691.75
308.651	1392.75
308.881	1275.75
309.111	1583.75
309.341	1977.75
309.571	1889.75
309.8	1225.75
310.03	777.75
310.26	595.75
310.49	503.75
310.72	437.75
310.949	411.75
311.179	372.75
311.409	345.75
311.639	333.75
311.868	345.75
312.098	305.75
312.328	294.75
312.557	299.75
312.787	276.75
313.017	271.75
313.246	269.75
313.476	283.75
313.706	265.75
313.935	266.75
314.165	263.75
314.394	250.75
314.624	261.75
314.853	262.75
315.083	253.75
315.312	237.75
315.542	250.75
315.771	253.75
316.001	252.75
316.23	237.75
316.46	248.75
316.689	230.75
316.919	225.75
317.148	239.75
317.377	249.75
317.607	244.75
317.836	221.75
318.065	239.75
318.295	231.75
318.524	231.75
318.753	241.75
318.983	236.75
319.212	238.75
319.441	223.75
319.67	228.75
319.9	241.75
320.129	226.75
320.358	221.75
320.587	228.75
320.816	232.75
321.046	229.75
321.275	232.75
321.504	228.75
321.733	226.75
321.962	232.75
322.191	222.75
322.42	240.75
322.649	237.75
322.878	227.75
323.108	235.75
323.337	233.75
323.566	237.75
323.795	228.75
324.024	239.75
324.253	249.75
324.482	240.75
324.71	221.75
324.939	263.75
325.168	232.75
325.397	247.75
325.626	237.75
325.855	250.75
326.084	245.75
326.313	243.75
326.542	232.75
326.77	234.75
326.999	234.75
327.228	219.75
327.457	227.75
327.686	244.75
327.914	235.75
328.143	237.75
328.372	229.75
328.6	236.75
328.829	226.75
329.058	223.75
329.287	239.75
329.515	234.75
329.744	236.75
329.972	226.75
330.201	237.75
330.43	239.75
330.658	240.75
330.887	235.75
331.115	235.75
331.344	236.75
331.572	255.75
331.801	228.75
332.03	255.75
332.258	254.75
332.486	252.75
332.715	229.75
332.943	235.75
333.172	248.75
333.4	256.75
333.629	270.75
333.857	267.75
334.085	288.75
334.314	257.75
334.542	257.75
334.771	251.75
334.999	279.75
335.227	252.75
335.455	253.75
335.684	266.75
335.912	246.75
336.14	224.75
336.369	249.75
336.597	245.75
336.825	252.75
337.053	238.75
337.281	236.75
337.51	240.75
337.738	251.75
337.966	239.75
338.194	252.75
338.422	244.75
338.65	255.75
338.878	243.75
339.106	238.75
339.334	248.75
339.562	236.75
339.79	242.75
340.018	221.75
340.246	259.75
340.474	251.75
340.702	249.75
340.93	246.75
341.158	237.75
341.386	236.75
341.614	247.75
341.842	247.75
342.07	239.75
342.298	250.75
342.526	218.75
342.754	231.75
342.981	241.75
343.209	261.75
343.437	277.75
343.665	256.75
343.893	279.75
344.12	283.75
344.348	273.75
344.576	250.75
344.804	249.75
345.031	252.75
345.259	245.75
345.487	248.75
345.714	250.75
345.942	237.75
346.17	234.75
346.397	248.75
346.625	245.75
346.853	252.75
347.08	243.75
347.308	241.75
347.535	252.75
347.763	259.75
347.99	238.75
348.218	252.75
348.445	236.75
348.673	245.75
348.9	253.75
349.128	251.75
349.355	235.75
349.583	260.75
349.81	234.75
350.037	225.75
350.265	247.75
350.492	241.75
350.72	251.75
350.947	243.75
351.174	248.75
351.402	249.75
351.629	250.75
351.856	253.75
352.083	259.75
352.311	240.75
352.538	269.75
352.765	271.75
352.992	268.75
353.22	263.75
353.447	259.75
353.674	275.75
353.901	267.75
354.128	261.75
354.355	277.75
354.583	265.75
354.81	264.75
355.037	273.75
355.264	296.75
355.491	311.75
355.718	307.75
355.945	304.75
356.172	311.75
356.399	300.75
356.626	335.75
356.853	331.75
357.08	379.75
357.307	379.75
357.534	391.75
357.761	427.75
357.988	480.75
358.215	551.75
358.441	625.75
358.668	674.75
358.895	652.75
359.122	564.75
359.349	472.75
359.576	421.75
359.802	393.75
360.029	363.75
360.256	371.75
360.483	366.75
360.709	323.75
360.936	347.75
361.163	330.75
361.39	337.75
361.616	324.75
361.843	298.75
362.07	307.75
362.296	307.75
362.523	281.75
362.749	291.75
362.976	286.75
363.203	292.75
363.429	300.75
363.656	275.75
363.882	269.75
364.109	290.75
364.335	283.75
364.562	264.75
364.788	263.75
365.015	268.75
365.241	288.75
365.468	280.75
365.694	260.75
365.92	269.75
366.147	252.75
366.373	272.75
366.599	257.75
366.826	266.75
367.052	245.75
367.278	275.75
367.505	265.75
367.731	267.75
367.957	255.75
368.184	252.75
368.41	257.75
368.636	274.75
368.862	252.75
369.089	267.75
369.315	250.75
369.541	267.75
369.767	269.75
369.993	260.75
370.219	270.75
370.445	275.75
370.672	275.75
370.898	265.75
371.124	269.75
371.35	257.75
371.576	259.75
371.802	273.75
372.028	278.75
372.254	274.75
372.48	291.75
372.706	267.75
372.932	264.75
373.158	273.75
373.384	299.75
373.61	309.75
373.835	277.75
374.061	269.75
374.287	282.75
374.513	265.75
374.739	287.75
374.965	291.75
375.191	271.75
375.416	289.75
375.642	278.75
375.868	288.75
376.094	288.75
376.319	267.75
376.545	264.75
376.771	282.75
376.997	273.75
377.222	270.75
377.448	276.75
377.674	275.75
377.899	263.75
378.125	269.75
378.35	269.75
378.576	266.75
378.802	261.75
379.027	273.75
379.253	289.75
379.478	275.75
379.704	268.75
379.929	275.75
380.155	271.75
380.38	286.75
380.606	245.75
380.831	282.75
381.057	283.75
381.282	288.75
381.507	288.75
381.733	291.75
381.958	305.75
382.184	305.75
382.409	320.75
382.634	351.75
382.86	375.75
383.085	427.75
383.31	444.75
383.535	456.75
383.761	451.75
383.986	481.75
384.211	370.75
384.436	329.75
384.662	321.75
384.887	309.75
385.112	319.75
385.337	306.75
385.562	331.75
385.787	321.75
386.013	334.75
386.238	333.75
386.463	353.75
386.688	337.75
386.913	317.75
387.138	313.75
387.363	314.75
387.588	336.75
387.813	347.75
388.038	313.75
388.263	315.75
388.488	338.75
388.713	319.75
388.938	320.75
389.163	327.75
389.387	323.75
389.612	332.75
389.837	333.75
390.062	336.75
390.287	337.75
390.512	348.75
390.736	351.75
390.961	336.75
391.186	349.75
391.411	369.75
391.636	359.75
391.86	374.75
392.085	377.75
392.31	377.75
392.534	404.75
392.759	441.75
392.984	482.75
393.208	548.75
393.433	634.75
393.658	674.75
393.882	828.75
394.107	1395.75
394.331	2501.75
394.556	3250.75
394.78	2153.75
395.005	1213.75
395.229	950.75
395.454	974.75
395.678	1239.75
395.903	2107.75
396.127	3697.75
396.352	4179.75
396.576	2458.75
396.801	1378.75
397.025	1005.75
397.249	783.75
397.474	662.75
397.698	599.75
397.922	552.75
398.147	514.75
398.371	491.75
398.595	487.75
398.82	449.75
399.044	460.75
399.268	464.75
399.492	480.75
399.717	482.75
399.941	471.75
400.165	468.75
400.389	437.75
400.613	420.75
400.837	413.75
401.062	378.75
401.286	388.75
401.51	365.75
401.734	393.75
401.958	380.75
402.182	365.75
402.406	380.75
402.63	374.75
402.854	380.75
403.078	399.75
403.302	395.75
403.526	399.75
403.75	393.75
403.974	384.75
404.198	384.75
404.422	398.75
404.645	396.75
404.869	399.75
405.093	375.75
405.317	393.75
405.541	356.75
405.765	386.75
405.988	354.75
406.212	388.75
406.436	391.75
406.66	415.75
406.883	376.75
407.107	385.75
407.331	408.75
407.555	405.75
407.778	410.75
408.002	405.75
408.226	405.75
408.449	378.75
408.673	385.75
408.896	396.75
409.12	383.75
409.344	385.75
409.567	378.75
409.791	393.75
410.014	388.75
410.238	381.75
410.461	370.75
410.685	376.75
410.908	373.75
411.132	374.75
411.355	385.75
411.578	393.75
411.802	380.75
412.025	366.75
412.249	365.75
412.472	362.75
412.695	372.75
412.919	357.75
413.142	347.75
413.365	367.75
413.589	367.75
413.812	361.75
414.035	385.75
414.258	351.75
414.482	351.75
414.705	373.75
414.928	354.75
415.151	380.75
415.374	366.75
415.597	369.75
415.821	368.75
416.044	373.75
416.267	383.75
416.49	352.75
416.713	348.75
416.936	352.75
417.159	360.75
417.382	373.75
417.605	371.75
417.828	362.75
418.051	367.75
418.274	360.75
418.497	359.75
418.72	392.75
418.943	363.75
419.166	394.75
419.389	400.75
419.611	385.75
419.834	378.75
420.057	379.75
420.28	364.75
420.503	372.75
420.726	370.75
420.948	349.75
421.171	376.75
421.394	380.75
421.617	368.75
421.839	379.75
422.062	365.75
422.285	376.75
422.507	386.75
422.73	413.75
422.953	411.75
423.175	349.75
423.398	387.75
423.621	369.75
423.843	387.75
424.066	381.75
424.288	381.75
424.511	376.75
424.733	374.75
424.956	372.75
425.178	381.75
425.401	380.75
425.623	375.75
425.846	365.75
426.068	368.75
426.291	363.75
426.513	362.75
426.735	357.75
426.958	376.75
427.18	360.75
427.402	372.75
427.625	355.75
427.847	334.75
428.069	340.75
428.292	362.75
428.514	336.75
428.736	336.75
428.958	371.75
429.181	378.75
429.403	367.75
429.625	360.75
429.847	333.75
430.069	340.75
430.292	344.75
430.514	346.75
430.736	342.75
430.958	361.75
431.18	339.75
431.402	331.75
431.624	349.75
431.846	333.75
432.068	334.75
432.29	321.75
432.512	335.75
432.734	356.75
432.956	365.75
433.178	380.75
433.4	355.75
433.622	371.75
433.844	360.75
434.066	349.75
434.287	330.75
434.509	328.75
434.731	340.75
434.953	354.75
435.175	369.75
435.397	346.75
435.618	344.75
435.84	349.75
436.062	340.75
436.284	352.75
436.505	351.75
436.727	348.75
436.949	346.75
437.17	341.75
437.392	336.75
437.614	338.75
437.835	306.75
438.057	340.75
438.278	337.75
438.5	346.75
438.721	364.75
438.943	356.75
439.165	355.75
439.386	357.75
439.608	380.75
439.829	363.75
440.05	377.75
440.272	357.75
440.493	386.75
440.715	369.75
440.936	386.75
441.158	385.75
441.379	387.75
441.6	397.75
441.822	383.75
442.043	399.75
442.264	387.75
442.486	391.75
442.707	384.75
442.928	371.75
443.149	394.75
443.371	386.75
443.592	386.75
443.813	408.75
444.034	384.75
444.255	400.75
444.476	399.75
444.698	415.75
444.919	428.75
445.14	675.75
445.361	520.75
445.582	420.75
445.803	382.75
446.024	383.75
446.245	399.75
446.466	402.75
446.687	386.75
446.908	408.75
447.129	387.75
447.35	375.75
447.571	362.75
447.792	367.75
448.013	364.75
448.234	371.75
448.455	375.75
448.675	366.75
448.896	372.75
449.117	363.75
449.338	338.75
449.559	365.75
449.779	376.75
450	348.75
450.221	343.75
450.442	344.75
450.662	360.75
450.883	365.75
451.104	349.75
451.324	351.75
451.545	361.75
451.766	349.75
451.986	363.75
452.207	353.75
452.428	355.75
452.648	362.75
452.869	357.75
453.089	352.75
453.31	346.75
453.53	332.75
453.751	346.75
453.971	345.75
454.192	331.75
454.412	344.75
454.633	324.75
454.853	325.75
455.073	314.75
455.294	329.75
455.514	333.75
455.734	330.75
455.955	340.75
456.175	324.75
456.395	302.75
456.616	322.75
456.836	318.75
457.056	310.75
457.276	316.75
457.497	297.75
457.717	312.75
457.937	313.75
458.157	302.75
458.377	317.75
458.598	311.75
458.818	298.75
459.038	307.75
459.258	295.75
459.478	321.75
459.698	316.75
459.918	330.75
460.138	326.75
460.358	357.75
460.578	353.75
460.798	343.75
461.018	354.75
461.238	361.75
461.458	361.75
461.678	367.75
461.898	372.75
462.118	356.75
462.338	400.75
462.558	387.75
462.777	389.75
462.997	398.75
463.217	418.75
463.437	422.75
463.657	388.75
463.876	395.75
464.096	393.75
464.316	413.75
464.536	397.75
464.755	388.75
464.975	380.75
465.195	382.75
465.414	369.75
465.634	355.75
465.854	370.75
466.073	403.75
466.293	405.75
466.512	462.75
466.732	423.75
466.951	415.75
467.171	387.75
467.391	417.75
467.61	381.75
467.829	376.75
468.049	383.75
468.268	355.75
468.488	364.75
468.707	366.75
468.927	363.75
469.146	366.75
469.365	356.75
469.585	348.75
469.804	387.75
470.023	377.75
470.243	380.75
470.462	373.75
470.681	388.75
470.901	399.75
471.12	376.75
471.339	367.75
471.558	364.75
471.777	371.75
471.997	356.75
472.216	353.75
472.435	353.75
472.654	338.75
472.873	343.75
473.092	379.75
473.311	390.75
473.53	429.75
473.749	460.75
473.968	441.75
474.187	423.75
474.406	413.75
474.625	446.75
474.844	455.75
475.063	422.75
475.282	421.75
475.501	386.75
475.72	399.75
475.939	379.75
476.158	386.75
476.377	376.75
476.596	359.75
476.814	362.75
477.033	339.75
477.252	363.75
477.471	362.75
477.69	387.75
477.908	370.75
478.127	399.75
478.346	387.75
478.564	384.75
478.783	374.75
479.002	385.75
479.22	373.75
479.439	377.75
479.658	365.75
479.876	369.75
480.095	352.75
480.313	371.75
480.532	376.75
480.751	361.75
480.969	337.75
481.188	351.75
481.406	354.75
481.624	348.75
481.843	338.75
482.061	341.75
482.28	341.75
482.498	344.75
482.717	312.75
482.935	366.75
483.153	349.75
483.372	385.75
483.59	376.75
483.808	379.75
484.027	386.75
484.245	413.75
484.463	459.75
484.681	466.75
484.9	431.75
485.118	425.75
485.336	439.75
485.554	413.75
485.772	383.75
485.99	374.75
486.209	429.75
486.427	410.75
486.645	413.75
486.863	462.75
487.081	441.75
487.299	431.75
487.517	429.75
487.735	460.75
487.953	487.75
488.171	463.75
488.389	447.75
488.607	429.75
488.825	432.75
489.043	405.75
489.261	432.75
489.479	420.75
489.696	415.75
489.914	407.75
490.132	405.75
490.35	435.75
490.568	433.75
490.786	443.75
491.003	450.75
491.221	440.75
491.439	471.75
491.657	463.75
491.874	496.75
492.092	484.75
492.31	509.75
492.527	503.75
492.745	493.75
492.963	461.75
493.18	450.75
493.398	453.75
493.615	439.75
493.833	459.75
494.05	430.75
494.268	427.75
494.485	457.75
494.703	414.75
494.92	421.75
495.138	446.75
495.355	458.75
495.573	447.75
495.79	441.75
496.008	429.75
496.225	429.75
496.442	440.75
496.66	436.75
496.877	430.75
497.094	433.75
497.312	445.75
497.529	435.75
497.746	445.75
497.963	435.75
498.181	436.75
498.398	440.75
498.615	461.75
498.832	473.75
499.049	466.75
499.267	514.75
499.484	517.75
499.701	563.75
499.918	575.75
500.135	611.75
500.352	623.75
500.569	635.75
500.786	649.75
501.003	604.75
501.22	591.75
501.437	537.75
501.654	533.75
501.871	519.75
502.088	490.75
502.305	460.75
502.522	450.75
502.739	447.75
