Data from SampC_HRD10591_00006.txt Node
Date: Mon Jan 19 11:37:31 EST 2026
User: Yrep
Spectrometer: HR+D1059
Trigger mode: 0
Integration Time (sec): 3.443000E-1
Scans to average: 1
Electric dark correction enabled: true
Nonlinearity correction enabled: false
Boxcar width: 0
XAxis mode: Wavelengths
Number of Pixels in Spectrum: 2048
>>>>>Begin Spectral Data<<<<<
223.165	-18.75
223.4	-18.75
223.635	-18.75
223.869	-25.75
224.104	-28.75
224.338	-18.75
224.573	-16.75
224.808	-16.75
225.042	-1.75
225.277	-1.75
225.511	-6.75
225.746	23.25
225.98	20.25
226.215	19.25
226.449	6.25
226.683	11.25
226.918	32.25
227.152	23.25
227.387	30.25
227.621	31.25
227.856	59.25
228.09	61.25
228.324	67.25
228.559	72.25
228.793	61.25
229.027	90.25
229.262	109.25
229.496	99.25
229.73	105.25
229.964	111.25
230.199	111.25
230.433	102.25
230.667	106.25
230.901	103.25
231.136	128.25
231.37	113.25
231.604	128.25
231.838	128.25
232.072	144.25
232.306	125.25
232.541	145.25
232.775	131.25
233.009	122.25
233.243	123.25
233.477	115.25
233.711	145.25
233.945	132.25
234.179	121.25
234.413	126.25
234.647	129.25
234.881	117.25
235.115	127.25
235.349	124.25
235.583	131.25
235.817	131.25
236.051	145.25
236.285	160.25
236.519	188.25
236.753	197.25
236.987	225.25
237.221	261.25
237.455	282.25
237.689	286.25
237.922	228.25
238.156	179.25
238.39	153.25
238.624	127.25
238.858	145.25
239.091	136.25
239.325	119.25
239.559	147.25
239.793	141.25
240.027	126.25
240.26	124.25
240.494	134.25
240.728	132.25
240.961	122.25
241.195	131.25
241.429	134.25
241.662	138.25
241.896	120.25
242.13	123.25
242.363	137.25
242.597	161.25
242.83	132.25
243.064	134.25
243.298	127.25
243.531	130.25
243.765	138.25
243.998	127.25
244.232	148.25
244.465	136.25
244.699	147.25
244.932	127.25
245.166	124.25
245.399	146.25
245.633	141.25
245.866	153.25
246.099	139.25
246.333	153.25
246.566	157.25
246.8	158.25
247.033	144.25
247.266	129.25
247.5	149.25
247.733	142.25
247.966	148.25
248.2	142.25
248.433	153.25
248.666	139.25
248.899	154.25
249.133	154.25
249.366	156.25
249.599	160.25
249.832	164.25
250.066	167.25
250.299	154.25
250.532	178.25
250.765	170.25
250.998	153.25
251.231	153.25
251.465	168.25
251.698	172.25
251.931	157.25
252.164	182.25
252.397	163.25
252.63	175.25
252.863	174.25
253.096	157.25
253.329	155.25
253.562	157.25
253.795	171.25
254.028	184.25
254.261	178.25
254.494	174.25
254.727	177.25
254.96	161.25
255.193	179.25
255.426	170.25
255.659	183.25
255.892	181.25
256.124	195.25
256.357	189.25
256.59	233.25
256.823	265.25
257.056	332.25
257.289	335.25
257.521	331.25
257.754	377.25
257.987	365.25
258.22	269.25
258.452	220.25
258.685	203.25
258.918	221.25
259.151	197.25
259.383	211.25
259.616	197.25
259.849	182.25
260.081	209.25
260.314	205.25
260.547	195.25
260.779	195.25
261.012	198.25
261.244	203.25
261.477	203.25
261.71	202.25
261.942	205.25
262.175	205.25
262.407	214.25
262.64	228.25
262.872	260.25
263.105	278.25
263.337	333.25
263.57	333.25
263.802	307.25
264.035	277.25
264.267	263.25
264.499	252.25
264.732	256.25
264.964	254.25
265.197	270.25
265.429	286.25
265.661	289.25
265.894	278.25
266.126	335.25
266.358	361.25
266.591	288.25
266.823	266.25
267.055	242.25
267.287	227.25
267.52	206.25
267.752	213.25
267.984	237.25
268.216	201.25
268.448	217.25
268.681	218.25
268.913	221.25
269.145	204.25
269.377	218.25
269.609	221.25
269.841	207.25
270.073	217.25
270.306	223.25
270.538	215.25
270.77	210.25
271.002	213.25
271.234	230.25
271.466	222.25
271.698	220.25
271.93	219.25
272.162	221.25
272.394	225.25
272.626	239.25
272.858	220.25
273.09	225.25
273.322	212.25
273.553	227.25
273.785	222.25
274.017	212.25
274.249	247.25
274.481	228.25
274.713	243.25
274.945	259.25
275.176	252.25
275.408	239.25
275.64	241.25
275.872	260.25
276.104	248.25
276.335	245.25
276.567	250.25
276.799	252.25
277.031	252.25
277.262	263.25
277.494	274.25
277.726	293.25
277.957	289.25
278.189	314.25
278.421	307.25
278.652	318.25
278.884	386.25
279.115	499.25
279.347	745.25
279.579	1068.25
279.81	1185.25
280.042	925.25
280.273	873.25
280.505	853.25
280.736	554.25
280.968	416.25
281.199	445.25
281.431	560.25
281.662	713.25
281.894	793.25
282.125	636.25
282.356	475.25
282.588	405.25
282.819	327.25
283.051	326.25
283.282	334.25
283.513	317.25
283.745	299.25
283.976	293.25
284.207	313.25
284.439	300.25
284.67	299.25
284.901	321.25
285.132	371.25
285.364	400.25
285.595	371.25
285.826	310.25
286.057	291.25
286.288	271.25
286.52	279.25
286.751	265.25
286.982	266.25
287.213	272.25
287.444	277.25
287.675	273.25
287.906	285.25
288.138	274.25
288.369	318.25
288.6	285.25
288.831	301.25
289.062	302.25
289.293	280.25
289.524	290.25
289.755	284.25
289.986	286.25
290.217	272.25
290.448	297.25
290.679	298.25
290.91	290.25
291.141	305.25
291.371	301.25
291.602	290.25
291.833	287.25
292.064	309.25
292.295	293.25
292.526	329.25
292.757	333.25
292.987	336.25
293.218	336.25
293.449	345.25
293.68	335.25
293.91	349.25
294.141	340.25
294.372	308.25
294.603	302.25
294.833	309.25
295.064	300.25
295.295	312.25
295.525	299.25
295.756	299.25
295.987	298.25
296.217	291.25
296.448	291.25
296.679	284.25
296.909	310.25
297.14	302.25
297.37	303.25
297.601	301.25
297.831	295.25
298.062	298.25
298.292	302.25
298.523	316.25
298.753	303.25
298.984	311.25
299.214	298.25
299.445	285.25
299.675	308.25
299.905	314.25
300.136	321.25
300.366	298.25
300.597	310.25
300.827	301.25
301.057	331.25
301.288	326.25
301.518	339.25
301.748	331.25
301.979	373.25
302.209	340.25
302.439	354.25
302.669	353.25
302.9	372.25
303.13	381.25
303.36	388.25
303.59	370.25
303.82	406.25
304.051	401.25
304.281	415.25
304.511	433.25
304.741	478.25
304.971	544.25
305.201	644.25
305.431	728.25
305.661	810.25
305.891	902.25
306.121	832.25
306.352	718.25
306.582	733.25
306.812	758.25
307.042	684.25
307.272	627.25
307.502	720.25
307.731	947.25
307.961	1347.25
308.191	2001.25
308.421	2350.25
308.651	1896.25
308.881	1745.25
309.111	2229.25
309.341	2941.25
309.571	2789.25
309.8	1678.25
310.03	1089.25
310.26	797.25
310.49	682.25
310.72	625.25
310.949	548.25
311.179	508.25
311.409	516.25
311.639	462.25
311.868	451.25
312.098	451.25
312.328	447.25
312.557	409.25
312.787	393.25
313.017	437.25
313.246	394.25
313.476	377.25
313.706	391.25
313.935	387.25
314.165	395.25
314.394	373.25
314.624	356.25
314.853	371.25
315.083	367.25
315.312	357.25
315.542	357.25
315.771	367.25
316.001	354.25
316.23	368.25
316.46	358.25
316.689	377.25
316.919	374.25
317.148	353.25
317.377	361.25
317.607	374.25
317.836	362.25
318.065	358.25
318.295	359.25
318.524	355.25
318.753	346.25
318.983	353.25
319.212	367.25
319.441	338.25
319.67	341.25
319.9	356.25
320.129	350.25
320.358	342.25
320.587	364.25
320.816	370.25
321.046	342.25
321.275	354.25
321.504	329.25
321.733	340.25
321.962	339.25
322.191	344.25
322.42	357.25
322.649	365.25
322.878	346.25
323.108	360.25
323.337	367.25
323.566	374.25
323.795	358.25
324.024	385.25
324.253	376.25
324.482	382.25
324.71	342.25
324.939	362.25
325.168	364.25
325.397	364.25
325.626	372.25
325.855	358.25
326.084	356.25
326.313	359.25
326.542	353.25
326.77	363.25
326.999	365.25
327.228	363.25
327.457	360.25
327.686	361.25
327.914	395.25
328.143	388.25
328.372	361.25
328.6	381.25
328.829	369.25
329.058	374.25
329.287	378.25
329.515	383.25
329.744	391.25
329.972	377.25
330.201	375.25
330.43	376.25
330.658	369.25
330.887	365.25
331.115	378.25
331.344	355.25
331.572	368.25
331.801	390.25
332.03	400.25
332.258	425.25
332.486	406.25
332.715	393.25
332.943	416.25
333.172	414.25
333.4	413.25
333.629	437.25
333.857	438.25
334.085	450.25
334.314	430.25
334.542	426.25
334.771	449.25
334.999	444.25
335.227	443.25
335.455	433.25
335.684	429.25
335.912	436.25
336.14	421.25
336.369	419.25
336.597	428.25
336.825	395.25
337.053	413.25
337.281	409.25
337.51	407.25
337.738	411.25
337.966	386.25
338.194	391.25
338.422	404.25
338.65	396.25
338.878	398.25
339.106	401.25
339.334	393.25
339.562	377.25
339.79	379.25
340.018	398.25
340.246	407.25
340.474	393.25
340.702	394.25
340.93	381.25
341.158	388.25
341.386	407.25
341.614	370.25
341.842	389.25
342.07	392.25
342.298	384.25
342.526	410.25
342.754	402.25
342.981	395.25
343.209	422.25
343.437	444.25
343.665	413.25
343.893	445.25
344.12	443.25
344.348	430.25
344.576	401.25
344.804	407.25
345.031	401.25
345.259	417.25
345.487	397.25
345.714	397.25
345.942	384.25
346.17	415.25
346.397	380.25
346.625	397.25
346.853	378.25
347.08	381.25
347.308	397.25
347.535	390.25
347.763	400.25
347.99	407.25
348.218	401.25
348.445	414.25
348.673	380.25
348.9	387.25
349.128	391.25
349.355	396.25
349.583	409.25
349.81	411.25
350.037	415.25
350.265	407.25
350.492	411.25
350.72	412.25
350.947	397.25
351.174	420.25
351.402	415.25
351.629	424.25
351.856	409.25
352.083	418.25
352.311	406.25
352.538	411.25
352.765	419.25
352.992	446.25
353.22	423.25
353.447	431.25
353.674	431.25
353.901	481.25
354.128	481.25
354.355	482.25
354.583	475.25
354.81	491.25
355.037	500.25
355.264	501.25
355.491	506.25
355.718	515.25
355.945	533.25
356.172	544.25
356.399	569.25
356.626	608.25
356.853	626.25
357.08	659.25
357.307	695.25
357.534	750.25
357.761	819.25
357.988	957.25
358.215	1111.25
358.441	1294.25
358.668	1477.25
358.895	1430.25
359.122	1177.25
359.349	951.25
359.576	827.25
359.802	767.25
360.029	724.25
360.256	685.25
360.483	662.25
360.709	641.25
360.936	612.25
361.163	582.25
361.39	595.25
361.616	583.25
361.843	546.25
362.07	556.25
362.296	531.25
362.523	516.25
362.749	493.25
362.976	481.25
363.203	490.25
363.429	471.25
363.656	489.25
363.882	491.25
364.109	490.25
364.335	455.25
364.562	470.25
364.788	454.25
365.015	463.25
365.241	436.25
365.468	459.25
365.694	466.25
365.92	448.25
366.147	454.25
366.373	435.25
366.599	440.25
366.826	445.25
367.052	435.25
367.278	437.25
367.505	433.25
367.731	438.25
367.957	434.25
368.184	444.25
368.41	433.25
368.636	435.25
368.862	462.25
369.089	452.25
369.315	451.25
369.541	437.25
369.767	424.25
369.993	439.25
370.219	423.25
370.445	428.25
370.672	444.25
370.898	449.25
371.124	448.25
371.35	463.25
371.576	470.25
371.802	460.25
372.028	451.25
372.254	463.25
372.48	465.25
372.706	477.25
372.932	463.25
373.158	453.25
373.384	470.25
373.61	461.25
373.835	476.25
374.061	436.25
374.287	483.25
374.513	452.25
374.739	457.25
374.965	463.25
375.191	467.25
375.416	454.25
375.642	462.25
375.868	481.25
376.094	459.25
376.319	453.25
376.545	454.25
376.771	447.25
376.997	443.25
377.222	452.25
377.448	443.25
377.674	423.25
377.899	455.25
378.125	438.25
378.35	439.25
378.576	428.25
378.802	415.25
379.027	429.25
379.253	435.25
379.478	451.25
379.704	446.25
379.929	439.25
380.155	453.25
380.38	448.25
380.606	445.25
380.831	431.25
381.057	445.25
381.282	449.25
381.507	476.25
381.733	491.25
381.958	469.25
382.184	473.25
382.409	513.25
382.634	508.25
382.86	530.25
383.085	565.25
383.31	598.25
383.535	572.25
383.761	578.25
383.986	602.25
384.211	549.25
384.436	517.25
384.662	493.25
384.887	498.25
385.112	471.25
385.337	521.25
385.562	507.25
385.787	511.25
386.013	519.25
386.238	541.25
386.463	509.25
386.688	557.25
386.913	498.25
387.138	533.25
387.363	535.25
387.588	537.25
387.813	523.25
388.038	512.25
388.263	511.25
388.488	514.25
388.713	518.25
388.938	514.25
389.163	544.25
389.387	520.25
389.612	521.25
389.837	544.25
390.062	561.25
390.287	555.25
390.512	532.25
390.736	517.25
390.961	531.25
391.186	546.25
391.411	558.25
391.636	580.25
391.86	576.25
392.085	588.25
392.31	566.25
392.534	601.25
392.759	619.25
392.984	657.25
393.208	692.25
393.433	765.25
393.658	834.25
393.882	1036.25
394.107	1683.25
394.331	3101.25
394.556	4187.25
394.78	2786.25
395.005	1573.25
395.229	1245.25
395.454	1231.25
395.678	1546.25
395.903	2639.25
396.127	4651.25
396.352	5547.25
396.576	3216.25
396.801	1750.25
397.025	1273.25
397.249	1067.25
397.474	934.25
397.698	895.25
397.922	823.25
398.147	780.25
398.371	757.25
398.595	743.25
398.82	724.25
399.044	731.25
399.268	754.25
399.492	810.25
399.717	803.25
399.941	755.25
400.165	741.25
400.389	675.25
400.613	644.25
400.837	644.25
401.062	641.25
401.286	652.25
401.51	612.25
401.734	608.25
401.958	625.25
402.182	627.25
402.406	610.25
402.63	607.25
402.854	606.25
403.078	628.25
403.302	634.25
403.526	642.25
403.75	639.25
403.974	620.25
404.198	620.25
404.422	642.25
404.645	626.25
404.869	618.25
405.093	634.25
405.317	632.25
405.541	622.25
405.765	652.25
405.988	631.25
406.212	635.25
406.436	635.25
406.66	653.25
406.883	652.25
407.107	675.25
407.331	691.25
407.555	704.25
407.778	693.25
408.002	659.25
408.226	646.25
408.449	649.25
408.673	639.25
408.896	643.25
409.12	636.25
409.344	623.25
409.567	615.25
409.791	626.25
410.014	626.25
410.238	606.25
410.461	618.25
410.685	629.25
410.908	612.25
411.132	633.25
411.355	623.25
411.578	614.25
411.802	601.25
412.025	625.25
412.249	609.25
412.472	631.25
412.695	583.25
412.919	609.25
413.142	603.25
413.365	589.25
413.589	598.25
413.812	580.25
414.035	597.25
414.258	607.25
414.482	582.25
414.705	605.25
414.928	607.25
415.151	589.25
415.374	589.25
415.597	615.25
415.821	581.25
416.044	585.25
416.267	578.25
416.49	568.25
416.713	606.25
416.936	613.25
417.159	594.25
417.382	593.25
417.605	585.25
417.828	581.25
418.051	597.25
418.274	577.25
418.497	597.25
418.72	621.25
418.943	581.25
419.166	603.25
419.389	656.25
419.611	645.25
419.834	633.25
420.057	625.25
420.28	595.25
420.503	593.25
420.726	596.25
420.948	563.25
421.171	597.25
421.394	597.25
421.617	586.25
421.839	595.25
422.062	604.25
422.285	597.25
422.507	597.25
422.73	637.25
422.953	613.25
423.175	618.25
423.398	586.25
423.621	594.25
423.843	602.25
424.066	630.25
424.288	617.25
424.511	623.25
424.733	616.25
424.956	607.25
425.178	628.25
425.401	601.25
425.623	611.25
425.846	593.25
426.068	576.25
426.291	575.25
426.513	570.25
426.735	581.25
426.958	604.25
427.18	559.25
427.402	591.25
427.625	556.25
427.847	545.25
428.069	580.25
428.292	595.25
428.514	563.25
428.736	546.25
428.958	555.25
429.181	550.25
429.403	560.25
429.625	541.25
429.847	560.25
430.069	546.25
430.292	570.25
430.514	523.25
430.736	574.25
430.958	571.25
431.18	557.25
431.402	560.25
431.624	533.25
431.846	512.25
432.068	542.25
432.29	545.25
432.512	542.25
432.734	570.25
432.956	580.25
433.178	601.25
433.4	572.25
433.622	557.25
433.844	583.25
434.066	559.25
434.287	525.25
434.509	530.25
434.731	558.25
434.953	571.25
435.175	574.25
435.397	585.25
435.618	574.25
435.84	543.25
436.062	523.25
436.284	564.25
436.505	581.25
436.727	558.25
436.949	567.25
437.17	564.25
437.392	562.25
437.614	528.25
437.835	521.25
438.057	531.25
438.278	551.25
438.5	535.25
438.721	570.25
438.943	573.25
439.165	564.25
439.386	586.25
439.608	565.25
439.829	585.25
440.05	595.25
440.272	596.25
440.493	590.25
440.715	611.25
440.936	593.25
441.158	611.25
441.379	614.25
441.6	619.25
441.822	620.25
442.043	636.25
442.264	611.25
442.486	595.25
442.707	618.25
442.928	619.25
443.149	606.25
443.371	589.25
443.592	614.25
443.813	596.25
444.034	615.25
444.255	619.25
444.476	651.25
444.698	654.25
444.919	669.25
445.14	855.25
445.361	715.25
445.582	632.25
445.803	623.25
446.024	632.25
446.245	607.25
446.466	610.25
446.687	624.25
446.908	595.25
447.129	600.25
447.35	584.25
447.571	598.25
447.792	583.25
448.013	595.25
448.234	586.25
448.455	580.25
448.675	561.25
448.896	557.25
449.117	560.25
449.338	548.25
449.559	556.25
449.779	565.25
450	551.25
450.221	549.25
450.442	543.25
450.662	548.25
450.883	555.25
451.104	551.25
451.324	548.25
451.545	557.25
451.766	569.25
451.986	561.25
452.207	540.25
452.428	555.25
452.648	569.25
452.869	556.25
453.089	550.25
453.31	532.25
453.53	534.25
453.751	552.25
453.971	557.25
454.192	545.25
454.412	532.25
454.633	530.25
454.853	546.25
455.073	521.25
455.294	525.25
455.514	527.25
455.734	511.25
455.955	503.25
456.175	504.25
456.395	500.25
456.616	493.25
456.836	483.25
457.056	522.25
457.276	481.25
457.497	489.25
457.717	497.25
457.937	521.25
458.157	503.25
458.377	502.25
458.598	489.25
458.818	496.25
459.038	498.25
459.258	521.25
459.478	515.25
459.698	531.25
459.918	544.25
460.138	559.25
460.358	579.25
460.578	578.25
460.798	601.25
461.018	593.25
461.238	587.25
461.458	586.25
461.678	600.25
461.898	614.25
462.118	604.25
462.338	636.25
462.558	654.25
462.777	665.25
462.997	683.25
463.217	670.25
463.437	700.25
463.657	670.25
463.876	645.25
464.096	662.25
464.316	679.25
464.536	667.25
464.755	621.25
464.975	624.25
465.195	625.25
465.414	628.25
465.634	595.25
465.854	610.25
466.073	648.25
466.293	741.25
466.512	799.25
466.732	783.25
466.951	702.25
467.171	662.25
467.391	672.25
467.61	637.25
467.829	633.25
468.049	614.25
468.268	605.25
468.488	578.25
468.707	577.25
468.927	599.25
469.146	610.25
469.365	583.25
469.585	571.25
469.804	575.25
470.023	592.25
470.243	595.25
470.462	627.25
470.681	583.25
470.901	585.25
471.12	585.25
471.339	585.25
471.558	604.25
471.777	596.25
471.997	579.25
472.216	558.25
472.435	542.25
472.654	538.25
472.873	577.25
473.092	587.25
473.311	604.25
473.53	633.25
473.749	693.25
473.968	701.25
474.187	667.25
474.406	687.25
474.625	715.25
474.844	740.25
475.063	695.25
475.282	628.25
475.501	609.25
475.72	589.25
475.939	573.25
476.158	572.25
476.377	576.25
476.596	568.25
476.814	555.25
477.033	540.25
477.252	547.25
477.471	590.25
477.69	612.25
477.908	612.25
478.127	599.25
478.346	590.25
478.564	609.25
478.783	611.25
479.002	618.25
479.22	646.25
479.439	644.25
479.658	616.25
479.876	623.25
480.095	605.25
480.313	620.25
480.532	615.25
480.751	597.25
480.969	584.25
481.188	557.25
481.406	588.25
481.624	559.25
481.843	541.25
482.061	559.25
482.28	564.25
482.498	583.25
482.717	567.25
482.935	592.25
483.153	585.25
483.372	630.25
483.59	617.25
483.808	593.25
484.027	597.25
484.245	634.25
484.463	693.25
484.681	700.25
484.9	675.25
485.118	671.25
485.336	660.25
485.554	631.25
485.772	631.25
485.99	634.25
486.209	637.25
486.427	635.25
486.645	651.25
486.863	674.25
487.081	689.25
487.299	684.25
487.517	683.25
487.735	707.25
487.953	707.25
488.171	697.25
488.389	685.25
488.607	691.25
488.825	659.25
489.043	676.25
489.261	657.25
489.479	657.25
489.696	649.25
489.914	653.25
490.132	663.25
490.35	698.25
490.568	687.25
490.786	702.25
491.003	702.25
491.221	680.25
491.439	700.25
491.657	710.25
491.874	745.25
492.092	787.25
492.31	805.25
492.527	736.25
492.745	692.25
492.963	722.25
493.18	720.25
493.398	720.25
493.615	710.25
493.833	703.25
494.05	706.25
494.268	707.25
494.485	688.25
494.703	676.25
494.92	741.25
495.138	670.25
495.355	683.25
495.573	701.25
495.79	694.25
496.008	704.25
496.225	690.25
496.442	722.25
496.66	713.25
496.877	689.25
497.094	709.25
497.312	708.25
497.529	724.25
497.746	713.25
497.963	725.25
498.181	728.25
498.398	748.25
498.615	756.25
498.832	778.25
499.049	802.25
499.267	839.25
499.484	928.25
499.701	987.25
499.918	1049.25
500.135	1095.25
500.352	1150.25
500.569	1181.25
500.786	1152.25
501.003	1101.25
501.22	1045.25
501.437	981.25
501.654	925.25
501.871	861.25
502.088	835.25
