Data from SampC_HRD10591_00097.txt Node
Date: Mon Jan 19 11:38:02 EST 2026
User: Yrep
Spectrometer: HR+D1059
Trigger mode: 0
Integration Time (sec): 3.443000E-1
Scans to average: 1
Electric dark correction enabled: true
Nonlinearity correction enabled: false
Boxcar width: 0
XAxis mode: Wavelengths
Number of Pixels in Spectrum: 2048
>>>>>Begin Spectral Data<<<<<
223.165	-16.31
223.4	-16.31
223.635	-16.31
223.869	-10.31
224.104	-11.31
224.338	-23.31
224.573	-19.31
224.808	-28.31
225.042	-8.31
225.277	-3.31
225.511	-1.31
225.746	-1.31
225.98	11.69
226.215	16.69
226.449	14.69
226.683	15.69
226.918	35.69
227.152	28.69
227.387	38.69
227.621	51.69
227.856	38.69
228.09	41.69
228.324	48.69
228.559	67.69
228.793	67.69
229.027	75.69
229.262	66.69
229.496	69.69
229.73	81.69
229.964	82.69
230.199	96.69
230.433	87.69
230.667	87.69
230.901	89.69
231.136	91.69
231.37	91.69
231.604	92.69
231.838	104.69
232.072	99.69
232.306	112.69
232.541	118.69
232.775	98.69
233.009	99.69
233.243	94.69
233.477	112.69
233.711	99.69
233.945	98.69
234.179	103.69
234.413	110.69
234.647	92.69
234.881	86.69
235.115	99.69
235.349	92.69
235.583	102.69
235.817	117.69
236.051	107.69
236.285	92.69
236.519	120.69
236.753	112.69
236.987	128.69
237.221	145.69
237.455	135.69
237.689	140.69
237.922	129.69
238.156	112.69
238.39	103.69
238.624	104.69
238.858	87.69
239.091	87.69
239.325	99.69
239.559	90.69
239.793	104.69
240.027	91.69
240.26	82.69
240.494	102.69
240.728	86.69
240.961	96.69
241.195	84.69
241.429	98.69
241.662	90.69
241.896	91.69
242.13	85.69
242.363	102.69
242.597	99.69
242.83	98.69
243.064	103.69
243.298	106.69
243.531	103.69
243.765	115.69
243.998	107.69
244.232	95.69
244.465	98.69
244.699	107.69
244.932	100.69
245.166	109.69
245.399	83.69
245.633	103.69
245.866	102.69
246.099	111.69
246.333	96.69
246.566	102.69
246.8	96.69
247.033	103.69
247.266	108.69
247.5	119.69
247.733	103.69
247.966	104.69
248.2	84.69
248.433	119.69
248.666	91.69
248.899	107.69
249.133	112.69
249.366	121.69
249.599	99.69
249.832	107.69
250.066	121.69
250.299	99.69
250.532	106.69
250.765	117.69
250.998	113.69
251.231	98.69
251.465	112.69
251.698	117.69
251.931	107.69
252.164	106.69
252.397	103.69
252.63	116.69
252.863	116.69
253.096	112.69
253.329	114.69
253.562	123.69
253.795	113.69
254.028	117.69
254.261	120.69
254.494	106.69
254.727	118.69
254.96	104.69
255.193	122.69
255.426	116.69
255.659	120.69
255.892	119.69
256.124	120.69
256.357	132.69
256.59	146.69
256.823	140.69
257.056	177.69
257.289	153.69
257.521	174.69
257.754	179.69
257.987	176.69
258.22	154.69
258.452	125.69
258.685	127.69
258.918	135.69
259.151	138.69
259.383	133.69
259.616	128.69
259.849	112.69
260.081	128.69
260.314	115.69
260.547	125.69
260.779	110.69
261.012	138.69
261.244	119.69
261.477	135.69
261.71	110.69
261.942	124.69
262.175	131.69
262.407	125.69
262.64	135.69
262.872	125.69
263.105	132.69
263.337	155.69
263.57	157.69
263.802	145.69
264.035	151.69
264.267	130.69
264.499	126.69
264.732	140.69
264.964	139.69
265.197	156.69
265.429	164.69
265.661	150.69
265.894	162.69
266.126	171.69
266.358	162.69
266.591	142.69
266.823	147.69
267.055	138.69
267.287	129.69
267.52	143.69
267.752	136.69
267.984	126.69
268.216	132.69
268.448	147.69
268.681	122.69
268.913	135.69
269.145	134.69
269.377	116.69
269.609	116.69
269.841	127.69
270.073	125.69
270.306	128.69
270.538	133.69
270.77	136.69
271.002	134.69
271.234	128.69
271.466	111.69
271.698	122.69
271.93	135.69
272.162	138.69
272.394	138.69
272.626	122.69
272.858	128.69
273.09	132.69
273.322	140.69
273.553	130.69
273.785	127.69
274.017	136.69
274.249	141.69
274.481	151.69
274.713	143.69
274.945	151.69
275.176	143.69
275.408	133.69
275.64	157.69
275.872	129.69
276.104	141.69
276.335	151.69
276.567	132.69
276.799	138.69
277.031	138.69
277.262	132.69
277.494	142.69
277.726	159.69
277.957	145.69
278.189	160.69
278.421	168.69
278.652	164.69
278.884	184.69
279.115	216.69
279.347	275.69
279.579	370.69
279.81	415.69
280.042	340.69
280.273	326.69
280.505	334.69
280.736	236.69
280.968	203.69
281.199	192.69
281.431	221.69
281.662	278.69
281.894	298.69
282.125	232.69
282.356	214.69
282.588	203.69
282.819	167.69
283.051	159.69
283.282	168.69
283.513	197.69
283.745	162.69
283.976	150.69
284.207	130.69
284.439	150.69
284.67	152.69
284.901	180.69
285.132	180.69
285.364	214.69
285.595	174.69
285.826	152.69
286.057	144.69
286.288	145.69
286.52	161.69
286.751	152.69
286.982	148.69
287.213	127.69
287.444	151.69
287.675	159.69
287.906	162.69
288.138	165.69
288.369	162.69
288.6	150.69
288.831	158.69
289.062	151.69
289.293	166.69
289.524	157.69
289.755	161.69
289.986	152.69
290.217	145.69
290.448	153.69
290.679	141.69
290.91	164.69
291.141	161.69
291.371	150.69
291.602	156.69
291.833	141.69
292.064	163.69
292.295	154.69
292.526	166.69
292.757	158.69
292.987	163.69
293.218	159.69
293.449	172.69
293.68	190.69
293.91	147.69
294.141	191.69
294.372	163.69
294.603	133.69
294.833	167.69
295.064	171.69
295.295	130.69
295.525	144.69
295.756	158.69
295.987	155.69
296.217	151.69
296.448	163.69
296.679	159.69
296.909	155.69
297.14	168.69
297.37	152.69
297.601	166.69
297.831	163.69
298.062	162.69
298.292	153.69
298.523	173.69
298.753	170.69
298.984	166.69
299.214	156.69
299.445	162.69
299.675	172.69
299.905	175.69
300.136	168.69
300.366	150.69
300.597	165.69
300.827	169.69
301.057	166.69
301.288	178.69
301.518	171.69
301.748	174.69
301.979	214.69
302.209	177.69
302.439	185.69
302.669	168.69
302.9	184.69
303.13	191.69
303.36	188.69
303.59	194.69
303.82	190.69
304.051	195.69
304.281	203.69
304.511	200.69
304.741	212.69
304.971	233.69
305.201	266.69
305.431	293.69
305.661	313.69
305.891	347.69
306.121	312.69
306.352	292.69
306.582	302.69
306.812	303.69
307.042	269.69
307.272	262.69
307.502	290.69
307.731	359.69
307.961	479.69
308.191	621.69
308.421	738.69
308.651	629.69
308.881	580.69
309.111	698.69
309.341	859.69
309.571	851.69
309.8	564.69
310.03	412.69
310.26	321.69
310.49	286.69
310.72	244.69
310.949	244.69
311.179	240.69
311.409	224.69
311.639	208.69
311.868	226.69
312.098	214.69
312.328	214.69
312.557	221.69
312.787	200.69
313.017	207.69
313.246	201.69
313.476	184.69
313.706	192.69
313.935	187.69
314.165	176.69
314.394	174.69
314.624	190.69
314.853	206.69
315.083	186.69
315.312	184.69
315.542	178.69
315.771	180.69
316.001	178.69
316.23	182.69
316.46	169.69
316.689	180.69
316.919	170.69
317.148	174.69
317.377	186.69
317.607	176.69
317.836	178.69
318.065	175.69
318.295	174.69
318.524	172.69
318.753	168.69
318.983	176.69
319.212	170.69
319.441	172.69
319.67	176.69
319.9	175.69
320.129	187.69
320.358	196.69
320.587	170.69
320.816	168.69
321.046	170.69
321.275	177.69
321.504	167.69
321.733	175.69
321.962	159.69
322.191	185.69
322.42	174.69
322.649	185.69
322.878	189.69
323.108	189.69
323.337	166.69
323.566	196.69
323.795	176.69
324.024	186.69
324.253	180.69
324.482	173.69
324.71	175.69
324.939	165.69
325.168	163.69
325.397	180.69
325.626	179.69
325.855	156.69
326.084	161.69
326.313	183.69
326.542	189.69
326.77	160.69
326.999	177.69
327.228	182.69
327.457	180.69
327.686	188.69
327.914	179.69
328.143	194.69
328.372	173.69
328.6	170.69
328.829	166.69
329.058	184.69
329.287	181.69
329.515	191.69
329.744	175.69
329.972	177.69
330.201	174.69
330.43	195.69
330.658	176.69
330.887	171.69
331.115	184.69
331.344	185.69
331.572	182.69
331.801	183.69
332.03	187.69
332.258	184.69
332.486	197.69
332.715	188.69
332.943	188.69
333.172	178.69
333.4	207.69
333.629	190.69
333.857	193.69
334.085	206.69
334.314	202.69
334.542	195.69
334.771	202.69
334.999	186.69
335.227	196.69
335.455	193.69
335.684	215.69
335.912	191.69
336.14	205.69
336.369	189.69
336.597	196.69
336.825	186.69
337.053	189.69
337.281	199.69
337.51	207.69
337.738	183.69
337.966	186.69
338.194	171.69
338.422	187.69
338.65	184.69
338.878	186.69
339.106	191.69
339.334	219.69
339.562	189.69
339.79	185.69
340.018	174.69
340.246	189.69
340.474	184.69
340.702	196.69
340.93	188.69
341.158	189.69
341.386	176.69
341.614	186.69
341.842	182.69
342.07	195.69
342.298	198.69
342.526	186.69
342.754	172.69
342.981	173.69
343.209	184.69
343.437	218.69
343.665	204.69
343.893	202.69
344.12	210.69
344.348	208.69
344.576	178.69
344.804	190.69
345.031	190.69
345.259	181.69
345.487	180.69
345.714	176.69
345.942	191.69
346.17	183.69
346.397	189.69
346.625	180.69
346.853	182.69
347.08	186.69
347.308	175.69
347.535	190.69
347.763	183.69
347.99	189.69
348.218	190.69
348.445	181.69
348.673	201.69
348.9	184.69
349.128	198.69
349.355	184.69
349.583	180.69
349.81	190.69
350.037	178.69
350.265	193.69
350.492	197.69
350.72	171.69
350.947	187.69
351.174	197.69
351.402	190.69
351.629	189.69
351.856	193.69
352.083	182.69
352.311	203.69
352.538	194.69
352.765	175.69
352.992	203.69
353.22	198.69
353.447	194.69
353.674	207.69
353.901	198.69
354.128	204.69
354.355	219.69
354.583	210.69
354.81	202.69
355.037	207.69
355.264	234.69
355.491	219.69
355.718	214.69
355.945	234.69
356.172	228.69
356.399	223.69
356.626	251.69
356.853	248.69
357.08	262.69
357.307	249.69
357.534	287.69
357.761	304.69
357.988	326.69
358.215	368.69
358.441	417.69
358.668	447.69
358.895	468.69
359.122	381.69
359.349	334.69
359.576	300.69
359.802	278.69
360.029	282.69
360.256	266.69
360.483	260.69
360.709	255.69
360.936	257.69
361.163	253.69
361.39	233.69
361.616	240.69
361.843	218.69
362.07	222.69
362.296	217.69
362.523	214.69
362.749	204.69
362.976	212.69
363.203	206.69
363.429	209.69
363.656	215.69
363.882	202.69
364.109	215.69
364.335	218.69
364.562	213.69
364.788	203.69
365.015	203.69
365.241	186.69
365.468	207.69
365.694	201.69
365.92	194.69
366.147	206.69
366.373	187.69
366.599	195.69
366.826	186.69
367.052	176.69
367.278	210.69
367.505	205.69
367.731	206.69
367.957	199.69
368.184	200.69
368.41	200.69
368.636	197.69
368.862	218.69
369.089	205.69
369.315	191.69
369.541	211.69
369.767	176.69
369.993	200.69
370.219	196.69
370.445	183.69
370.672	207.69
370.898	204.69
371.124	198.69
371.35	194.69
371.576	196.69
371.802	195.69
372.028	213.69
372.254	189.69
372.48	214.69
372.706	196.69
372.932	194.69
373.158	207.69
373.384	216.69
373.61	215.69
373.835	201.69
374.061	201.69
374.287	203.69
374.513	211.69
374.739	196.69
374.965	199.69
375.191	207.69
375.416	198.69
375.642	208.69
375.868	202.69
376.094	202.69
376.319	200.69
376.545	197.69
376.771	189.69
376.997	207.69
377.222	206.69
377.448	199.69
377.674	189.69
377.899	199.69
378.125	194.69
378.35	199.69
378.576	202.69
378.802	183.69
379.027	202.69
379.253	190.69
379.478	204.69
379.704	202.69
379.929	181.69
380.155	197.69
380.38	216.69
380.606	200.69
380.831	229.69
381.057	221.69
381.282	221.69
381.507	212.69
381.733	223.69
381.958	224.69
382.184	229.69
382.409	224.69
382.634	231.69
382.86	232.69
383.085	237.69
383.31	272.69
383.535	255.69
383.761	268.69
383.986	263.69
384.211	243.69
384.436	226.69
384.662	217.69
384.887	219.69
385.112	219.69
385.337	230.69
385.562	222.69
385.787	211.69
386.013	240.69
386.238	236.69
386.463	233.69
386.688	269.69
386.913	236.69
387.138	232.69
387.363	238.69
387.588	234.69
387.813	228.69
388.038	240.69
388.263	245.69
388.488	228.69
388.713	230.69
388.938	235.69
389.163	230.69
389.387	235.69
389.612	230.69
389.837	236.69
390.062	235.69
390.287	240.69
390.512	242.69
390.736	225.69
390.961	218.69
391.186	235.69
391.411	247.69
391.636	258.69
391.86	248.69
392.085	248.69
392.31	243.69
392.534	259.69
392.759	275.69
392.984	278.69
393.208	286.69
393.433	309.69
393.658	350.69
393.882	407.69
394.107	594.69
394.331	950.69
394.556	1191.69
394.78	859.69
395.005	566.69
395.229	444.69
395.454	442.69
395.678	540.69
395.903	848.69
396.127	1355.69
396.352	1594.69
396.576	1018.69
396.801	648.69
397.025	493.69
397.249	410.69
397.474	413.69
397.698	349.69
397.922	327.69
398.147	322.69
398.371	306.69
398.595	289.69
398.82	302.69
399.044	312.69
399.268	294.69
399.492	319.69
399.717	322.69
399.941	296.69
400.165	311.69
400.389	282.69
400.613	276.69
400.837	280.69
401.062	278.69
401.286	270.69
401.51	250.69
401.734	263.69
401.958	262.69
402.182	285.69
402.406	269.69
402.63	278.69
402.854	252.69
403.078	269.69
403.302	265.69
403.526	268.69
403.75	290.69
403.974	275.69
404.198	283.69
404.422	272.69
404.645	266.69
404.869	256.69
405.093	247.69
405.317	261.69
405.541	271.69
405.765	261.69
405.988	268.69
406.212	277.69
406.436	262.69
406.66	266.69
406.883	267.69
407.107	277.69
407.331	270.69
407.555	274.69
407.778	288.69
408.002	249.69
408.226	257.69
408.449	270.69
408.673	264.69
408.896	262.69
409.12	264.69
409.344	275.69
409.567	256.69
409.791	260.69
410.014	271.69
410.238	255.69
410.461	274.69
410.685	263.69
410.908	252.69
411.132	268.69
411.355	245.69
411.578	277.69
411.802	251.69
412.025	237.69
412.249	267.69
412.472	246.69
412.695	257.69
412.919	246.69
413.142	262.69
413.365	250.69
413.589	279.69
413.812	230.69
414.035	268.69
414.258	264.69
414.482	259.69
414.705	253.69
414.928	266.69
415.151	255.69
415.374	253.69
415.597	251.69
415.821	268.69
416.044	243.69
416.267	250.69
416.49	241.69
416.713	256.69
416.936	242.69
417.159	254.69
417.382	275.69
417.605	251.69
417.828	254.69
418.051	254.69
418.274	263.69
418.497	255.69
418.72	234.69
418.943	260.69
419.166	278.69
419.389	274.69
419.611	290.69
419.834	270.69
420.057	252.69
420.28	256.69
420.503	253.69
420.726	262.69
420.948	282.69
421.171	256.69
421.394	261.69
421.617	243.69
421.839	262.69
422.062	271.69
422.285	250.69
422.507	257.69
422.73	270.69
422.953	261.69
423.175	264.69
423.398	262.69
423.621	256.69
423.843	254.69
424.066	263.69
424.288	263.69
424.511	276.69
424.733	268.69
424.956	273.69
425.178	272.69
425.401	268.69
425.623	265.69
425.846	251.69
426.068	258.69
426.291	268.69
426.513	248.69
426.735	247.69
426.958	254.69
427.18	257.69
427.402	242.69
427.625	260.69
427.847	243.69
428.069	251.69
428.292	257.69
428.514	227.69
428.736	242.69
428.958	239.69
429.181	259.69
429.403	227.69
429.625	240.69
429.847	243.69
430.069	250.69
430.292	272.69
430.514	234.69
430.736	269.69
430.958	234.69
431.18	255.69
431.402	260.69
431.624	234.69
431.846	241.69
432.068	220.69
432.29	225.69
432.512	245.69
432.734	246.69
432.956	261.69
433.178	260.69
433.4	243.69
433.622	256.69
433.844	242.69
434.066	234.69
434.287	242.69
434.509	239.69
434.731	234.69
434.953	244.69
435.175	254.69
435.397	256.69
435.618	245.69
435.84	244.69
436.062	239.69
436.284	248.69
436.505	254.69
436.727	240.69
436.949	253.69
437.17	246.69
437.392	243.69
437.614	224.69
437.835	220.69
438.057	232.69
438.278	234.69
438.5	253.69
438.721	252.69
438.943	247.69
439.165	274.69
439.386	258.69
439.608	263.69
439.829	268.69
440.05	276.69
440.272	253.69
440.493	268.69
440.715	274.69
440.936	261.69
441.158	280.69
441.379	278.69
441.6	273.69
441.822	269.69
442.043	276.69
442.264	256.69
442.486	258.69
442.707	266.69
442.928	250.69
443.149	254.69
443.371	251.69
443.592	273.69
443.813	274.69
444.034	259.69
444.255	282.69
444.476	274.69
444.698	283.69
444.919	288.69
445.14	499.69
445.361	353.69
445.582	271.69
445.803	250.69
446.024	276.69
446.245	261.69
446.466	295.69
446.687	258.69
446.908	279.69
447.129	256.69
447.35	276.69
447.571	268.69
447.792	250.69
448.013	255.69
448.234	260.69
448.455	244.69
448.675	248.69
448.896	254.69
449.117	222.69
449.338	242.69
449.559	255.69
449.779	238.69
450	261.69
450.221	252.69
450.442	262.69
450.662	250.69
450.883	250.69
451.104	249.69
451.324	232.69
451.545	230.69
451.766	256.69
451.986	239.69
452.207	231.69
452.428	238.69
452.648	271.69
452.869	243.69
453.089	236.69
453.31	222.69
453.53	218.69
453.751	217.69
453.971	244.69
454.192	233.69
454.412	229.69
454.633	236.69
454.853	218.69
455.073	230.69
455.294	233.69
455.514	234.69
455.734	227.69
455.955	230.69
456.175	208.69
456.395	210.69
456.616	216.69
456.836	216.69
457.056	214.69
457.276	218.69
457.497	230.69
457.717	210.69
457.937	218.69
458.157	222.69
458.377	220.69
458.598	226.69
458.818	207.69
459.038	230.69
459.258	221.69
459.478	195.69
459.698	229.69
459.918	220.69
460.138	229.69
460.358	239.69
460.578	257.69
460.798	266.69
461.018	251.69
461.238	256.69
461.458	260.69
461.678	242.69
461.898	264.69
462.118	268.69
462.338	257.69
462.558	262.69
462.777	275.69
462.997	272.69
463.217	288.69
463.437	277.69
463.657	279.69
463.876	275.69
464.096	272.69
464.316	263.69
464.536	257.69
464.755	281.69
464.975	246.69
465.195	250.69
465.414	285.69
465.634	255.69
465.854	266.69
466.073	249.69
466.293	284.69
466.512	295.69
466.732	296.69
466.951	275.69
467.171	284.69
467.391	247.69
467.61	260.69
467.829	272.69
468.049	260.69
468.268	260.69
468.488	250.69
468.707	246.69
468.927	269.69
469.146	263.69
469.365	250.69
469.585	258.69
469.804	263.69
470.023	268.69
470.243	268.69
470.462	253.69
470.681	257.69
470.901	245.69
471.12	255.69
471.339	256.69
471.558	253.69
471.777	254.69
471.997	245.69
472.216	251.69
472.435	251.69
472.654	242.69
472.873	225.69
473.092	238.69
473.311	267.69
473.53	272.69
473.749	289.69
473.968	286.69
474.187	270.69
474.406	262.69
474.625	294.69
474.844	286.69
475.063	271.69
475.282	252.69
475.501	251.69
475.72	275.69
475.939	239.69
476.158	236.69
476.377	251.69
476.596	243.69
476.814	228.69
477.033	246.69
477.252	248.69
477.471	261.69
477.69	258.69
477.908	262.69
478.127	276.69
478.346	264.69
478.564	265.69
478.783	256.69
479.002	268.69
479.22	261.69
479.439	261.69
479.658	247.69
479.876	239.69
480.095	256.69
480.313	252.69
480.532	266.69
480.751	247.69
480.969	261.69
481.188	244.69
481.406	234.69
481.624	223.69
481.843	234.69
482.061	249.69
482.28	239.69
482.498	245.69
482.717	238.69
482.935	254.69
483.153	264.69
483.372	283.69
483.59	261.69
483.808	263.69
484.027	254.69
484.245	273.69
484.463	286.69
484.681	308.69
484.9	288.69
485.118	294.69
485.336	283.69
485.554	267.69
485.772	252.69
485.99	255.69
486.209	265.69
486.427	246.69
486.645	273.69
486.863	286.69
487.081	268.69
487.299	271.69
487.517	284.69
487.735	283.69
487.953	293.69
488.171	306.69
488.389	305.69
488.607	273.69
488.825	274.69
489.043	250.69
489.261	266.69
489.479	274.69
489.696	291.69
489.914	274.69
490.132	276.69
490.35	267.69
490.568	269.69
490.786	305.69
491.003	287.69
491.221	286.69
491.439	290.69
491.657	296.69
491.874	306.69
492.092	327.69
492.31	332.69
492.527	330.69
492.745	301.69
492.963	290.69
493.18	306.69
493.398	319.69
493.615	291.69
493.833	298.69
494.05	278.69
494.268	284.69
494.485	294.69
494.703	276.69
494.92	315.69
495.138	304.69
495.355	281.69
495.573	297.69
495.79	294.69
496.008	303.69
496.225	297.69
496.442	300.69
496.66	317.69
496.877	308.69
497.094	314.69
497.312	287.69
497.529	293.69
497.746	287.69
497.963	303.69
498.181	288.69
498.398	294.69
498.615	300.69
498.832	330.69
499.049	315.69
499.267	345.69
499.484	371.69
499.701	373.69
499.918	391.69
500.135	419.69
500.352	433.69
500.569	419.69
500.786	449.69
501.003	405.69
501.22	391.69
501.437	385.69
501.654	348.69
501.871	349.69
502.088	328.69
502.305	317.69
502.522	314.69
502.739	320.69
502.956	298.69
503.172	303.69
503.389	290.69
