Data from SampC_HRD10591_00088.txt Node
Date: Mon Jan 19 11:37:59 EST 2026
User: Yrep
Spectrometer: HR+D1059
Trigger mode: 0
Integration Time (sec): 3.443000E-1
Scans to average: 1
Electric dark correction enabled: true
Nonlinearity correction enabled: false
Boxcar width: 0
XAxis mode: Wavelengths
Number of Pixels in Spectrum: 2048
>>>>>Begin Spectral Data<<<<<
223.165	-13.81
223.4	-13.81
223.635	-13.81
223.869	-32.81
224.104	-27.81
224.338	-0.81
224.573	-16.81
224.808	-21.81
225.042	-9.81
225.277	-8.81
225.511	-6.81
225.746	23.19
225.98	-4.81
226.215	11.19
226.449	20.19
226.683	31.19
226.918	16.19
227.152	42.19
227.387	43.19
227.621	43.19
227.856	42.19
228.09	43.19
228.324	56.19
228.559	77.19
228.793	60.19
229.027	105.19
229.262	111.19
229.496	113.19
229.73	102.19
229.964	103.19
230.199	100.19
230.433	111.19
230.667	114.19
230.901	110.19
231.136	101.19
231.37	116.19
231.604	131.19
231.838	121.19
232.072	130.19
232.306	132.19
232.541	119.19
232.775	121.19
233.009	127.19
233.243	109.19
233.477	123.19
233.711	118.19
233.945	112.19
234.179	134.19
234.413	123.19
234.647	117.19
234.881	131.19
235.115	125.19
235.349	130.19
235.583	117.19
235.817	132.19
236.051	128.19
236.285	136.19
236.519	138.19
236.753	152.19
236.987	195.19
237.221	211.19
237.455	222.19
237.689	234.19
237.922	185.19
238.156	157.19
238.39	154.19
238.624	136.19
238.858	144.19
239.091	110.19
239.325	112.19
239.559	117.19
239.793	137.19
240.027	138.19
240.26	114.19
240.494	126.19
240.728	110.19
240.961	125.19
241.195	119.19
241.429	124.19
241.662	121.19
241.896	119.19
242.13	106.19
242.363	111.19
242.597	129.19
242.83	142.19
243.064	120.19
243.298	143.19
243.531	132.19
243.765	114.19
243.998	145.19
244.232	134.19
244.465	130.19
244.699	123.19
244.932	132.19
245.166	134.19
245.399	130.19
245.633	129.19
245.866	151.19
246.099	124.19
246.333	139.19
246.566	135.19
246.8	134.19
247.033	120.19
247.266	116.19
247.5	143.19
247.733	123.19
247.966	145.19
248.2	146.19
248.433	138.19
248.666	144.19
248.899	150.19
249.133	153.19
249.366	151.19
249.599	138.19
249.832	147.19
250.066	143.19
250.299	152.19
250.532	152.19
250.765	167.19
250.998	146.19
251.231	148.19
251.465	148.19
251.698	143.19
251.931	160.19
252.164	157.19
252.397	142.19
252.63	152.19
252.863	155.19
253.096	156.19
253.329	149.19
253.562	155.19
253.795	146.19
254.028	159.19
254.261	173.19
254.494	150.19
254.727	178.19
254.96	157.19
255.193	166.19
255.426	170.19
255.659	168.19
255.892	184.19
256.124	185.19
256.357	176.19
256.59	200.19
256.823	229.19
257.056	272.19
257.289	289.19
257.521	296.19
257.754	317.19
257.987	302.19
258.22	243.19
258.452	203.19
258.685	185.19
258.918	194.19
259.151	166.19
259.383	185.19
259.616	170.19
259.849	181.19
260.081	196.19
260.314	185.19
260.547	182.19
260.779	161.19
261.012	174.19
261.244	167.19
261.477	190.19
261.71	190.19
261.942	180.19
262.175	180.19
262.407	195.19
262.64	206.19
262.872	221.19
263.105	234.19
263.337	277.19
263.57	269.19
263.802	246.19
264.035	241.19
264.267	230.19
264.499	214.19
264.732	218.19
264.964	224.19
265.197	227.19
265.429	275.19
265.661	275.19
265.894	269.19
266.126	280.19
266.358	292.19
266.591	247.19
266.823	211.19
267.055	216.19
267.287	200.19
267.52	185.19
267.752	193.19
267.984	191.19
268.216	193.19
268.448	190.19
268.681	194.19
268.913	190.19
269.145	188.19
269.377	195.19
269.609	179.19
269.841	208.19
270.073	189.19
270.306	194.19
270.538	197.19
270.77	179.19
271.002	181.19
271.234	194.19
271.466	209.19
271.698	199.19
271.93	184.19
272.162	201.19
272.394	189.19
272.626	197.19
272.858	203.19
273.09	202.19
273.322	211.19
273.553	213.19
273.785	212.19
274.017	225.19
274.249	218.19
274.481	203.19
274.713	212.19
274.945	214.19
275.176	207.19
275.408	201.19
275.64	209.19
275.872	226.19
276.104	224.19
276.335	221.19
276.567	213.19
276.799	214.19
277.031	207.19
277.262	221.19
277.494	243.19
277.726	237.19
277.957	273.19
278.189	273.19
278.421	276.19
278.652	288.19
278.884	310.19
279.115	397.19
279.347	555.19
279.579	741.19
279.81	851.19
280.042	710.19
280.273	661.19
280.505	612.19
280.736	447.19
280.968	346.19
281.199	329.19
281.431	406.19
281.662	512.19
281.894	567.19
282.125	483.19
282.356	369.19
282.588	324.19
282.819	303.19
283.051	285.19
283.282	260.19
283.513	279.19
283.745	271.19
283.976	249.19
284.207	250.19
284.439	241.19
284.67	250.19
284.901	277.19
285.132	315.19
285.364	345.19
285.595	302.19
285.826	250.19
286.057	253.19
286.288	243.19
286.52	238.19
286.751	235.19
286.982	235.19
287.213	246.19
287.444	247.19
287.675	238.19
287.906	234.19
288.138	261.19
288.369	255.19
288.6	244.19
288.831	239.19
289.062	245.19
289.293	250.19
289.524	259.19
289.755	246.19
289.986	227.19
290.217	255.19
290.448	233.19
290.679	255.19
290.91	253.19
291.141	245.19
291.371	260.19
291.602	261.19
291.833	255.19
292.064	254.19
292.295	266.19
292.526	274.19
292.757	278.19
292.987	279.19
293.218	277.19
293.449	293.19
293.68	283.19
293.91	285.19
294.141	289.19
294.372	261.19
294.603	272.19
294.833	258.19
295.064	259.19
295.295	261.19
295.525	253.19
295.756	243.19
295.987	238.19
296.217	239.19
296.448	261.19
296.679	258.19
296.909	252.19
297.14	256.19
297.37	259.19
297.601	250.19
297.831	264.19
298.062	249.19
298.292	250.19
298.523	258.19
298.753	264.19
298.984	267.19
299.214	248.19
299.445	263.19
299.675	260.19
299.905	276.19
300.136	256.19
300.366	267.19
300.597	265.19
300.827	278.19
301.057	273.19
301.288	295.19
301.518	308.19
301.748	268.19
301.979	322.19
302.209	297.19
302.439	300.19
302.669	307.19
302.9	305.19
303.13	307.19
303.36	322.19
303.59	334.19
303.82	357.19
304.051	346.19
304.281	359.19
304.511	370.19
304.741	390.19
304.971	447.19
305.201	512.19
305.431	570.19
305.661	681.19
305.891	704.19
306.121	661.19
306.352	607.19
306.582	631.19
306.812	609.19
307.042	548.19
307.272	514.19
307.502	593.19
307.731	781.19
307.961	1058.19
308.191	1497.19
308.421	1759.19
308.651	1488.19
308.881	1351.19
309.111	1656.19
309.341	2125.19
309.571	2010.19
309.8	1303.19
310.03	881.19
310.26	654.19
310.49	555.19
310.72	533.19
310.949	473.19
311.179	448.19
311.409	419.19
311.639	384.19
311.868	387.19
312.098	379.19
312.328	371.19
312.557	360.19
312.787	351.19
313.017	366.19
313.246	344.19
313.476	335.19
313.706	335.19
313.935	323.19
314.165	324.19
314.394	310.19
314.624	322.19
314.853	318.19
315.083	316.19
315.312	312.19
315.542	302.19
315.771	294.19
316.001	307.19
316.23	323.19
316.46	304.19
316.689	311.19
316.919	304.19
317.148	315.19
317.377	334.19
317.607	302.19
317.836	302.19
318.065	297.19
318.295	306.19
318.524	293.19
318.753	304.19
318.983	299.19
319.212	292.19
319.441	293.19
319.67	303.19
319.9	293.19
320.129	300.19
320.358	300.19
320.587	295.19
320.816	295.19
321.046	292.19
321.275	286.19
321.504	274.19
321.733	282.19
321.962	280.19
322.191	318.19
322.42	311.19
322.649	321.19
322.878	310.19
323.108	305.19
323.337	301.19
323.566	294.19
323.795	296.19
324.024	299.19
324.253	299.19
324.482	315.19
324.71	293.19
324.939	301.19
325.168	305.19
325.397	305.19
325.626	291.19
325.855	288.19
326.084	313.19
326.313	314.19
326.542	310.19
326.77	294.19
326.999	301.19
327.228	308.19
327.457	312.19
327.686	309.19
327.914	311.19
328.143	311.19
328.372	290.19
328.6	301.19
328.829	313.19
329.058	307.19
329.287	299.19
329.515	324.19
329.744	306.19
329.972	312.19
330.201	287.19
330.43	298.19
330.658	319.19
330.887	312.19
331.115	320.19
331.344	304.19
331.572	317.19
331.801	324.19
332.03	323.19
332.258	312.19
332.486	342.19
332.715	330.19
332.943	353.19
333.172	353.19
333.4	347.19
333.629	348.19
333.857	360.19
334.085	354.19
334.314	349.19
334.542	354.19
334.771	360.19
334.999	365.19
335.227	374.19
335.455	343.19
335.684	325.19
335.912	341.19
336.14	341.19
336.369	353.19
336.597	348.19
336.825	328.19
337.053	326.19
337.281	328.19
337.51	332.19
337.738	349.19
337.966	339.19
338.194	322.19
338.422	318.19
338.65	342.19
338.878	326.19
339.106	333.19
339.334	329.19
339.562	326.19
339.79	317.19
340.018	316.19
340.246	326.19
340.474	326.19
340.702	337.19
340.93	328.19
341.158	322.19
341.386	337.19
341.614	318.19
341.842	305.19
342.07	306.19
342.298	307.19
342.526	322.19
342.754	322.19
342.981	331.19
343.209	330.19
343.437	358.19
343.665	342.19
343.893	350.19
344.12	369.19
344.348	350.19
344.576	325.19
344.804	327.19
345.031	323.19
345.259	335.19
345.487	339.19
345.714	318.19
345.942	319.19
346.17	322.19
346.397	309.19
346.625	333.19
346.853	328.19
347.08	325.19
347.308	313.19
347.535	318.19
347.763	332.19
347.99	329.19
348.218	324.19
348.445	319.19
348.673	324.19
348.9	322.19
349.128	323.19
349.355	340.19
349.583	310.19
349.81	327.19
350.037	319.19
350.265	329.19
350.492	343.19
350.72	316.19
350.947	335.19
351.174	328.19
351.402	357.19
351.629	327.19
351.856	335.19
352.083	335.19
352.311	337.19
352.538	351.19
352.765	345.19
352.992	364.19
353.22	369.19
353.447	360.19
353.674	355.19
353.901	366.19
354.128	371.19
354.355	361.19
354.583	373.19
354.81	394.19
355.037	380.19
355.264	416.19
355.491	394.19
355.718	390.19
355.945	412.19
356.172	443.19
356.399	447.19
356.626	483.19
356.853	497.19
357.08	491.19
357.307	535.19
357.534	557.19
357.761	606.19
357.988	681.19
358.215	811.19
358.441	919.19
358.668	1009.19
358.895	956.19
359.122	809.19
359.349	689.19
359.576	623.19
359.802	559.19
360.029	521.19
360.256	521.19
360.483	527.19
360.709	483.19
360.936	495.19
361.163	471.19
361.39	467.19
361.616	462.19
361.843	425.19
362.07	433.19
362.296	417.19
362.523	397.19
362.749	406.19
362.976	402.19
363.203	397.19
363.429	385.19
363.656	401.19
363.882	374.19
364.109	371.19
364.335	372.19
364.562	384.19
364.788	357.19
365.015	360.19
365.241	358.19
365.468	381.19
365.694	371.19
365.92	345.19
366.147	357.19
366.373	366.19
366.599	350.19
366.826	371.19
367.052	357.19
367.278	352.19
367.505	355.19
367.731	355.19
367.957	350.19
368.184	344.19
368.41	352.19
368.636	351.19
368.862	374.19
369.089	357.19
369.315	354.19
369.541	365.19
369.767	361.19
369.993	362.19
370.219	337.19
370.445	358.19
370.672	356.19
370.898	354.19
371.124	378.19
371.35	360.19
371.576	368.19
371.802	354.19
372.028	359.19
372.254	368.19
372.48	361.19
372.706	374.19
372.932	353.19
373.158	369.19
373.384	382.19
373.61	369.19
373.835	368.19
374.061	353.19
374.287	366.19
374.513	377.19
374.739	374.19
374.965	371.19
375.191	379.19
375.416	366.19
375.642	378.19
375.868	384.19
376.094	398.19
376.319	370.19
376.545	343.19
376.771	358.19
376.997	352.19
377.222	358.19
377.448	349.19
377.674	373.19
377.899	342.19
378.125	340.19
378.35	364.19
378.576	345.19
378.802	367.19
379.027	370.19
379.253	357.19
379.478	358.19
379.704	368.19
379.929	374.19
380.155	369.19
380.38	358.19
380.606	360.19
380.831	374.19
381.057	383.19
381.282	379.19
381.507	386.19
381.733	387.19
381.958	374.19
382.184	391.19
382.409	407.19
382.634	427.19
382.86	431.19
383.085	481.19
383.31	494.19
383.535	494.19
383.761	491.19
383.986	506.19
384.211	450.19
384.436	414.19
384.662	401.19
384.887	412.19
385.112	405.19
385.337	416.19
385.562	410.19
385.787	430.19
386.013	431.19
386.238	433.19
386.463	425.19
386.688	453.19
386.913	425.19
387.138	414.19
387.363	449.19
387.588	425.19
387.813	430.19
388.038	435.19
388.263	452.19
388.488	410.19
388.713	439.19
388.938	434.19
389.163	415.19
389.387	413.19
389.612	444.19
389.837	428.19
390.062	436.19
390.287	444.19
390.512	450.19
390.736	455.19
390.961	435.19
391.186	454.19
391.411	449.19
391.636	458.19
391.86	486.19
392.085	467.19
392.31	497.19
392.534	490.19
392.759	505.19
392.984	530.19
393.208	585.19
393.433	644.19
393.658	709.19
393.882	832.19
394.107	1353.19
394.331	2410.19
394.556	3167.19
394.78	2176.19
395.005	1249.19
395.229	986.19
395.454	1014.19
395.678	1227.19
395.903	2070.19
396.127	3487.19
396.352	4088.19
396.576	2478.19
396.801	1419.19
397.025	1085.19
397.249	890.19
397.474	757.19
397.698	705.19
397.922	678.19
398.147	619.19
398.371	612.19
398.595	589.19
398.82	597.19
399.044	593.19
399.268	621.19
399.492	619.19
399.717	655.19
399.941	624.19
400.165	569.19
400.389	578.19
400.613	539.19
400.837	513.19
401.062	530.19
401.286	527.19
401.51	494.19
401.734	485.19
401.958	497.19
402.182	505.19
402.406	489.19
402.63	506.19
402.854	495.19
403.078	514.19
403.302	513.19
403.526	514.19
403.75	515.19
403.974	482.19
404.198	519.19
404.422	489.19
404.645	517.19
404.869	489.19
405.093	497.19
405.317	483.19
405.541	507.19
405.765	517.19
405.988	485.19
406.212	521.19
406.436	492.19
406.66	545.19
406.883	532.19
407.107	509.19
407.331	528.19
407.555	518.19
407.778	521.19
408.002	530.19
408.226	553.19
408.449	545.19
408.673	516.19
408.896	506.19
409.12	504.19
409.344	492.19
409.567	489.19
409.791	494.19
410.014	503.19
410.238	489.19
410.461	503.19
410.685	507.19
410.908	493.19
411.132	508.19
411.355	465.19
411.578	491.19
411.802	484.19
412.025	482.19
412.249	496.19
412.472	501.19
412.695	482.19
412.919	487.19
413.142	477.19
413.365	495.19
413.589	491.19
413.812	486.19
414.035	470.19
414.258	503.19
414.482	478.19
414.705	483.19
414.928	485.19
415.151	468.19
415.374	473.19
415.597	467.19
415.821	465.19
416.044	469.19
416.267	492.19
416.49	489.19
416.713	454.19
416.936	483.19
417.159	469.19
417.382	477.19
417.605	468.19
417.828	457.19
418.051	485.19
418.274	503.19
418.497	506.19
418.72	485.19
418.943	483.19
419.166	513.19
419.389	547.19
419.611	502.19
419.834	486.19
420.057	517.19
420.28	493.19
420.503	494.19
420.726	496.19
420.948	487.19
421.171	491.19
421.394	478.19
421.617	479.19
421.839	499.19
422.062	497.19
422.285	475.19
422.507	487.19
422.73	522.19
422.953	501.19
423.175	492.19
423.398	488.19
423.621	486.19
423.843	494.19
424.066	517.19
424.288	523.19
424.511	521.19
424.733	508.19
424.956	493.19
425.178	490.19
425.401	489.19
425.623	492.19
425.846	495.19
426.068	495.19
426.291	476.19
426.513	476.19
426.735	455.19
426.958	455.19
427.18	482.19
427.402	462.19
427.625	461.19
427.847	468.19
428.069	467.19
428.292	467.19
428.514	475.19
428.736	463.19
428.958	440.19
429.181	450.19
429.403	458.19
429.625	464.19
429.847	463.19
430.069	451.19
430.292	445.19
430.514	456.19
430.736	471.19
430.958	463.19
431.18	433.19
431.402	454.19
431.624	440.19
431.846	416.19
432.068	400.19
432.29	433.19
432.512	470.19
432.734	467.19
432.956	479.19
433.178	482.19
433.4	461.19
433.622	466.19
433.844	478.19
434.066	469.19
434.287	440.19
434.509	430.19
434.731	437.19
434.953	466.19
435.175	466.19
435.397	464.19
435.618	464.19
435.84	450.19
436.062	451.19
436.284	448.19
436.505	453.19
436.727	450.19
436.949	460.19
437.17	470.19
437.392	442.19
437.614	438.19
437.835	415.19
438.057	419.19
438.278	438.19
438.5	457.19
438.721	455.19
438.943	480.19
439.165	475.19
439.386	459.19
439.608	473.19
439.829	478.19
440.05	487.19
440.272	472.19
440.493	468.19
440.715	480.19
440.936	490.19
441.158	498.19
441.379	501.19
441.6	502.19
441.822	522.19
442.043	501.19
442.264	512.19
442.486	499.19
442.707	501.19
442.928	503.19
443.149	500.19
443.371	495.19
443.592	489.19
443.813	498.19
444.034	500.19
444.255	533.19
444.476	514.19
444.698	530.19
444.919	549.19
445.14	714.19
445.361	583.19
445.582	505.19
445.803	495.19
446.024	504.19
446.245	518.19
446.466	507.19
446.687	490.19
446.908	517.19
447.129	481.19
447.35	471.19
447.571	496.19
447.792	477.19
448.013	481.19
448.234	501.19
448.455	469.19
448.675	472.19
448.896	497.19
449.117	448.19
449.338	469.19
449.559	471.19
449.779	454.19
450	471.19
450.221	471.19
450.442	461.19
450.662	444.19
450.883	468.19
451.104	463.19
451.324	473.19
451.545	462.19
451.766	441.19
451.986	454.19
452.207	458.19
452.428	433.19
452.648	465.19
452.869	467.19
453.089	422.19
453.31	437.19
453.53	429.19
453.751	437.19
453.971	444.19
454.192	437.19
454.412	415.19
454.633	423.19
454.853	443.19
455.073	424.19
455.294	435.19
455.514	423.19
455.734	420.19
455.955	418.19
456.175	408.19
456.395	411.19
456.616	396.19
456.836	403.19
457.056	400.19
457.276	397.19
457.497	400.19
457.717	403.19
457.937	404.19
458.157	395.19
458.377	393.19
458.598	400.19
458.818	407.19
459.038	397.19
459.258	415.19
459.478	420.19
459.698	417.19
459.918	418.19
460.138	454.19
460.358	472.19
460.578	478.19
460.798	472.19
461.018	482.19
461.238	485.19
461.458	480.19
461.678	462.19
461.898	450.19
462.118	497.19
462.338	485.19
462.558	522.19
462.777	515.19
462.997	547.19
463.217	556.19
463.437	553.19
463.657	538.19
463.876	519.19
464.096	525.19
464.316	506.19
464.536	502.19
464.755	527.19
464.975	493.19
465.195	503.19
465.414	491.19
465.634	479.19
465.854	491.19
466.073	505.19
466.293	563.19
466.512	595.19
466.732	586.19
466.951	545.19
467.171	551.19
467.391	523.19
467.61	510.19
467.829	498.19
468.049	483.19
468.268	473.19
468.488	465.19
468.707	482.19
468.927	491.19
469.146	480.19
469.365	470.19
469.585	477.19
469.804	495.19
470.023	488.19
470.243	483.19
470.462	491.19
470.681	487.19
470.901	477.19
471.12	485.19
471.339	468.19
471.558	487.19
471.777	485.19
471.997	485.19
472.216	473.19
472.435	449.19
472.654	447.19
472.873	447.19
473.092	472.19
473.311	499.19
473.53	536.19
473.749	551.19
473.968	566.19
474.187	563.19
474.406	552.19
474.625	555.19
474.844	598.19
475.063	550.19
475.282	514.19
475.501	466.19
475.72	496.19
475.939	479.19
476.158	476.19
476.377	444.19
476.596	466.19
476.814	431.19
477.033	455.19
477.252	430.19
477.471	473.19
477.69	487.19
477.908	473.19
478.127	464.19
478.346	485.19
478.564	486.19
478.783	503.19
479.002	504.19
479.22	499.19
479.439	496.19
479.658	474.19
479.876	479.19
480.095	491.19
480.313	503.19
480.532	509.19
480.751	481.19
480.969	462.19
481.188	450.19
481.406	449.19
481.624	433.19
481.843	422.19
482.061	424.19
482.28	458.19
482.498	447.19
482.717	433.19
482.935	458.19
483.153	463.19
483.372	500.19
483.59	499.19
483.808	476.19
484.027	474.19
484.245	514.19
484.463	551.19
484.681	577.19
484.9	537.19
485.118	537.19
485.336	510.19
485.554	505.19
485.772	515.19
485.99	513.19
486.209	525.19
486.427	514.19
486.645	514.19
486.863	550.19
487.081	545.19
487.299	525.19
487.517	546.19
487.735	574.19
487.953	592.19
488.171	592.19
488.389	554.19
488.607	558.19
488.825	531.19
489.043	534.19
489.261	525.19
489.479	545.19
489.696	557.19
489.914	550.19
490.132	523.19
490.35	553.19
490.568	555.19
490.786	576.19
491.003	587.19
491.221	579.19
491.439	572.19
491.657	598.19
491.874	604.19
492.092	624.19
492.31	642.19
492.527	602.19
492.745	579.19
492.963	583.19
493.18	606.19
493.398	586.19
493.615	580.19
493.833	572.19
494.05	559.19
494.268	581.19
494.485	572.19
494.703	571.19
494.92	593.19
495.138	552.19
495.355	579.19
495.573	560.19
495.79	576.19
496.008	590.19
496.225	586.19
496.442	575.19
496.66	568.19
496.877	578.19
497.094	557.19
497.312	560.19
497.529	538.19
497.746	562.19
497.963	567.19
498.181	558.19
498.398	586.19
498.615	604.19
498.832	621.19
499.049	642.19
499.267	676.19
499.484	711.19
499.701	733.19
499.918	768.19
500.135	841.19
500.352	884.19
500.569	860.19
500.786	885.19
501.003	852.19
501.22	808.19
501.437	753.19
501.654	710.19
501.871	675.19
502.088	632.19
502.305	629.19
