Data from SampC_HRD10591_00060.txt Node
Date: Mon Jan 19 11:37:50 EST 2026
User: Yrep
Spectrometer: HR+D1059
Trigger mode: 0
Integration Time (sec): 3.443000E-1
Scans to average: 1
Electric dark correction enabled: true
Nonlinearity correction enabled: false
Boxcar width: 0
XAxis mode: Wavelengths
Number of Pixels in Spectrum: 2048
>>>>>Begin Spectral Data<<<<<
223.165	-24.44
223.4	-24.44
223.635	-24.44
223.869	-23.44
224.104	-20.44
224.338	-12.44
224.573	-17.44
224.808	-3.44
225.042	3.56
225.277	-8.44
225.511	-8.44
225.746	-5.44
225.98	15.56
226.215	17.56
226.449	17.56
226.683	12.56
226.918	16.56
227.152	40.56
227.387	42.56
227.621	37.56
227.856	50.56
228.09	51.56
228.324	42.56
228.559	55.56
228.793	66.56
229.027	78.56
229.262	89.56
229.496	98.56
229.73	85.56
229.964	112.56
230.199	106.56
230.433	104.56
230.667	108.56
230.901	101.56
231.136	93.56
231.37	113.56
231.604	111.56
231.838	115.56
232.072	113.56
232.306	114.56
232.541	103.56
232.775	117.56
233.009	113.56
233.243	105.56
233.477	110.56
233.711	97.56
233.945	112.56
234.179	118.56
234.413	114.56
234.647	112.56
234.881	107.56
235.115	102.56
235.349	109.56
235.583	120.56
235.817	141.56
236.051	123.56
236.285	125.56
236.519	126.56
236.753	155.56
236.987	184.56
237.221	216.56
237.455	224.56
237.689	214.56
237.922	192.56
238.156	150.56
238.39	133.56
238.624	140.56
238.858	111.56
239.091	110.56
239.325	111.56
239.559	118.56
239.793	111.56
240.027	117.56
240.26	103.56
240.494	113.56
240.728	110.56
240.961	99.56
241.195	103.56
241.429	108.56
241.662	105.56
241.896	110.56
242.13	112.56
242.363	112.56
242.597	110.56
242.83	129.56
243.064	106.56
243.298	119.56
243.531	94.56
243.765	124.56
243.998	119.56
244.232	127.56
244.465	115.56
244.699	111.56
244.932	125.56
245.166	125.56
245.399	131.56
245.633	118.56
245.866	129.56
246.099	124.56
246.333	140.56
246.566	122.56
246.8	127.56
247.033	116.56
247.266	127.56
247.5	112.56
247.733	123.56
247.966	125.56
248.2	129.56
248.433	125.56
248.666	134.56
248.899	126.56
249.133	141.56
249.366	152.56
249.599	136.56
249.832	131.56
250.066	134.56
250.299	124.56
250.532	146.56
250.765	136.56
250.998	127.56
251.231	143.56
251.465	124.56
251.698	158.56
251.931	147.56
252.164	140.56
252.397	153.56
252.63	138.56
252.863	137.56
253.096	130.56
253.329	155.56
253.562	139.56
253.795	144.56
254.028	140.56
254.261	140.56
254.494	135.56
254.727	154.56
254.96	142.56
255.193	116.56
255.426	146.56
255.659	156.56
255.892	158.56
256.124	164.56
256.357	175.56
256.59	172.56
256.823	213.56
257.056	259.56
257.289	272.56
257.521	259.56
257.754	308.56
257.987	267.56
258.22	236.56
258.452	196.56
258.685	182.56
258.918	173.56
259.151	168.56
259.383	171.56
259.616	170.56
259.849	161.56
260.081	168.56
260.314	152.56
260.547	155.56
260.779	165.56
261.012	169.56
261.244	173.56
261.477	171.56
261.71	170.56
261.942	162.56
262.175	168.56
262.407	170.56
262.64	173.56
262.872	181.56
263.105	208.56
263.337	223.56
263.57	221.56
263.802	224.56
264.035	225.56
264.267	199.56
264.499	196.56
264.732	193.56
264.964	199.56
265.197	216.56
265.429	237.56
265.661	247.56
265.894	231.56
266.126	250.56
266.358	272.56
266.591	233.56
266.823	214.56
267.055	181.56
267.287	181.56
267.52	185.56
267.752	170.56
267.984	180.56
268.216	180.56
268.448	174.56
268.681	185.56
268.913	173.56
269.145	178.56
269.377	177.56
269.609	177.56
269.841	164.56
270.073	152.56
270.306	188.56
270.538	175.56
270.77	175.56
271.002	163.56
271.234	186.56
271.466	177.56
271.698	168.56
271.93	175.56
272.162	161.56
272.394	167.56
272.626	176.56
272.858	181.56
273.09	188.56
273.322	175.56
273.553	185.56
273.785	175.56
274.017	198.56
274.249	186.56
274.481	184.56
274.713	177.56
274.945	188.56
275.176	200.56
275.408	196.56
275.64	189.56
275.872	183.56
276.104	183.56
276.335	176.56
276.567	176.56
276.799	199.56
277.031	196.56
277.262	195.56
277.494	214.56
277.726	215.56
277.957	221.56
278.189	241.56
278.421	238.56
278.652	243.56
278.884	293.56
279.115	363.56
279.347	508.56
279.579	680.56
279.81	745.56
280.042	628.56
280.273	582.56
280.505	573.56
280.736	386.56
280.968	297.56
281.199	285.56
281.431	346.56
281.662	471.56
281.894	491.56
282.125	413.56
282.356	326.56
282.588	270.56
282.819	259.56
283.051	250.56
283.282	237.56
283.513	252.56
283.745	240.56
283.976	240.56
284.207	228.56
284.439	231.56
284.67	243.56
284.901	247.56
285.132	280.56
285.364	314.56
285.595	300.56
285.826	232.56
286.057	220.56
286.288	210.56
286.52	219.56
286.751	205.56
286.982	206.56
287.213	200.56
287.444	216.56
287.675	211.56
287.906	228.56
288.138	231.56
288.369	219.56
288.6	225.56
288.831	218.56
289.062	221.56
289.293	208.56
289.524	206.56
289.755	221.56
289.986	210.56
290.217	214.56
290.448	213.56
290.679	220.56
290.91	226.56
291.141	228.56
291.371	218.56
291.602	220.56
291.833	219.56
292.064	232.56
292.295	232.56
292.526	244.56
292.757	261.56
292.987	256.56
293.218	264.56
293.449	270.56
293.68	256.56
293.91	245.56
294.141	232.56
294.372	244.56
294.603	234.56
294.833	220.56
295.064	211.56
295.295	224.56
295.525	225.56
295.756	239.56
295.987	228.56
296.217	244.56
296.448	226.56
296.679	232.56
296.909	236.56
297.14	246.56
297.37	238.56
297.601	236.56
297.831	223.56
298.062	228.56
298.292	233.56
298.523	234.56
298.753	227.56
298.984	236.56
299.214	222.56
299.445	239.56
299.675	240.56
299.905	242.56
300.136	238.56
300.366	251.56
300.597	249.56
300.827	241.56
301.057	258.56
301.288	255.56
301.518	240.56
301.748	266.56
301.979	300.56
302.209	268.56
302.439	256.56
302.669	254.56
302.9	284.56
303.13	296.56
303.36	301.56
303.59	305.56
303.82	300.56
304.051	332.56
304.281	313.56
304.511	352.56
304.741	352.56
304.971	409.56
305.201	474.56
305.431	538.56
305.661	600.56
305.891	632.56
306.121	588.56
306.352	549.56
306.582	559.56
306.812	547.56
307.042	509.56
307.272	480.56
307.502	527.56
307.731	695.56
307.961	1000.56
308.191	1367.56
308.421	1598.56
308.651	1339.56
308.881	1258.56
309.111	1563.56
309.341	1963.56
309.571	1878.56
309.8	1146.56
310.03	779.56
310.26	616.56
310.49	525.56
310.72	472.56
310.949	412.56
311.179	409.56
311.409	378.56
311.639	373.56
311.868	348.56
312.098	329.56
312.328	344.56
312.557	316.56
312.787	307.56
313.017	308.56
313.246	315.56
313.476	298.56
313.706	296.56
313.935	289.56
314.165	296.56
314.394	304.56
314.624	290.56
314.853	293.56
315.083	300.56
315.312	287.56
315.542	284.56
315.771	279.56
316.001	260.56
316.23	278.56
316.46	288.56
316.689	279.56
316.919	268.56
317.148	269.56
317.377	277.56
317.607	262.56
317.836	271.56
318.065	268.56
318.295	276.56
318.524	278.56
318.753	264.56
318.983	248.56
319.212	244.56
319.441	263.56
319.67	268.56
319.9	269.56
320.129	265.56
320.358	277.56
320.587	269.56
320.816	265.56
321.046	256.56
321.275	269.56
321.504	268.56
321.733	271.56
321.962	267.56
322.191	270.56
322.42	253.56
322.649	268.56
322.878	284.56
323.108	280.56
323.337	271.56
323.566	276.56
323.795	268.56
324.024	255.56
324.253	277.56
324.482	266.56
324.71	274.56
324.939	274.56
325.168	264.56
325.397	251.56
325.626	272.56
325.855	278.56
326.084	275.56
326.313	281.56
326.542	270.56
326.77	278.56
326.999	262.56
327.228	265.56
327.457	272.56
327.686	276.56
327.914	270.56
328.143	277.56
328.372	278.56
328.6	264.56
328.829	279.56
329.058	282.56
329.287	287.56
329.515	294.56
329.744	290.56
329.972	283.56
330.201	267.56
330.43	264.56
330.658	287.56
330.887	277.56
331.115	274.56
331.344	272.56
331.572	288.56
331.801	274.56
332.03	268.56
332.258	283.56
332.486	278.56
332.715	293.56
332.943	293.56
333.172	299.56
333.4	301.56
333.629	330.56
333.857	310.56
334.085	304.56
334.314	307.56
334.542	293.56
334.771	318.56
334.999	303.56
335.227	302.56
335.455	310.56
335.684	312.56
335.912	311.56
336.14	313.56
336.369	302.56
336.597	302.56
336.825	293.56
337.053	270.56
337.281	290.56
337.51	311.56
337.738	290.56
337.966	274.56
338.194	285.56
338.422	302.56
338.65	288.56
338.878	307.56
339.106	303.56
339.334	314.56
339.562	281.56
339.79	285.56
340.018	276.56
340.246	268.56
340.474	280.56
340.702	283.56
340.93	290.56
341.158	278.56
341.386	273.56
341.614	282.56
341.842	278.56
342.07	286.56
342.298	288.56
342.526	299.56
342.754	298.56
342.981	294.56
343.209	297.56
343.437	325.56
343.665	306.56
343.893	310.56
344.12	313.56
344.348	290.56
344.576	293.56
344.804	298.56
345.031	295.56
345.259	284.56
345.487	307.56
345.714	280.56
345.942	282.56
346.17	296.56
346.397	303.56
346.625	274.56
346.853	288.56
347.08	290.56
347.308	297.56
347.535	283.56
347.763	301.56
347.99	288.56
348.218	301.56
348.445	282.56
348.673	289.56
348.9	301.56
349.128	294.56
349.355	284.56
349.583	296.56
349.81	302.56
350.037	289.56
350.265	291.56
350.492	310.56
350.72	286.56
350.947	272.56
351.174	272.56
351.402	295.56
351.629	282.56
351.856	296.56
352.083	286.56
352.311	314.56
352.538	292.56
352.765	307.56
352.992	322.56
353.22	323.56
353.447	315.56
353.674	334.56
353.901	346.56
354.128	339.56
354.355	312.56
354.583	318.56
354.81	342.56
355.037	343.56
355.264	335.56
355.491	356.56
355.718	352.56
355.945	386.56
356.172	404.56
356.399	358.56
356.626	386.56
356.853	426.56
357.08	435.56
357.307	472.56
357.534	480.56
357.761	539.56
357.988	598.56
358.215	660.56
358.441	774.56
358.668	843.56
358.895	812.56
359.122	724.56
359.349	582.56
359.576	531.56
359.802	490.56
360.029	468.56
360.256	451.56
360.483	431.56
360.709	414.56
360.936	420.56
361.163	396.56
361.39	386.56
361.616	379.56
361.843	379.56
362.07	352.56
362.296	365.56
362.523	336.56
362.749	362.56
362.976	341.56
363.203	353.56
363.429	344.56
363.656	336.56
363.882	327.56
364.109	322.56
364.335	334.56
364.562	323.56
364.788	316.56
365.015	314.56
365.241	319.56
365.468	319.56
365.694	312.56
365.92	330.56
366.147	317.56
366.373	297.56
366.599	300.56
366.826	310.56
367.052	311.56
367.278	307.56
367.505	321.56
367.731	324.56
367.957	309.56
368.184	312.56
368.41	323.56
368.636	303.56
368.862	308.56
369.089	319.56
369.315	310.56
369.541	316.56
369.767	319.56
369.993	310.56
370.219	289.56
370.445	323.56
370.672	300.56
370.898	309.56
371.124	328.56
371.35	310.56
371.576	319.56
371.802	343.56
372.028	326.56
372.254	319.56
372.48	329.56
372.706	339.56
372.932	330.56
373.158	322.56
373.384	330.56
373.61	328.56
373.835	315.56
374.061	326.56
374.287	332.56
374.513	353.56
374.739	326.56
374.965	334.56
375.191	321.56
375.416	320.56
375.642	326.56
375.868	322.56
376.094	338.56
376.319	328.56
376.545	316.56
376.771	327.56
376.997	312.56
377.222	315.56
377.448	310.56
377.674	325.56
377.899	318.56
378.125	308.56
378.35	332.56
378.576	310.56
378.802	313.56
379.027	345.56
379.253	316.56
379.478	316.56
379.704	326.56
379.929	312.56
380.155	330.56
380.38	313.56
380.606	306.56
380.831	320.56
381.057	349.56
381.282	335.56
381.507	328.56
381.733	330.56
381.958	338.56
382.184	363.56
382.409	359.56
382.634	368.56
382.86	382.56
383.085	417.56
383.31	433.56
383.535	432.56
383.761	438.56
383.986	435.56
384.211	385.56
384.436	384.56
384.662	370.56
384.887	369.56
385.112	364.56
385.337	366.56
385.562	354.56
385.787	360.56
386.013	406.56
386.238	375.56
386.463	373.56
386.688	399.56
386.913	376.56
387.138	371.56
387.363	383.56
387.588	390.56
387.813	383.56
388.038	385.56
388.263	398.56
388.488	375.56
388.713	390.56
388.938	366.56
389.163	388.56
389.387	400.56
389.612	402.56
389.837	395.56
390.062	379.56
390.287	400.56
390.512	400.56
390.736	374.56
390.961	408.56
391.186	368.56
391.411	404.56
391.636	421.56
391.86	424.56
392.085	434.56
392.31	431.56
392.534	458.56
392.759	455.56
392.984	486.56
393.208	522.56
393.433	587.56
393.658	650.56
393.882	759.56
394.107	1252.56
394.331	2210.56
394.556	2902.56
394.78	1992.56
395.005	1147.56
395.229	890.56
395.454	933.56
395.678	1178.56
395.903	1879.56
396.127	3174.56
396.352	3773.56
396.576	2276.56
396.801	1306.56
397.025	960.56
397.249	783.56
397.474	710.56
397.698	643.56
397.922	622.56
398.147	573.56
398.371	576.56
398.595	541.56
398.82	528.56
399.044	545.56
399.268	535.56
399.492	570.56
399.717	557.56
399.941	561.56
400.165	540.56
400.389	515.56
400.613	486.56
400.837	448.56
401.062	467.56
401.286	447.56
401.51	450.56
401.734	450.56
401.958	446.56
402.182	450.56
402.406	447.56
402.63	442.56
402.854	471.56
403.078	458.56
403.302	467.56
403.526	467.56
403.75	470.56
403.974	459.56
404.198	456.56
404.422	475.56
404.645	452.56
404.869	462.56
405.093	468.56
405.317	437.56
405.541	453.56
405.765	446.56
405.988	437.56
406.212	463.56
406.436	464.56
406.66	465.56
406.883	450.56
407.107	475.56
407.331	493.56
407.555	472.56
407.778	494.56
408.002	468.56
408.226	475.56
408.449	450.56
408.673	456.56
408.896	453.56
409.12	449.56
409.344	457.56
409.567	448.56
409.791	450.56
410.014	446.56
410.238	434.56
410.461	461.56
410.685	467.56
410.908	478.56
411.132	455.56
411.355	435.56
411.578	451.56
411.802	427.56
412.025	420.56
412.249	441.56
412.472	420.56
412.695	425.56
412.919	435.56
413.142	425.56
413.365	447.56
413.589	438.56
413.812	434.56
414.035	430.56
414.258	411.56
414.482	435.56
414.705	437.56
414.928	418.56
415.151	429.56
415.374	438.56
415.597	424.56
415.821	419.56
416.044	440.56
416.267	432.56
416.49	431.56
416.713	422.56
416.936	442.56
417.159	430.56
417.382	429.56
417.605	421.56
417.828	432.56
418.051	454.56
418.274	433.56
418.497	442.56
418.72	430.56
418.943	427.56
419.166	446.56
419.389	482.56
419.611	479.56
419.834	467.56
420.057	454.56
420.28	437.56
420.503	429.56
420.726	423.56
420.948	416.56
421.171	435.56
421.394	444.56
421.617	455.56
421.839	456.56
422.062	459.56
422.285	434.56
422.507	430.56
422.73	455.56
422.953	441.56
423.175	442.56
423.398	432.56
423.621	431.56
423.843	446.56
424.066	457.56
424.288	460.56
424.511	456.56
424.733	465.56
424.956	460.56
425.178	434.56
425.401	447.56
425.623	438.56
425.846	445.56
426.068	425.56
426.291	424.56
426.513	421.56
426.735	446.56
426.958	447.56
427.18	427.56
427.402	423.56
427.625	420.56
427.847	410.56
428.069	426.56
428.292	417.56
428.514	424.56
428.736	413.56
428.958	408.56
429.181	394.56
429.403	412.56
429.625	425.56
429.847	396.56
430.069	389.56
430.292	413.56
430.514	408.56
430.736	398.56
430.958	408.56
431.18	436.56
431.402	404.56
431.624	395.56
431.846	387.56
432.068	363.56
432.29	354.56
432.512	385.56
432.734	421.56
432.956	434.56
433.178	425.56
433.4	417.56
433.622	439.56
433.844	418.56
434.066	404.56
434.287	409.56
434.509	378.56
434.731	410.56
434.953	436.56
435.175	443.56
435.397	444.56
435.618	418.56
435.84	409.56
436.062	409.56
436.284	400.56
436.505	418.56
436.727	419.56
436.949	414.56
437.17	399.56
437.392	394.56
437.614	383.56
437.835	380.56
438.057	392.56
438.278	383.56
438.5	396.56
438.721	420.56
438.943	417.56
439.165	435.56
439.386	424.56
439.608	431.56
439.829	424.56
440.05	426.56
440.272	445.56
440.493	444.56
440.715	428.56
440.936	458.56
441.158	455.56
441.379	468.56
441.6	459.56
441.822	459.56
442.043	460.56
442.264	447.56
442.486	434.56
442.707	449.56
442.928	449.56
443.149	449.56
443.371	458.56
443.592	420.56
443.813	447.56
444.034	458.56
444.255	463.56
444.476	477.56
444.698	472.56
444.919	495.56
445.14	672.56
445.361	556.56
445.582	466.56
445.803	448.56
446.024	462.56
446.245	470.56
446.466	450.56
446.687	450.56
446.908	461.56
447.129	452.56
447.35	446.56
447.571	420.56
447.792	440.56
448.013	426.56
448.234	434.56
448.455	426.56
448.675	430.56
448.896	431.56
449.117	410.56
449.338	402.56
449.559	423.56
449.779	428.56
450	407.56
450.221	404.56
450.442	426.56
450.662	413.56
450.883	393.56
451.104	427.56
451.324	402.56
451.545	410.56
451.766	400.56
451.986	388.56
452.207	400.56
452.428	419.56
452.648	442.56
452.869	388.56
453.089	407.56
453.31	392.56
453.53	391.56
453.751	405.56
453.971	380.56
454.192	390.56
454.412	363.56
454.633	383.56
454.853	398.56
455.073	356.56
455.294	382.56
455.514	396.56
455.734	392.56
455.955	365.56
456.175	358.56
456.395	347.56
456.616	345.56
456.836	349.56
457.056	352.56
457.276	338.56
457.497	345.56
457.717	371.56
457.937	356.56
458.157	350.56
458.377	356.56
458.598	367.56
458.818	373.56
459.038	346.56
459.258	356.56
459.478	360.56
459.698	362.56
459.918	395.56
460.138	406.56
460.358	401.56
460.578	452.56
460.798	427.56
461.018	450.56
461.238	429.56
461.458	406.56
461.678	438.56
461.898	441.56
462.118	427.56
462.338	450.56
462.558	466.56
462.777	487.56
462.997	493.56
463.217	490.56
463.437	503.56
463.657	472.56
463.876	476.56
464.096	501.56
464.316	507.56
464.536	492.56
464.755	478.56
464.975	474.56
465.195	449.56
465.414	430.56
465.634	444.56
465.854	466.56
466.073	452.56
466.293	477.56
466.512	494.56
466.732	516.56
466.951	482.56
467.171	462.56
467.391	494.56
467.61	449.56
467.829	468.56
468.049	443.56
468.268	433.56
468.488	442.56
468.707	430.56
468.927	428.56
469.146	421.56
469.365	403.56
469.585	435.56
469.804	450.56
470.023	435.56
470.243	430.56
470.462	457.56
470.681	450.56
470.901	435.56
471.12	428.56
471.339	439.56
471.558	430.56
471.777	448.56
471.997	438.56
472.216	422.56
472.435	396.56
472.654	400.56
472.873	411.56
473.092	417.56
473.311	426.56
473.53	476.56
473.749	505.56
473.968	499.56
474.187	471.56
474.406	477.56
474.625	525.56
474.844	534.56
475.063	516.56
475.282	457.56
475.501	425.56
475.72	434.56
475.939	452.56
476.158	411.56
476.377	414.56
476.596	396.56
476.814	411.56
477.033	395.56
477.252	407.56
477.471	419.56
477.69	442.56
477.908	420.56
478.127	458.56
478.346	450.56
478.564	455.56
478.783	452.56
479.002	450.56
479.22	464.56
479.439	450.56
479.658	433.56
479.876	444.56
480.095	436.56
480.313	436.56
480.532	430.56
480.751	441.56
480.969	432.56
481.188	395.56
481.406	417.56
481.624	413.56
481.843	397.56
482.061	402.56
482.28	418.56
482.498	400.56
482.717	386.56
482.935	424.56
483.153	434.56
483.372	441.56
483.59	432.56
483.808	426.56
484.027	426.56
484.245	449.56
484.463	497.56
484.681	479.56
484.9	503.56
485.118	470.56
485.336	477.56
485.554	473.56
485.772	451.56
485.99	448.56
486.209	454.56
486.427	437.56
486.645	470.56
486.863	499.56
487.081	518.56
487.299	481.56
487.517	493.56
487.735	518.56
487.953	532.56
488.171	546.56
488.389	507.56
488.607	480.56
488.825	474.56
489.043	461.56
489.261	468.56
489.479	487.56
489.696	484.56
489.914	471.56
490.132	483.56
490.35	501.56
490.568	481.56
490.786	506.56
491.003	508.56
491.221	510.56
491.439	500.56
491.657	542.56
491.874	533.56
492.092	558.56
492.31	590.56
492.527	546.56
492.745	527.56
492.963	530.56
493.18	519.56
493.398	531.56
493.615	544.56
493.833	516.56
494.05	513.56
494.268	514.56
494.485	504.56
494.703	499.56
494.92	507.56
495.138	509.56
495.355	498.56
495.573	524.56
495.79	479.56
496.008	488.56
496.225	508.56
496.442	507.56
496.66	529.56
496.877	500.56
497.094	524.56
497.312	530.56
497.529	537.56
497.746	507.56
497.963	525.56
498.181	496.56
498.398	502.56
498.615	511.56
498.832	547.56
499.049	568.56
499.267	574.56
499.484	625.56
499.701	657.56
499.918	708.56
500.135	765.56
500.352	774.56
500.569	799.56
500.786	794.56
501.003	754.56
501.22	710.56
501.437	662.56
501.654	608.56
501.871	583.56
502.088	584.56
502.305	559.56
502.522	545.56
