Data from SampC_HRD10591_00058.txt Node
Date: Mon Jan 19 11:37:49 EST 2026
User: Yrep
Spectrometer: HR+D1059
Trigger mode: 0
Integration Time (sec): 3.443000E-1
Scans to average: 1
Electric dark correction enabled: true
Nonlinearity correction enabled: false
Boxcar width: 0
XAxis mode: Wavelengths
Number of Pixels in Spectrum: 2048
>>>>>Begin Spectral Data<<<<<
223.165	-20.44
223.4	-20.44
223.635	-20.44
223.869	-20.44
224.104	-21.44
224.338	-14.44
224.573	-18.44
224.808	-22.44
225.042	-7.44
225.277	5.56
225.511	-5.44
225.746	12.56
225.98	2.56
226.215	14.56
226.449	9.56
226.683	17.56
226.918	29.56
227.152	38.56
227.387	32.56
227.621	46.56
227.856	53.56
228.09	39.56
228.324	53.56
228.559	59.56
228.793	65.56
229.027	78.56
229.262	65.56
229.496	81.56
229.73	86.56
229.964	81.56
230.199	77.56
230.433	82.56
230.667	89.56
230.901	85.56
231.136	83.56
231.37	117.56
231.604	94.56
231.838	95.56
232.072	108.56
232.306	95.56
232.541	95.56
232.775	91.56
233.009	96.56
233.243	89.56
233.477	99.56
233.711	89.56
233.945	103.56
234.179	96.56
234.413	99.56
234.647	99.56
234.881	102.56
235.115	93.56
235.349	102.56
235.583	106.56
235.817	94.56
236.051	94.56
236.285	101.56
236.519	115.56
236.753	137.56
236.987	138.56
237.221	152.56
237.455	193.56
237.689	173.56
237.922	150.56
238.156	124.56
238.39	110.56
238.624	118.56
238.858	97.56
239.091	107.56
239.325	90.56
239.559	100.56
239.793	101.56
240.027	94.56
240.26	102.56
240.494	100.56
240.728	93.56
240.961	94.56
241.195	92.56
241.429	93.56
241.662	97.56
241.896	96.56
242.13	83.56
242.363	93.56
242.597	105.56
242.83	111.56
243.064	109.56
243.298	103.56
243.531	108.56
243.765	100.56
243.998	103.56
244.232	95.56
244.465	103.56
244.699	98.56
244.932	96.56
245.166	90.56
245.399	115.56
245.633	96.56
245.866	102.56
246.099	95.56
246.333	110.56
246.566	101.56
246.8	117.56
247.033	109.56
247.266	103.56
247.5	101.56
247.733	109.56
247.966	116.56
248.2	106.56
248.433	101.56
248.666	111.56
248.899	102.56
249.133	111.56
249.366	129.56
249.599	109.56
249.832	116.56
250.066	117.56
250.299	117.56
250.532	100.56
250.765	105.56
250.998	100.56
251.231	107.56
251.465	114.56
251.698	113.56
251.931	114.56
252.164	120.56
252.397	112.56
252.63	108.56
252.863	111.56
253.096	122.56
253.329	93.56
253.562	106.56
253.795	98.56
254.028	118.56
254.261	131.56
254.494	111.56
254.727	120.56
254.96	117.56
255.193	116.56
255.426	115.56
255.659	106.56
255.892	136.56
256.124	125.56
256.357	131.56
256.59	141.56
256.823	157.56
257.056	193.56
257.289	203.56
257.521	185.56
257.754	239.56
257.987	213.56
258.22	175.56
258.452	124.56
258.685	138.56
258.918	135.56
259.151	126.56
259.383	135.56
259.616	124.56
259.849	120.56
260.081	134.56
260.314	119.56
260.547	122.56
260.779	115.56
261.012	115.56
261.244	121.56
261.477	141.56
261.71	129.56
261.942	122.56
262.175	129.56
262.407	123.56
262.64	136.56
262.872	137.56
263.105	145.56
263.337	177.56
263.57	167.56
263.802	171.56
264.035	168.56
264.267	137.56
264.499	165.56
264.732	145.56
264.964	165.56
265.197	172.56
265.429	192.56
265.661	168.56
265.894	169.56
266.126	204.56
266.358	197.56
266.591	175.56
266.823	152.56
267.055	143.56
267.287	153.56
267.52	148.56
267.752	132.56
267.984	128.56
268.216	138.56
268.448	139.56
268.681	141.56
268.913	142.56
269.145	142.56
269.377	144.56
269.609	141.56
269.841	129.56
270.073	130.56
270.306	125.56
270.538	129.56
270.77	140.56
271.002	137.56
271.234	142.56
271.466	132.56
271.698	132.56
271.93	145.56
272.162	153.56
272.394	142.56
272.626	129.56
272.858	114.56
273.09	127.56
273.322	128.56
273.553	151.56
273.785	145.56
274.017	153.56
274.249	147.56
274.481	146.56
274.713	152.56
274.945	157.56
275.176	156.56
275.408	135.56
275.64	153.56
275.872	155.56
276.104	158.56
276.335	137.56
276.567	138.56
276.799	142.56
277.031	160.56
277.262	130.56
277.494	160.56
277.726	165.56
277.957	178.56
278.189	180.56
278.421	168.56
278.652	181.56
278.884	205.56
279.115	239.56
279.347	358.56
279.579	459.56
279.81	486.56
280.042	429.56
280.273	376.56
280.505	380.56
280.736	259.56
280.968	209.56
281.199	221.56
281.431	248.56
281.662	296.56
281.894	339.56
282.125	281.56
282.356	211.56
282.588	205.56
282.819	187.56
283.051	162.56
283.282	164.56
283.513	178.56
283.745	163.56
283.976	178.56
284.207	174.56
284.439	165.56
284.67	188.56
284.901	165.56
285.132	195.56
285.364	252.56
285.595	209.56
285.826	179.56
286.057	165.56
286.288	151.56
286.52	162.56
286.751	163.56
286.982	151.56
287.213	139.56
287.444	164.56
287.675	150.56
287.906	170.56
288.138	171.56
288.369	170.56
288.6	166.56
288.831	161.56
289.062	170.56
289.293	143.56
289.524	159.56
289.755	159.56
289.986	159.56
290.217	177.56
290.448	158.56
290.679	152.56
290.91	178.56
291.141	144.56
291.371	163.56
291.602	163.56
291.833	166.56
292.064	162.56
292.295	171.56
292.526	183.56
292.757	179.56
292.987	181.56
293.218	194.56
293.449	178.56
293.68	201.56
293.91	181.56
294.141	186.56
294.372	167.56
294.603	166.56
294.833	159.56
295.064	167.56
295.295	176.56
295.525	167.56
295.756	159.56
295.987	161.56
296.217	163.56
296.448	168.56
296.679	168.56
296.909	154.56
297.14	177.56
297.37	175.56
297.601	180.56
297.831	156.56
298.062	165.56
298.292	154.56
298.523	177.56
298.753	191.56
298.984	181.56
299.214	170.56
299.445	182.56
299.675	166.56
299.905	145.56
300.136	166.56
300.366	165.56
300.597	174.56
300.827	178.56
301.057	170.56
301.288	162.56
301.518	167.56
301.748	180.56
301.979	215.56
302.209	186.56
302.439	194.56
302.669	198.56
302.9	191.56
303.13	213.56
303.36	207.56
303.59	208.56
303.82	211.56
304.051	205.56
304.281	217.56
304.511	243.56
304.741	257.56
304.971	272.56
305.201	341.56
305.431	339.56
305.661	406.56
305.891	420.56
306.121	386.56
306.352	348.56
306.582	373.56
306.812	373.56
307.042	322.56
307.272	303.56
307.502	347.56
307.731	467.56
307.961	645.56
308.191	905.56
308.421	1075.56
308.651	876.56
308.881	793.56
309.111	1002.56
309.341	1251.56
309.571	1229.56
309.8	757.56
310.03	498.56
310.26	400.56
310.49	363.56
310.72	303.56
310.949	285.56
311.179	269.56
311.409	241.56
311.639	245.56
311.868	246.56
312.098	215.56
312.328	222.56
312.557	224.56
312.787	218.56
313.017	198.56
313.246	199.56
313.476	217.56
313.706	199.56
313.935	210.56
314.165	208.56
314.394	207.56
314.624	213.56
314.853	187.56
315.083	188.56
315.312	198.56
315.542	192.56
315.771	184.56
316.001	185.56
316.23	212.56
316.46	183.56
316.689	195.56
316.919	194.56
317.148	190.56
317.377	178.56
317.607	203.56
317.836	188.56
318.065	187.56
318.295	171.56
318.524	191.56
318.753	178.56
318.983	186.56
319.212	185.56
319.441	174.56
319.67	175.56
319.9	201.56
320.129	183.56
320.358	186.56
320.587	190.56
320.816	182.56
321.046	186.56
321.275	196.56
321.504	189.56
321.733	197.56
321.962	175.56
322.191	193.56
322.42	177.56
322.649	181.56
322.878	182.56
323.108	185.56
323.337	166.56
323.566	187.56
323.795	201.56
324.024	196.56
324.253	182.56
324.482	190.56
324.71	213.56
324.939	199.56
325.168	186.56
325.397	193.56
325.626	205.56
325.855	191.56
326.084	201.56
326.313	194.56
326.542	185.56
326.77	183.56
326.999	196.56
327.228	199.56
327.457	194.56
327.686	204.56
327.914	197.56
328.143	208.56
328.372	184.56
328.6	177.56
328.829	187.56
329.058	190.56
329.287	183.56
329.515	199.56
329.744	206.56
329.972	187.56
330.201	200.56
330.43	181.56
330.658	167.56
330.887	201.56
331.115	204.56
331.344	186.56
331.572	192.56
331.801	195.56
332.03	212.56
332.258	199.56
332.486	213.56
332.715	199.56
332.943	201.56
333.172	207.56
333.4	202.56
333.629	209.56
333.857	212.56
334.085	216.56
334.314	219.56
334.542	227.56
334.771	233.56
334.999	221.56
335.227	201.56
335.455	207.56
335.684	205.56
335.912	209.56
336.14	199.56
336.369	190.56
336.597	203.56
336.825	216.56
337.053	203.56
337.281	190.56
337.51	203.56
337.738	227.56
337.966	195.56
338.194	193.56
338.422	202.56
338.65	183.56
338.878	201.56
339.106	203.56
339.334	203.56
339.562	196.56
339.79	207.56
340.018	191.56
340.246	188.56
340.474	188.56
340.702	194.56
340.93	213.56
341.158	188.56
341.386	181.56
341.614	186.56
341.842	196.56
342.07	185.56
342.298	189.56
342.526	199.56
342.754	202.56
342.981	195.56
343.209	220.56
343.437	249.56
343.665	210.56
343.893	209.56
344.12	208.56
344.348	201.56
344.576	203.56
344.804	189.56
345.031	199.56
345.259	208.56
345.487	203.56
345.714	189.56
345.942	192.56
346.17	214.56
346.397	197.56
346.625	206.56
346.853	189.56
347.08	190.56
347.308	218.56
347.535	197.56
347.763	208.56
347.99	220.56
348.218	199.56
348.445	209.56
348.673	195.56
348.9	194.56
349.128	209.56
349.355	203.56
349.583	223.56
349.81	188.56
350.037	207.56
350.265	227.56
350.492	204.56
350.72	201.56
350.947	196.56
351.174	211.56
351.402	197.56
351.629	208.56
351.856	197.56
352.083	219.56
352.311	208.56
352.538	195.56
352.765	213.56
352.992	214.56
353.22	208.56
353.447	216.56
353.674	213.56
353.901	223.56
354.128	202.56
354.355	227.56
354.583	229.56
354.81	240.56
355.037	243.56
355.264	236.56
355.491	225.56
355.718	238.56
355.945	255.56
356.172	274.56
356.399	243.56
356.626	265.56
356.853	288.56
357.08	298.56
357.307	276.56
357.534	311.56
357.761	339.56
357.988	384.56
358.215	430.56
358.441	499.56
358.668	573.56
358.895	543.56
359.122	461.56
359.349	378.56
359.576	336.56
359.802	334.56
360.029	314.56
360.256	279.56
360.483	286.56
360.709	269.56
360.936	271.56
361.163	267.56
361.39	276.56
361.616	243.56
361.843	256.56
362.07	250.56
362.296	249.56
362.523	238.56
362.749	242.56
362.976	241.56
363.203	266.56
363.429	231.56
363.656	227.56
363.882	222.56
364.109	227.56
364.335	243.56
364.562	206.56
364.788	223.56
365.015	230.56
365.241	221.56
365.468	217.56
365.694	205.56
365.92	203.56
366.147	214.56
366.373	209.56
366.599	209.56
366.826	213.56
367.052	208.56
367.278	222.56
367.505	201.56
367.731	229.56
367.957	203.56
368.184	217.56
368.41	202.56
368.636	203.56
368.862	204.56
369.089	222.56
369.315	220.56
369.541	193.56
369.767	226.56
369.993	212.56
370.219	210.56
370.445	214.56
370.672	222.56
370.898	214.56
371.124	209.56
371.35	220.56
371.576	228.56
371.802	206.56
372.028	208.56
372.254	224.56
372.48	222.56
372.706	215.56
372.932	229.56
373.158	226.56
373.384	213.56
373.61	238.56
373.835	214.56
374.061	222.56
374.287	210.56
374.513	211.56
374.739	236.56
374.965	243.56
375.191	231.56
375.416	223.56
375.642	224.56
375.868	229.56
376.094	231.56
376.319	221.56
376.545	214.56
376.771	213.56
376.997	220.56
377.222	205.56
377.448	213.56
377.674	213.56
377.899	209.56
378.125	215.56
378.35	227.56
378.576	204.56
378.802	203.56
379.027	201.56
379.253	217.56
379.478	226.56
379.704	233.56
379.929	205.56
380.155	220.56
380.38	222.56
380.606	205.56
380.831	201.56
381.057	250.56
381.282	227.56
381.507	225.56
381.733	236.56
381.958	240.56
382.184	245.56
382.409	235.56
382.634	245.56
382.86	273.56
383.085	302.56
383.31	297.56
383.535	295.56
383.761	309.56
383.986	311.56
384.211	268.56
384.436	255.56
384.662	250.56
384.887	239.56
385.112	246.56
385.337	234.56
385.562	250.56
385.787	257.56
386.013	257.56
386.238	256.56
386.463	251.56
386.688	269.56
386.913	239.56
387.138	246.56
387.363	256.56
387.588	254.56
387.813	244.56
388.038	253.56
388.263	247.56
388.488	240.56
388.713	237.56
388.938	238.56
389.163	242.56
389.387	241.56
389.612	267.56
389.837	262.56
390.062	268.56
390.287	273.56
390.512	285.56
390.736	261.56
390.961	257.56
391.186	246.56
391.411	281.56
391.636	275.56
391.86	266.56
392.085	296.56
392.31	272.56
392.534	277.56
392.759	292.56
392.984	325.56
393.208	347.56
393.433	399.56
393.658	431.56
393.882	511.56
394.107	808.56
394.331	1444.56
394.556	1916.56
394.78	1273.56
395.005	723.56
395.229	563.56
395.454	560.56
395.678	741.56
395.903	1214.56
396.127	2115.56
396.352	2481.56
396.576	1473.56
396.801	823.56
397.025	591.56
397.249	494.56
397.474	438.56
397.698	411.56
397.922	382.56
398.147	355.56
398.371	350.56
398.595	335.56
398.82	335.56
399.044	346.56
399.268	332.56
399.492	348.56
399.717	349.56
399.941	353.56
400.165	330.56
400.389	298.56
400.613	326.56
400.837	305.56
401.062	305.56
401.286	289.56
401.51	281.56
401.734	282.56
401.958	296.56
402.182	285.56
402.406	281.56
402.63	290.56
402.854	289.56
403.078	305.56
403.302	286.56
403.526	290.56
403.75	293.56
403.974	300.56
404.198	281.56
404.422	289.56
404.645	298.56
404.869	277.56
405.093	287.56
405.317	288.56
405.541	273.56
405.765	290.56
405.988	287.56
406.212	298.56
406.436	271.56
406.66	304.56
406.883	293.56
407.107	286.56
407.331	299.56
407.555	295.56
407.778	300.56
408.002	295.56
408.226	289.56
408.449	300.56
408.673	302.56
408.896	292.56
409.12	287.56
409.344	286.56
409.567	296.56
409.791	297.56
410.014	291.56
410.238	277.56
410.461	271.56
410.685	283.56
410.908	274.56
411.132	276.56
411.355	285.56
411.578	285.56
411.802	286.56
412.025	292.56
412.249	287.56
412.472	293.56
412.695	282.56
412.919	273.56
413.142	284.56
413.365	272.56
413.589	298.56
413.812	277.56
414.035	301.56
414.258	289.56
414.482	278.56
414.705	278.56
414.928	276.56
415.151	289.56
415.374	274.56
415.597	278.56
415.821	286.56
416.044	278.56
416.267	276.56
416.49	271.56
416.713	275.56
416.936	278.56
417.159	281.56
417.382	266.56
417.605	281.56
417.828	271.56
418.051	274.56
418.274	271.56
418.497	275.56
418.72	276.56
418.943	286.56
419.166	297.56
419.389	297.56
419.611	309.56
419.834	284.56
420.057	297.56
420.28	314.56
420.503	285.56
420.726	286.56
420.948	269.56
421.171	272.56
421.394	287.56
421.617	279.56
421.839	269.56
422.062	280.56
422.285	272.56
422.507	279.56
422.73	279.56
422.953	299.56
423.175	263.56
423.398	271.56
423.621	275.56
423.843	290.56
424.066	289.56
424.288	288.56
424.511	295.56
424.733	277.56
424.956	290.56
425.178	286.56
425.401	273.56
425.623	289.56
425.846	258.56
426.068	266.56
426.291	279.56
426.513	275.56
426.735	281.56
426.958	276.56
427.18	270.56
427.402	271.56
427.625	265.56
427.847	261.56
428.069	252.56
428.292	260.56
428.514	265.56
428.736	260.56
428.958	246.56
429.181	267.56
429.403	258.56
429.625	258.56
429.847	255.56
430.069	260.56
430.292	291.56
430.514	269.56
430.736	262.56
430.958	261.56
431.18	269.56
431.402	272.56
431.624	255.56
431.846	244.56
432.068	258.56
432.29	259.56
432.512	254.56
432.734	277.56
432.956	267.56
433.178	283.56
433.4	279.56
433.622	283.56
433.844	279.56
434.066	260.56
434.287	255.56
434.509	242.56
434.731	272.56
434.953	254.56
435.175	268.56
435.397	265.56
435.618	244.56
435.84	275.56
436.062	241.56
436.284	272.56
436.505	258.56
436.727	267.56
436.949	273.56
437.17	271.56
437.392	260.56
437.614	255.56
437.835	236.56
438.057	243.56
438.278	255.56
438.5	262.56
438.721	267.56
438.943	277.56
439.165	270.56
439.386	269.56
439.608	274.56
439.829	286.56
440.05	279.56
440.272	275.56
440.493	271.56
440.715	295.56
440.936	273.56
441.158	295.56
441.379	272.56
441.6	296.56
441.822	291.56
442.043	294.56
442.264	292.56
442.486	288.56
442.707	272.56
442.928	276.56
443.149	281.56
443.371	291.56
443.592	277.56
443.813	281.56
444.034	282.56
444.255	285.56
444.476	301.56
444.698	280.56
444.919	314.56
445.14	482.56
445.361	384.56
445.582	287.56
445.803	276.56
446.024	284.56
446.245	302.56
446.466	283.56
446.687	280.56
446.908	295.56
447.129	289.56
447.35	273.56
447.571	288.56
447.792	262.56
448.013	272.56
448.234	275.56
448.455	277.56
448.675	277.56
448.896	274.56
449.117	258.56
449.338	255.56
449.559	289.56
449.779	271.56
450	262.56
450.221	254.56
450.442	275.56
450.662	266.56
450.883	265.56
451.104	270.56
451.324	258.56
451.545	268.56
451.766	269.56
451.986	270.56
452.207	285.56
452.428	267.56
452.648	269.56
452.869	268.56
453.089	269.56
453.31	268.56
453.53	250.56
453.751	260.56
453.971	241.56
454.192	276.56
454.412	261.56
454.633	267.56
454.853	253.56
455.073	245.56
455.294	243.56
455.514	277.56
455.734	243.56
455.955	239.56
456.175	254.56
456.395	234.56
456.616	241.56
456.836	247.56
457.056	238.56
457.276	230.56
457.497	255.56
457.717	221.56
457.937	240.56
458.157	241.56
458.377	226.56
458.598	236.56
458.818	233.56
459.038	245.56
459.258	251.56
459.478	239.56
459.698	249.56
459.918	250.56
460.138	273.56
460.358	262.56
460.578	272.56
460.798	264.56
461.018	250.56
461.238	273.56
461.458	281.56
461.678	276.56
461.898	280.56
462.118	284.56
462.338	277.56
462.558	307.56
462.777	312.56
462.997	305.56
463.217	314.56
463.437	309.56
463.657	298.56
463.876	295.56
464.096	309.56
464.316	294.56
464.536	302.56
464.755	308.56
464.975	283.56
465.195	273.56
465.414	287.56
465.634	293.56
465.854	282.56
466.073	296.56
466.293	305.56
466.512	345.56
466.732	335.56
466.951	302.56
467.171	289.56
467.391	321.56
467.61	292.56
467.829	293.56
468.049	282.56
468.268	278.56
468.488	265.56
468.707	265.56
468.927	279.56
469.146	275.56
469.365	263.56
469.585	258.56
469.804	281.56
470.023	281.56
470.243	278.56
470.462	271.56
470.681	279.56
470.901	286.56
471.12	284.56
471.339	304.56
471.558	287.56
471.777	273.56
471.997	295.56
472.216	270.56
472.435	270.56
472.654	254.56
472.873	267.56
473.092	276.56
473.311	307.56
473.53	297.56
473.749	337.56
473.968	330.56
474.187	319.56
474.406	286.56
474.625	335.56
474.844	331.56
475.063	316.56
475.282	293.56
475.501	286.56
475.72	300.56
475.939	283.56
476.158	283.56
476.377	283.56
476.596	272.56
476.814	253.56
477.033	264.56
477.252	277.56
477.471	284.56
477.69	265.56
477.908	273.56
478.127	260.56
478.346	260.56
478.564	292.56
478.783	272.56
479.002	282.56
479.22	288.56
479.439	281.56
479.658	298.56
479.876	292.56
480.095	274.56
480.313	277.56
480.532	278.56
480.751	286.56
480.969	266.56
481.188	274.56
481.406	258.56
481.624	246.56
481.843	250.56
482.061	243.56
482.28	250.56
482.498	259.56
482.717	270.56
482.935	270.56
483.153	283.56
483.372	293.56
483.59	298.56
483.808	275.56
484.027	279.56
484.245	315.56
484.463	327.56
484.681	333.56
484.9	310.56
485.118	289.56
485.336	302.56
485.554	292.56
485.772	306.56
485.99	303.56
486.209	302.56
486.427	302.56
486.645	301.56
486.863	309.56
487.081	321.56
487.299	314.56
487.517	313.56
487.735	330.56
487.953	326.56
488.171	337.56
488.389	313.56
488.607	299.56
488.825	294.56
489.043	291.56
489.261	301.56
489.479	314.56
489.696	296.56
489.914	303.56
490.132	309.56
490.35	320.56
490.568	310.56
490.786	310.56
491.003	340.56
491.221	342.56
491.439	331.56
491.657	321.56
491.874	344.56
492.092	345.56
492.31	363.56
492.527	338.56
492.745	341.56
492.963	332.56
493.18	347.56
493.398	329.56
493.615	332.56
493.833	329.56
494.05	320.56
494.268	313.56
494.485	316.56
494.703	320.56
494.92	326.56
495.138	319.56
495.355	324.56
495.573	322.56
495.79	309.56
496.008	310.56
496.225	305.56
496.442	322.56
496.66	318.56
496.877	314.56
497.094	335.56
497.312	331.56
497.529	322.56
497.746	331.56
497.963	329.56
498.181	313.56
498.398	321.56
498.615	343.56
498.832	336.56
499.049	366.56
499.267	359.56
499.484	360.56
499.701	409.56
499.918	415.56
500.135	459.56
500.352	468.56
500.569	447.56
500.786	478.56
501.003	460.56
501.22	435.56
501.437	398.56
501.654	388.56
501.871	379.56
502.088	365.56
502.305	353.56
502.522	353.56
502.739	336.56
502.956	343.56
503.172	301.56
