Data from SampC_HRD10591_00015.txt Node
Date: Mon Jan 19 11:37:34 EST 2026
User: Yrep
Spectrometer: HR+D1059
Trigger mode: 0
Integration Time (sec): 3.443000E-1
Scans to average: 1
Electric dark correction enabled: true
Nonlinearity correction enabled: false
Boxcar width: 0
XAxis mode: Wavelengths
Number of Pixels in Spectrum: 2048
>>>>>Begin Spectral Data<<<<<
223.165	-29.25
223.4	-29.25
223.635	-29.25
223.869	-29.25
224.104	-10.25
224.338	-17.25
224.573	-10.25
224.808	-8.25
225.042	-9.25
225.277	-7.25
225.511	-12.25
225.746	7.75
225.98	5.75
226.215	11.75
226.449	17.75
226.683	22.75
226.918	31.75
227.152	35.75
227.387	7.75
227.621	44.75
227.856	47.75
228.09	43.75
228.324	44.75
228.559	58.75
228.793	57.75
229.027	71.75
229.262	69.75
229.496	79.75
229.73	76.75
229.964	85.75
230.199	92.75
230.433	79.75
230.667	97.75
230.901	84.75
231.136	81.75
231.37	94.75
231.604	87.75
231.838	101.75
232.072	95.75
232.306	106.75
232.541	98.75
232.775	91.75
233.009	86.75
233.243	83.75
233.477	97.75
233.711	99.75
233.945	112.75
234.179	82.75
234.413	88.75
234.647	102.75
234.881	94.75
235.115	91.75
235.349	101.75
235.583	100.75
235.817	96.75
236.051	98.75
236.285	98.75
236.519	105.75
236.753	125.75
236.987	140.75
237.221	139.75
237.455	140.75
237.689	136.75
237.922	130.75
238.156	118.75
238.39	99.75
238.624	112.75
238.858	102.75
239.091	102.75
239.325	102.75
239.559	99.75
239.793	105.75
240.027	89.75
240.26	87.75
240.494	97.75
240.728	99.75
240.961	98.75
241.195	93.75
241.429	98.75
241.662	103.75
241.896	91.75
242.13	91.75
242.363	97.75
242.597	106.75
242.83	103.75
243.064	82.75
243.298	95.75
243.531	105.75
243.765	95.75
243.998	81.75
244.232	108.75
244.465	88.75
244.699	91.75
244.932	113.75
245.166	96.75
245.399	91.75
245.633	91.75
245.866	99.75
246.099	99.75
246.333	91.75
246.566	90.75
246.8	100.75
247.033	114.75
247.266	99.75
247.5	93.75
247.733	97.75
247.966	90.75
248.2	106.75
248.433	98.75
248.666	99.75
248.899	100.75
249.133	103.75
249.366	107.75
249.599	106.75
249.832	99.75
250.066	103.75
250.299	99.75
250.532	107.75
250.765	114.75
250.998	106.75
251.231	94.75
251.465	109.75
251.698	90.75
251.931	112.75
252.164	117.75
252.397	106.75
252.63	107.75
252.863	118.75
253.096	120.75
253.329	126.75
253.562	103.75
253.795	114.75
254.028	119.75
254.261	107.75
254.494	102.75
254.727	110.75
254.96	123.75
255.193	123.75
255.426	111.75
255.659	104.75
255.892	114.75
256.124	118.75
256.357	126.75
256.59	138.75
256.823	153.75
257.056	173.75
257.289	161.75
257.521	174.75
257.754	173.75
257.987	174.75
258.22	147.75
258.452	141.75
258.685	129.75
258.918	120.75
259.151	113.75
259.383	128.75
259.616	107.75
259.849	128.75
260.081	122.75
260.314	125.75
260.547	120.75
260.779	124.75
261.012	126.75
261.244	125.75
261.477	146.75
261.71	118.75
261.942	124.75
262.175	123.75
262.407	128.75
262.64	125.75
262.872	153.75
263.105	145.75
263.337	173.75
263.57	172.75
263.802	168.75
264.035	139.75
264.267	141.75
264.499	153.75
264.732	122.75
264.964	133.75
265.197	157.75
265.429	166.75
265.661	168.75
265.894	153.75
266.126	170.75
266.358	172.75
266.591	168.75
266.823	155.75
267.055	137.75
267.287	138.75
267.52	122.75
267.752	144.75
267.984	137.75
268.216	123.75
268.448	128.75
268.681	145.75
268.913	136.75
269.145	120.75
269.377	126.75
269.609	131.75
269.841	135.75
270.073	119.75
270.306	130.75
270.538	122.75
270.77	119.75
271.002	132.75
271.234	127.75
271.466	144.75
271.698	123.75
271.93	133.75
272.162	142.75
272.394	144.75
272.626	123.75
272.858	128.75
273.09	148.75
273.322	152.75
273.553	131.75
273.785	145.75
274.017	145.75
274.249	154.75
274.481	151.75
274.713	135.75
274.945	126.75
275.176	125.75
275.408	149.75
275.64	144.75
275.872	149.75
276.104	141.75
276.335	144.75
276.567	139.75
276.799	141.75
277.031	128.75
277.262	159.75
277.494	151.75
277.726	161.75
277.957	162.75
278.189	171.75
278.421	174.75
278.652	197.75
278.884	208.75
279.115	244.75
279.347	342.75
279.579	451.75
279.81	525.75
280.042	412.75
280.273	394.75
280.505	376.75
280.736	267.75
280.968	220.75
281.199	205.75
281.431	248.75
281.662	306.75
281.894	333.75
282.125	271.75
282.356	233.75
282.588	219.75
282.819	209.75
283.051	173.75
283.282	163.75
283.513	181.75
283.745	170.75
283.976	177.75
284.207	176.75
284.439	177.75
284.67	161.75
284.901	163.75
285.132	182.75
285.364	208.75
285.595	200.75
285.826	161.75
286.057	170.75
286.288	156.75
286.52	177.75
286.751	151.75
286.982	170.75
287.213	149.75
287.444	167.75
287.675	148.75
287.906	161.75
288.138	152.75
288.369	168.75
288.6	157.75
288.831	166.75
289.062	167.75
289.293	158.75
289.524	161.75
289.755	162.75
289.986	149.75
290.217	163.75
290.448	158.75
290.679	155.75
290.91	150.75
291.141	167.75
291.371	167.75
291.602	155.75
291.833	151.75
292.064	172.75
292.295	168.75
292.526	183.75
292.757	197.75
292.987	187.75
293.218	193.75
293.449	179.75
293.68	185.75
293.91	172.75
294.141	182.75
294.372	166.75
294.603	162.75
294.833	169.75
295.064	146.75
295.295	151.75
295.525	168.75
295.756	170.75
295.987	154.75
296.217	166.75
296.448	171.75
296.679	171.75
296.909	169.75
297.14	161.75
297.37	174.75
297.601	165.75
297.831	164.75
298.062	163.75
298.292	171.75
298.523	170.75
298.753	170.75
298.984	169.75
299.214	168.75
299.445	163.75
299.675	165.75
299.905	174.75
300.136	151.75
300.366	177.75
300.597	179.75
300.827	160.75
301.057	187.75
301.288	187.75
301.518	176.75
301.748	187.75
301.979	217.75
302.209	178.75
302.439	188.75
302.669	183.75
302.9	198.75
303.13	200.75
303.36	191.75
303.59	202.75
303.82	194.75
304.051	224.75
304.281	231.75
304.511	211.75
304.741	234.75
304.971	245.75
305.201	277.75
305.431	311.75
305.661	339.75
305.891	376.75
306.121	355.75
306.352	322.75
306.582	317.75
306.812	315.75
307.042	293.75
307.272	285.75
307.502	314.75
307.731	402.75
307.961	508.75
308.191	728.75
308.421	791.75
308.651	701.75
308.881	663.75
309.111	788.75
309.341	994.75
309.571	953.75
309.8	651.75
310.03	437.75
310.26	362.75
310.49	314.75
310.72	279.75
310.949	261.75
311.179	256.75
311.409	257.75
311.639	212.75
311.868	211.75
312.098	215.75
312.328	226.75
312.557	211.75
312.787	216.75
313.017	201.75
313.246	211.75
313.476	190.75
313.706	213.75
313.935	185.75
314.165	193.75
314.394	199.75
314.624	203.75
314.853	207.75
315.083	194.75
315.312	198.75
315.542	187.75
315.771	201.75
316.001	177.75
316.23	190.75
316.46	183.75
316.689	185.75
316.919	188.75
317.148	179.75
317.377	184.75
317.607	199.75
317.836	188.75
318.065	186.75
318.295	192.75
318.524	178.75
318.753	178.75
318.983	185.75
319.212	181.75
319.441	194.75
319.67	171.75
319.9	177.75
320.129	184.75
320.358	176.75
320.587	187.75
320.816	205.75
321.046	189.75
321.275	193.75
321.504	167.75
321.733	206.75
321.962	189.75
322.191	181.75
322.42	190.75
322.649	175.75
322.878	202.75
323.108	181.75
323.337	196.75
323.566	192.75
323.795	182.75
324.024	193.75
324.253	186.75
324.482	167.75
324.71	190.75
324.939	203.75
325.168	202.75
325.397	202.75
325.626	185.75
325.855	190.75
326.084	186.75
326.313	187.75
326.542	184.75
326.77	203.75
326.999	191.75
327.228	182.75
327.457	193.75
327.686	182.75
327.914	191.75
328.143	209.75
328.372	210.75
328.6	183.75
328.829	192.75
329.058	191.75
329.287	189.75
329.515	188.75
329.744	179.75
329.972	185.75
330.201	196.75
330.43	205.75
330.658	202.75
330.887	202.75
331.115	193.75
331.344	195.75
331.572	230.75
331.801	184.75
332.03	200.75
332.258	201.75
332.486	210.75
332.715	184.75
332.943	217.75
333.172	205.75
333.4	218.75
333.629	220.75
333.857	223.75
334.085	202.75
334.314	226.75
334.542	223.75
334.771	218.75
334.999	207.75
335.227	203.75
335.455	212.75
335.684	210.75
335.912	221.75
336.14	216.75
336.369	204.75
336.597	207.75
336.825	213.75
337.053	187.75
337.281	209.75
337.51	215.75
337.738	197.75
337.966	202.75
338.194	181.75
338.422	190.75
338.65	199.75
338.878	207.75
339.106	193.75
339.334	203.75
339.562	180.75
339.79	182.75
340.018	188.75
340.246	208.75
340.474	202.75
340.702	217.75
340.93	202.75
341.158	204.75
341.386	184.75
341.614	188.75
341.842	192.75
342.07	210.75
342.298	193.75
342.526	201.75
342.754	215.75
342.981	219.75
343.209	220.75
343.437	252.75
343.665	221.75
343.893	221.75
344.12	230.75
344.348	210.75
344.576	205.75
344.804	222.75
345.031	202.75
345.259	205.75
345.487	217.75
345.714	215.75
345.942	174.75
346.17	186.75
346.397	182.75
346.625	206.75
346.853	201.75
347.08	210.75
347.308	207.75
347.535	198.75
347.763	203.75
347.99	199.75
348.218	222.75
348.445	226.75
348.673	197.75
348.9	194.75
349.128	217.75
349.355	215.75
349.583	215.75
349.81	206.75
350.037	195.75
350.265	214.75
350.492	218.75
350.72	198.75
350.947	213.75
351.174	214.75
351.402	213.75
351.629	218.75
351.856	198.75
352.083	211.75
352.311	209.75
352.538	205.75
352.765	217.75
352.992	231.75
353.22	220.75
353.447	219.75
353.674	223.75
353.901	217.75
354.128	218.75
354.355	226.75
354.583	221.75
354.81	214.75
355.037	247.75
355.264	229.75
355.491	241.75
355.718	244.75
355.945	262.75
356.172	254.75
356.399	255.75
356.626	279.75
356.853	279.75
357.08	290.75
357.307	319.75
357.534	301.75
357.761	360.75
357.988	420.75
358.215	436.75
358.441	496.75
358.668	539.75
358.895	544.75
359.122	444.75
359.349	371.75
359.576	346.75
359.802	317.75
360.029	314.75
360.256	313.75
360.483	293.75
360.709	263.75
360.936	286.75
361.163	274.75
361.39	265.75
361.616	258.75
361.843	257.75
362.07	248.75
362.296	264.75
362.523	224.75
362.749	250.75
362.976	237.75
363.203	249.75
363.429	237.75
363.656	222.75
363.882	231.75
364.109	217.75
364.335	243.75
364.562	210.75
364.788	205.75
365.015	233.75
365.241	217.75
365.468	234.75
365.694	226.75
365.92	220.75
366.147	209.75
366.373	198.75
366.599	211.75
366.826	227.75
367.052	218.75
367.278	201.75
367.505	215.75
367.731	231.75
367.957	224.75
368.184	199.75
368.41	228.75
368.636	211.75
368.862	231.75
369.089	201.75
369.315	213.75
369.541	235.75
369.767	210.75
369.993	221.75
370.219	204.75
370.445	195.75
370.672	216.75
370.898	204.75
371.124	224.75
371.35	214.75
371.576	217.75
371.802	215.75
372.028	224.75
372.254	224.75
372.48	223.75
372.706	231.75
372.932	225.75
373.158	222.75
373.384	242.75
373.61	238.75
373.835	241.75
374.061	215.75
374.287	217.75
374.513	214.75
374.739	225.75
374.965	233.75
375.191	218.75
375.416	233.75
375.642	231.75
375.868	231.75
376.094	221.75
376.319	209.75
376.545	202.75
376.771	214.75
376.997	221.75
377.222	222.75
377.448	210.75
377.674	229.75
377.899	214.75
378.125	217.75
378.35	226.75
378.576	212.75
378.802	215.75
379.027	227.75
379.253	226.75
379.478	220.75
379.704	227.75
379.929	225.75
380.155	204.75
380.38	237.75
380.606	227.75
380.831	220.75
381.057	240.75
381.282	235.75
381.507	230.75
381.733	226.75
381.958	227.75
382.184	239.75
382.409	241.75
382.634	256.75
382.86	273.75
383.085	281.75
383.31	289.75
383.535	270.75
383.761	307.75
383.986	295.75
384.211	265.75
384.436	246.75
384.662	238.75
384.887	239.75
385.112	237.75
385.337	246.75
385.562	234.75
385.787	231.75
386.013	266.75
386.238	239.75
386.463	257.75
386.688	290.75
386.913	265.75
387.138	241.75
387.363	249.75
387.588	285.75
387.813	253.75
388.038	252.75
388.263	263.75
388.488	256.75
388.713	264.75
388.938	254.75
389.163	251.75
389.387	232.75
389.612	263.75
389.837	253.75
390.062	268.75
390.287	245.75
390.512	239.75
390.736	265.75
390.961	252.75
391.186	244.75
391.411	263.75
391.636	262.75
391.86	262.75
392.085	270.75
392.31	283.75
392.534	288.75
392.759	295.75
392.984	294.75
393.208	335.75
393.433	374.75
393.658	384.75
393.882	419.75
394.107	652.75
394.331	1088.75
394.556	1375.75
394.78	1014.75
395.005	609.75
395.229	494.75
395.454	509.75
395.678	623.75
395.903	949.75
396.127	1561.75
396.352	1838.75
396.576	1156.75
396.801	701.75
397.025	547.75
397.249	456.75
397.474	403.75
397.698	383.75
397.922	363.75
398.147	350.75
398.371	345.75
398.595	315.75
398.82	319.75
399.044	315.75
399.268	337.75
399.492	347.75
399.717	370.75
399.941	339.75
400.165	335.75
400.389	327.75
400.613	306.75
400.837	287.75
401.062	301.75
401.286	289.75
401.51	307.75
401.734	286.75
401.958	303.75
402.182	283.75
402.406	265.75
402.63	286.75
402.854	282.75
403.078	297.75
403.302	287.75
403.526	286.75
403.75	300.75
403.974	303.75
404.198	286.75
404.422	307.75
404.645	297.75
404.869	287.75
405.093	291.75
405.317	290.75
405.541	289.75
405.765	297.75
405.988	295.75
406.212	299.75
406.436	287.75
406.66	306.75
406.883	311.75
407.107	302.75
407.331	305.75
407.555	309.75
407.778	311.75
408.002	309.75
408.226	301.75
408.449	301.75
408.673	291.75
408.896	292.75
409.12	286.75
409.344	297.75
409.567	305.75
409.791	285.75
410.014	307.75
410.238	285.75
410.461	290.75
410.685	302.75
410.908	286.75
411.132	286.75
411.355	269.75
411.578	292.75
411.802	265.75
412.025	289.75
412.249	270.75
412.472	269.75
412.695	289.75
412.919	286.75
413.142	283.75
413.365	280.75
413.589	277.75
413.812	274.75
414.035	301.75
414.258	299.75
414.482	293.75
414.705	283.75
414.928	273.75
415.151	274.75
415.374	270.75
415.597	280.75
415.821	270.75
416.044	289.75
416.267	273.75
416.49	282.75
416.713	280.75
416.936	275.75
417.159	283.75
417.382	245.75
417.605	291.75
417.828	281.75
418.051	296.75
418.274	280.75
418.497	275.75
418.72	275.75
418.943	279.75
419.166	292.75
419.389	299.75
419.611	283.75
419.834	292.75
420.057	309.75
420.28	279.75
420.503	295.75
420.726	277.75
420.948	282.75
421.171	295.75
421.394	299.75
421.617	287.75
421.839	296.75
422.062	286.75
422.285	283.75
422.507	280.75
422.73	267.75
422.953	275.75
423.175	284.75
423.398	279.75
423.621	288.75
423.843	289.75
424.066	282.75
424.288	297.75
424.511	293.75
424.733	305.75
424.956	297.75
425.178	278.75
425.401	289.75
425.623	266.75
425.846	291.75
426.068	275.75
426.291	269.75
426.513	284.75
426.735	277.75
426.958	276.75
427.18	277.75
427.402	280.75
427.625	279.75
427.847	251.75
428.069	273.75
428.292	269.75
428.514	262.75
428.736	258.75
428.958	255.75
429.181	277.75
429.403	285.75
429.625	260.75
429.847	270.75
430.069	261.75
430.292	265.75
430.514	275.75
430.736	279.75
430.958	271.75
431.18	265.75
431.402	287.75
431.624	252.75
431.846	256.75
432.068	256.75
432.29	237.75
432.512	247.75
432.734	270.75
432.956	285.75
433.178	267.75
433.4	291.75
433.622	286.75
433.844	279.75
434.066	256.75
434.287	259.75
434.509	255.75
434.731	270.75
434.953	273.75
435.175	259.75
435.397	291.75
435.618	271.75
435.84	261.75
436.062	266.75
436.284	270.75
436.505	237.75
436.727	269.75
436.949	274.75
437.17	271.75
437.392	267.75
437.614	257.75
437.835	252.75
438.057	270.75
438.278	251.75
438.5	257.75
438.721	253.75
438.943	274.75
439.165	281.75
439.386	265.75
439.608	291.75
439.829	295.75
440.05	275.75
440.272	292.75
440.493	273.75
440.715	271.75
440.936	290.75
441.158	290.75
441.379	286.75
441.6	284.75
441.822	293.75
442.043	284.75
442.264	277.75
442.486	272.75
442.707	282.75
442.928	295.75
443.149	269.75
443.371	290.75
443.592	302.75
443.813	299.75
444.034	286.75
444.255	310.75
444.476	315.75
444.698	290.75
444.919	297.75
445.14	558.75
445.361	429.75
445.582	311.75
445.803	279.75
446.024	284.75
446.245	312.75
446.466	296.75
446.687	266.75
446.908	294.75
447.129	297.75
447.35	285.75
447.571	299.75
447.792	263.75
448.013	286.75
448.234	283.75
448.455	289.75
448.675	275.75
448.896	280.75
449.117	270.75
449.338	273.75
449.559	274.75
449.779	268.75
450	265.75
450.221	274.75
450.442	277.75
450.662	259.75
450.883	247.75
451.104	284.75
451.324	263.75
451.545	264.75
451.766	264.75
451.986	258.75
452.207	265.75
452.428	277.75
452.648	278.75
452.869	267.75
453.089	245.75
453.31	267.75
453.53	242.75
453.751	259.75
453.971	256.75
454.192	267.75
454.412	231.75
454.633	245.75
454.853	278.75
455.073	263.75
455.294	244.75
455.514	235.75
455.734	255.75
455.955	246.75
456.175	239.75
456.395	244.75
456.616	217.75
456.836	239.75
457.056	217.75
457.276	227.75
457.497	234.75
457.717	228.75
457.937	240.75
458.157	238.75
458.377	236.75
458.598	236.75
458.818	237.75
459.038	230.75
459.258	246.75
459.478	250.75
459.698	234.75
459.918	253.75
460.138	268.75
460.358	271.75
460.578	264.75
460.798	267.75
461.018	273.75
461.238	272.75
461.458	262.75
461.678	273.75
461.898	272.75
462.118	278.75
462.338	286.75
462.558	301.75
462.777	297.75
462.997	300.75
463.217	322.75
463.437	293.75
463.657	309.75
463.876	304.75
464.096	299.75
464.316	290.75
464.536	307.75
464.755	310.75
464.975	300.75
465.195	283.75
465.414	289.75
465.634	275.75
465.854	287.75
466.073	292.75
466.293	301.75
466.512	345.75
466.732	309.75
466.951	317.75
467.171	303.75
467.391	296.75
467.61	303.75
467.829	269.75
468.049	283.75
468.268	274.75
468.488	265.75
468.707	268.75
468.927	263.75
469.146	287.75
469.365	262.75
469.585	269.75
469.804	264.75
470.023	287.75
470.243	303.75
470.462	281.75
470.681	282.75
470.901	290.75
471.12	291.75
471.339	262.75
471.558	270.75
471.777	271.75
471.997	291.75
472.216	274.75
472.435	246.75
472.654	231.75
472.873	279.75
473.092	267.75
473.311	280.75
473.53	285.75
473.749	311.75
473.968	320.75
474.187	289.75
474.406	296.75
474.625	313.75
474.844	317.75
475.063	299.75
475.282	292.75
475.501	277.75
475.72	282.75
475.939	276.75
476.158	275.75
476.377	263.75
476.596	245.75
476.814	256.75
477.033	267.75
477.252	258.75
477.471	269.75
477.69	289.75
477.908	263.75
478.127	302.75
478.346	296.75
478.564	277.75
478.783	283.75
479.002	288.75
479.22	283.75
479.439	301.75
479.658	275.75
479.876	280.75
480.095	281.75
480.313	288.75
480.532	295.75
480.751	275.75
480.969	270.75
481.188	263.75
481.406	274.75
481.624	257.75
481.843	260.75
482.061	255.75
482.28	256.75
482.498	248.75
482.717	267.75
482.935	277.75
483.153	287.75
483.372	287.75
483.59	296.75
483.808	267.75
484.027	273.75
484.245	297.75
484.463	292.75
484.681	318.75
484.9	308.75
485.118	299.75
485.336	284.75
485.554	283.75
485.772	296.75
485.99	294.75
486.209	287.75
486.427	289.75
486.645	285.75
486.863	314.75
487.081	299.75
487.299	294.75
487.517	310.75
487.735	329.75
487.953	341.75
488.171	325.75
488.389	312.75
488.607	291.75
488.825	302.75
489.043	294.75
489.261	307.75
489.479	307.75
489.696	302.75
489.914	285.75
490.132	293.75
490.35	303.75
490.568	326.75
490.786	338.75
491.003	318.75
491.221	307.75
491.439	302.75
491.657	325.75
491.874	344.75
492.092	331.75
492.31	368.75
492.527	342.75
492.745	321.75
492.963	338.75
493.18	336.75
493.398	323.75
493.615	333.75
493.833	333.75
494.05	331.75
494.268	330.75
494.485	338.75
494.703	314.75
494.92	322.75
495.138	314.75
495.355	321.75
495.573	330.75
495.79	317.75
496.008	314.75
496.225	317.75
496.442	302.75
496.66	321.75
496.877	337.75
497.094	310.75
497.312	312.75
497.529	338.75
497.746	314.75
497.963	312.75
498.181	312.75
498.398	325.75
498.615	348.75
498.832	343.75
499.049	370.75
499.267	380.75
499.484	382.75
499.701	412.75
499.918	454.75
500.135	501.75
500.352	510.75
500.569	499.75
500.786	515.75
501.003	473.75
501.22	437.75
501.437	438.75
501.654	407.75
501.871	379.75
502.088	360.75
502.305	362.75
502.522	339.75
502.739	357.75
502.956	327.75
503.172	325.75
503.389	337.75
