Data from SampC_HRD10591_00029.txt Node
Date: Mon Jan 19 11:37:39 EST 2026
User: Yrep
Spectrometer: HR+D1059
Trigger mode: 0
Integration Time (sec): 3.443000E-1
Scans to average: 1
Electric dark correction enabled: true
Nonlinearity correction enabled: false
Boxcar width: 0
XAxis mode: Wavelengths
Number of Pixels in Spectrum: 2048
>>>>>Begin Spectral Data<<<<<
223.165	-28.75
223.4	-28.75
223.635	-28.75
223.869	-23.75
224.104	-31.75
224.338	-7.75
224.573	-25.75
224.808	-5.75
225.042	4.25
225.277	-20.75
225.511	-1.75
225.746	3.25
225.98	8.25
226.215	11.25
226.449	16.25
226.683	36.25
226.918	27.25
227.152	39.25
227.387	35.25
227.621	31.25
227.856	51.25
228.09	59.25
228.324	44.25
228.559	70.25
228.793	53.25
229.027	63.25
229.262	77.25
229.496	78.25
229.73	81.25
229.964	93.25
230.199	84.25
230.433	88.25
230.667	93.25
230.901	69.25
231.136	85.25
231.37	84.25
231.604	92.25
231.838	110.25
232.072	99.25
232.306	97.25
232.541	87.25
232.775	98.25
233.009	97.25
233.243	88.25
233.477	85.25
233.711	112.25
233.945	92.25
234.179	104.25
234.413	97.25
234.647	86.25
234.881	93.25
235.115	95.25
235.349	106.25
235.583	90.25
235.817	80.25
236.051	95.25
236.285	89.25
236.519	99.25
236.753	95.25
236.987	122.25
237.221	122.25
237.455	143.25
237.689	127.25
237.922	131.25
238.156	112.25
238.39	104.25
238.624	113.25
238.858	96.25
239.091	98.25
239.325	94.25
239.559	93.25
239.793	81.25
240.027	109.25
240.26	92.25
240.494	89.25
240.728	98.25
240.961	100.25
241.195	88.25
241.429	88.25
241.662	101.25
241.896	84.25
242.13	81.25
242.363	86.25
242.597	84.25
242.83	111.25
243.064	78.25
243.298	90.25
243.531	87.25
243.765	95.25
243.998	118.25
244.232	102.25
244.465	110.25
244.699	88.25
244.932	86.25
245.166	82.25
245.399	86.25
245.633	101.25
245.866	90.25
246.099	117.25
246.333	100.25
246.566	97.25
246.8	95.25
247.033	88.25
247.266	95.25
247.5	88.25
247.733	97.25
247.966	110.25
248.2	91.25
248.433	93.25
248.666	105.25
248.899	108.25
249.133	98.25
249.366	123.25
249.599	96.25
249.832	96.25
250.066	113.25
250.299	96.25
250.532	106.25
250.765	101.25
250.998	101.25
251.231	107.25
251.465	105.25
251.698	95.25
251.931	114.25
252.164	102.25
252.397	90.25
252.63	94.25
252.863	109.25
253.096	100.25
253.329	109.25
253.562	107.25
253.795	93.25
254.028	112.25
254.261	110.25
254.494	113.25
254.727	105.25
254.96	107.25
255.193	115.25
255.426	115.25
255.659	98.25
255.892	93.25
256.124	109.25
256.357	120.25
256.59	128.25
256.823	141.25
257.056	163.25
257.289	164.25
257.521	177.25
257.754	182.25
257.987	191.25
258.22	140.25
258.452	122.25
258.685	128.25
258.918	121.25
259.151	109.25
259.383	125.25
259.616	105.25
259.849	121.25
260.081	113.25
260.314	127.25
260.547	102.25
260.779	122.25
261.012	109.25
261.244	119.25
261.477	114.25
261.71	106.25
261.942	117.25
262.175	111.25
262.407	109.25
262.64	112.25
262.872	127.25
263.105	133.25
263.337	148.25
263.57	142.25
263.802	114.25
264.035	118.25
264.267	118.25
264.499	126.25
264.732	130.25
264.964	123.25
265.197	131.25
265.429	145.25
265.661	142.25
265.894	145.25
266.126	166.25
266.358	167.25
266.591	148.25
266.823	134.25
267.055	120.25
267.287	117.25
267.52	115.25
267.752	111.25
267.984	106.25
268.216	129.25
268.448	104.25
268.681	119.25
268.913	115.25
269.145	115.25
269.377	136.25
269.609	112.25
269.841	118.25
270.073	119.25
270.306	125.25
270.538	119.25
270.77	111.25
271.002	108.25
271.234	114.25
271.466	114.25
271.698	127.25
271.93	113.25
272.162	105.25
272.394	122.25
272.626	126.25
272.858	104.25
273.09	103.25
273.322	123.25
273.553	117.25
273.785	110.25
274.017	114.25
274.249	123.25
274.481	134.25
274.713	127.25
274.945	132.25
275.176	110.25
275.408	122.25
275.64	114.25
275.872	119.25
276.104	130.25
276.335	127.25
276.567	116.25
276.799	112.25
277.031	123.25
277.262	131.25
277.494	152.25
277.726	146.25
277.957	160.25
278.189	179.25
278.421	163.25
278.652	175.25
278.884	195.25
279.115	238.25
279.347	306.25
279.579	392.25
279.81	474.25
280.042	387.25
280.273	340.25
280.505	325.25
280.736	226.25
280.968	191.25
281.199	172.25
281.431	187.25
281.662	229.25
281.894	232.25
282.125	218.25
282.356	185.25
282.588	164.25
282.819	170.25
283.051	149.25
283.282	154.25
283.513	146.25
283.745	149.25
283.976	133.25
284.207	135.25
284.439	132.25
284.67	152.25
284.901	183.25
285.132	203.25
285.364	234.25
285.595	218.25
285.826	139.25
286.057	148.25
286.288	133.25
286.52	134.25
286.751	128.25
286.982	128.25
287.213	153.25
287.444	138.25
287.675	128.25
287.906	143.25
288.138	148.25
288.369	156.25
288.6	141.25
288.831	136.25
289.062	151.25
289.293	132.25
289.524	127.25
289.755	139.25
289.986	140.25
290.217	140.25
290.448	136.25
290.679	132.25
290.91	144.25
291.141	126.25
291.371	143.25
291.602	138.25
291.833	140.25
292.064	142.25
292.295	143.25
292.526	136.25
292.757	146.25
292.987	154.25
293.218	155.25
293.449	160.25
293.68	165.25
293.91	168.25
294.141	171.25
294.372	160.25
294.603	147.25
294.833	146.25
295.064	130.25
295.295	140.25
295.525	156.25
295.756	151.25
295.987	138.25
296.217	142.25
296.448	133.25
296.679	129.25
296.909	143.25
297.14	132.25
297.37	138.25
297.601	128.25
297.831	146.25
298.062	139.25
298.292	132.25
298.523	136.25
298.753	142.25
298.984	137.25
299.214	125.25
299.445	148.25
299.675	150.25
299.905	141.25
300.136	126.25
300.366	131.25
300.597	144.25
300.827	157.25
301.057	144.25
301.288	153.25
301.518	147.25
301.748	125.25
301.979	193.25
302.209	149.25
302.439	167.25
302.669	167.25
302.9	169.25
303.13	164.25
303.36	162.25
303.59	187.25
303.82	177.25
304.051	185.25
304.281	169.25
304.511	186.25
304.741	192.25
304.971	214.25
305.201	254.25
305.431	265.25
305.661	294.25
305.891	315.25
306.121	297.25
306.352	267.25
306.582	257.25
306.812	263.25
307.042	249.25
307.272	258.25
307.502	275.25
307.731	357.25
307.961	479.25
308.191	615.25
308.421	747.25
308.651	633.25
308.881	584.25
309.111	716.25
309.341	875.25
309.571	827.25
309.8	560.25
310.03	394.25
310.26	318.25
310.49	252.25
310.72	248.25
310.949	212.25
311.179	208.25
311.409	213.25
311.639	181.25
311.868	196.25
312.098	189.25
312.328	192.25
312.557	178.25
312.787	174.25
313.017	169.25
313.246	180.25
313.476	168.25
313.706	157.25
313.935	155.25
314.165	146.25
314.394	162.25
314.624	169.25
314.853	160.25
315.083	157.25
315.312	167.25
315.542	160.25
315.771	167.25
316.001	170.25
316.23	157.25
316.46	160.25
316.689	175.25
316.919	166.25
317.148	147.25
317.377	161.25
317.607	164.25
317.836	162.25
318.065	168.25
318.295	160.25
318.524	162.25
318.753	151.25
318.983	152.25
319.212	157.25
319.441	154.25
319.67	149.25
319.9	141.25
320.129	145.25
320.358	146.25
320.587	152.25
320.816	145.25
321.046	151.25
321.275	143.25
321.504	153.25
321.733	160.25
321.962	149.25
322.191	157.25
322.42	144.25
322.649	152.25
322.878	172.25
323.108	152.25
323.337	160.25
323.566	153.25
323.795	148.25
324.024	170.25
324.253	170.25
324.482	150.25
324.71	176.25
324.939	174.25
325.168	156.25
325.397	153.25
325.626	159.25
325.855	151.25
326.084	142.25
326.313	155.25
326.542	141.25
326.77	176.25
326.999	144.25
327.228	158.25
327.457	160.25
327.686	148.25
327.914	155.25
328.143	161.25
328.372	169.25
328.6	157.25
328.829	154.25
329.058	171.25
329.287	145.25
329.515	146.25
329.744	175.25
329.972	133.25
330.201	160.25
330.43	172.25
330.658	158.25
330.887	155.25
331.115	165.25
331.344	156.25
331.572	156.25
331.801	163.25
332.03	170.25
332.258	174.25
332.486	176.25
332.715	175.25
332.943	166.25
333.172	168.25
333.4	172.25
333.629	178.25
333.857	171.25
334.085	168.25
334.314	180.25
334.542	181.25
334.771	176.25
334.999	177.25
335.227	166.25
335.455	160.25
335.684	163.25
335.912	154.25
336.14	170.25
336.369	163.25
336.597	167.25
336.825	157.25
337.053	162.25
337.281	166.25
337.51	168.25
337.738	184.25
337.966	169.25
338.194	166.25
338.422	158.25
338.65	165.25
338.878	164.25
339.106	167.25
339.334	156.25
339.562	155.25
339.79	144.25
340.018	157.25
340.246	165.25
340.474	171.25
340.702	177.25
340.93	146.25
341.158	154.25
341.386	148.25
341.614	170.25
341.842	168.25
342.07	162.25
342.298	178.25
342.526	163.25
342.754	153.25
342.981	156.25
343.209	156.25
343.437	195.25
343.665	166.25
343.893	189.25
344.12	180.25
344.348	161.25
344.576	162.25
344.804	159.25
345.031	155.25
345.259	175.25
345.487	162.25
345.714	169.25
345.942	169.25
346.17	176.25
346.397	156.25
346.625	168.25
346.853	169.25
347.08	153.25
347.308	170.25
347.535	166.25
347.763	174.25
347.99	178.25
348.218	172.25
348.445	159.25
348.673	153.25
348.9	160.25
349.128	168.25
349.355	149.25
349.583	157.25
349.81	160.25
350.037	161.25
350.265	161.25
350.492	144.25
350.72	145.25
350.947	173.25
351.174	155.25
351.402	167.25
351.629	160.25
351.856	171.25
352.083	169.25
352.311	174.25
352.538	178.25
352.765	157.25
352.992	162.25
353.22	181.25
353.447	165.25
353.674	173.25
353.901	184.25
354.128	184.25
354.355	167.25
354.583	163.25
354.81	176.25
355.037	184.25
355.264	171.25
355.491	183.25
355.718	168.25
355.945	207.25
356.172	193.25
356.399	192.25
356.626	196.25
356.853	210.25
357.08	212.25
357.307	221.25
357.534	226.25
357.761	264.25
357.988	266.25
358.215	303.25
358.441	321.25
358.668	347.25
358.895	341.25
359.122	302.25
359.349	266.25
359.576	240.25
359.802	216.25
360.029	228.25
360.256	214.25
360.483	210.25
360.709	189.25
360.936	224.25
361.163	224.25
361.39	187.25
361.616	204.25
361.843	194.25
362.07	183.25
362.296	201.25
362.523	180.25
362.749	188.25
362.976	178.25
363.203	195.25
363.429	184.25
363.656	170.25
363.882	172.25
364.109	169.25
364.335	196.25
364.562	166.25
364.788	170.25
365.015	189.25
365.241	163.25
365.468	179.25
365.694	170.25
365.92	162.25
366.147	171.25
366.373	164.25
366.599	169.25
366.826	162.25
367.052	170.25
367.278	165.25
367.505	165.25
367.731	173.25
367.957	183.25
368.184	177.25
368.41	187.25
368.636	168.25
368.862	165.25
369.089	174.25
369.315	175.25
369.541	174.25
369.767	167.25
369.993	163.25
370.219	172.25
370.445	169.25
370.672	170.25
370.898	165.25
371.124	179.25
371.35	187.25
371.576	193.25
371.802	172.25
372.028	161.25
372.254	174.25
372.48	163.25
372.706	176.25
372.932	173.25
373.158	176.25
373.384	206.25
373.61	189.25
373.835	181.25
374.061	172.25
374.287	186.25
374.513	193.25
374.739	184.25
374.965	196.25
375.191	174.25
375.416	174.25
375.642	188.25
375.868	206.25
376.094	185.25
376.319	162.25
376.545	172.25
376.771	185.25
376.997	184.25
377.222	173.25
377.448	163.25
377.674	179.25
377.899	162.25
378.125	173.25
378.35	176.25
378.576	166.25
378.802	164.25
379.027	172.25
379.253	185.25
379.478	175.25
379.704	184.25
379.929	174.25
380.155	175.25
380.38	191.25
380.606	176.25
380.831	179.25
381.057	189.25
381.282	183.25
381.507	181.25
381.733	197.25
381.958	205.25
382.184	173.25
382.409	205.25
382.634	220.25
382.86	246.25
383.085	273.25
383.31	300.25
383.535	326.25
383.761	315.25
383.986	314.25
384.211	241.25
384.436	212.25
384.662	190.25
384.887	192.25
385.112	194.25
385.337	216.25
385.562	203.25
385.787	195.25
386.013	209.25
386.238	200.25
386.463	209.25
386.688	232.25
386.913	197.25
387.138	211.25
387.363	182.25
387.588	219.25
387.813	207.25
388.038	188.25
388.263	198.25
388.488	199.25
388.713	192.25
388.938	184.25
389.163	196.25
389.387	198.25
389.612	204.25
389.837	193.25
390.062	204.25
390.287	204.25
390.512	210.25
390.736	188.25
390.961	197.25
391.186	220.25
391.411	215.25
391.636	214.25
391.86	221.25
392.085	214.25
392.31	238.25
392.534	226.25
392.759	258.25
392.984	313.25
393.208	376.25
393.433	497.25
393.658	453.25
393.882	443.25
394.107	650.25
394.331	1054.25
394.556	1364.25
394.78	957.25
395.005	574.25
395.229	461.25
395.454	468.25
395.678	576.25
395.903	926.25
396.127	1526.25
396.352	1739.25
396.576	1139.25
396.801	747.25
397.025	599.25
397.249	429.25
397.474	358.25
397.698	323.25
397.922	299.25
398.147	288.25
398.371	268.25
398.595	256.25
398.82	270.25
399.044	240.25
399.268	261.25
399.492	272.25
399.717	284.25
399.941	271.25
400.165	265.25
400.389	243.25
400.613	242.25
400.837	238.25
401.062	236.25
401.286	227.25
401.51	226.25
401.734	224.25
401.958	216.25
402.182	221.25
402.406	225.25
402.63	236.25
402.854	228.25
403.078	227.25
403.302	215.25
403.526	222.25
403.75	219.25
403.974	229.25
404.198	228.25
404.422	215.25
404.645	228.25
404.869	224.25
405.093	245.25
405.317	226.25
405.541	227.25
405.765	217.25
405.988	228.25
406.212	228.25
406.436	225.25
406.66	248.25
406.883	245.25
407.107	236.25
407.331	236.25
407.555	226.25
407.778	243.25
408.002	241.25
408.226	229.25
408.449	241.25
408.673	216.25
408.896	224.25
409.12	212.25
409.344	235.25
409.567	242.25
409.791	223.25
410.014	225.25
410.238	213.25
410.461	218.25
410.685	195.25
410.908	228.25
411.132	222.25
411.355	214.25
411.578	233.25
411.802	219.25
412.025	225.25
412.249	224.25
412.472	204.25
412.695	226.25
412.919	228.25
413.142	217.25
413.365	229.25
413.589	224.25
413.812	206.25
414.035	233.25
414.258	225.25
414.482	218.25
414.705	223.25
414.928	210.25
415.151	204.25
415.374	223.25
415.597	213.25
415.821	211.25
416.044	212.25
416.267	236.25
416.49	219.25
416.713	213.25
416.936	229.25
417.159	226.25
417.382	214.25
417.605	216.25
417.828	227.25
418.051	231.25
418.274	212.25
418.497	220.25
418.72	214.25
418.943	227.25
419.166	206.25
419.389	232.25
419.611	221.25
419.834	229.25
420.057	224.25
420.28	206.25
420.503	224.25
420.726	225.25
420.948	234.25
421.171	217.25
421.394	203.25
421.617	210.25
421.839	216.25
422.062	231.25
422.285	228.25
422.507	248.25
422.73	275.25
422.953	250.25
423.175	227.25
423.398	225.25
423.621	224.25
423.843	210.25
424.066	222.25
424.288	233.25
424.511	227.25
424.733	240.25
424.956	245.25
425.178	228.25
425.401	228.25
425.623	214.25
425.846	217.25
426.068	217.25
426.291	205.25
426.513	222.25
426.735	227.25
426.958	237.25
427.18	213.25
427.402	202.25
427.625	208.25
427.847	196.25
428.069	192.25
428.292	204.25
428.514	200.25
428.736	217.25
428.958	201.25
429.181	225.25
429.403	205.25
429.625	212.25
429.847	214.25
430.069	209.25
430.292	225.25
430.514	224.25
430.736	210.25
430.958	219.25
431.18	208.25
431.402	193.25
431.624	196.25
431.846	206.25
432.068	202.25
432.29	203.25
432.512	218.25
432.734	221.25
432.956	206.25
433.178	213.25
433.4	213.25
433.622	209.25
433.844	219.25
434.066	195.25
434.287	203.25
434.509	197.25
434.731	188.25
434.953	212.25
435.175	217.25
435.397	218.25
435.618	192.25
435.84	200.25
436.062	199.25
436.284	216.25
436.505	224.25
436.727	216.25
436.949	217.25
437.17	238.25
437.392	211.25
437.614	204.25
437.835	178.25
438.057	192.25
438.278	200.25
438.5	235.25
438.721	228.25
438.943	220.25
439.165	234.25
439.386	197.25
439.608	230.25
439.829	222.25
440.05	230.25
440.272	231.25
440.493	216.25
440.715	212.25
440.936	224.25
441.158	227.25
441.379	240.25
441.6	237.25
441.822	230.25
442.043	221.25
442.264	237.25
442.486	230.25
442.707	223.25
442.928	216.25
443.149	242.25
443.371	226.25
443.592	217.25
443.813	239.25
444.034	213.25
444.255	220.25
444.476	227.25
444.698	235.25
444.919	229.25
445.14	505.25
445.361	348.25
445.582	240.25
445.803	247.25
446.024	240.25
446.245	248.25
446.466	225.25
446.687	227.25
446.908	241.25
447.129	243.25
447.35	234.25
447.571	228.25
447.792	216.25
448.013	225.25
448.234	221.25
448.455	244.25
448.675	241.25
448.896	233.25
449.117	228.25
449.338	204.25
449.559	224.25
449.779	222.25
450	213.25
450.221	216.25
450.442	227.25
450.662	224.25
450.883	219.25
451.104	215.25
451.324	214.25
451.545	205.25
451.766	207.25
451.986	205.25
452.207	206.25
452.428	204.25
452.648	219.25
452.869	217.25
453.089	221.25
453.31	208.25
453.53	200.25
453.751	202.25
453.971	202.25
454.192	210.25
454.412	212.25
454.633	200.25
454.853	192.25
455.073	206.25
455.294	212.25
455.514	206.25
455.734	210.25
455.955	207.25
456.175	192.25
456.395	208.25
456.616	196.25
456.836	194.25
457.056	197.25
457.276	179.25
457.497	185.25
457.717	180.25
457.937	210.25
458.157	191.25
458.377	186.25
458.598	195.25
458.818	182.25
459.038	194.25
459.258	194.25
459.478	188.25
459.698	185.25
459.918	198.25
460.138	213.25
460.358	203.25
460.578	215.25
460.798	216.25
461.018	230.25
461.238	221.25
461.458	229.25
461.678	215.25
461.898	229.25
462.118	216.25
462.338	210.25
462.558	220.25
462.777	226.25
462.997	228.25
463.217	244.25
463.437	222.25
463.657	215.25
463.876	228.25
464.096	224.25
464.316	223.25
464.536	224.25
464.755	228.25
464.975	226.25
465.195	229.25
465.414	223.25
465.634	229.25
465.854	218.25
466.073	216.25
466.293	252.25
466.512	237.25
466.732	227.25
466.951	227.25
467.171	248.25
467.391	237.25
467.61	240.25
467.829	241.25
468.049	222.25
468.268	214.25
468.488	211.25
468.707	216.25
468.927	218.25
469.146	209.25
469.365	210.25
469.585	233.25
469.804	236.25
470.023	233.25
470.243	234.25
470.462	228.25
470.681	236.25
470.901	205.25
471.12	226.25
471.339	230.25
471.558	213.25
471.777	223.25
471.997	227.25
472.216	203.25
472.435	208.25
472.654	214.25
472.873	215.25
473.092	230.25
473.311	230.25
473.53	222.25
473.749	238.25
473.968	256.25
474.187	240.25
474.406	242.25
474.625	247.25
474.844	242.25
475.063	245.25
475.282	239.25
475.501	224.25
475.72	231.25
475.939	235.25
476.158	222.25
476.377	223.25
476.596	207.25
476.814	212.25
477.033	213.25
477.252	208.25
477.471	226.25
477.69	221.25
477.908	236.25
478.127	221.25
478.346	227.25
478.564	222.25
478.783	237.25
479.002	230.25
479.22	216.25
479.439	240.25
479.658	223.25
479.876	196.25
480.095	194.25
480.313	218.25
480.532	230.25
480.751	214.25
480.969	209.25
481.188	212.25
481.406	227.25
481.624	206.25
481.843	202.25
482.061	210.25
482.28	209.25
482.498	223.25
482.717	206.25
482.935	206.25
483.153	228.25
483.372	234.25
483.59	222.25
483.808	218.25
484.027	218.25
484.245	248.25
484.463	244.25
484.681	268.25
484.9	251.25
485.118	264.25
485.336	234.25
485.554	224.25
485.772	233.25
485.99	238.25
486.209	233.25
486.427	234.25
486.645	235.25
486.863	248.25
487.081	246.25
487.299	258.25
487.517	264.25
487.735	272.25
487.953	273.25
488.171	267.25
488.389	280.25
488.607	238.25
488.825	246.25
489.043	233.25
489.261	244.25
489.479	238.25
489.696	231.25
489.914	250.25
490.132	238.25
490.35	248.25
490.568	242.25
490.786	256.25
491.003	243.25
491.221	243.25
491.439	265.25
491.657	264.25
491.874	266.25
492.092	270.25
492.31	303.25
492.527	274.25
492.745	291.25
492.963	261.25
493.18	261.25
493.398	254.25
493.615	267.25
493.833	250.25
494.05	252.25
494.268	250.25
494.485	268.25
494.703	248.25
494.92	256.25
495.138	267.25
495.355	268.25
495.573	269.25
495.79	265.25
496.008	253.25
496.225	261.25
496.442	262.25
496.66	275.25
496.877	267.25
497.094	269.25
497.312	257.25
497.529	265.25
497.746	244.25
497.963	251.25
498.181	249.25
498.398	267.25
498.615	259.25
498.832	268.25
499.049	273.25
499.267	291.25
499.484	296.25
499.701	314.25
499.918	319.25
500.135	334.25
500.352	365.25
500.569	351.25
500.786	362.25
501.003	354.25
501.22	326.25
501.437	313.25
501.654	291.25
501.871	275.25
502.088	270.25
502.305	277.25
502.522	281.25
502.739	276.25
502.956	258.25
503.172	229.25
503.389	248.25
503.606	259.25
