Data from SampC_HRD10591_00047.txt Node
Date: Mon Jan 19 11:37:45 EST 2026
User: Yrep
Spectrometer: HR+D1059
Trigger mode: 0
Integration Time (sec): 3.443000E-1
Scans to average: 1
Electric dark correction enabled: true
Nonlinearity correction enabled: false
Boxcar width: 0
XAxis mode: Wavelengths
Number of Pixels in Spectrum: 2048
>>>>>Begin Spectral Data<<<<<
223.165	-16.19
223.4	-16.19
223.635	-16.19
223.869	-27.19
224.104	-30.19
224.338	-21.19
224.573	-11.19
224.808	-7.19
225.042	-5.19
225.277	0.81
225.511	9.81
225.746	3.81
225.98	5.81
226.215	6.81
226.449	-0.19
226.683	21.81
226.918	26.81
227.152	42.81
227.387	42.81
227.621	41.81
227.856	49.81
228.09	52.81
228.324	44.81
228.559	54.81
228.793	72.81
229.027	75.81
229.262	65.81
229.496	93.81
229.73	76.81
229.964	82.81
230.199	78.81
230.433	73.81
230.667	87.81
230.901	87.81
231.136	107.81
231.37	99.81
231.604	91.81
231.838	92.81
232.072	94.81
232.306	95.81
232.541	85.81
232.775	110.81
233.009	101.81
233.243	80.81
233.477	99.81
233.711	94.81
233.945	101.81
234.179	94.81
234.413	84.81
234.647	90.81
234.881	92.81
235.115	97.81
235.349	95.81
235.583	107.81
235.817	109.81
236.051	97.81
236.285	101.81
236.519	102.81
236.753	106.81
236.987	139.81
237.221	158.81
237.455	152.81
237.689	157.81
237.922	122.81
238.156	123.81
238.39	102.81
238.624	96.81
238.858	114.81
239.091	97.81
239.325	125.81
239.559	100.81
239.793	97.81
240.027	105.81
240.26	109.81
240.494	117.81
240.728	99.81
240.961	94.81
241.195	90.81
241.429	88.81
241.662	94.81
241.896	90.81
242.13	82.81
242.363	93.81
242.597	92.81
242.83	91.81
243.064	89.81
243.298	100.81
243.531	96.81
243.765	120.81
243.998	98.81
244.232	96.81
244.465	82.81
244.699	85.81
244.932	112.81
245.166	96.81
245.399	99.81
245.633	106.81
245.866	99.81
246.099	88.81
246.333	105.81
246.566	104.81
246.8	97.81
247.033	93.81
247.266	89.81
247.5	99.81
247.733	102.81
247.966	91.81
248.2	101.81
248.433	97.81
248.666	93.81
248.899	100.81
249.133	101.81
249.366	115.81
249.599	110.81
249.832	95.81
250.066	116.81
250.299	105.81
250.532	91.81
250.765	98.81
250.998	99.81
251.231	101.81
251.465	99.81
251.698	115.81
251.931	120.81
252.164	111.81
252.397	112.81
252.63	101.81
252.863	93.81
253.096	97.81
253.329	121.81
253.562	101.81
253.795	115.81
254.028	105.81
254.261	96.81
254.494	106.81
254.727	105.81
254.96	126.81
255.193	107.81
255.426	116.81
255.659	111.81
255.892	119.81
256.124	118.81
256.357	116.81
256.59	154.81
256.823	158.81
257.056	180.81
257.289	182.81
257.521	186.81
257.754	194.81
257.987	186.81
258.22	177.81
258.452	116.81
258.685	144.81
258.918	113.81
259.151	121.81
259.383	115.81
259.616	113.81
259.849	107.81
260.081	120.81
260.314	108.81
260.547	121.81
260.779	116.81
261.012	129.81
261.244	127.81
261.477	136.81
261.71	120.81
261.942	124.81
262.175	121.81
262.407	114.81
262.64	112.81
262.872	134.81
263.105	132.81
263.337	152.81
263.57	146.81
263.802	152.81
264.035	147.81
264.267	131.81
264.499	134.81
264.732	150.81
264.964	149.81
265.197	136.81
265.429	144.81
265.661	166.81
265.894	156.81
266.126	186.81
266.358	188.81
266.591	158.81
266.823	129.81
267.055	122.81
267.287	118.81
267.52	136.81
267.752	119.81
267.984	110.81
268.216	134.81
268.448	139.81
268.681	138.81
268.913	128.81
269.145	122.81
269.377	149.81
269.609	128.81
269.841	125.81
270.073	123.81
270.306	121.81
270.538	122.81
270.77	114.81
271.002	120.81
271.234	116.81
271.466	145.81
271.698	115.81
271.93	122.81
272.162	126.81
272.394	124.81
272.626	134.81
272.858	124.81
273.09	132.81
273.322	144.81
273.553	120.81
273.785	130.81
274.017	157.81
274.249	117.81
274.481	141.81
274.713	115.81
274.945	149.81
275.176	132.81
275.408	155.81
275.64	138.81
275.872	140.81
276.104	140.81
276.335	152.81
276.567	133.81
276.799	142.81
277.031	130.81
277.262	136.81
277.494	138.81
277.726	157.81
277.957	161.81
278.189	164.81
278.421	162.81
278.652	159.81
278.884	172.81
279.115	199.81
279.347	286.81
279.579	382.81
279.81	414.81
280.042	347.81
280.273	322.81
280.505	317.81
280.736	234.81
280.968	172.81
281.199	182.81
281.431	216.81
281.662	280.81
281.894	269.81
282.125	237.81
282.356	186.81
282.588	178.81
282.819	174.81
283.051	153.81
283.282	150.81
283.513	158.81
283.745	156.81
283.976	152.81
284.207	154.81
284.439	166.81
284.67	153.81
284.901	164.81
285.132	177.81
285.364	200.81
285.595	170.81
285.826	148.81
286.057	152.81
286.288	133.81
286.52	138.81
286.751	152.81
286.982	138.81
287.213	149.81
287.444	150.81
287.675	134.81
287.906	144.81
288.138	150.81
288.369	146.81
288.6	155.81
288.831	136.81
289.062	156.81
289.293	138.81
289.524	146.81
289.755	142.81
289.986	162.81
290.217	149.81
290.448	128.81
290.679	147.81
290.91	142.81
291.141	135.81
291.371	157.81
291.602	168.81
291.833	150.81
292.064	153.81
292.295	150.81
292.526	156.81
292.757	158.81
292.987	165.81
293.218	153.81
293.449	166.81
293.68	172.81
293.91	172.81
294.141	168.81
294.372	141.81
294.603	144.81
294.833	132.81
295.064	134.81
295.295	134.81
295.525	152.81
295.756	138.81
295.987	143.81
296.217	140.81
296.448	137.81
296.679	152.81
296.909	132.81
297.14	165.81
297.37	161.81
297.601	147.81
297.831	136.81
298.062	152.81
298.292	151.81
298.523	152.81
298.753	176.81
298.984	149.81
299.214	160.81
299.445	144.81
299.675	163.81
299.905	171.81
300.136	161.81
300.366	156.81
300.597	141.81
300.827	146.81
301.057	160.81
301.288	149.81
301.518	166.81
301.748	165.81
301.979	210.81
302.209	184.81
302.439	174.81
302.669	185.81
302.9	180.81
303.13	176.81
303.36	198.81
303.59	181.81
303.82	196.81
304.051	190.81
304.281	211.81
304.511	187.81
304.741	224.81
304.971	232.81
305.201	266.81
305.431	318.81
305.661	357.81
305.891	360.81
306.121	333.81
306.352	314.81
306.582	325.81
306.812	310.81
307.042	297.81
307.272	280.81
307.502	301.81
307.731	410.81
307.961	556.81
308.191	778.81
308.421	878.81
308.651	764.81
308.881	715.81
309.111	840.81
309.341	1077.81
309.571	1004.81
309.8	660.81
310.03	456.81
310.26	351.81
310.49	287.81
310.72	271.81
310.949	237.81
311.179	232.81
311.409	233.81
311.639	218.81
311.868	223.81
312.098	195.81
312.328	194.81
312.557	183.81
312.787	203.81
313.017	196.81
313.246	176.81
313.476	184.81
313.706	184.81
313.935	177.81
314.165	180.81
314.394	197.81
314.624	165.81
314.853	181.81
315.083	180.81
315.312	181.81
315.542	173.81
315.771	161.81
316.001	177.81
316.23	162.81
316.46	166.81
316.689	178.81
316.919	172.81
317.148	174.81
317.377	172.81
317.607	166.81
317.836	180.81
318.065	171.81
318.295	159.81
318.524	164.81
318.753	170.81
318.983	165.81
319.212	175.81
319.441	163.81
319.67	169.81
319.9	165.81
320.129	169.81
320.358	149.81
320.587	162.81
320.816	170.81
321.046	161.81
321.275	164.81
321.504	189.81
321.733	173.81
321.962	166.81
322.191	168.81
322.42	170.81
322.649	171.81
322.878	178.81
323.108	178.81
323.337	172.81
323.566	178.81
323.795	171.81
324.024	163.81
324.253	190.81
324.482	181.81
324.71	179.81
324.939	167.81
325.168	163.81
325.397	170.81
325.626	163.81
325.855	163.81
326.084	170.81
326.313	163.81
326.542	169.81
326.77	178.81
326.999	178.81
327.228	174.81
327.457	180.81
327.686	196.81
327.914	165.81
328.143	186.81
328.372	167.81
328.6	165.81
328.829	179.81
329.058	165.81
329.287	171.81
329.515	178.81
329.744	179.81
329.972	192.81
330.201	169.81
330.43	161.81
330.658	169.81
330.887	172.81
331.115	170.81
331.344	178.81
331.572	190.81
331.801	170.81
332.03	191.81
332.258	203.81
332.486	189.81
332.715	174.81
332.943	178.81
333.172	181.81
333.4	175.81
333.629	210.81
333.857	206.81
334.085	195.81
334.314	177.81
334.542	181.81
334.771	190.81
334.999	177.81
335.227	183.81
335.455	198.81
335.684	186.81
335.912	183.81
336.14	173.81
336.369	170.81
336.597	185.81
336.825	193.81
337.053	183.81
337.281	179.81
337.51	185.81
337.738	178.81
337.966	178.81
338.194	180.81
338.422	177.81
338.65	184.81
338.878	169.81
339.106	176.81
339.334	178.81
339.562	191.81
339.79	165.81
340.018	165.81
340.246	173.81
340.474	165.81
340.702	173.81
340.93	174.81
341.158	172.81
341.386	179.81
341.614	188.81
341.842	164.81
342.07	177.81
342.298	169.81
342.526	197.81
342.754	186.81
342.981	162.81
343.209	175.81
343.437	216.81
343.665	181.81
343.893	192.81
344.12	209.81
344.348	180.81
344.576	191.81
344.804	178.81
345.031	172.81
345.259	191.81
345.487	176.81
345.714	170.81
345.942	179.81
346.17	180.81
346.397	168.81
346.625	182.81
346.853	187.81
347.08	167.81
347.308	182.81
347.535	174.81
347.763	177.81
347.99	190.81
348.218	178.81
348.445	171.81
348.673	146.81
348.9	163.81
349.128	184.81
349.355	164.81
349.583	174.81
349.81	181.81
350.037	195.81
350.265	190.81
350.492	195.81
350.72	186.81
350.947	181.81
351.174	180.81
351.402	192.81
351.629	181.81
351.856	195.81
352.083	185.81
352.311	171.81
352.538	182.81
352.765	178.81
352.992	199.81
353.22	206.81
353.447	185.81
353.674	200.81
353.901	197.81
354.128	192.81
354.355	192.81
354.583	185.81
354.81	186.81
355.037	203.81
355.264	210.81
355.491	222.81
355.718	202.81
355.945	227.81
356.172	206.81
356.399	219.81
356.626	221.81
356.853	231.81
357.08	261.81
357.307	270.81
357.534	272.81
357.761	298.81
357.988	322.81
358.215	395.81
358.441	389.81
358.668	423.81
358.895	442.81
359.122	373.81
359.349	319.81
359.576	310.81
359.802	284.81
360.029	276.81
360.256	264.81
360.483	236.81
360.709	230.81
360.936	236.81
361.163	228.81
361.39	224.81
361.616	226.81
361.843	218.81
362.07	237.81
362.296	226.81
362.523	205.81
362.749	212.81
362.976	206.81
363.203	214.81
363.429	192.81
363.656	203.81
363.882	194.81
364.109	201.81
364.335	215.81
364.562	196.81
364.788	200.81
365.015	205.81
365.241	193.81
365.468	195.81
365.694	195.81
365.92	202.81
366.147	202.81
366.373	202.81
366.599	189.81
366.826	194.81
367.052	188.81
367.278	176.81
367.505	174.81
367.731	204.81
367.957	201.81
368.184	189.81
368.41	182.81
368.636	186.81
368.862	187.81
369.089	192.81
369.315	192.81
369.541	205.81
369.767	181.81
369.993	184.81
370.219	180.81
370.445	176.81
370.672	192.81
370.898	180.81
371.124	195.81
371.35	202.81
371.576	189.81
371.802	195.81
372.028	189.81
372.254	217.81
372.48	182.81
372.706	210.81
372.932	188.81
373.158	188.81
373.384	198.81
373.61	216.81
373.835	208.81
374.061	195.81
374.287	205.81
374.513	184.81
374.739	208.81
374.965	193.81
375.191	206.81
375.416	208.81
375.642	193.81
375.868	212.81
376.094	200.81
376.319	209.81
376.545	190.81
376.771	197.81
376.997	192.81
377.222	194.81
377.448	212.81
377.674	192.81
377.899	200.81
378.125	192.81
378.35	182.81
378.576	187.81
378.802	188.81
379.027	173.81
379.253	211.81
379.478	199.81
379.704	195.81
379.929	195.81
380.155	177.81
380.38	196.81
380.606	192.81
380.831	198.81
381.057	226.81
381.282	193.81
381.507	192.81
381.733	210.81
381.958	193.81
382.184	214.81
382.409	227.81
382.634	222.81
382.86	227.81
383.085	237.81
383.31	252.81
383.535	257.81
383.761	266.81
383.986	263.81
384.211	227.81
384.436	206.81
384.662	193.81
384.887	210.81
385.112	198.81
385.337	221.81
385.562	216.81
385.787	220.81
386.013	215.81
386.238	208.81
386.463	222.81
386.688	259.81
386.913	231.81
387.138	211.81
387.363	195.81
387.588	240.81
387.813	235.81
388.038	231.81
388.263	222.81
388.488	215.81
388.713	226.81
388.938	210.81
389.163	222.81
389.387	226.81
389.612	216.81
389.837	209.81
390.062	218.81
390.287	231.81
390.512	228.81
390.736	244.81
390.961	233.81
391.186	221.81
391.411	225.81
391.636	236.81
391.86	235.81
392.085	239.81
392.31	242.81
392.534	252.81
392.759	267.81
392.984	271.81
393.208	288.81
393.433	324.81
393.658	333.81
393.882	444.81
394.107	698.81
394.331	1244.81
394.556	1594.81
394.78	1075.81
395.005	645.81
395.229	531.81
395.454	511.81
395.678	666.81
395.903	1048.81
396.127	1728.81
396.352	2028.81
396.576	1215.81
396.801	720.81
397.025	511.81
397.249	426.81
397.474	392.81
397.698	333.81
397.922	322.81
398.147	326.81
398.371	304.81
398.595	304.81
398.82	289.81
399.044	276.81
399.268	307.81
399.492	316.81
399.717	312.81
399.941	298.81
400.165	281.81
400.389	272.81
400.613	250.81
400.837	256.81
401.062	250.81
401.286	256.81
401.51	235.81
401.734	270.81
401.958	251.81
402.182	244.81
402.406	252.81
402.63	230.81
402.854	258.81
403.078	258.81
403.302	262.81
403.526	253.81
403.75	257.81
403.974	250.81
404.198	260.81
404.422	262.81
404.645	254.81
404.869	241.81
405.093	258.81
405.317	253.81
405.541	268.81
405.765	245.81
405.988	248.81
406.212	239.81
406.436	250.81
406.66	264.81
406.883	234.81
407.107	251.81
407.331	256.81
407.555	276.81
407.778	286.81
408.002	258.81
408.226	257.81
408.449	257.81
408.673	253.81
408.896	252.81
409.12	249.81
409.344	255.81
409.567	230.81
409.791	256.81
410.014	259.81
410.238	240.81
410.461	260.81
410.685	253.81
410.908	259.81
411.132	276.81
411.355	246.81
411.578	244.81
411.802	251.81
412.025	259.81
412.249	272.81
412.472	260.81
412.695	236.81
412.919	248.81
413.142	256.81
413.365	254.81
413.589	261.81
413.812	219.81
414.035	254.81
414.258	227.81
414.482	238.81
414.705	251.81
414.928	264.81
415.151	238.81
415.374	253.81
415.597	254.81
415.821	248.81
416.044	249.81
416.267	241.81
416.49	236.81
416.713	249.81
416.936	246.81
417.159	254.81
417.382	233.81
417.605	239.81
417.828	233.81
418.051	257.81
418.274	240.81
418.497	257.81
418.72	241.81
418.943	246.81
419.166	245.81
419.389	247.81
419.611	257.81
419.834	245.81
420.057	270.81
420.28	245.81
420.503	242.81
420.726	243.81
420.948	252.81
421.171	243.81
421.394	237.81
421.617	259.81
421.839	232.81
422.062	239.81
422.285	232.81
422.507	246.81
422.73	235.81
422.953	244.81
423.175	247.81
423.398	250.81
423.621	244.81
423.843	257.81
424.066	235.81
424.288	259.81
424.511	246.81
424.733	263.81
424.956	266.81
425.178	249.81
425.401	245.81
425.623	243.81
425.846	254.81
426.068	256.81
426.291	259.81
426.513	232.81
426.735	236.81
426.958	254.81
427.18	226.81
427.402	241.81
427.625	240.81
427.847	243.81
428.069	235.81
428.292	227.81
428.514	246.81
428.736	240.81
428.958	224.81
429.181	248.81
429.403	249.81
429.625	235.81
429.847	238.81
430.069	235.81
430.292	258.81
430.514	248.81
430.736	252.81
430.958	243.81
431.18	244.81
431.402	228.81
431.624	245.81
431.846	237.81
432.068	221.81
432.29	234.81
432.512	251.81
432.734	224.81
432.956	234.81
433.178	256.81
433.4	216.81
433.622	240.81
433.844	254.81
434.066	234.81
434.287	231.81
434.509	231.81
434.731	229.81
434.953	240.81
435.175	244.81
435.397	213.81
435.618	240.81
435.84	216.81
436.062	237.81
436.284	243.81
436.505	235.81
436.727	240.81
436.949	251.81
437.17	224.81
437.392	219.81
437.614	227.81
437.835	213.81
438.057	216.81
438.278	223.81
438.5	231.81
438.721	242.81
438.943	229.81
439.165	253.81
439.386	229.81
439.608	256.81
439.829	254.81
440.05	246.81
440.272	241.81
440.493	263.81
440.715	258.81
440.936	260.81
441.158	257.81
441.379	256.81
441.6	278.81
441.822	286.81
442.043	270.81
442.264	253.81
442.486	256.81
442.707	257.81
442.928	250.81
443.149	254.81
443.371	254.81
443.592	240.81
443.813	262.81
444.034	241.81
444.255	264.81
444.476	264.81
444.698	274.81
444.919	278.81
445.14	527.81
445.361	377.81
445.582	259.81
445.803	242.81
446.024	247.81
446.245	263.81
446.466	264.81
446.687	261.81
446.908	254.81
447.129	250.81
447.35	253.81
447.571	252.81
447.792	245.81
448.013	248.81
448.234	254.81
448.455	255.81
448.675	234.81
448.896	251.81
449.117	240.81
449.338	244.81
449.559	243.81
449.779	229.81
450	255.81
450.221	225.81
450.442	230.81
450.662	241.81
450.883	238.81
451.104	229.81
451.324	238.81
451.545	238.81
451.766	248.81
451.986	230.81
452.207	233.81
452.428	236.81
452.648	248.81
452.869	250.81
453.089	251.81
453.31	248.81
453.53	234.81
453.751	237.81
453.971	230.81
454.192	240.81
454.412	229.81
454.633	220.81
454.853	237.81
455.073	220.81
455.294	218.81
455.514	222.81
455.734	222.81
455.955	231.81
456.175	209.81
456.395	203.81
456.616	220.81
456.836	206.81
457.056	203.81
457.276	212.81
457.497	216.81
457.717	197.81
457.937	206.81
458.157	205.81
458.377	203.81
458.598	220.81
458.818	201.81
459.038	200.81
459.258	216.81
459.478	207.81
459.698	204.81
459.918	230.81
460.138	224.81
460.358	233.81
460.578	251.81
460.798	241.81
461.018	238.81
461.238	241.81
461.458	226.81
461.678	240.81
461.898	240.81
462.118	244.81
462.338	265.81
462.558	257.81
462.777	239.81
462.997	258.81
463.217	266.81
463.437	271.81
463.657	245.81
463.876	258.81
464.096	284.81
464.316	242.81
464.536	274.81
464.755	268.81
464.975	253.81
465.195	253.81
465.414	264.81
465.634	244.81
465.854	238.81
466.073	259.81
466.293	268.81
466.512	290.81
466.732	273.81
466.951	268.81
467.171	266.81
467.391	258.81
467.61	238.81
467.829	252.81
468.049	264.81
468.268	233.81
468.488	229.81
468.707	229.81
468.927	239.81
469.146	241.81
469.365	229.81
469.585	244.81
469.804	266.81
470.023	236.81
470.243	244.81
470.462	243.81
470.681	237.81
470.901	253.81
471.12	252.81
471.339	248.81
471.558	251.81
471.777	262.81
471.997	236.81
472.216	244.81
472.435	225.81
472.654	240.81
472.873	233.81
473.092	247.81
473.311	274.81
473.53	263.81
473.749	272.81
473.968	289.81
474.187	252.81
474.406	268.81
474.625	302.81
474.844	293.81
475.063	288.81
475.282	273.81
475.501	268.81
475.72	274.81
475.939	264.81
476.158	242.81
476.377	250.81
476.596	231.81
476.814	242.81
477.033	234.81
477.252	234.81
477.471	235.81
477.69	258.81
477.908	250.81
478.127	261.81
478.346	265.81
478.564	244.81
478.783	249.81
479.002	254.81
479.22	260.81
479.439	252.81
479.658	240.81
479.876	236.81
480.095	236.81
480.313	247.81
480.532	254.81
480.751	241.81
480.969	229.81
481.188	221.81
481.406	234.81
481.624	224.81
481.843	218.81
482.061	233.81
482.28	240.81
482.498	230.81
482.717	242.81
482.935	250.81
483.153	253.81
483.372	250.81
483.59	272.81
483.808	244.81
484.027	240.81
484.245	266.81
484.463	288.81
484.681	308.81
484.9	270.81
485.118	287.81
485.336	252.81
485.554	257.81
485.772	263.81
485.99	266.81
486.209	256.81
486.427	255.81
486.645	266.81
486.863	286.81
487.081	272.81
487.299	264.81
487.517	277.81
487.735	274.81
487.953	287.81
488.171	284.81
488.389	282.81
488.607	261.81
488.825	263.81
489.043	265.81
489.261	262.81
489.479	256.81
489.696	273.81
489.914	258.81
490.132	278.81
490.35	279.81
490.568	274.81
490.786	286.81
491.003	276.81
491.221	288.81
491.439	319.81
491.657	279.81
491.874	307.81
492.092	301.81
492.31	322.81
492.527	306.81
492.745	288.81
492.963	291.81
493.18	302.81
493.398	299.81
493.615	295.81
493.833	307.81
494.05	285.81
494.268	272.81
494.485	283.81
494.703	275.81
494.92	274.81
495.138	269.81
495.355	277.81
495.573	274.81
495.79	273.81
496.008	275.81
496.225	284.81
496.442	272.81
496.66	302.81
496.877	284.81
497.094	302.81
497.312	291.81
497.529	289.81
497.746	288.81
497.963	269.81
498.181	276.81
498.398	279.81
498.615	292.81
498.832	313.81
499.049	292.81
499.267	331.81
499.484	333.81
499.701	331.81
499.918	368.81
500.135	367.81
500.352	425.81
500.569	395.81
500.786	399.81
501.003	411.81
501.22	373.81
501.437	369.81
501.654	336.81
501.871	333.81
502.088	301.81
502.305	308.81
502.522	306.81
502.739	294.81
502.956	287.81
503.172	274.81
503.389	298.81
503.606	264.81
