Data from SampC_HRD10591_00043.txt Node
Date: Mon Jan 19 11:37:44 EST 2026
User: Yrep
Spectrometer: HR+D1059
Trigger mode: 0
Integration Time (sec): 3.443000E-1
Scans to average: 1
Electric dark correction enabled: true
Nonlinearity correction enabled: false
Boxcar width: 0
XAxis mode: Wavelengths
Number of Pixels in Spectrum: 2048
>>>>>Begin Spectral Data<<<<<
223.165	-22.12
223.4	-22.12
223.635	-22.12
223.869	-35.12
224.104	-20.12
224.338	-26.12
224.573	-18.12
224.808	-3.12
225.042	-15.12
225.277	5.88
225.511	-6.12
225.746	1.88
225.98	17.88
226.215	9.88
226.449	15.88
226.683	30.88
226.918	20.88
227.152	42.88
227.387	41.88
227.621	23.88
227.856	42.88
228.09	38.88
228.324	38.88
228.559	66.88
228.793	58.88
229.027	62.88
229.262	60.88
229.496	75.88
229.73	68.88
229.964	75.88
230.199	85.88
230.433	78.88
230.667	77.88
230.901	97.88
231.136	82.88
231.37	92.88
231.604	99.88
231.838	93.88
232.072	81.88
232.306	99.88
232.541	97.88
232.775	88.88
233.009	96.88
233.243	82.88
233.477	97.88
233.711	91.88
233.945	97.88
234.179	98.88
234.413	103.88
234.647	93.88
234.881	92.88
235.115	93.88
235.349	80.88
235.583	92.88
235.817	84.88
236.051	97.88
236.285	105.88
236.519	93.88
236.753	122.88
236.987	132.88
237.221	128.88
237.455	132.88
237.689	132.88
237.922	118.88
238.156	127.88
238.39	100.88
238.624	86.88
238.858	96.88
239.091	95.88
239.325	85.88
239.559	97.88
239.793	85.88
240.027	104.88
240.26	96.88
240.494	89.88
240.728	91.88
240.961	81.88
241.195	106.88
241.429	92.88
241.662	80.88
241.896	93.88
242.13	76.88
242.363	88.88
242.597	81.88
242.83	93.88
243.064	80.88
243.298	100.88
243.531	96.88
243.765	78.88
243.998	106.88
244.232	98.88
244.465	96.88
244.699	98.88
244.932	101.88
245.166	87.88
245.399	96.88
245.633	98.88
245.866	93.88
246.099	94.88
246.333	99.88
246.566	106.88
246.8	107.88
247.033	93.88
247.266	84.88
247.5	94.88
247.733	103.88
247.966	80.88
248.2	79.88
248.433	89.88
248.666	96.88
248.899	104.88
249.133	109.88
249.366	125.88
249.599	95.88
249.832	85.88
250.066	97.88
250.299	84.88
250.532	101.88
250.765	96.88
250.998	103.88
251.231	102.88
251.465	106.88
251.698	88.88
251.931	90.88
252.164	81.88
252.397	121.88
252.63	117.88
252.863	102.88
253.096	106.88
253.329	120.88
253.562	96.88
253.795	110.88
254.028	120.88
254.261	102.88
254.494	118.88
254.727	104.88
254.96	109.88
255.193	110.88
255.426	108.88
255.659	120.88
255.892	126.88
256.124	118.88
256.357	119.88
256.59	112.88
256.823	139.88
257.056	158.88
257.289	170.88
257.521	167.88
257.754	175.88
257.987	183.88
258.22	142.88
258.452	114.88
258.685	111.88
258.918	113.88
259.151	138.88
259.383	123.88
259.616	109.88
259.849	118.88
260.081	112.88
260.314	107.88
260.547	113.88
260.779	113.88
261.012	128.88
261.244	119.88
261.477	135.88
261.71	121.88
261.942	111.88
262.175	111.88
262.407	114.88
262.64	112.88
262.872	131.88
263.105	142.88
263.337	153.88
263.57	148.88
263.802	144.88
264.035	138.88
264.267	129.88
264.499	140.88
264.732	135.88
264.964	128.88
265.197	133.88
265.429	141.88
265.661	147.88
265.894	144.88
266.126	170.88
266.358	183.88
266.591	155.88
266.823	147.88
267.055	107.88
267.287	127.88
267.52	127.88
267.752	115.88
267.984	139.88
268.216	119.88
268.448	129.88
268.681	118.88
268.913	122.88
269.145	125.88
269.377	115.88
269.609	120.88
269.841	114.88
270.073	118.88
270.306	117.88
270.538	118.88
270.77	112.88
271.002	122.88
271.234	116.88
271.466	118.88
271.698	126.88
271.93	126.88
272.162	134.88
272.394	136.88
272.626	117.88
272.858	126.88
273.09	135.88
273.322	124.88
273.553	115.88
273.785	117.88
274.017	113.88
274.249	126.88
274.481	129.88
274.713	118.88
274.945	109.88
275.176	119.88
275.408	140.88
275.64	111.88
275.872	114.88
276.104	127.88
276.335	124.88
276.567	124.88
276.799	103.88
277.031	120.88
277.262	136.88
277.494	136.88
277.726	148.88
277.957	148.88
278.189	142.88
278.421	149.88
278.652	159.88
278.884	169.88
279.115	207.88
279.347	262.88
279.579	332.88
279.81	373.88
280.042	327.88
280.273	311.88
280.505	308.88
280.736	226.88
280.968	168.88
281.199	180.88
281.431	202.88
281.662	244.88
281.894	265.88
282.125	244.88
282.356	196.88
282.588	158.88
282.819	158.88
283.051	150.88
283.282	134.88
283.513	167.88
283.745	133.88
283.976	157.88
284.207	146.88
284.439	141.88
284.67	154.88
284.901	161.88
285.132	170.88
285.364	200.88
285.595	175.88
285.826	150.88
286.057	154.88
286.288	129.88
286.52	140.88
286.751	136.88
286.982	133.88
287.213	122.88
287.444	152.88
287.675	129.88
287.906	147.88
288.138	153.88
288.369	153.88
288.6	149.88
288.831	132.88
289.062	148.88
289.293	151.88
289.524	132.88
289.755	128.88
289.986	134.88
290.217	149.88
290.448	129.88
290.679	159.88
290.91	150.88
291.141	133.88
291.371	160.88
291.602	141.88
291.833	142.88
292.064	143.88
292.295	128.88
292.526	142.88
292.757	167.88
292.987	150.88
293.218	155.88
293.449	150.88
293.68	159.88
293.91	166.88
294.141	160.88
294.372	142.88
294.603	150.88
294.833	150.88
295.064	161.88
295.295	152.88
295.525	140.88
295.756	145.88
295.987	162.88
296.217	153.88
296.448	134.88
296.679	151.88
296.909	152.88
297.14	138.88
297.37	129.88
297.601	146.88
297.831	129.88
298.062	158.88
298.292	163.88
298.523	140.88
298.753	152.88
298.984	145.88
299.214	139.88
299.445	153.88
299.675	158.88
299.905	160.88
300.136	156.88
300.366	165.88
300.597	158.88
300.827	150.88
301.057	152.88
301.288	162.88
301.518	149.88
301.748	142.88
301.979	190.88
302.209	183.88
302.439	165.88
302.669	168.88
302.9	153.88
303.13	167.88
303.36	175.88
303.59	188.88
303.82	171.88
304.051	186.88
304.281	179.88
304.511	200.88
304.741	209.88
304.971	234.88
305.201	271.88
305.431	310.88
305.661	333.88
305.891	340.88
306.121	312.88
306.352	291.88
306.582	298.88
306.812	298.88
307.042	257.88
307.272	246.88
307.502	292.88
307.731	368.88
307.961	490.88
308.191	666.88
308.421	754.88
308.651	648.88
308.881	585.88
309.111	726.88
309.341	885.88
309.571	857.88
309.8	588.88
310.03	432.88
310.26	342.88
310.49	285.88
310.72	258.88
310.949	243.88
311.179	222.88
311.409	225.88
311.639	212.88
311.868	199.88
312.098	208.88
312.328	197.88
312.557	217.88
312.787	189.88
313.017	183.88
313.246	186.88
313.476	186.88
313.706	162.88
313.935	175.88
314.165	173.88
314.394	174.88
314.624	172.88
314.853	181.88
315.083	172.88
315.312	178.88
315.542	153.88
315.771	173.88
316.001	166.88
316.23	153.88
316.46	169.88
316.689	174.88
316.919	159.88
317.148	167.88
317.377	176.88
317.607	160.88
317.836	167.88
318.065	168.88
318.295	159.88
318.524	171.88
318.753	173.88
318.983	151.88
319.212	174.88
319.441	161.88
319.67	147.88
319.9	158.88
320.129	178.88
320.358	159.88
320.587	171.88
320.816	157.88
321.046	152.88
321.275	167.88
321.504	168.88
321.733	163.88
321.962	158.88
322.191	163.88
322.42	159.88
322.649	149.88
322.878	169.88
323.108	191.88
323.337	167.88
323.566	159.88
323.795	177.88
324.024	161.88
324.253	154.88
324.482	164.88
324.71	151.88
324.939	171.88
325.168	152.88
325.397	169.88
325.626	153.88
325.855	164.88
326.084	162.88
326.313	142.88
326.542	154.88
326.77	163.88
326.999	165.88
327.228	163.88
327.457	153.88
327.686	153.88
327.914	163.88
328.143	182.88
328.372	168.88
328.6	162.88
328.829	175.88
329.058	175.88
329.287	153.88
329.515	162.88
329.744	163.88
329.972	160.88
330.201	167.88
330.43	175.88
330.658	162.88
330.887	186.88
331.115	161.88
331.344	175.88
331.572	176.88
331.801	176.88
332.03	176.88
332.258	176.88
332.486	152.88
332.715	172.88
332.943	186.88
333.172	163.88
333.4	174.88
333.629	178.88
333.857	181.88
334.085	188.88
334.314	182.88
334.542	185.88
334.771	187.88
334.999	190.88
335.227	176.88
335.455	173.88
335.684	194.88
335.912	183.88
336.14	162.88
336.369	182.88
336.597	179.88
336.825	165.88
337.053	185.88
337.281	185.88
337.51	149.88
337.738	180.88
337.966	164.88
338.194	168.88
338.422	177.88
338.65	184.88
338.878	172.88
339.106	160.88
339.334	185.88
339.562	169.88
339.79	160.88
340.018	161.88
340.246	162.88
340.474	162.88
340.702	165.88
340.93	185.88
341.158	177.88
341.386	162.88
341.614	180.88
341.842	182.88
342.07	171.88
342.298	166.88
342.526	175.88
342.754	158.88
342.981	161.88
343.209	156.88
343.437	195.88
343.665	177.88
343.893	184.88
344.12	197.88
344.348	174.88
344.576	171.88
344.804	154.88
345.031	175.88
345.259	172.88
345.487	196.88
345.714	155.88
345.942	171.88
346.17	174.88
346.397	163.88
346.625	177.88
346.853	173.88
347.08	162.88
347.308	169.88
347.535	173.88
347.763	180.88
347.99	182.88
348.218	179.88
348.445	166.88
348.673	157.88
348.9	177.88
349.128	182.88
349.355	179.88
349.583	182.88
349.81	166.88
350.037	184.88
350.265	187.88
350.492	167.88
350.72	172.88
350.947	160.88
351.174	180.88
351.402	175.88
351.629	171.88
351.856	175.88
352.083	187.88
352.311	185.88
352.538	161.88
352.765	159.88
352.992	171.88
353.22	184.88
353.447	185.88
353.674	189.88
353.901	189.88
354.128	180.88
354.355	180.88
354.583	197.88
354.81	200.88
355.037	193.88
355.264	184.88
355.491	197.88
355.718	205.88
355.945	225.88
356.172	210.88
356.399	206.88
356.626	224.88
356.853	237.88
357.08	238.88
357.307	267.88
357.534	280.88
357.761	282.88
357.988	310.88
358.215	337.88
358.441	382.88
358.668	423.88
358.895	413.88
359.122	363.88
359.349	306.88
359.576	279.88
359.802	274.88
360.029	259.88
360.256	250.88
360.483	244.88
360.709	223.88
360.936	234.88
361.163	231.88
361.39	234.88
361.616	224.88
361.843	212.88
362.07	212.88
362.296	203.88
362.523	201.88
362.749	191.88
362.976	193.88
363.203	215.88
363.429	200.88
363.656	193.88
363.882	192.88
364.109	200.88
364.335	193.88
364.562	193.88
364.788	186.88
365.015	168.88
365.241	175.88
365.468	188.88
365.694	158.88
365.92	204.88
366.147	190.88
366.373	180.88
366.599	171.88
366.826	161.88
367.052	176.88
367.278	180.88
367.505	191.88
367.731	190.88
367.957	191.88
368.184	185.88
368.41	210.88
368.636	178.88
368.862	177.88
369.089	180.88
369.315	187.88
369.541	189.88
369.767	186.88
369.993	185.88
370.219	184.88
370.445	177.88
370.672	185.88
370.898	177.88
371.124	181.88
371.35	190.88
371.576	186.88
371.802	176.88
372.028	166.88
372.254	184.88
372.48	183.88
372.706	186.88
372.932	185.88
373.158	189.88
373.384	180.88
373.61	193.88
373.835	175.88
374.061	180.88
374.287	193.88
374.513	192.88
374.739	206.88
374.965	196.88
375.191	194.88
375.416	163.88
375.642	200.88
375.868	182.88
376.094	183.88
376.319	193.88
376.545	158.88
376.771	182.88
376.997	188.88
377.222	186.88
377.448	190.88
377.674	184.88
377.899	181.88
378.125	191.88
378.35	175.88
378.576	181.88
378.802	161.88
379.027	171.88
379.253	189.88
379.478	196.88
379.704	194.88
379.929	178.88
380.155	186.88
380.38	201.88
380.606	184.88
380.831	184.88
381.057	205.88
381.282	208.88
381.507	182.88
381.733	188.88
381.958	190.88
382.184	191.88
382.409	204.88
382.634	218.88
382.86	211.88
383.085	240.88
383.31	248.88
383.535	248.88
383.761	246.88
383.986	243.88
384.211	233.88
384.436	210.88
384.662	220.88
384.887	191.88
385.112	186.88
385.337	207.88
385.562	200.88
385.787	193.88
386.013	200.88
386.238	204.88
386.463	224.88
386.688	237.88
386.913	229.88
387.138	217.88
387.363	215.88
387.588	213.88
387.813	225.88
388.038	202.88
388.263	215.88
388.488	217.88
388.713	221.88
388.938	212.88
389.163	213.88
389.387	209.88
389.612	189.88
389.837	216.88
390.062	222.88
390.287	220.88
390.512	222.88
390.736	226.88
390.961	218.88
391.186	210.88
391.411	222.88
391.636	252.88
391.86	211.88
392.085	234.88
392.31	245.88
392.534	237.88
392.759	256.88
392.984	249.88
393.208	282.88
393.433	314.88
393.658	338.88
393.882	396.88
394.107	594.88
394.331	953.88
394.556	1271.88
394.78	941.88
395.005	584.88
395.229	460.88
395.454	468.88
395.678	552.88
395.903	878.88
396.127	1361.88
396.352	1554.88
396.576	1046.88
396.801	636.88
397.025	490.88
397.249	397.88
397.474	380.88
397.698	334.88
397.922	341.88
398.147	322.88
398.371	306.88
398.595	304.88
398.82	301.88
399.044	290.88
399.268	280.88
399.492	293.88
399.717	302.88
399.941	285.88
400.165	286.88
400.389	272.88
400.613	261.88
400.837	240.88
401.062	250.88
401.286	238.88
401.51	252.88
401.734	238.88
401.958	246.88
402.182	252.88
402.406	247.88
402.63	241.88
402.854	240.88
403.078	263.88
403.302	245.88
403.526	247.88
403.75	246.88
403.974	242.88
404.198	255.88
404.422	238.88
404.645	250.88
404.869	243.88
405.093	265.88
405.317	262.88
405.541	253.88
405.765	241.88
405.988	252.88
406.212	251.88
406.436	268.88
406.66	241.88
406.883	270.88
407.107	253.88
407.331	260.88
407.555	261.88
407.778	249.88
408.002	253.88
408.226	232.88
408.449	245.88
408.673	243.88
408.896	265.88
409.12	242.88
409.344	246.88
409.567	229.88
409.791	270.88
410.014	244.88
410.238	235.88
410.461	246.88
410.685	244.88
410.908	245.88
411.132	245.88
411.355	236.88
411.578	233.88
411.802	232.88
412.025	234.88
412.249	235.88
412.472	240.88
412.695	229.88
412.919	240.88
413.142	250.88
413.365	221.88
413.589	228.88
413.812	222.88
414.035	244.88
414.258	238.88
414.482	238.88
414.705	233.88
414.928	249.88
415.151	233.88
415.374	239.88
415.597	225.88
415.821	237.88
416.044	246.88
416.267	233.88
416.49	223.88
416.713	237.88
416.936	233.88
417.159	234.88
417.382	233.88
417.605	246.88
417.828	239.88
418.051	234.88
418.274	243.88
418.497	243.88
418.72	241.88
418.943	239.88
419.166	250.88
419.389	252.88
419.611	249.88
419.834	245.88
420.057	250.88
420.28	237.88
420.503	246.88
420.726	241.88
420.948	233.88
421.171	234.88
421.394	235.88
421.617	248.88
421.839	244.88
422.062	252.88
422.285	236.88
422.507	251.88
422.73	241.88
422.953	236.88
423.175	236.88
423.398	233.88
423.621	233.88
423.843	249.88
424.066	246.88
424.288	232.88
424.511	246.88
424.733	234.88
424.956	245.88
425.178	248.88
425.401	245.88
425.623	236.88
425.846	232.88
426.068	231.88
426.291	234.88
426.513	226.88
426.735	242.88
426.958	251.88
427.18	234.88
427.402	218.88
427.625	221.88
427.847	206.88
428.069	250.88
428.292	232.88
428.514	223.88
428.736	214.88
428.958	205.88
429.181	228.88
429.403	220.88
429.625	230.88
429.847	240.88
430.069	240.88
430.292	241.88
430.514	221.88
430.736	227.88
430.958	240.88
431.18	224.88
431.402	226.88
431.624	216.88
431.846	229.88
432.068	204.88
432.29	218.88
432.512	225.88
432.734	232.88
432.956	232.88
433.178	246.88
433.4	237.88
433.622	244.88
433.844	239.88
434.066	222.88
434.287	224.88
434.509	224.88
434.731	215.88
434.953	249.88
435.175	240.88
435.397	250.88
435.618	239.88
435.84	223.88
436.062	221.88
436.284	220.88
436.505	223.88
436.727	246.88
436.949	236.88
437.17	217.88
437.392	223.88
437.614	222.88
437.835	196.88
438.057	200.88
438.278	223.88
438.5	205.88
438.721	216.88
438.943	235.88
439.165	243.88
439.386	230.88
439.608	241.88
439.829	231.88
440.05	232.88
440.272	244.88
440.493	228.88
440.715	244.88
440.936	257.88
441.158	256.88
441.379	242.88
441.6	245.88
441.822	268.88
442.043	245.88
442.264	238.88
442.486	236.88
442.707	251.88
442.928	243.88
443.149	253.88
443.371	253.88
443.592	235.88
443.813	249.88
444.034	248.88
444.255	234.88
444.476	248.88
444.698	266.88
444.919	249.88
445.14	496.88
445.361	362.88
445.582	261.88
445.803	254.88
446.024	238.88
446.245	238.88
446.466	247.88
446.687	245.88
446.908	234.88
447.129	252.88
447.35	251.88
447.571	242.88
447.792	243.88
448.013	234.88
448.234	231.88
448.455	217.88
448.675	233.88
448.896	232.88
449.117	221.88
449.338	224.88
449.559	213.88
449.779	229.88
450	207.88
450.221	225.88
450.442	229.88
450.662	219.88
450.883	222.88
451.104	229.88
451.324	196.88
451.545	218.88
451.766	214.88
451.986	221.88
452.207	230.88
452.428	218.88
452.648	231.88
452.869	221.88
453.089	205.88
453.31	226.88
453.53	218.88
453.751	217.88
453.971	224.88
454.192	222.88
454.412	222.88
454.633	236.88
454.853	229.88
455.073	222.88
455.294	213.88
455.514	240.88
455.734	217.88
455.955	212.88
456.175	194.88
456.395	216.88
456.616	208.88
456.836	195.88
457.056	200.88
457.276	180.88
457.497	212.88
457.717	203.88
457.937	220.88
458.157	196.88
458.377	209.88
458.598	214.88
458.818	188.88
459.038	214.88
459.258	203.88
459.478	214.88
459.698	202.88
459.918	214.88
460.138	230.88
460.358	221.88
460.578	234.88
460.798	236.88
461.018	242.88
461.238	225.88
461.458	220.88
461.678	221.88
461.898	236.88
462.118	229.88
462.338	246.88
462.558	256.88
462.777	263.88
462.997	263.88
463.217	260.88
463.437	243.88
463.657	267.88
463.876	245.88
464.096	268.88
464.316	252.88
464.536	251.88
464.755	265.88
464.975	250.88
465.195	238.88
465.414	243.88
465.634	237.88
465.854	241.88
466.073	246.88
466.293	274.88
466.512	268.88
466.732	275.88
466.951	267.88
467.171	251.88
467.391	274.88
467.61	252.88
467.829	251.88
468.049	253.88
468.268	240.88
468.488	233.88
468.707	228.88
468.927	227.88
469.146	241.88
469.365	245.88
469.585	242.88
469.804	236.88
470.023	246.88
470.243	243.88
470.462	262.88
470.681	254.88
470.901	236.88
471.12	245.88
471.339	236.88
471.558	232.88
471.777	242.88
471.997	251.88
472.216	229.88
472.435	223.88
472.654	221.88
472.873	229.88
473.092	232.88
473.311	234.88
473.53	267.88
473.749	280.88
473.968	257.88
474.187	276.88
474.406	256.88
474.625	269.88
474.844	296.88
475.063	271.88
475.282	252.88
475.501	236.88
475.72	264.88
475.939	260.88
476.158	241.88
476.377	242.88
476.596	233.88
476.814	223.88
477.033	218.88
477.252	239.88
477.471	240.88
477.69	236.88
477.908	240.88
478.127	245.88
478.346	252.88
478.564	232.88
478.783	231.88
479.002	258.88
479.22	253.88
479.439	258.88
479.658	226.88
479.876	239.88
480.095	249.88
480.313	248.88
480.532	245.88
480.751	237.88
480.969	218.88
481.188	210.88
481.406	220.88
481.624	221.88
481.843	221.88
482.061	213.88
482.28	224.88
482.498	231.88
482.717	223.88
482.935	236.88
483.153	258.88
483.372	253.88
483.59	241.88
483.808	249.88
484.027	257.88
484.245	253.88
484.463	260.88
484.681	290.88
484.9	244.88
485.118	257.88
485.336	249.88
485.554	249.88
485.772	234.88
485.99	239.88
486.209	247.88
486.427	233.88
486.645	252.88
486.863	268.88
487.081	256.88
487.299	257.88
487.517	249.88
487.735	264.88
487.953	278.88
488.171	289.88
488.389	272.88
488.607	262.88
488.825	255.88
489.043	240.88
489.261	270.88
489.479	248.88
489.696	245.88
489.914	256.88
490.132	268.88
490.35	273.88
490.568	261.88
490.786	266.88
491.003	286.88
491.221	272.88
491.439	289.88
491.657	280.88
491.874	309.88
492.092	330.88
492.31	321.88
492.527	309.88
492.745	285.88
492.963	285.88
493.18	294.88
493.398	280.88
493.615	275.88
493.833	292.88
494.05	276.88
494.268	264.88
494.485	261.88
494.703	279.88
494.92	272.88
495.138	274.88
495.355	282.88
495.573	270.88
495.79	286.88
496.008	284.88
496.225	288.88
496.442	260.88
496.66	278.88
496.877	279.88
497.094	276.88
497.312	272.88
497.529	285.88
497.746	278.88
497.963	266.88
498.181	282.88
498.398	279.88
498.615	278.88
498.832	282.88
499.049	283.88
499.267	306.88
499.484	328.88
499.701	338.88
499.918	379.88
500.135	415.88
500.352	386.88
500.569	423.88
500.786	387.88
501.003	393.88
501.22	360.88
501.437	357.88
501.654	334.88
501.871	312.88
502.088	298.88
502.305	287.88
502.522	296.88
502.739	273.88
502.956	280.88
503.172	297.88
503.389	265.88
503.606	251.88
