Data from SampC_HRD10591_00093.txt Node
Date: Mon Jan 19 11:38:01 EST 2026
User: Yrep
Spectrometer: HR+D1059
Trigger mode: 0
Integration Time (sec): 3.443000E-1
Scans to average: 1
Electric dark correction enabled: true
Nonlinearity correction enabled: false
Boxcar width: 0
XAxis mode: Wavelengths
Number of Pixels in Spectrum: 2048
>>>>>Begin Spectral Data<<<<<
223.165	-13.88
223.4	-13.88
223.635	-13.88
223.869	-16.88
224.104	-26.88
224.338	-18.88
224.573	-28.88
224.808	-20.88
225.042	-4.88
225.277	1.12
225.511	9.12
225.746	11.12
225.98	-4.88
226.215	15.12
226.449	17.12
226.683	23.12
226.918	18.12
227.152	41.12
227.387	35.12
227.621	39.12
227.856	48.12
228.09	48.12
228.324	52.12
228.559	75.12
228.793	65.12
229.027	95.12
229.262	93.12
229.496	101.12
229.73	87.12
229.964	88.12
230.199	89.12
230.433	96.12
230.667	104.12
230.901	115.12
231.136	112.12
231.37	109.12
231.604	101.12
231.838	132.12
232.072	116.12
232.306	138.12
232.541	128.12
232.775	111.12
233.009	121.12
233.243	117.12
233.477	92.12
233.711	119.12
233.945	104.12
234.179	119.12
234.413	106.12
234.647	131.12
234.881	129.12
235.115	113.12
235.349	124.12
235.583	128.12
235.817	120.12
236.051	151.12
236.285	143.12
236.519	163.12
236.753	172.12
236.987	215.12
237.221	229.12
237.455	251.12
237.689	243.12
237.922	209.12
238.156	166.12
238.39	140.12
238.624	145.12
238.858	157.12
239.091	129.12
239.325	129.12
239.559	130.12
239.793	118.12
240.027	140.12
240.26	115.12
240.494	111.12
240.728	114.12
240.961	108.12
241.195	130.12
241.429	100.12
241.662	111.12
241.896	116.12
242.13	107.12
242.363	108.12
242.597	119.12
242.83	104.12
243.064	120.12
243.298	125.12
243.531	115.12
243.765	119.12
243.998	125.12
244.232	127.12
244.465	119.12
244.699	129.12
244.932	105.12
245.166	137.12
245.399	129.12
245.633	131.12
245.866	129.12
246.099	132.12
246.333	153.12
246.566	139.12
246.8	145.12
247.033	150.12
247.266	129.12
247.5	125.12
247.733	112.12
247.966	142.12
248.2	144.12
248.433	158.12
248.666	127.12
248.899	140.12
249.133	148.12
249.366	143.12
249.599	142.12
249.832	143.12
250.066	156.12
250.299	142.12
250.532	138.12
250.765	145.12
250.998	147.12
251.231	131.12
251.465	136.12
251.698	167.12
251.931	164.12
252.164	143.12
252.397	155.12
252.63	165.12
252.863	149.12
253.096	157.12
253.329	146.12
253.562	156.12
253.795	158.12
254.028	138.12
254.261	169.12
254.494	155.12
254.727	163.12
254.96	168.12
255.193	159.12
255.426	155.12
255.659	164.12
255.892	166.12
256.124	167.12
256.357	187.12
256.59	206.12
256.823	233.12
257.056	299.12
257.289	299.12
257.521	308.12
257.754	378.12
257.987	354.12
258.22	271.12
258.452	203.12
258.685	207.12
258.918	181.12
259.151	184.12
259.383	185.12
259.616	183.12
259.849	152.12
260.081	185.12
260.314	180.12
260.547	180.12
260.779	174.12
261.012	171.12
261.244	185.12
261.477	185.12
261.71	186.12
261.942	182.12
262.175	192.12
262.407	206.12
262.64	194.12
262.872	207.12
263.105	239.12
263.337	262.12
263.57	253.12
263.802	261.12
264.035	212.12
264.267	210.12
264.499	221.12
264.732	212.12
264.964	228.12
265.197	255.12
265.429	267.12
265.661	283.12
265.894	274.12
266.126	289.12
266.358	337.12
266.591	275.12
266.823	249.12
267.055	207.12
267.287	207.12
267.52	180.12
267.752	212.12
267.984	201.12
268.216	185.12
268.448	188.12
268.681	203.12
268.913	190.12
269.145	183.12
269.377	196.12
269.609	169.12
269.841	185.12
270.073	184.12
270.306	189.12
270.538	187.12
270.77	184.12
271.002	187.12
271.234	201.12
271.466	207.12
271.698	193.12
271.93	206.12
272.162	192.12
272.394	195.12
272.626	177.12
272.858	180.12
273.09	195.12
273.322	188.12
273.553	197.12
273.785	190.12
274.017	186.12
274.249	206.12
274.481	213.12
274.713	216.12
274.945	204.12
275.176	208.12
275.408	199.12
275.64	210.12
275.872	204.12
276.104	214.12
276.335	196.12
276.567	213.12
276.799	212.12
277.031	220.12
277.262	227.12
277.494	235.12
277.726	239.12
277.957	260.12
278.189	258.12
278.421	288.12
278.652	288.12
278.884	314.12
279.115	444.12
279.347	607.12
279.579	855.12
279.81	962.12
280.042	783.12
280.273	711.12
280.505	706.12
280.736	456.12
280.968	351.12
281.199	359.12
281.431	428.12
281.662	507.12
281.894	576.12
282.125	469.12
282.356	361.12
282.588	313.12
282.819	299.12
283.051	276.12
283.282	270.12
283.513	264.12
283.745	251.12
283.976	251.12
284.207	260.12
284.439	260.12
284.67	266.12
284.901	287.12
285.132	349.12
285.364	379.12
285.595	342.12
285.826	240.12
286.057	248.12
286.288	223.12
286.52	239.12
286.751	244.12
286.982	236.12
287.213	231.12
287.444	238.12
287.675	224.12
287.906	255.12
288.138	268.12
288.369	245.12
288.6	266.12
288.831	232.12
289.062	240.12
289.293	235.12
289.524	236.12
289.755	248.12
289.986	231.12
290.217	236.12
290.448	249.12
290.679	253.12
290.91	243.12
291.141	226.12
291.371	254.12
291.602	242.12
291.833	260.12
292.064	267.12
292.295	263.12
292.526	287.12
292.757	279.12
292.987	283.12
293.218	285.12
293.449	273.12
293.68	290.12
293.91	285.12
294.141	272.12
294.372	264.12
294.603	273.12
294.833	245.12
295.064	253.12
295.295	242.12
295.525	239.12
295.756	253.12
295.987	256.12
296.217	257.12
296.448	241.12
296.679	234.12
296.909	249.12
297.14	248.12
297.37	267.12
297.601	249.12
297.831	247.12
298.062	246.12
298.292	252.12
298.523	273.12
298.753	252.12
298.984	250.12
299.214	252.12
299.445	272.12
299.675	269.12
299.905	259.12
300.136	247.12
300.366	269.12
300.597	267.12
300.827	282.12
301.057	297.12
301.288	290.12
301.518	281.12
301.748	286.12
301.979	328.12
302.209	304.12
302.439	319.12
302.669	310.12
302.9	317.12
303.13	333.12
303.36	344.12
303.59	347.12
303.82	355.12
304.051	363.12
304.281	380.12
304.511	361.12
304.741	401.12
304.971	475.12
305.201	564.12
305.431	633.12
305.661	753.12
305.891	804.12
306.121	723.12
306.352	634.12
306.582	668.12
306.812	673.12
307.042	584.12
307.272	566.12
307.502	635.12
307.731	857.12
307.961	1217.12
308.191	1780.12
308.421	2103.12
308.651	1716.12
308.881	1565.12
309.111	2009.12
309.341	2569.12
309.571	2433.12
309.8	1499.12
310.03	987.12
310.26	733.12
310.49	617.12
310.72	548.12
310.949	496.12
311.179	468.12
311.409	441.12
311.639	415.12
311.868	395.12
312.098	403.12
312.328	401.12
312.557	375.12
312.787	359.12
313.017	346.12
313.246	364.12
313.476	326.12
313.706	355.12
313.935	327.12
314.165	338.12
314.394	341.12
314.624	325.12
314.853	311.12
315.083	321.12
315.312	328.12
315.542	308.12
315.771	326.12
316.001	322.12
316.23	319.12
316.46	312.12
316.689	300.12
316.919	300.12
317.148	314.12
317.377	314.12
317.607	309.12
317.836	287.12
318.065	306.12
318.295	310.12
318.524	298.12
318.753	302.12
318.983	294.12
319.212	299.12
319.441	289.12
319.67	299.12
319.9	275.12
320.129	294.12
320.358	290.12
320.587	297.12
320.816	307.12
321.046	282.12
321.275	297.12
321.504	280.12
321.733	284.12
321.962	307.12
322.191	297.12
322.42	288.12
322.649	286.12
322.878	294.12
323.108	317.12
323.337	308.12
323.566	300.12
323.795	324.12
324.024	323.12
324.253	291.12
324.482	308.12
324.71	311.12
324.939	315.12
325.168	299.12
325.397	305.12
325.626	309.12
325.855	284.12
326.084	298.12
326.313	308.12
326.542	287.12
326.77	291.12
326.999	305.12
327.228	297.12
327.457	297.12
327.686	325.12
327.914	311.12
328.143	311.12
328.372	303.12
328.6	311.12
328.829	304.12
329.058	291.12
329.287	315.12
329.515	312.12
329.744	307.12
329.972	299.12
330.201	297.12
330.43	305.12
330.658	302.12
330.887	304.12
331.115	302.12
331.344	307.12
331.572	328.12
331.801	309.12
332.03	307.12
332.258	306.12
332.486	332.12
332.715	340.12
332.943	336.12
333.172	343.12
333.4	352.12
333.629	337.12
333.857	371.12
334.085	354.12
334.314	342.12
334.542	363.12
334.771	350.12
334.999	356.12
335.227	353.12
335.455	348.12
335.684	336.12
335.912	339.12
336.14	337.12
336.369	328.12
336.597	324.12
336.825	315.12
337.053	323.12
337.281	327.12
337.51	310.12
337.738	347.12
337.966	315.12
338.194	317.12
338.422	318.12
338.65	320.12
338.878	328.12
339.106	313.12
339.334	304.12
339.562	315.12
339.79	329.12
340.018	287.12
340.246	328.12
340.474	327.12
340.702	317.12
340.93	316.12
341.158	285.12
341.386	312.12
341.614	319.12
341.842	308.12
342.07	318.12
342.298	328.12
342.526	327.12
342.754	316.12
342.981	313.12
343.209	329.12
343.437	362.12
343.665	339.12
343.893	339.12
344.12	375.12
344.348	366.12
344.576	313.12
344.804	340.12
345.031	338.12
345.259	331.12
345.487	330.12
345.714	317.12
345.942	329.12
346.17	313.12
346.397	306.12
346.625	315.12
346.853	313.12
347.08	313.12
347.308	319.12
347.535	343.12
347.763	304.12
347.99	329.12
348.218	329.12
348.445	322.12
348.673	328.12
348.9	319.12
349.128	308.12
349.355	322.12
349.583	328.12
349.81	323.12
350.037	315.12
350.265	331.12
350.492	329.12
350.72	317.12
350.947	328.12
351.174	320.12
351.402	341.12
351.629	332.12
351.856	337.12
352.083	329.12
352.311	355.12
352.538	342.12
352.765	362.12
352.992	368.12
353.22	342.12
353.447	337.12
353.674	358.12
353.901	359.12
354.128	372.12
354.355	364.12
354.583	375.12
354.81	388.12
355.037	379.12
355.264	371.12
355.491	396.12
355.718	399.12
355.945	426.12
356.172	412.12
356.399	450.12
356.626	451.12
356.853	460.12
357.08	489.12
357.307	524.12
357.534	561.12
357.761	602.12
357.988	707.12
358.215	823.12
358.441	936.12
358.668	1030.12
358.895	1039.12
359.122	800.12
359.349	690.12
359.576	596.12
359.802	570.12
360.029	559.12
360.256	488.12
360.483	499.12
360.709	477.12
360.936	486.12
361.163	469.12
361.39	447.12
361.616	446.12
361.843	436.12
362.07	425.12
362.296	409.12
362.523	388.12
362.749	388.12
362.976	375.12
363.203	386.12
363.429	359.12
363.656	376.12
363.882	358.12
364.109	374.12
364.335	368.12
364.562	351.12
364.788	372.12
365.015	365.12
365.241	341.12
365.468	362.12
365.694	332.12
365.92	352.12
366.147	370.12
366.373	357.12
366.599	355.12
366.826	344.12
367.052	351.12
367.278	340.12
367.505	363.12
367.731	379.12
367.957	356.12
368.184	351.12
368.41	361.12
368.636	365.12
368.862	349.12
369.089	334.12
369.315	352.12
369.541	343.12
369.767	345.12
369.993	352.12
370.219	341.12
370.445	346.12
370.672	359.12
370.898	356.12
371.124	358.12
371.35	355.12
371.576	360.12
371.802	364.12
372.028	365.12
372.254	395.12
372.48	369.12
372.706	344.12
372.932	366.12
373.158	380.12
373.384	393.12
373.61	385.12
373.835	367.12
374.061	381.12
374.287	383.12
374.513	373.12
374.739	381.12
374.965	380.12
375.191	370.12
375.416	363.12
375.642	357.12
375.868	368.12
376.094	379.12
376.319	361.12
376.545	376.12
376.771	374.12
376.997	366.12
377.222	334.12
377.448	369.12
377.674	360.12
377.899	370.12
378.125	358.12
378.35	340.12
378.576	350.12
378.802	354.12
379.027	351.12
379.253	362.12
379.478	356.12
379.704	346.12
379.929	355.12
380.155	349.12
380.38	371.12
380.606	357.12
380.831	368.12
381.057	377.12
381.282	374.12
381.507	386.12
381.733	386.12
381.958	374.12
382.184	415.12
382.409	422.12
382.634	439.12
382.86	456.12
383.085	526.12
383.31	557.12
383.535	537.12
383.761	544.12
383.986	557.12
384.211	459.12
384.436	415.12
384.662	391.12
384.887	393.12
385.112	414.12
385.337	415.12
385.562	410.12
385.787	412.12
386.013	433.12
386.238	431.12
386.463	430.12
386.688	467.12
386.913	423.12
387.138	428.12
387.363	418.12
387.588	442.12
387.813	403.12
388.038	418.12
388.263	435.12
388.488	419.12
388.713	406.12
388.938	414.12
389.163	396.12
389.387	429.12
389.612	422.12
389.837	446.12
390.062	453.12
390.287	463.12
390.512	452.12
390.736	445.12
390.961	448.12
391.186	459.12
391.411	463.12
391.636	484.12
391.86	485.12
392.085	490.12
392.31	484.12
392.534	524.12
392.759	547.12
392.984	595.12
393.208	693.12
393.433	812.12
393.658	855.12
393.882	972.12
394.107	1565.12
394.331	2930.12
394.556	3989.12
394.78	2651.12
395.005	1419.12
395.229	1105.12
395.454	1132.12
395.678	1448.12
395.903	2495.12
396.127	4396.12
396.352	5058.12
396.576	3021.12
396.801	1699.12
397.025	1219.12
397.249	970.12
397.474	809.12
397.698	739.12
397.922	674.12
398.147	675.12
398.371	664.12
398.595	611.12
398.82	617.12
399.044	612.12
399.268	608.12
399.492	613.12
399.717	628.12
399.941	618.12
400.165	609.12
400.389	546.12
400.613	538.12
400.837	528.12
401.062	527.12
401.286	509.12
401.51	497.12
401.734	506.12
401.958	514.12
402.182	494.12
402.406	489.12
402.63	491.12
402.854	523.12
403.078	493.12
403.302	522.12
403.526	534.12
403.75	514.12
403.974	495.12
404.198	519.12
404.422	524.12
404.645	513.12
404.869	521.12
405.093	507.12
405.317	496.12
405.541	504.12
405.765	515.12
405.988	523.12
406.212	494.12
406.436	509.12
406.66	512.12
406.883	502.12
407.107	527.12
407.331	525.12
407.555	540.12
407.778	540.12
408.002	535.12
408.226	509.12
408.449	511.12
408.673	499.12
408.896	531.12
409.12	499.12
409.344	511.12
409.567	502.12
409.791	501.12
410.014	514.12
410.238	499.12
410.461	497.12
410.685	484.12
410.908	478.12
411.132	492.12
411.355	489.12
411.578	502.12
411.802	487.12
412.025	481.12
412.249	494.12
412.472	492.12
412.695	475.12
412.919	479.12
413.142	467.12
413.365	486.12
413.589	469.12
413.812	497.12
414.035	483.12
414.258	486.12
414.482	467.12
414.705	496.12
414.928	503.12
415.151	497.12
415.374	467.12
415.597	467.12
415.821	484.12
416.044	466.12
416.267	484.12
416.49	468.12
416.713	475.12
416.936	483.12
417.159	467.12
417.382	482.12
417.605	473.12
417.828	492.12
418.051	473.12
418.274	481.12
418.497	479.12
418.72	469.12
418.943	485.12
419.166	501.12
419.389	525.12
419.611	526.12
419.834	493.12
420.057	498.12
420.28	469.12
420.503	494.12
420.726	501.12
420.948	464.12
421.171	473.12
421.394	475.12
421.617	479.12
421.839	491.12
422.062	486.12
422.285	481.12
422.507	496.12
422.73	513.12
422.953	523.12
423.175	497.12
423.398	483.12
423.621	487.12
423.843	507.12
424.066	492.12
424.288	493.12
424.511	492.12
424.733	508.12
424.956	476.12
425.178	500.12
425.401	471.12
425.623	483.12
425.846	486.12
426.068	490.12
426.291	482.12
426.513	459.12
426.735	479.12
426.958	473.12
427.18	479.12
427.402	481.12
427.625	457.12
427.847	462.12
428.069	465.12
428.292	434.12
428.514	457.12
428.736	485.12
428.958	451.12
429.181	468.12
429.403	449.12
429.625	447.12
429.847	442.12
430.069	466.12
430.292	455.12
430.514	461.12
430.736	457.12
430.958	472.12
431.18	441.12
431.402	443.12
431.624	421.12
431.846	419.12
432.068	431.12
432.29	429.12
432.512	430.12
432.734	456.12
432.956	464.12
433.178	480.12
433.4	459.12
433.622	487.12
433.844	483.12
434.066	436.12
434.287	435.12
434.509	449.12
434.731	458.12
434.953	471.12
435.175	466.12
435.397	467.12
435.618	453.12
435.84	443.12
436.062	429.12
436.284	447.12
436.505	450.12
436.727	476.12
436.949	440.12
437.17	458.12
437.392	449.12
437.614	437.12
437.835	429.12
438.057	434.12
438.278	423.12
438.5	453.12
438.721	475.12
438.943	466.12
439.165	459.12
439.386	449.12
439.608	478.12
439.829	480.12
440.05	484.12
440.272	472.12
440.493	460.12
440.715	500.12
440.936	521.12
441.158	483.12
441.379	511.12
441.6	509.12
441.822	506.12
442.043	510.12
442.264	480.12
442.486	498.12
442.707	500.12
442.928	484.12
443.149	481.12
443.371	495.12
443.592	493.12
443.813	499.12
444.034	505.12
444.255	501.12
444.476	527.12
444.698	548.12
444.919	539.12
445.14	720.12
445.361	606.12
445.582	526.12
445.803	504.12
446.024	490.12
446.245	510.12
446.466	498.12
446.687	484.12
446.908	493.12
447.129	499.12
447.35	484.12
447.571	513.12
447.792	474.12
448.013	479.12
448.234	482.12
448.455	453.12
448.675	467.12
448.896	457.12
449.117	456.12
449.338	465.12
449.559	482.12
449.779	444.12
450	456.12
450.221	450.12
450.442	464.12
450.662	446.12
450.883	462.12
451.104	467.12
451.324	445.12
451.545	449.12
451.766	464.12
451.986	441.12
452.207	459.12
452.428	452.12
452.648	472.12
452.869	447.12
453.089	451.12
453.31	434.12
453.53	440.12
453.751	445.12
453.971	452.12
454.192	430.12
454.412	436.12
454.633	440.12
454.853	448.12
455.073	423.12
455.294	430.12
455.514	425.12
455.734	435.12
455.955	420.12
456.175	401.12
456.395	399.12
456.616	400.12
456.836	419.12
457.056	411.12
457.276	389.12
457.497	408.12
457.717	400.12
457.937	395.12
458.157	375.12
458.377	397.12
458.598	398.12
458.818	402.12
459.038	405.12
459.258	404.12
459.478	402.12
459.698	425.12
459.918	444.12
460.138	423.12
460.358	461.12
460.578	452.12
460.798	497.12
461.018	457.12
461.238	479.12
461.458	489.12
461.678	484.12
461.898	480.12
462.118	491.12
462.338	510.12
462.558	531.12
462.777	548.12
462.997	539.12
463.217	547.12
463.437	537.12
463.657	555.12
463.876	530.12
464.096	522.12
464.316	530.12
464.536	528.12
464.755	534.12
464.975	526.12
465.195	489.12
465.414	495.12
465.634	492.12
465.854	510.12
466.073	541.12
466.293	552.12
466.512	599.12
466.732	610.12
466.951	543.12
467.171	532.12
467.391	537.12
467.61	527.12
467.829	488.12
468.049	500.12
468.268	489.12
468.488	480.12
468.707	463.12
468.927	471.12
469.146	476.12
469.365	492.12
469.585	477.12
469.804	500.12
470.023	495.12
470.243	479.12
470.462	487.12
470.681	495.12
470.901	496.12
471.12	462.12
471.339	500.12
471.558	471.12
471.777	482.12
471.997	485.12
472.216	482.12
472.435	433.12
472.654	431.12
472.873	454.12
473.092	496.12
473.311	510.12
473.53	528.12
473.749	563.12
473.968	565.12
474.187	568.12
474.406	567.12
474.625	580.12
474.844	606.12
475.063	557.12
475.282	531.12
475.501	485.12
475.72	481.12
475.939	489.12
476.158	476.12
476.377	481.12
476.596	477.12
476.814	468.12
477.033	437.12
477.252	460.12
477.471	465.12
477.69	482.12
477.908	480.12
478.127	490.12
478.346	499.12
478.564	492.12
478.783	492.12
479.002	515.12
479.22	494.12
479.439	501.12
479.658	474.12
479.876	485.12
480.095	485.12
480.313	491.12
480.532	471.12
480.751	477.12
480.969	437.12
481.188	456.12
481.406	452.12
481.624	455.12
481.843	432.12
482.061	438.12
482.28	466.12
482.498	459.12
482.717	450.12
482.935	461.12
483.153	478.12
483.372	521.12
483.59	495.12
483.808	481.12
484.027	497.12
484.245	524.12
484.463	571.12
484.681	596.12
484.9	569.12
485.118	549.12
485.336	519.12
485.554	533.12
485.772	529.12
485.99	519.12
486.209	517.12
486.427	515.12
486.645	531.12
486.863	584.12
487.081	579.12
487.299	567.12
487.517	538.12
487.735	588.12
487.953	618.12
488.171	606.12
488.389	571.12
488.607	545.12
488.825	516.12
489.043	503.12
489.261	548.12
489.479	551.12
489.696	553.12
489.914	536.12
490.132	549.12
490.35	562.12
490.568	559.12
490.786	574.12
491.003	600.12
491.221	592.12
491.439	595.12
491.657	614.12
491.874	625.12
492.092	635.12
492.31	643.12
492.527	610.12
492.745	571.12
492.963	589.12
493.18	602.12
493.398	563.12
493.615	588.12
493.833	595.12
494.05	571.12
494.268	544.12
494.485	566.12
494.703	588.12
494.92	575.12
495.138	553.12
495.355	566.12
495.573	601.12
495.79	553.12
496.008	588.12
496.225	549.12
496.442	565.12
496.66	591.12
496.877	568.12
497.094	576.12
497.312	550.12
497.529	582.12
497.746	569.12
497.963	584.12
498.181	533.12
498.398	587.12
498.615	591.12
498.832	609.12
499.049	635.12
499.267	674.12
499.484	703.12
499.701	746.12
499.918	789.12
500.135	837.12
500.352	865.12
500.569	886.12
500.786	853.12
501.003	846.12
501.22	809.12
501.437	761.12
501.654	713.12
501.871	673.12
502.088	633.12
502.305	636.12
502.522	604.12
