Data from SampC_HRD10591_00079.txt Node
Date: Mon Jan 19 11:37:56 EST 2026
User: Yrep
Spectrometer: HR+D1059
Trigger mode: 0
Integration Time (sec): 3.443000E-1
Scans to average: 1
Electric dark correction enabled: true
Nonlinearity correction enabled: false
Boxcar width: 0
XAxis mode: Wavelengths
Number of Pixels in Spectrum: 2048
>>>>>Begin Spectral Data<<<<<
223.165	-28.25
223.4	-28.25
223.635	-28.25
223.869	-14.25
224.104	-26.25
224.338	-22.25
224.573	-26.25
224.808	-20.25
225.042	-14.25
225.277	-6.25
225.511	-4.25
225.746	12.75
225.98	21.75
226.215	16.75
226.449	18.75
226.683	30.75
226.918	32.75
227.152	28.75
227.387	29.75
227.621	34.75
227.856	45.75
228.09	55.75
228.324	57.75
228.559	56.75
228.793	50.75
229.027	59.75
229.262	78.75
229.496	77.75
229.73	77.75
229.964	85.75
230.199	84.75
230.433	82.75
230.667	97.75
230.901	91.75
231.136	89.75
231.37	83.75
231.604	96.75
231.838	92.75
232.072	101.75
232.306	115.75
232.541	107.75
232.775	97.75
233.009	98.75
233.243	79.75
233.477	96.75
233.711	89.75
233.945	96.75
234.179	102.75
234.413	94.75
234.647	97.75
234.881	112.75
235.115	93.75
235.349	104.75
235.583	98.75
235.817	95.75
236.051	89.75
236.285	97.75
236.519	94.75
236.753	117.75
236.987	136.75
237.221	158.75
237.455	144.75
237.689	130.75
237.922	133.75
238.156	102.75
238.39	121.75
238.624	101.75
238.858	106.75
239.091	113.75
239.325	105.75
239.559	96.75
239.793	96.75
240.027	86.75
240.26	101.75
240.494	111.75
240.728	82.75
240.961	87.75
241.195	95.75
241.429	101.75
241.662	87.75
241.896	88.75
242.13	104.75
242.363	95.75
242.597	104.75
242.83	114.75
243.064	95.75
243.298	97.75
243.531	106.75
243.765	99.75
243.998	98.75
244.232	117.75
244.465	116.75
244.699	102.75
244.932	104.75
245.166	86.75
245.399	105.75
245.633	113.75
245.866	99.75
246.099	110.75
246.333	101.75
246.566	105.75
246.8	101.75
247.033	105.75
247.266	105.75
247.5	106.75
247.733	100.75
247.966	95.75
248.2	102.75
248.433	96.75
248.666	101.75
248.899	99.75
249.133	107.75
249.366	112.75
249.599	128.75
249.832	109.75
250.066	119.75
250.299	103.75
250.532	106.75
250.765	98.75
250.998	106.75
251.231	102.75
251.465	111.75
251.698	106.75
251.931	116.75
252.164	117.75
252.397	109.75
252.63	114.75
252.863	124.75
253.096	120.75
253.329	117.75
253.562	121.75
253.795	109.75
254.028	108.75
254.261	126.75
254.494	112.75
254.727	129.75
254.96	114.75
255.193	107.75
255.426	110.75
255.659	108.75
255.892	113.75
256.124	132.75
256.357	127.75
256.59	132.75
256.823	152.75
257.056	180.75
257.289	166.75
257.521	181.75
257.754	201.75
257.987	165.75
258.22	158.75
258.452	130.75
258.685	156.75
258.918	128.75
259.151	132.75
259.383	137.75
259.616	113.75
259.849	129.75
260.081	132.75
260.314	135.75
260.547	126.75
260.779	139.75
261.012	127.75
261.244	121.75
261.477	151.75
261.71	128.75
261.942	120.75
262.175	128.75
262.407	144.75
262.64	139.75
262.872	139.75
263.105	157.75
263.337	178.75
263.57	158.75
263.802	169.75
264.035	146.75
264.267	153.75
264.499	142.75
264.732	151.75
264.964	155.75
265.197	157.75
265.429	168.75
265.661	177.75
265.894	148.75
266.126	172.75
266.358	169.75
266.591	169.75
266.823	151.75
267.055	146.75
267.287	139.75
267.52	142.75
267.752	128.75
267.984	132.75
268.216	132.75
268.448	156.75
268.681	130.75
268.913	132.75
269.145	139.75
269.377	144.75
269.609	116.75
269.841	152.75
270.073	129.75
270.306	134.75
270.538	126.75
270.77	116.75
271.002	140.75
271.234	144.75
271.466	145.75
271.698	149.75
271.93	129.75
272.162	123.75
272.394	152.75
272.626	147.75
272.858	136.75
273.09	144.75
273.322	145.75
273.553	137.75
273.785	160.75
274.017	123.75
274.249	149.75
274.481	127.75
274.713	144.75
274.945	134.75
275.176	134.75
275.408	133.75
275.64	136.75
275.872	136.75
276.104	141.75
276.335	144.75
276.567	152.75
276.799	153.75
277.031	143.75
277.262	141.75
277.494	162.75
277.726	162.75
277.957	163.75
278.189	170.75
278.421	160.75
278.652	171.75
278.884	199.75
279.115	244.75
279.347	314.75
279.579	426.75
279.81	448.75
280.042	368.75
280.273	365.75
280.505	359.75
280.736	262.75
280.968	191.75
281.199	206.75
281.431	258.75
281.662	295.75
281.894	331.75
282.125	271.75
282.356	239.75
282.588	217.75
282.819	206.75
283.051	182.75
283.282	177.75
283.513	185.75
283.745	158.75
283.976	165.75
284.207	172.75
284.439	160.75
284.67	171.75
284.901	174.75
285.132	206.75
285.364	212.75
285.595	204.75
285.826	190.75
286.057	175.75
286.288	158.75
286.52	161.75
286.751	155.75
286.982	170.75
287.213	180.75
287.444	161.75
287.675	163.75
287.906	154.75
288.138	182.75
288.369	175.75
288.6	182.75
288.831	157.75
289.062	172.75
289.293	161.75
289.524	169.75
289.755	148.75
289.986	164.75
290.217	173.75
290.448	168.75
290.679	169.75
290.91	166.75
291.141	167.75
291.371	162.75
291.602	174.75
291.833	183.75
292.064	172.75
292.295	180.75
292.526	174.75
292.757	180.75
292.987	192.75
293.218	184.75
293.449	176.75
293.68	172.75
293.91	173.75
294.141	180.75
294.372	172.75
294.603	163.75
294.833	172.75
295.064	162.75
295.295	166.75
295.525	167.75
295.756	178.75
295.987	187.75
296.217	165.75
296.448	167.75
296.679	159.75
296.909	164.75
297.14	167.75
297.37	183.75
297.601	172.75
297.831	170.75
298.062	176.75
298.292	162.75
298.523	184.75
298.753	157.75
298.984	165.75
299.214	170.75
299.445	172.75
299.675	168.75
299.905	205.75
300.136	180.75
300.366	177.75
300.597	189.75
300.827	182.75
301.057	175.75
301.288	181.75
301.518	178.75
301.748	191.75
301.979	238.75
302.209	186.75
302.439	186.75
302.669	174.75
302.9	213.75
303.13	192.75
303.36	218.75
303.59	212.75
303.82	208.75
304.051	216.75
304.281	214.75
304.511	236.75
304.741	216.75
304.971	246.75
305.201	283.75
305.431	324.75
305.661	364.75
305.891	366.75
306.121	338.75
306.352	310.75
306.582	330.75
306.812	335.75
307.042	317.75
307.272	297.75
307.502	331.75
307.731	400.75
307.961	528.75
308.191	720.75
308.421	846.75
308.651	716.75
308.881	672.75
309.111	801.75
309.341	1024.75
309.571	976.75
309.8	645.75
310.03	457.75
310.26	385.75
310.49	339.75
310.72	280.75
310.949	281.75
311.179	260.75
311.409	248.75
311.639	235.75
311.868	253.75
312.098	221.75
312.328	241.75
312.557	212.75
312.787	228.75
313.017	218.75
313.246	213.75
313.476	207.75
313.706	198.75
313.935	193.75
314.165	205.75
314.394	213.75
314.624	212.75
314.853	189.75
315.083	207.75
315.312	204.75
315.542	201.75
315.771	198.75
316.001	202.75
316.23	186.75
316.46	200.75
316.689	206.75
316.919	187.75
317.148	187.75
317.377	200.75
317.607	190.75
317.836	170.75
318.065	213.75
318.295	191.75
318.524	188.75
318.753	200.75
318.983	188.75
319.212	193.75
319.441	194.75
319.67	189.75
319.9	189.75
320.129	208.75
320.358	204.75
320.587	199.75
320.816	193.75
321.046	194.75
321.275	207.75
321.504	194.75
321.733	198.75
321.962	198.75
322.191	191.75
322.42	182.75
322.649	195.75
322.878	192.75
323.108	200.75
323.337	198.75
323.566	209.75
323.795	198.75
324.024	201.75
324.253	191.75
324.482	190.75
324.71	208.75
324.939	214.75
325.168	191.75
325.397	188.75
325.626	207.75
325.855	188.75
326.084	200.75
326.313	191.75
326.542	209.75
326.77	206.75
326.999	184.75
327.228	185.75
327.457	206.75
327.686	200.75
327.914	213.75
328.143	193.75
328.372	188.75
328.6	205.75
328.829	194.75
329.058	196.75
329.287	190.75
329.515	201.75
329.744	218.75
329.972	215.75
330.201	201.75
330.43	220.75
330.658	202.75
330.887	195.75
331.115	198.75
331.344	208.75
331.572	207.75
331.801	211.75
332.03	201.75
332.258	220.75
332.486	209.75
332.715	220.75
332.943	205.75
333.172	214.75
333.4	231.75
333.629	236.75
333.857	224.75
334.085	249.75
334.314	221.75
334.542	216.75
334.771	240.75
334.999	226.75
335.227	222.75
335.455	222.75
335.684	223.75
335.912	217.75
336.14	234.75
336.369	212.75
336.597	220.75
336.825	226.75
337.053	210.75
337.281	208.75
337.51	213.75
337.738	214.75
337.966	203.75
338.194	207.75
338.422	209.75
338.65	214.75
338.878	232.75
339.106	205.75
339.334	215.75
339.562	197.75
339.79	214.75
340.018	186.75
340.246	209.75
340.474	197.75
340.702	212.75
340.93	216.75
341.158	202.75
341.386	218.75
341.614	212.75
341.842	214.75
342.07	205.75
342.298	230.75
342.526	208.75
342.754	186.75
342.981	221.75
343.209	218.75
343.437	239.75
343.665	206.75
343.893	237.75
344.12	234.75
344.348	208.75
344.576	207.75
344.804	221.75
345.031	204.75
345.259	211.75
345.487	200.75
345.714	201.75
345.942	210.75
346.17	197.75
346.397	210.75
346.625	194.75
346.853	209.75
347.08	208.75
347.308	214.75
347.535	208.75
347.763	205.75
347.99	223.75
348.218	211.75
348.445	203.75
348.673	190.75
348.9	212.75
349.128	213.75
349.355	183.75
349.583	212.75
349.81	210.75
350.037	208.75
350.265	215.75
350.492	213.75
350.72	204.75
350.947	210.75
351.174	218.75
351.402	205.75
351.629	211.75
351.856	226.75
352.083	220.75
352.311	225.75
352.538	214.75
352.765	222.75
352.992	228.75
353.22	228.75
353.447	234.75
353.674	218.75
353.901	239.75
354.128	239.75
354.355	234.75
354.583	240.75
354.81	257.75
355.037	245.75
355.264	244.75
355.491	246.75
355.718	256.75
355.945	252.75
356.172	277.75
356.399	249.75
356.626	294.75
356.853	289.75
357.08	309.75
357.307	311.75
357.534	331.75
357.761	365.75
357.988	416.75
358.215	451.75
358.441	526.75
358.668	564.75
358.895	544.75
359.122	453.75
359.349	416.75
359.576	358.75
359.802	348.75
360.029	342.75
360.256	323.75
360.483	301.75
360.709	290.75
360.936	305.75
361.163	291.75
361.39	270.75
361.616	271.75
361.843	266.75
362.07	260.75
362.296	270.75
362.523	264.75
362.749	249.75
362.976	255.75
363.203	266.75
363.429	248.75
363.656	240.75
363.882	240.75
364.109	256.75
364.335	238.75
364.562	221.75
364.788	232.75
365.015	243.75
365.241	240.75
365.468	241.75
365.694	226.75
365.92	233.75
366.147	238.75
366.373	236.75
366.599	222.75
366.826	229.75
367.052	223.75
367.278	230.75
367.505	220.75
367.731	253.75
367.957	219.75
368.184	211.75
368.41	246.75
368.636	224.75
368.862	239.75
369.089	229.75
369.315	214.75
369.541	244.75
369.767	238.75
369.993	226.75
370.219	227.75
370.445	222.75
370.672	233.75
370.898	236.75
371.124	234.75
371.35	239.75
371.576	222.75
371.802	219.75
372.028	236.75
372.254	241.75
372.48	244.75
372.706	247.75
372.932	221.75
373.158	219.75
373.384	244.75
373.61	244.75
373.835	228.75
374.061	220.75
374.287	231.75
374.513	242.75
374.739	233.75
374.965	235.75
375.191	236.75
375.416	242.75
375.642	248.75
375.868	235.75
376.094	233.75
376.319	231.75
376.545	238.75
376.771	230.75
376.997	215.75
377.222	233.75
377.448	233.75
377.674	215.75
377.899	224.75
378.125	237.75
378.35	214.75
378.576	223.75
378.802	221.75
379.027	209.75
379.253	238.75
379.478	230.75
379.704	231.75
379.929	225.75
380.155	230.75
380.38	218.75
380.606	223.75
380.831	235.75
381.057	232.75
381.282	236.75
381.507	235.75
381.733	237.75
381.958	241.75
382.184	244.75
382.409	251.75
382.634	240.75
382.86	260.75
383.085	282.75
383.31	271.75
383.535	275.75
383.761	278.75
383.986	281.75
384.211	251.75
384.436	268.75
384.662	248.75
384.887	255.75
385.112	250.75
385.337	264.75
385.562	247.75
385.787	266.75
386.013	276.75
386.238	265.75
386.463	253.75
386.688	278.75
386.913	268.75
387.138	257.75
387.363	272.75
387.588	280.75
387.813	266.75
388.038	256.75
388.263	268.75
388.488	248.75
388.713	262.75
388.938	286.75
389.163	263.75
389.387	254.75
389.612	262.75
389.837	287.75
390.062	284.75
390.287	277.75
390.512	275.75
390.736	249.75
390.961	274.75
391.186	282.75
391.411	262.75
391.636	298.75
391.86	278.75
392.085	283.75
392.31	278.75
392.534	278.75
392.759	299.75
392.984	319.75
393.208	326.75
393.433	369.75
393.658	368.75
393.882	434.75
394.107	656.75
394.331	1073.75
394.556	1472.75
394.78	1036.75
395.005	620.75
395.229	526.75
395.454	539.75
395.678	617.75
395.903	988.75
396.127	1554.75
396.352	1865.75
396.576	1201.75
396.801	710.75
397.025	548.75
397.249	464.75
397.474	406.75
397.698	364.75
397.922	378.75
398.147	361.75
398.371	356.75
398.595	340.75
398.82	345.75
399.044	339.75
399.268	355.75
399.492	362.75
399.717	375.75
399.941	378.75
400.165	363.75
400.389	337.75
400.613	316.75
400.837	324.75
401.062	324.75
401.286	329.75
401.51	305.75
401.734	290.75
401.958	305.75
402.182	310.75
402.406	300.75
402.63	290.75
402.854	290.75
403.078	308.75
403.302	290.75
403.526	311.75
403.75	304.75
403.974	325.75
404.198	305.75
404.422	303.75
404.645	301.75
404.869	319.75
405.093	316.75
405.317	304.75
405.541	314.75
405.765	304.75
405.988	319.75
406.212	311.75
406.436	316.75
406.66	335.75
406.883	313.75
407.107	311.75
407.331	333.75
407.555	300.75
407.778	326.75
408.002	334.75
408.226	294.75
408.449	319.75
408.673	305.75
408.896	316.75
409.12	304.75
409.344	308.75
409.567	296.75
409.791	306.75
410.014	307.75
410.238	291.75
410.461	312.75
410.685	302.75
410.908	300.75
411.132	297.75
411.355	282.75
411.578	278.75
411.802	291.75
412.025	300.75
412.249	297.75
412.472	287.75
412.695	287.75
412.919	288.75
413.142	303.75
413.365	303.75
413.589	305.75
413.812	303.75
414.035	285.75
414.258	284.75
414.482	297.75
414.705	293.75
414.928	310.75
415.151	293.75
415.374	295.75
415.597	296.75
415.821	303.75
416.044	278.75
416.267	284.75
416.49	290.75
416.713	295.75
416.936	301.75
417.159	290.75
417.382	286.75
417.605	291.75
417.828	283.75
418.051	283.75
418.274	309.75
418.497	277.75
418.72	284.75
418.943	284.75
419.166	300.75
419.389	331.75
419.611	316.75
419.834	308.75
420.057	291.75
420.28	300.75
420.503	301.75
420.726	307.75
420.948	293.75
421.171	293.75
421.394	294.75
421.617	311.75
421.839	291.75
422.062	322.75
422.285	305.75
422.507	313.75
422.73	304.75
422.953	290.75
423.175	279.75
423.398	300.75
423.621	318.75
423.843	322.75
424.066	321.75
424.288	296.75
424.511	304.75
424.733	305.75
424.956	313.75
425.178	309.75
425.401	298.75
425.623	297.75
425.846	304.75
426.068	269.75
426.291	280.75
426.513	290.75
426.735	300.75
426.958	313.75
427.18	296.75
427.402	289.75
427.625	290.75
427.847	275.75
428.069	281.75
428.292	276.75
428.514	287.75
428.736	274.75
428.958	273.75
429.181	281.75
429.403	280.75
429.625	277.75
429.847	269.75
430.069	277.75
430.292	282.75
430.514	265.75
430.736	249.75
430.958	281.75
431.18	267.75
431.402	262.75
431.624	270.75
431.846	264.75
432.068	264.75
432.29	254.75
432.512	292.75
432.734	270.75
432.956	274.75
433.178	299.75
433.4	305.75
433.622	303.75
433.844	285.75
434.066	276.75
434.287	268.75
434.509	264.75
434.731	262.75
434.953	291.75
435.175	288.75
435.397	290.75
435.618	279.75
435.84	250.75
436.062	269.75
436.284	286.75
436.505	283.75
436.727	256.75
436.949	282.75
437.17	272.75
437.392	264.75
437.614	265.75
437.835	264.75
438.057	240.75
438.278	251.75
438.5	260.75
438.721	272.75
438.943	285.75
439.165	288.75
439.386	281.75
439.608	291.75
439.829	289.75
440.05	278.75
440.272	285.75
440.493	286.75
440.715	304.75
440.936	308.75
441.158	307.75
441.379	302.75
441.6	293.75
441.822	303.75
442.043	288.75
442.264	297.75
442.486	298.75
442.707	317.75
442.928	301.75
443.149	286.75
443.371	300.75
443.592	306.75
443.813	297.75
444.034	297.75
444.255	309.75
444.476	311.75
444.698	312.75
444.919	316.75
445.14	513.75
445.361	382.75
445.582	314.75
445.803	290.75
446.024	302.75
446.245	297.75
446.466	306.75
446.687	289.75
446.908	292.75
447.129	306.75
447.35	282.75
447.571	300.75
447.792	281.75
448.013	318.75
448.234	284.75
448.455	285.75
448.675	285.75
448.896	275.75
449.117	281.75
449.338	282.75
449.559	272.75
449.779	271.75
450	281.75
450.221	251.75
450.442	266.75
450.662	290.75
450.883	285.75
451.104	276.75
451.324	278.75
451.545	282.75
451.766	281.75
451.986	263.75
452.207	272.75
452.428	279.75
452.648	285.75
452.869	280.75
453.089	269.75
453.31	268.75
453.53	271.75
453.751	273.75
453.971	256.75
454.192	264.75
454.412	259.75
454.633	267.75
454.853	262.75
455.073	282.75
455.294	270.75
455.514	267.75
455.734	262.75
455.955	250.75
456.175	256.75
456.395	247.75
456.616	241.75
456.836	250.75
457.056	254.75
457.276	249.75
457.497	249.75
457.717	251.75
457.937	261.75
458.157	252.75
458.377	248.75
458.598	240.75
458.818	247.75
459.038	266.75
459.258	239.75
459.478	240.75
459.698	263.75
459.918	260.75
460.138	282.75
460.358	276.75
460.578	285.75
460.798	278.75
461.018	298.75
461.238	301.75
461.458	310.75
461.678	294.75
461.898	284.75
462.118	315.75
462.338	304.75
462.558	304.75
462.777	306.75
462.997	320.75
463.217	337.75
463.437	328.75
463.657	319.75
463.876	308.75
464.096	324.75
464.316	298.75
464.536	318.75
464.755	299.75
464.975	301.75
465.195	303.75
465.414	291.75
465.634	296.75
465.854	298.75
466.073	302.75
466.293	324.75
466.512	355.75
466.732	340.75
466.951	318.75
467.171	302.75
467.391	313.75
467.61	297.75
467.829	304.75
468.049	271.75
468.268	300.75
468.488	302.75
468.707	289.75
468.927	294.75
469.146	288.75
469.365	270.75
469.585	296.75
469.804	311.75
470.023	292.75
470.243	281.75
470.462	306.75
470.681	296.75
470.901	285.75
471.12	293.75
471.339	297.75
471.558	280.75
471.777	289.75
471.997	290.75
472.216	284.75
472.435	278.75
472.654	264.75
472.873	268.75
473.092	306.75
473.311	297.75
473.53	303.75
473.749	308.75
473.968	319.75
474.187	317.75
474.406	303.75
474.625	331.75
474.844	337.75
475.063	322.75
475.282	284.75
475.501	280.75
475.72	293.75
475.939	296.75
476.158	284.75
476.377	286.75
476.596	265.75
476.814	269.75
477.033	251.75
477.252	276.75
477.471	289.75
477.69	303.75
477.908	295.75
478.127	310.75
478.346	294.75
478.564	291.75
478.783	293.75
479.002	308.75
479.22	304.75
479.439	310.75
479.658	313.75
479.876	286.75
480.095	275.75
480.313	286.75
480.532	289.75
480.751	297.75
480.969	267.75
481.188	283.75
481.406	288.75
481.624	268.75
481.843	287.75
482.061	254.75
482.28	263.75
482.498	281.75
482.717	276.75
482.935	286.75
483.153	301.75
483.372	296.75
483.59	312.75
483.808	302.75
484.027	304.75
484.245	300.75
484.463	306.75
484.681	334.75
484.9	302.75
485.118	315.75
485.336	319.75
485.554	324.75
485.772	296.75
485.99	280.75
486.209	306.75
486.427	308.75
486.645	318.75
486.863	319.75
487.081	331.75
487.299	315.75
487.517	316.75
487.735	342.75
487.953	335.75
488.171	346.75
488.389	331.75
488.607	321.75
488.825	297.75
489.043	321.75
489.261	319.75
489.479	309.75
489.696	332.75
489.914	296.75
490.132	318.75
490.35	320.75
490.568	312.75
490.786	352.75
491.003	347.75
491.221	344.75
491.439	326.75
491.657	345.75
491.874	351.75
492.092	364.75
492.31	366.75
492.527	363.75
492.745	348.75
492.963	353.75
493.18	354.75
493.398	336.75
493.615	337.75
493.833	325.75
494.05	330.75
494.268	338.75
494.485	352.75
494.703	338.75
494.92	335.75
495.138	326.75
495.355	352.75
495.573	350.75
495.79	330.75
496.008	334.75
496.225	329.75
496.442	333.75
496.66	350.75
496.877	350.75
497.094	357.75
497.312	336.75
497.529	336.75
497.746	343.75
497.963	326.75
498.181	351.75
498.398	365.75
498.615	363.75
498.832	377.75
499.049	381.75
499.267	396.75
499.484	412.75
499.701	445.75
499.918	462.75
500.135	457.75
500.352	502.75
500.569	530.75
500.786	533.75
501.003	475.75
501.22	481.75
501.437	438.75
501.654	425.75
501.871	413.75
502.088	382.75
502.305	388.75
502.522	353.75
502.739	350.75
502.956	363.75
503.172	342.75
