Data from SampC_HRD10591_00075.txt Node
Date: Mon Jan 19 11:37:55 EST 2026
User: Yrep
Spectrometer: HR+D1059
Trigger mode: 0
Integration Time (sec): 3.443000E-1
Scans to average: 1
Electric dark correction enabled: true
Nonlinearity correction enabled: false
Boxcar width: 0
XAxis mode: Wavelengths
Number of Pixels in Spectrum: 2048
>>>>>Begin Spectral Data<<<<<
223.165	-26.81
223.4	-26.81
223.635	-26.81
223.869	-16.81
224.104	-18.81
224.338	-20.81
224.573	-35.81
224.808	-23.81
225.042	3.19
225.277	5.19
225.511	-4.81
225.746	11.19
225.98	10.19
226.215	20.19
226.449	23.19
226.683	23.19
226.918	21.19
227.152	30.19
227.387	38.19
227.621	24.19
227.856	47.19
228.09	41.19
228.324	52.19
228.559	76.19
228.793	68.19
229.027	92.19
229.262	91.19
229.496	98.19
229.73	104.19
229.964	107.19
230.199	106.19
230.433	103.19
230.667	109.19
230.901	117.19
231.136	109.19
231.37	110.19
231.604	119.19
231.838	137.19
232.072	129.19
232.306	126.19
232.541	140.19
232.775	122.19
233.009	134.19
233.243	125.19
233.477	144.19
233.711	127.19
233.945	127.19
234.179	131.19
234.413	113.19
234.647	128.19
234.881	116.19
235.115	113.19
235.349	121.19
235.583	155.19
235.817	140.19
236.051	154.19
236.285	143.19
236.519	159.19
236.753	186.19
236.987	228.19
237.221	273.19
237.455	291.19
237.689	271.19
237.922	237.19
238.156	189.19
238.39	163.19
238.624	144.19
238.858	142.19
239.091	138.19
239.325	117.19
239.559	112.19
239.793	127.19
240.027	131.19
240.26	123.19
240.494	124.19
240.728	127.19
240.961	118.19
241.195	120.19
241.429	148.19
241.662	130.19
241.896	122.19
242.13	135.19
242.363	121.19
242.597	122.19
242.83	126.19
243.064	119.19
243.298	124.19
243.531	138.19
243.765	131.19
243.998	145.19
244.232	139.19
244.465	152.19
244.699	135.19
244.932	139.19
245.166	136.19
245.399	133.19
245.633	147.19
245.866	148.19
246.099	157.19
246.333	157.19
246.566	149.19
246.8	155.19
247.033	142.19
247.266	144.19
247.5	150.19
247.733	133.19
247.966	139.19
248.2	134.19
248.433	130.19
248.666	144.19
248.899	154.19
249.133	139.19
249.366	156.19
249.599	161.19
249.832	139.19
250.066	139.19
250.299	146.19
250.532	165.19
250.765	138.19
250.998	164.19
251.231	150.19
251.465	146.19
251.698	169.19
251.931	173.19
252.164	178.19
252.397	175.19
252.63	174.19
252.863	162.19
253.096	166.19
253.329	164.19
253.562	165.19
253.795	164.19
254.028	165.19
254.261	160.19
254.494	159.19
254.727	163.19
254.96	174.19
255.193	170.19
255.426	155.19
255.659	163.19
255.892	185.19
256.124	187.19
256.357	205.19
256.59	228.19
256.823	249.19
257.056	313.19
257.289	362.19
257.521	334.19
257.754	418.19
257.987	377.19
258.22	287.19
258.452	234.19
258.685	203.19
258.918	206.19
259.151	186.19
259.383	187.19
259.616	205.19
259.849	192.19
260.081	198.19
260.314	198.19
260.547	188.19
260.779	206.19
261.012	191.19
261.244	191.19
261.477	202.19
261.71	198.19
261.942	203.19
262.175	207.19
262.407	193.19
262.64	214.19
262.872	239.19
263.105	274.19
263.337	297.19
263.57	313.19
263.802	285.19
264.035	252.19
264.267	250.19
264.499	243.19
264.732	246.19
264.964	234.19
265.197	254.19
265.429	311.19
265.661	310.19
265.894	308.19
266.126	331.19
266.358	375.19
266.591	296.19
266.823	262.19
267.055	234.19
267.287	221.19
267.52	212.19
267.752	187.19
267.984	201.19
268.216	210.19
268.448	218.19
268.681	221.19
268.913	202.19
269.145	211.19
269.377	208.19
269.609	208.19
269.841	197.19
270.073	199.19
270.306	209.19
270.538	201.19
270.77	206.19
271.002	197.19
271.234	214.19
271.466	217.19
271.698	205.19
271.93	223.19
272.162	224.19
272.394	222.19
272.626	211.19
272.858	217.19
273.09	203.19
273.322	221.19
273.553	205.19
273.785	204.19
274.017	207.19
274.249	245.19
274.481	222.19
274.713	231.19
274.945	243.19
275.176	220.19
275.408	245.19
275.64	244.19
275.872	236.19
276.104	234.19
276.335	241.19
276.567	224.19
276.799	234.19
277.031	236.19
277.262	239.19
277.494	265.19
277.726	257.19
277.957	275.19
278.189	305.19
278.421	310.19
278.652	308.19
278.884	366.19
279.115	479.19
279.347	681.19
279.579	953.19
279.81	1084.19
280.042	866.19
280.273	788.19
280.505	810.19
280.736	531.19
280.968	390.19
281.199	386.19
281.431	467.19
281.662	662.19
281.894	726.19
282.125	559.19
282.356	439.19
282.588	363.19
282.819	329.19
283.051	316.19
283.282	294.19
283.513	302.19
283.745	303.19
283.976	276.19
284.207	277.19
284.439	272.19
284.67	305.19
284.901	334.19
285.132	375.19
285.364	440.19
285.595	391.19
285.826	317.19
286.057	277.19
286.288	260.19
286.52	255.19
286.751	259.19
286.982	267.19
287.213	267.19
287.444	271.19
287.675	270.19
287.906	269.19
288.138	283.19
288.369	295.19
288.6	279.19
288.831	266.19
289.062	269.19
289.293	267.19
289.524	276.19
289.755	266.19
289.986	269.19
290.217	255.19
290.448	266.19
290.679	277.19
290.91	294.19
291.141	298.19
291.371	279.19
291.602	265.19
291.833	277.19
292.064	283.19
292.295	294.19
292.526	309.19
292.757	304.19
292.987	302.19
293.218	295.19
293.449	304.19
293.68	346.19
293.91	330.19
294.141	306.19
294.372	284.19
294.603	267.19
294.833	285.19
295.064	277.19
295.295	306.19
295.525	279.19
295.756	284.19
295.987	283.19
296.217	261.19
296.448	281.19
296.679	275.19
296.909	303.19
297.14	288.19
297.37	279.19
297.601	284.19
297.831	271.19
298.062	278.19
298.292	280.19
298.523	289.19
298.753	308.19
298.984	290.19
299.214	290.19
299.445	285.19
299.675	281.19
299.905	276.19
300.136	311.19
300.366	277.19
300.597	311.19
300.827	299.19
301.057	303.19
301.288	314.19
301.518	333.19
301.748	309.19
301.979	364.19
302.209	333.19
302.439	334.19
302.669	362.19
302.9	355.19
303.13	371.19
303.36	349.19
303.59	363.19
303.82	398.19
304.051	389.19
304.281	387.19
304.511	415.19
304.741	463.19
304.971	531.19
305.201	626.19
305.431	702.19
305.661	827.19
305.891	889.19
306.121	797.19
306.352	733.19
306.582	746.19
306.812	739.19
307.042	640.19
307.272	631.19
307.502	710.19
307.731	967.19
307.961	1411.19
308.191	2038.19
308.421	2363.19
308.651	1973.19
308.881	1809.19
309.111	2338.19
309.341	3000.19
309.571	2813.19
309.8	1759.19
310.03	1140.19
310.26	837.19
310.49	691.19
310.72	614.19
310.949	580.19
311.179	523.19
311.409	489.19
311.639	454.19
311.868	441.19
312.098	412.19
312.328	426.19
312.557	404.19
312.787	388.19
313.017	397.19
313.246	409.19
313.476	369.19
313.706	372.19
313.935	378.19
314.165	379.19
314.394	359.19
314.624	354.19
314.853	370.19
315.083	352.19
315.312	366.19
315.542	339.19
315.771	346.19
316.001	343.19
316.23	353.19
316.46	343.19
316.689	343.19
316.919	352.19
317.148	341.19
317.377	331.19
317.607	338.19
317.836	332.19
318.065	347.19
318.295	318.19
318.524	314.19
318.753	338.19
318.983	333.19
319.212	323.19
319.441	322.19
319.67	342.19
319.9	320.19
320.129	328.19
320.358	334.19
320.587	320.19
320.816	331.19
321.046	332.19
321.275	336.19
321.504	333.19
321.733	344.19
321.962	326.19
322.191	329.19
322.42	333.19
322.649	337.19
322.878	348.19
323.108	341.19
323.337	340.19
323.566	334.19
323.795	340.19
324.024	350.19
324.253	350.19
324.482	352.19
324.71	367.19
324.939	339.19
325.168	353.19
325.397	343.19
325.626	348.19
325.855	347.19
326.084	354.19
326.313	354.19
326.542	334.19
326.77	343.19
326.999	334.19
327.228	351.19
327.457	353.19
327.686	370.19
327.914	349.19
328.143	343.19
328.372	335.19
328.6	356.19
328.829	360.19
329.058	332.19
329.287	335.19
329.515	328.19
329.744	340.19
329.972	347.19
330.201	359.19
330.43	348.19
330.658	346.19
330.887	336.19
331.115	358.19
331.344	343.19
331.572	359.19
331.801	359.19
332.03	385.19
332.258	372.19
332.486	360.19
332.715	385.19
332.943	404.19
333.172	401.19
333.4	393.19
333.629	388.19
333.857	393.19
334.085	409.19
334.314	389.19
334.542	393.19
334.771	389.19
334.999	409.19
335.227	381.19
335.455	410.19
335.684	393.19
335.912	380.19
336.14	370.19
336.369	392.19
336.597	373.19
336.825	374.19
337.053	368.19
337.281	383.19
337.51	364.19
337.738	387.19
337.966	361.19
338.194	368.19
338.422	376.19
338.65	362.19
338.878	379.19
339.106	359.19
339.334	378.19
339.562	369.19
339.79	355.19
340.018	351.19
340.246	344.19
340.474	345.19
340.702	367.19
340.93	345.19
341.158	353.19
341.386	355.19
341.614	355.19
341.842	352.19
342.07	357.19
342.298	343.19
342.526	362.19
342.754	361.19
342.981	373.19
343.209	366.19
343.437	405.19
343.665	369.19
343.893	417.19
344.12	395.19
344.348	384.19
344.576	375.19
344.804	372.19
345.031	348.19
345.259	358.19
345.487	364.19
345.714	391.19
345.942	381.19
346.17	349.19
346.397	361.19
346.625	372.19
346.853	367.19
347.08	349.19
347.308	349.19
347.535	373.19
347.763	363.19
347.99	365.19
348.218	371.19
348.445	388.19
348.673	371.19
348.9	377.19
349.128	378.19
349.355	381.19
349.583	373.19
349.81	378.19
350.037	366.19
350.265	372.19
350.492	372.19
350.72	364.19
350.947	378.19
351.174	374.19
351.402	384.19
351.629	383.19
351.856	386.19
352.083	383.19
352.311	402.19
352.538	378.19
352.765	388.19
352.992	427.19
353.22	407.19
353.447	399.19
353.674	415.19
353.901	414.19
354.128	416.19
354.355	430.19
354.583	419.19
354.81	441.19
355.037	437.19
355.264	455.19
355.491	462.19
355.718	471.19
355.945	481.19
356.172	494.19
356.399	509.19
356.626	516.19
356.853	567.19
357.08	597.19
357.307	628.19
357.534	667.19
357.761	770.19
357.988	822.19
358.215	956.19
358.441	1143.19
358.668	1267.19
358.895	1246.19
359.122	1025.19
359.349	854.19
359.576	715.19
359.802	658.19
360.029	607.19
360.256	622.19
360.483	581.19
360.709	565.19
360.936	568.19
361.163	548.19
361.39	509.19
361.616	530.19
361.843	504.19
362.07	493.19
362.296	469.19
362.523	442.19
362.749	437.19
362.976	442.19
363.203	444.19
363.429	437.19
363.656	438.19
363.882	431.19
364.109	432.19
364.335	416.19
364.562	416.19
364.788	406.19
365.015	417.19
365.241	415.19
365.468	413.19
365.694	415.19
365.92	409.19
366.147	405.19
366.373	411.19
366.599	409.19
366.826	403.19
367.052	422.19
367.278	403.19
367.505	387.19
367.731	408.19
367.957	397.19
368.184	398.19
368.41	398.19
368.636	382.19
368.862	387.19
369.089	410.19
369.315	388.19
369.541	401.19
369.767	419.19
369.993	407.19
370.219	394.19
370.445	393.19
370.672	416.19
370.898	421.19
371.124	412.19
371.35	400.19
371.576	420.19
371.802	433.19
372.028	418.19
372.254	423.19
372.48	417.19
372.706	413.19
372.932	436.19
373.158	432.19
373.384	452.19
373.61	454.19
373.835	435.19
374.061	422.19
374.287	415.19
374.513	403.19
374.739	439.19
374.965	456.19
375.191	429.19
375.416	415.19
375.642	423.19
375.868	445.19
376.094	432.19
376.319	398.19
376.545	439.19
376.771	415.19
376.997	391.19
377.222	404.19
377.448	392.19
377.674	379.19
377.899	385.19
378.125	386.19
378.35	389.19
378.576	412.19
378.802	408.19
379.027	409.19
379.253	410.19
379.478	400.19
379.704	392.19
379.929	402.19
380.155	410.19
380.38	413.19
380.606	417.19
380.831	406.19
381.057	423.19
381.282	429.19
381.507	437.19
381.733	430.19
381.958	456.19
382.184	479.19
382.409	482.19
382.634	491.19
382.86	528.19
383.085	578.19
383.31	598.19
383.535	621.19
383.761	615.19
383.986	630.19
384.211	545.19
384.436	483.19
384.662	461.19
384.887	459.19
385.112	471.19
385.337	468.19
385.562	487.19
385.787	456.19
386.013	502.19
386.238	489.19
386.463	470.19
386.688	508.19
386.913	483.19
387.138	491.19
387.363	480.19
387.588	492.19
387.813	465.19
388.038	477.19
388.263	469.19
388.488	495.19
388.713	472.19
388.938	482.19
389.163	490.19
389.387	475.19
389.612	485.19
389.837	507.19
390.062	498.19
390.287	540.19
390.512	483.19
390.736	503.19
390.961	496.19
391.186	511.19
391.411	525.19
391.636	541.19
391.86	556.19
392.085	565.19
392.31	594.19
392.534	569.19
392.759	595.19
392.984	637.19
393.208	717.19
393.433	791.19
393.658	878.19
393.882	1069.19
394.107	1832.19
394.331	3411.19
394.556	4511.19
394.78	2986.19
395.005	1639.19
395.229	1265.19
395.454	1299.19
395.678	1660.19
395.903	2909.19
396.127	5010.19
396.352	5897.19
396.576	3465.19
396.801	1892.19
397.025	1353.19
397.249	1045.19
397.474	942.19
397.698	825.19
397.922	788.19
398.147	769.19
398.371	747.19
398.595	687.19
398.82	668.19
399.044	680.19
399.268	646.19
399.492	717.19
399.717	741.19
399.941	702.19
400.165	670.19
400.389	638.19
400.613	608.19
400.837	595.19
401.062	587.19
401.286	569.19
401.51	567.19
401.734	566.19
401.958	594.19
402.182	555.19
402.406	563.19
402.63	580.19
402.854	571.19
403.078	579.19
403.302	578.19
403.526	603.19
403.75	598.19
403.974	585.19
404.198	563.19
404.422	585.19
404.645	575.19
404.869	572.19
405.093	572.19
405.317	592.19
405.541	577.19
405.765	583.19
405.988	571.19
406.212	593.19
406.436	576.19
406.66	589.19
406.883	589.19
407.107	593.19
407.331	595.19
407.555	628.19
407.778	621.19
408.002	612.19
408.226	604.19
408.449	585.19
408.673	572.19
408.896	574.19
409.12	570.19
409.344	573.19
409.567	569.19
409.791	583.19
410.014	565.19
410.238	557.19
410.461	566.19
410.685	550.19
410.908	565.19
411.132	575.19
411.355	550.19
411.578	573.19
411.802	565.19
412.025	547.19
412.249	546.19
412.472	577.19
412.695	543.19
412.919	547.19
413.142	548.19
413.365	540.19
413.589	547.19
413.812	547.19
414.035	547.19
414.258	560.19
414.482	532.19
414.705	544.19
414.928	551.19
415.151	550.19
415.374	526.19
415.597	535.19
415.821	546.19
416.044	526.19
416.267	535.19
416.49	542.19
416.713	521.19
416.936	536.19
417.159	562.19
417.382	537.19
417.605	535.19
417.828	558.19
418.051	548.19
418.274	546.19
418.497	543.19
418.72	549.19
418.943	558.19
419.166	571.19
419.389	590.19
419.611	585.19
419.834	576.19
420.057	572.19
420.28	577.19
420.503	543.19
420.726	533.19
420.948	538.19
421.171	559.19
421.394	555.19
421.617	564.19
421.839	517.19
422.062	544.19
422.285	542.19
422.507	568.19
422.73	565.19
422.953	576.19
423.175	554.19
423.398	564.19
423.621	560.19
423.843	555.19
424.066	575.19
424.288	572.19
424.511	544.19
424.733	577.19
424.956	572.19
425.178	554.19
425.401	533.19
425.623	553.19
425.846	545.19
426.068	529.19
426.291	553.19
426.513	534.19
426.735	542.19
426.958	563.19
427.18	525.19
427.402	530.19
427.625	536.19
427.847	537.19
428.069	517.19
428.292	506.19
428.514	535.19
428.736	521.19
428.958	527.19
429.181	523.19
429.403	521.19
429.625	508.19
429.847	521.19
430.069	495.19
430.292	522.19
430.514	517.19
430.736	508.19
430.958	506.19
431.18	514.19
431.402	503.19
431.624	513.19
431.846	476.19
432.068	473.19
432.29	506.19
432.512	502.19
432.734	497.19
432.956	523.19
433.178	543.19
433.4	550.19
433.622	550.19
433.844	557.19
434.066	529.19
434.287	504.19
434.509	505.19
434.731	525.19
434.953	529.19
435.175	541.19
435.397	534.19
435.618	507.19
435.84	488.19
436.062	496.19
436.284	514.19
436.505	526.19
436.727	526.19
436.949	525.19
437.17	526.19
437.392	498.19
437.614	480.19
437.835	474.19
438.057	499.19
438.278	482.19
438.5	505.19
438.721	512.19
438.943	515.19
439.165	537.19
439.386	521.19
439.608	560.19
439.829	535.19
440.05	542.19
440.272	559.19
440.493	554.19
440.715	549.19
440.936	563.19
441.158	542.19
441.379	548.19
441.6	582.19
441.822	577.19
442.043	562.19
442.264	574.19
442.486	557.19
442.707	554.19
442.928	572.19
443.149	553.19
443.371	555.19
443.592	593.19
443.813	568.19
444.034	557.19
444.255	578.19
444.476	589.19
444.698	620.19
444.919	623.19
445.14	780.19
445.361	679.19
445.582	589.19
445.803	555.19
446.024	571.19
446.245	574.19
446.466	571.19
446.687	533.19
446.908	571.19
447.129	550.19
447.35	569.19
447.571	564.19
447.792	529.19
448.013	532.19
448.234	551.19
448.455	532.19
448.675	544.19
448.896	533.19
449.117	525.19
449.338	514.19
449.559	506.19
449.779	522.19
450	503.19
450.221	518.19
450.442	525.19
450.662	516.19
450.883	501.19
451.104	525.19
451.324	495.19
451.545	510.19
451.766	511.19
451.986	542.19
452.207	514.19
452.428	541.19
452.648	525.19
452.869	518.19
453.089	506.19
453.31	522.19
453.53	485.19
453.751	509.19
453.971	511.19
454.192	529.19
454.412	496.19
454.633	518.19
454.853	496.19
455.073	490.19
455.294	486.19
455.514	476.19
455.734	465.19
455.955	467.19
456.175	469.19
456.395	446.19
456.616	470.19
456.836	455.19
457.056	464.19
457.276	435.19
457.497	473.19
457.717	446.19
457.937	473.19
458.157	459.19
458.377	473.19
458.598	440.19
458.818	467.19
459.038	457.19
459.258	444.19
459.478	445.19
459.698	483.19
459.918	484.19
460.138	499.19
460.358	506.19
460.578	518.19
460.798	545.19
461.018	539.19
461.238	523.19
461.458	549.19
461.678	528.19
461.898	530.19
462.118	562.19
462.338	557.19
462.558	583.19
462.777	588.19
462.997	609.19
463.217	646.19
463.437	614.19
463.657	602.19
463.876	604.19
464.096	605.19
464.316	599.19
464.536	610.19
464.755	614.19
464.975	578.19
465.195	569.19
465.414	565.19
465.634	556.19
465.854	558.19
466.073	578.19
466.293	645.19
466.512	736.19
466.732	700.19
466.951	620.19
467.171	615.19
467.391	610.19
467.61	605.19
467.829	586.19
468.049	545.19
468.268	548.19
468.488	553.19
468.707	531.19
468.927	555.19
469.146	543.19
469.365	550.19
469.585	546.19
469.804	554.19
470.023	563.19
470.243	558.19
470.462	565.19
470.681	578.19
470.901	565.19
471.12	547.19
471.339	548.19
471.558	559.19
471.777	548.19
471.997	532.19
472.216	529.19
472.435	534.19
472.654	499.19
472.873	530.19
473.092	549.19
473.311	560.19
473.53	609.19
473.749	649.19
473.968	674.19
474.187	631.19
474.406	619.19
474.625	666.19
474.844	663.19
475.063	650.19
475.282	615.19
475.501	548.19
475.72	556.19
475.939	533.19
476.158	555.19
476.377	568.19
476.596	544.19
476.814	514.19
477.033	498.19
477.252	533.19
477.471	529.19
477.69	527.19
477.908	542.19
478.127	570.19
478.346	570.19
478.564	575.19
478.783	550.19
479.002	581.19
479.22	566.19
479.439	587.19
479.658	549.19
479.876	535.19
480.095	572.19
480.313	574.19
480.532	582.19
480.751	563.19
480.969	524.19
481.188	530.19
481.406	508.19
481.624	503.19
481.843	505.19
482.061	501.19
482.28	514.19
482.498	526.19
482.717	518.19
482.935	541.19
483.153	550.19
483.372	569.19
483.59	562.19
483.808	543.19
484.027	525.19
484.245	590.19
484.463	681.19
484.681	685.19
484.9	649.19
485.118	653.19
485.336	601.19
485.554	587.19
485.772	595.19
485.99	602.19
486.209	593.19
486.427	603.19
486.645	613.19
486.863	653.19
487.081	646.19
487.299	632.19
487.517	657.19
487.735	670.19
487.953	693.19
488.171	677.19
488.389	675.19
488.607	618.19
488.825	624.19
489.043	638.19
489.261	620.19
489.479	592.19
489.696	626.19
489.914	617.19
490.132	616.19
490.35	635.19
490.568	619.19
490.786	644.19
491.003	665.19
491.221	626.19
491.439	676.19
491.657	634.19
491.874	673.19
492.092	719.19
492.31	730.19
492.527	725.19
492.745	690.19
492.963	666.19
493.18	676.19
493.398	667.19
493.615	652.19
493.833	641.19
494.05	649.19
494.268	671.19
494.485	664.19
494.703	642.19
494.92	653.19
495.138	638.19
495.355	637.19
495.573	634.19
495.79	633.19
496.008	642.19
496.225	634.19
496.442	626.19
496.66	639.19
496.877	620.19
497.094	664.19
497.312	681.19
497.529	641.19
497.746	644.19
497.963	642.19
498.181	665.19
498.398	677.19
498.615	669.19
498.832	679.19
499.049	744.19
499.267	799.19
499.484	794.19
499.701	861.19
499.918	926.19
500.135	981.19
500.352	1025.19
500.569	1041.19
500.786	1022.19
501.003	989.19
501.22	925.19
501.437	872.19
501.654	801.19
501.871	771.19
502.088	753.19
502.305	733.19
