Data from SampC_HRD10591_00044.txt Node
Date: Mon Jan 19 11:37:44 EST 2026
User: Yrep
Spectrometer: HR+D1059
Trigger mode: 0
Integration Time (sec): 3.443000E-1
Scans to average: 1
Electric dark correction enabled: true
Nonlinearity correction enabled: false
Boxcar width: 0
XAxis mode: Wavelengths
Number of Pixels in Spectrum: 2048
>>>>>Begin Spectral Data<<<<<
223.165	-11
223.4	-11
223.635	-11
223.869	-41
224.104	-28
224.338	-18
224.573	-5
224.808	-29
225.042	-10
225.277	-10
225.511	-9
225.746	4
225.98	17
226.215	19
226.449	16
226.683	31
226.918	45
227.152	29
227.387	40
227.621	41
227.856	48
228.09	53
228.324	42
228.559	56
228.793	68
229.027	78
229.262	70
229.496	88
229.73	97
229.964	124
230.199	99
230.433	104
230.667	109
230.901	109
231.136	113
231.37	98
231.604	113
231.838	119
232.072	111
232.306	140
232.541	121
232.775	112
233.009	127
233.243	122
233.477	118
233.711	122
233.945	113
234.179	105
234.413	126
234.647	118
234.881	119
235.115	107
235.349	114
235.583	116
235.817	133
236.051	132
236.285	139
236.519	139
236.753	169
236.987	176
237.221	197
237.455	233
237.689	216
237.922	185
238.156	163
238.39	134
238.624	125
238.858	135
239.091	121
239.325	111
239.559	123
239.793	121
240.027	125
240.26	109
240.494	105
240.728	120
240.961	108
241.195	111
241.429	113
241.662	118
241.896	123
242.13	122
242.363	105
242.597	109
242.83	113
243.064	110
243.298	104
243.531	104
243.765	121
243.998	121
244.232	126
244.465	117
244.699	120
244.932	119
245.166	131
245.399	128
245.633	124
245.866	133
246.099	115
246.333	122
246.566	127
246.8	144
247.033	128
247.266	125
247.5	137
247.733	130
247.966	140
248.2	140
248.433	122
248.666	134
248.899	126
249.133	132
249.366	142
249.599	141
249.832	117
250.066	145
250.299	139
250.532	134
250.765	141
250.998	128
251.231	143
251.465	157
251.698	137
251.931	149
252.164	157
252.397	131
252.63	132
252.863	137
253.096	146
253.329	134
253.562	134
253.795	149
254.028	137
254.261	146
254.494	141
254.727	136
254.96	137
255.193	134
255.426	136
255.659	148
255.892	151
256.124	153
256.357	156
256.59	187
256.823	204
257.056	230
257.289	241
257.521	243
257.754	284
257.987	271
258.22	235
258.452	187
258.685	173
258.918	149
259.151	143
259.383	162
259.616	176
259.849	167
260.081	172
260.314	190
260.547	174
260.779	167
261.012	175
261.244	176
261.477	164
261.71	177
261.942	171
262.175	183
262.407	174
262.64	160
262.872	181
263.105	198
263.337	230
263.57	228
263.802	228
264.035	206
264.267	184
264.499	201
264.732	196
264.964	190
265.197	217
265.429	223
265.661	227
265.894	239
266.126	263
266.358	268
266.591	211
266.823	200
267.055	191
267.287	180
267.52	167
267.752	179
267.984	176
268.216	167
268.448	195
268.681	177
268.913	180
269.145	163
269.377	155
269.609	175
269.841	167
270.073	176
270.306	165
270.538	179
270.77	162
271.002	166
271.234	172
271.466	175
271.698	165
271.93	167
272.162	165
272.394	173
272.626	171
272.858	176
273.09	179
273.322	173
273.553	167
273.785	204
274.017	175
274.249	195
274.481	175
274.713	180
274.945	192
275.176	173
275.408	196
275.64	192
275.872	184
276.104	217
276.335	179
276.567	175
276.799	194
277.031	205
277.262	193
277.494	187
277.726	204
277.957	216
278.189	232
278.421	242
278.652	244
278.884	264
279.115	345
279.347	463
279.579	636
279.81	745
280.042	608
280.273	560
280.505	534
280.736	388
280.968	296
281.199	286
281.431	355
281.662	449
281.894	511
282.125	414
282.356	335
282.588	282
282.819	262
283.051	245
283.282	238
283.513	228
283.745	240
283.976	227
284.207	209
284.439	225
284.67	224
284.901	244
285.132	273
285.364	306
285.595	261
285.826	231
286.057	207
286.288	225
286.52	204
286.751	215
286.982	213
287.213	200
287.444	208
287.675	215
287.906	218
288.138	216
288.369	231
288.6	236
288.831	221
289.062	244
289.293	197
289.524	219
289.755	201
289.986	227
290.217	216
290.448	215
290.679	215
290.91	217
291.141	212
291.371	225
291.602	219
291.833	232
292.064	207
292.295	237
292.526	236
292.757	238
292.987	246
293.218	224
293.449	252
293.68	252
293.91	240
294.141	242
294.372	234
294.603	205
294.833	226
295.064	227
295.295	196
295.525	213
295.756	228
295.987	231
296.217	216
296.448	215
296.679	214
296.909	246
297.14	221
297.37	231
297.601	210
297.831	210
298.062	224
298.292	216
298.523	229
298.753	221
298.984	235
299.214	230
299.445	222
299.675	226
299.905	233
300.136	233
300.366	219
300.597	238
300.827	245
301.057	252
301.288	242
301.518	243
301.748	255
301.979	284
302.209	251
302.439	235
302.669	260
302.9	263
303.13	276
303.36	285
303.59	293
303.82	268
304.051	296
304.281	321
304.511	333
304.741	335
304.971	378
305.201	439
305.431	499
305.661	559
305.891	597
306.121	559
306.352	519
306.582	521
306.812	508
307.042	465
307.272	449
307.502	510
307.731	653
307.961	912
308.191	1235
308.421	1445
308.651	1251
308.881	1152
309.111	1415
309.341	1734
309.571	1684
309.8	1142
310.03	757
310.26	564
310.49	483
310.72	433
310.949	395
311.179	393
311.409	367
311.639	339
311.868	333
312.098	331
312.328	300
312.557	303
312.787	304
313.017	304
313.246	294
313.476	288
313.706	290
313.935	277
314.165	277
314.394	292
314.624	255
314.853	282
315.083	260
315.312	263
315.542	260
315.771	244
316.001	276
316.23	271
316.46	274
316.689	239
316.919	254
317.148	262
317.377	269
317.607	251
317.836	248
318.065	243
318.295	262
318.524	264
318.753	252
318.983	263
319.212	253
319.441	246
319.67	252
319.9	262
320.129	247
320.358	258
320.587	251
320.816	268
321.046	261
321.275	263
321.504	234
321.733	236
321.962	261
322.191	251
322.42	252
322.649	275
322.878	262
323.108	250
323.337	250
323.566	243
323.795	257
324.024	265
324.253	259
324.482	274
324.71	234
324.939	248
325.168	263
325.397	260
325.626	265
325.855	241
326.084	236
326.313	268
326.542	255
326.77	239
326.999	270
327.228	238
327.457	253
327.686	272
327.914	265
328.143	266
328.372	266
328.6	259
328.829	256
329.058	253
329.287	262
329.515	249
329.744	265
329.972	261
330.201	244
330.43	272
330.658	249
330.887	257
331.115	278
331.344	260
331.572	261
331.801	275
332.03	271
332.258	273
332.486	280
332.715	288
332.943	274
333.172	306
333.4	297
333.629	294
333.857	286
334.085	305
334.314	306
334.542	292
334.771	285
334.999	305
335.227	301
335.455	292
335.684	305
335.912	289
336.14	290
336.369	289
336.597	288
336.825	283
337.053	279
337.281	295
337.51	293
337.738	296
337.966	277
338.194	283
338.422	281
338.65	283
338.878	257
339.106	275
339.334	285
339.562	275
339.79	263
340.018	264
340.246	262
340.474	269
340.702	273
340.93	293
341.158	263
341.386	266
341.614	250
341.842	260
342.07	277
342.298	261
342.526	268
342.754	269
342.981	278
343.209	289
343.437	311
343.665	297
343.893	299
344.12	312
344.348	297
344.576	277
344.804	275
345.031	299
345.259	288
345.487	285
345.714	283
345.942	287
346.17	288
346.397	280
346.625	275
346.853	267
347.08	273
347.308	276
347.535	298
347.763	277
347.99	283
348.218	286
348.445	281
348.673	268
348.9	280
349.128	285
349.355	273
349.583	293
349.81	257
350.037	269
350.265	276
350.492	293
350.72	268
350.947	292
351.174	291
351.402	308
351.629	304
351.856	292
352.083	277
352.311	293
352.538	290
352.765	295
352.992	323
353.22	310
353.447	305
353.674	318
353.901	313
354.128	313
354.355	309
354.583	328
354.81	323
355.037	340
355.264	335
355.491	322
355.718	351
355.945	372
356.172	370
356.399	381
356.626	397
356.853	395
357.08	433
357.307	461
357.534	467
357.761	549
357.988	613
358.215	688
358.441	785
358.668	844
358.895	837
359.122	693
359.349	557
359.576	513
359.802	465
360.029	453
360.256	461
360.483	421
360.709	379
360.936	431
361.163	381
361.39	392
361.616	362
361.843	359
362.07	370
362.296	322
362.523	333
362.749	320
362.976	331
363.203	340
363.429	323
363.656	326
363.882	319
364.109	316
364.335	299
364.562	299
364.788	317
365.015	319
365.241	315
365.468	309
365.694	311
365.92	309
366.147	293
366.373	303
366.599	304
366.826	298
367.052	298
367.278	304
367.505	296
367.731	308
367.957	306
368.184	273
368.41	305
368.636	299
368.862	298
369.089	297
369.315	303
369.541	312
369.767	301
369.993	283
370.219	293
370.445	276
370.672	304
370.898	314
371.124	300
371.35	305
371.576	317
371.802	297
372.028	312
372.254	309
372.48	307
372.706	300
372.932	309
373.158	317
373.384	312
373.61	325
373.835	305
374.061	305
374.287	312
374.513	321
374.739	322
374.965	308
375.191	312
375.416	306
375.642	309
375.868	309
376.094	298
376.319	286
376.545	306
376.771	315
376.997	296
377.222	279
377.448	310
377.674	292
377.899	305
378.125	315
378.35	311
378.576	298
378.802	317
379.027	319
379.253	304
379.478	299
379.704	294
379.929	324
380.155	306
380.38	309
380.606	311
380.831	321
381.057	324
381.282	317
381.507	325
381.733	323
381.958	335
382.184	319
382.409	351
382.634	364
382.86	374
383.085	396
383.31	418
383.535	408
383.761	410
383.986	404
384.211	374
384.436	354
384.662	349
384.887	351
385.112	348
385.337	359
385.562	355
385.787	339
386.013	357
386.238	364
386.463	355
386.688	388
386.913	338
387.138	366
387.363	355
387.588	367
387.813	353
388.038	341
388.263	361
388.488	361
388.713	358
388.938	371
389.163	365
389.387	334
389.612	369
389.837	379
390.062	374
390.287	403
390.512	383
390.736	367
390.961	375
391.186	364
391.411	376
391.636	390
391.86	395
392.085	395
392.31	396
392.534	429
392.759	453
392.984	454
393.208	472
393.433	535
393.658	564
393.882	700
394.107	1108
394.331	1912
394.556	2480
394.78	1792
395.005	1084
395.229	861
395.454	845
395.678	1065
395.903	1677
396.127	2744
396.352	3201
396.576	2100
396.801	1211
397.025	886
397.249	737
397.474	661
397.698	596
397.922	580
398.147	544
398.371	523
398.595	512
398.82	495
399.044	490
399.268	512
399.492	536
399.717	531
399.941	529
400.165	503
400.389	475
400.613	453
400.837	451
401.062	463
401.286	422
401.51	408
401.734	407
401.958	440
402.182	430
402.406	430
402.63	412
402.854	434
403.078	448
403.302	444
403.526	450
403.75	429
403.974	433
404.198	443
404.422	436
404.645	420
404.869	431
405.093	426
405.317	404
405.541	446
405.765	441
405.988	416
406.212	420
406.436	427
406.66	459
406.883	434
407.107	447
407.331	438
407.555	452
407.778	448
408.002	462
408.226	426
408.449	447
408.673	438
408.896	413
409.12	445
409.344	445
409.567	412
409.791	430
410.014	427
410.238	400
410.461	420
410.685	420
410.908	415
411.132	429
411.355	413
411.578	444
411.802	421
412.025	415
412.249	403
412.472	408
412.695	413
412.919	400
413.142	419
413.365	416
413.589	411
413.812	389
414.035	425
414.258	405
414.482	387
414.705	407
414.928	423
415.151	420
415.374	424
415.597	395
415.821	423
416.044	388
416.267	415
416.49	407
416.713	420
416.936	407
417.159	399
417.382	390
417.605	377
417.828	395
418.051	398
418.274	417
418.497	404
418.72	419
418.943	405
419.166	426
419.389	452
419.611	439
419.834	436
420.057	430
420.28	420
420.503	417
420.726	426
420.948	405
421.171	413
421.394	414
421.617	445
421.839	421
422.062	429
422.285	411
422.507	419
422.73	410
422.953	435
423.175	421
423.398	412
423.621	433
423.843	423
424.066	408
424.288	430
424.511	409
424.733	436
424.956	415
425.178	427
425.401	413
425.623	430
425.846	431
426.068	407
426.291	409
426.513	408
426.735	415
426.958	409
427.18	412
427.402	405
427.625	404
427.847	413
428.069	383
428.292	408
428.514	386
428.736	404
428.958	378
429.181	409
429.403	397
429.625	379
429.847	389
430.069	402
430.292	392
430.514	391
430.736	397
430.958	367
431.18	389
431.402	385
431.624	364
431.846	366
432.068	359
432.29	355
432.512	386
432.734	382
432.956	405
433.178	407
433.4	399
433.622	399
433.844	397
434.066	376
434.287	356
434.509	360
434.731	370
434.953	391
435.175	409
435.397	401
435.618	376
435.84	382
436.062	372
436.284	395
436.505	410
436.727	392
436.949	387
437.17	390
437.392	396
437.614	360
437.835	353
438.057	356
438.278	343
438.5	359
438.721	398
438.943	403
439.165	398
439.386	382
439.608	414
439.829	421
440.05	437
440.272	435
440.493	423
440.715	424
440.936	433
441.158	431
441.379	441
441.6	422
441.822	448
442.043	435
442.264	422
442.486	427
442.707	445
442.928	431
443.149	432
443.371	418
443.592	410
443.813	423
444.034	428
444.255	455
444.476	439
444.698	455
444.919	463
445.14	706
445.361	545
445.582	437
445.803	420
446.024	421
446.245	433
446.466	417
446.687	428
446.908	435
447.129	441
447.35	429
447.571	413
447.792	420
448.013	413
448.234	413
448.455	402
448.675	392
448.896	397
449.117	397
449.338	389
449.559	405
449.779	376
450	397
450.221	376
450.442	379
450.662	398
450.883	397
451.104	417
451.324	391
451.545	382
451.766	378
451.986	395
452.207	385
452.428	390
452.648	404
452.869	375
453.089	370
453.31	369
453.53	369
453.751	373
453.971	375
454.192	372
454.412	357
454.633	369
454.853	369
455.073	387
455.294	353
455.514	357
455.734	360
455.955	356
456.175	343
456.395	344
456.616	350
456.836	360
457.056	345
457.276	347
457.497	350
457.717	329
457.937	357
458.157	357
458.377	349
458.598	349
458.818	341
459.038	345
459.258	350
459.478	359
459.698	352
459.918	357
460.138	397
460.358	371
460.578	408
460.798	400
461.018	410
461.238	417
461.458	413
461.678	392
461.898	429
462.118	417
462.338	424
462.558	436
462.777	445
462.997	472
463.217	479
463.437	440
463.657	433
463.876	443
464.096	428
464.316	426
464.536	460
464.755	441
464.975	439
465.195	436
465.414	438
465.634	421
465.854	434
466.073	448
466.293	476
466.512	488
466.732	499
466.951	467
467.171	450
467.391	447
467.61	438
467.829	428
468.049	407
468.268	417
468.488	402
468.707	406
468.927	420
469.146	419
469.365	428
469.585	433
469.804	402
470.023	414
470.243	401
470.462	396
470.681	425
470.901	415
471.12	428
471.339	413
471.558	409
471.777	399
471.997	412
472.216	396
472.435	374
472.654	396
472.873	393
473.092	423
473.311	442
473.53	464
473.749	484
473.968	465
474.187	469
474.406	488
474.625	483
474.844	479
475.063	472
475.282	445
475.501	404
475.72	428
475.939	428
476.158	409
476.377	413
476.596	395
476.814	377
477.033	374
477.252	373
477.471	413
477.69	407
477.908	407
478.127	422
478.346	434
478.564	419
478.783	451
479.002	445
479.22	431
479.439	406
479.658	416
479.876	405
480.095	425
480.313	438
480.532	421
480.751	404
480.969	379
481.188	380
481.406	395
481.624	372
481.843	375
482.061	377
482.28	393
482.498	388
482.717	370
482.935	421
483.153	410
483.372	428
483.59	445
483.808	413
484.027	397
484.245	442
484.463	473
484.681	482
484.9	466
485.118	448
485.336	425
485.554	425
485.772	429
485.99	446
486.209	429
486.427	412
486.645	440
486.863	432
487.081	445
487.299	462
487.517	472
487.735	471
487.953	494
488.171	501
488.389	504
488.607	473
488.825	451
489.043	448
489.261	440
489.479	467
489.696	466
489.914	443
490.132	458
490.35	494
490.568	464
490.786	494
491.003	500
491.221	503
491.439	504
491.657	485
491.874	525
492.092	537
492.31	546
492.527	559
492.745	504
492.963	501
493.18	498
493.398	510
493.615	515
493.833	499
494.05	507
494.268	482
494.485	486
494.703	492
494.92	495
495.138	489
495.355	489
495.573	493
495.79	495
496.008	488
496.225	478
496.442	480
496.66	484
496.877	487
497.094	496
497.312	479
497.529	489
497.746	496
497.963	493
498.181	487
498.398	501
498.615	508
498.832	519
499.049	543
499.267	558
499.484	588
499.701	607
499.918	673
500.135	695
500.352	754
500.569	744
500.786	728
501.003	698
501.22	644
501.437	633
501.654	573
501.871	554
502.088	543
502.305	536
502.522	532
502.739	525
502.956	505
503.172	461
503.389	467
503.606	464
503.823	439
504.04	456
504.256	462
504.473	450
504.69	444
504.907	445
505.123	448
505.34	434
505.557	436
505.773	425
505.99	411
506.207	413
506.423	391
506.64	392
506.856	389
507.073	394
507.289	397
507.506	391
507.722	381
507.939	398
508.155	409
508.372	372
508.588	384
508.805	401
509.021	377
509.238	367
509.454	375
509.67	361
509.887	341
510.103	373
510.319	382
510.536	391
510.752	369
510.968	365
511.184	359
511.401	359
511.617	365
511.833	369
512.049	374
512.265	376
512.481	351
512.698	360
512.914	387
513.13	388
513.346	379
513.562	374
513.778	399
513.994	411
514.21	402
514.426	387
514.642	401
514.858	383
515.074	432
515.29	446
515.506	436
515.721	415
515.937	403
516.153	399
516.369	396
516.585	407
516.801	395
517.016	434
517.232	433
517.448	485
517.664	438
517.879	427
518.095	442
518.311	436
518.527	476
518.742	459
518.958	423
519.173	415
519.389	393
519.605	379
519.82	382
520.036	411
520.251	397
520.467	356
520.682	372
520.898	376
521.113	340
521.329	354
521.544	346
521.76	344
521.975	348
522.19	342
522.406	353
522.621	339
522.836	341
523.052	342
523.267	351
523.482	347
523.698	360
523.913	361
524.128	346
524.343	353
524.559	366
524.774	365
524.989	380
525.204	370
525.419	338
525.634	341
525.849	359
526.064	343
526.28	371
526.495	358
526.71	327
526.925	349
527.14	335
527.355	326
527.57	334
527.785	327
527.999	331
528.214	336
528.429	364
528.644	380
528.859	379
529.074	383
529.289	385
529.503	382
529.718	376
529.933	330
530.148	327
530.363	330
530.577	325
530.792	337
531.007	347
531.221	342
531.436	346
531.651	346
531.865	324
532.08	333
532.295	349
532.509	359
532.724	328
532.938	347
533.153	347
533.367	341
533.582	350
533.796	339
534.011	340
534.225	320
534.44	328
534.654	321
534.868	327
535.083	341
535.297	339
535.511	335
535.726	335
535.94	325
536.154	295
536.369	314
536.583	304
536.797	303
537.011	321
537.225	321
537.44	301
537.654	318
537.868	321
538.082	334
538.296	304
538.51	319
538.724	323
538.938	337
539.153	354
539.367	345
539.581	324
539.795	320
540.009	308
540.222	310
540.436	307
540.65	331
540.864	339
541.078	355
541.292	382
541.506	376
541.72	383
541.934	384
542.147	395
542.361	393
542.575	369
542.789	349
543.002	343
543.216	321
543.43	333
543.644	344
543.857	368
544.071	370
544.285	379
544.498	370
544.712	365
544.925	361
545.139	376
545.352	395
545.566	369
545.779	388
545.993	370
546.206	383
546.42	364
546.633	387
546.847	379
547.06	397
547.274	373
547.487	399
547.7	383
547.914	391
548.127	371
548.34	380
548.554	388
548.767	381
548.98	381
549.193	373
549.407	384
549.62	371
549.833	375
550.046	375
550.259	390
550.473	360
550.686	375
550.899	380
551.112	364
551.325	355
551.538	335
551.751	327
551.964	331
552.177	357
552.39	363
552.603	364
552.816	390
553.029	394
553.242	387
553.455	382
553.667	385
553.88	372
554.093	351
554.306	370
554.519	354
554.732	371
554.944	347
555.157	367
555.37	347
555.583	343
555.795	353
556.008	352
556.221	340
556.433	341
556.646	324
556.859	356
557.071	348
557.284	352
557.496	355
557.709	362
557.921	346
558.134	332
558.346	347
558.559	361
558.771	372
558.984	362
559.196	398
559.409	445
559.621	383
559.833	363
560.046	354
560.258	325
560.47	361
560.683	390
560.895	388
561.107	360
561.32	327
561.532	319
561.744	328
561.956	333
562.168	327
562.381	342
562.593	331
562.805	329
563.017	317
563.229	310
563.441	347
563.653	366
563.865	351
564.077	327
564.289	339
