Data from Circ_1988_H10_HRD10591_00087.txt Node
Date: Wed Jan 03 12:05:52 EST 2024
User: Yrep
Spectrometer: HR+D1059
Trigger mode: 1
Integration Time (sec): 1.000000E-1
Scans to average: 1
Electric dark correction enabled: true
Nonlinearity correction enabled: false
Boxcar width: 0
XAxis mode: Wavelengths
Number of Pixels in Spectrum: 2048
>>>>>Begin Spectral Data<<<<<
223.165	-7.25
223.4	-7.25
223.635	-7.25
223.869	-25.25
224.104	-21.25
224.338	-9.25
224.573	-22.25
224.808	-5.25
225.042	0.75
225.277	-4.25
225.511	14.75
225.746	-2.25
225.98	10.75
226.215	11.75
226.449	3.75
226.683	14.75
226.918	10.75
227.152	29.75
227.387	31.75
227.621	33.75
227.856	52.75
228.09	46.75
228.324	58.75
228.559	55.75
228.793	50.75
229.027	83.75
229.262	65.75
229.496	75.75
229.73	92.75
229.964	95.75
230.199	82.75
230.433	88.75
230.667	74.75
230.901	80.75
231.136	89.75
231.37	96.75
231.604	80.75
231.838	77.75
232.072	78.75
232.306	84.75
232.541	82.75
232.775	86.75
233.009	91.75
233.243	102.75
233.477	78.75
233.711	95.75
233.945	93.75
234.179	94.75
234.413	71.75
234.647	69.75
234.881	88.75
235.115	91.75
235.349	89.75
235.583	89.75
235.817	81.75
236.051	73.75
236.285	87.75
236.519	83.75
236.753	77.75
236.987	89.75
237.221	96.75
237.455	83.75
237.689	72.75
237.922	92.75
238.156	85.75
238.39	79.75
238.624	69.75
238.858	83.75
239.091	89.75
239.325	89.75
239.559	85.75
239.793	91.75
240.027	88.75
240.26	82.75
240.494	74.75
240.728	77.75
240.961	77.75
241.195	82.75
241.429	83.75
241.662	70.75
241.896	77.75
242.13	71.75
242.363	83.75
242.597	85.75
242.83	74.75
243.064	74.75
243.298	68.75
243.531	86.75
243.765	90.75
243.998	91.75
244.232	86.75
244.465	87.75
244.699	90.75
244.932	92.75
245.166	73.75
245.399	96.75
245.633	86.75
245.866	71.75
246.099	70.75
246.333	71.75
246.566	70.75
246.8	85.75
247.033	73.75
247.266	86.75
247.5	89.75
247.733	81.75
247.966	82.75
248.2	78.75
248.433	77.75
248.666	70.75
248.899	77.75
249.133	90.75
249.366	102.75
249.599	99.75
249.832	91.75
250.066	91.75
250.299	90.75
250.532	101.75
250.765	90.75
250.998	86.75
251.231	79.75
251.465	90.75
251.698	89.75
251.931	109.75
252.164	91.75
252.397	99.75
252.63	65.75
252.863	79.75
253.096	88.75
253.329	88.75
253.562	78.75
253.795	90.75
254.028	69.75
254.261	63.75
254.494	83.75
254.727	80.75
254.96	83.75
255.193	85.75
255.426	88.75
255.659	84.75
255.892	92.75
256.124	112.75
256.357	94.75
256.59	105.75
256.823	90.75
257.056	74.75
257.289	106.75
257.521	99.75
257.754	103.75
257.987	100.75
258.22	115.75
258.452	124.75
258.685	118.75
258.918	82.75
259.151	85.75
259.383	82.75
259.616	87.75
259.849	96.75
260.081	85.75
260.314	86.75
260.547	94.75
260.779	110.75
261.012	142.75
261.244	136.75
261.477	106.75
261.71	116.75
261.942	141.75
262.175	141.75
262.407	110.75
262.64	81.75
262.872	86.75
263.105	94.75
263.337	107.75
263.57	85.75
263.802	74.75
264.035	87.75
264.267	89.75
264.499	84.75
264.732	88.75
264.964	92.75
265.197	87.75
265.429	75.75
265.661	77.75
265.894	85.75
266.126	89.75
266.358	98.75
266.591	74.75
266.823	83.75
267.055	79.75
267.287	73.75
267.52	79.75
267.752	81.75
267.984	69.75
268.216	97.75
268.448	91.75
268.681	90.75
268.913	99.75
269.145	91.75
269.377	103.75
269.609	94.75
269.841	95.75
270.073	89.75
270.306	91.75
270.538	93.75
270.77	91.75
271.002	83.75
271.234	80.75
271.466	97.75
271.698	90.75
271.93	81.75
272.162	81.75
272.394	89.75
272.626	81.75
272.858	98.75
273.09	92.75
273.322	86.75
273.553	81.75
273.785	83.75
274.017	89.75
274.249	74.75
274.481	89.75
274.713	87.75
274.945	85.75
275.176	89.75
275.408	110.75
275.64	149.75
275.872	168.75
276.104	135.75
276.335	111.75
276.567	157.75
276.799	166.75
277.031	248.75
277.262	321.75
277.494	221.75
277.726	114.75
277.957	103.75
278.189	96.75
278.421	90.75
278.652	91.75
278.884	94.75
279.115	90.75
279.347	104.75
279.579	116.75
279.81	176.75
280.042	310.75
280.273	471.75
280.505	297.75
280.736	125.75
280.968	105.75
281.199	100.75
281.431	110.75
281.662	92.75
281.894	95.75
282.125	114.75
282.356	141.75
282.588	153.75
282.819	138.75
283.051	99.75
283.282	83.75
283.513	90.75
283.745	96.75
283.976	95.75
284.207	83.75
284.439	86.75
284.67	85.75
284.901	99.75
285.132	88.75
285.364	83.75
285.595	93.75
285.826	77.75
286.057	105.75
286.288	99.75
286.52	104.75
286.751	82.75
286.982	93.75
287.213	93.75
287.444	88.75
287.675	85.75
287.906	91.75
288.138	100.75
288.369	105.75
288.6	103.75
288.831	111.75
289.062	91.75
289.293	89.75
289.524	87.75
289.755	98.75
289.986	80.75
290.217	102.75
290.448	93.75
290.679	78.75
290.91	99.75
291.141	93.75
291.371	92.75
291.602	93.75
291.833	94.75
292.064	88.75
292.295	85.75
292.526	103.75
292.757	88.75
292.987	81.75
293.218	89.75
293.449	99.75
293.68	83.75
293.91	103.75
294.141	86.75
294.372	87.75
294.603	115.75
294.833	104.75
295.064	87.75
295.295	95.75
295.525	104.75
295.756	101.75
295.987	135.75
296.217	167.75
296.448	136.75
296.679	111.75
296.909	100.75
297.14	85.75
297.37	81.75
297.601	96.75
297.831	73.75
298.062	89.75
298.292	85.75
298.523	89.75
298.753	96.75
298.984	95.75
299.214	86.75
299.445	114.75
299.675	106.75
299.905	95.75
300.136	113.75
300.366	104.75
300.597	92.75
300.827	96.75
301.057	97.75
301.288	119.75
301.518	107.75
301.748	117.75
301.979	127.75
302.209	105.75
302.439	86.75
302.669	101.75
302.9	85.75
303.13	99.75
303.36	117.75
303.59	166.75
303.82	196.75
304.051	114.75
304.281	85.75
304.511	90.75
304.741	103.75
304.971	81.75
305.201	93.75
305.431	94.75
305.661	99.75
305.891	98.75
306.121	99.75
306.352	111.75
306.582	129.75
306.812	138.75
307.042	170.75
307.272	230.75
307.502	275.75
307.731	237.75
307.961	173.75
308.191	109.75
308.421	103.75
308.651	85.75
308.881	87.75
309.111	116.75
309.341	115.75
309.571	110.75
309.8	111.75
310.03	109.75
310.26	116.75
310.49	96.75
310.72	129.75
310.949	119.75
311.179	117.75
311.409	95.75
311.639	98.75
311.868	97.75
312.098	106.75
312.328	89.75
312.557	118.75
312.787	125.75
313.017	106.75
313.246	103.75
313.476	104.75
313.706	104.75
313.935	114.75
314.165	115.75
314.394	118.75
314.624	101.75
314.853	115.75
315.083	108.75
315.312	88.75
315.542	105.75
315.771	96.75
316.001	90.75
316.23	93.75
316.46	81.75
316.689	101.75
316.919	108.75
317.148	95.75
317.377	100.75
317.607	95.75
317.836	110.75
318.065	99.75
318.295	92.75
318.524	99.75
318.753	108.75
318.983	93.75
319.212	119.75
319.441	115.75
319.67	103.75
319.9	96.75
320.129	91.75
320.358	85.75
320.587	102.75
320.816	117.75
321.046	119.75
321.275	112.75
321.504	101.75
321.733	109.75
321.962	97.75
322.191	96.75
322.42	109.75
322.649	126.75
322.878	120.75
323.108	117.75
323.337	141.75
323.566	156.75
323.795	160.75
324.024	203.75
324.253	361.75
324.482	799.75
324.71	1544.75
324.939	2037.75
325.168	778.75
325.397	254.75
325.626	158.75
325.855	134.75
326.084	132.75
326.313	149.75
326.542	164.75
326.77	245.75
326.999	404.75
327.228	797.75
327.457	1472.75
327.686	1215.75
327.914	605.75
328.143	805.75
328.372	1165.75
328.6	590.75
328.829	232.75
329.058	209.75
329.287	214.75
329.515	232.75
329.744	351.75
329.972	777.75
330.201	1765.75
330.43	2651.75
330.658	1071.75
330.887	368.75
331.115	218.75
331.344	149.75
331.572	133.75
331.801	131.75
332.03	133.75
332.258	127.75
332.486	128.75
332.715	135.75
332.943	141.75
333.172	130.75
333.4	155.75
333.629	209.75
333.857	296.75
334.085	646.75
334.314	1506.75
334.542	3068.75
334.771	2980.75
334.999	720.75
335.227	254.75
335.455	157.75
335.684	127.75
335.912	122.75
336.14	125.75
336.369	109.75
336.597	125.75
336.825	113.75
337.053	116.75
337.281	107.75
337.51	111.75
337.738	108.75
337.966	97.75
338.194	91.75
338.422	103.75
338.65	93.75
338.878	103.75
339.106	99.75
339.334	115.75
339.562	100.75
339.79	111.75
340.018	97.75
340.246	114.75
340.474	113.75
340.702	112.75
340.93	90.75
341.158	87.75
341.386	110.75
341.614	105.75
341.842	89.75
342.07	107.75
342.298	103.75
342.526	84.75
342.754	95.75
342.981	102.75
343.209	95.75
343.437	106.75
343.665	101.75
343.893	87.75
344.12	101.75
344.348	104.75
344.576	93.75
344.804	88.75
345.031	108.75
345.259	102.75
345.487	104.75
345.714	110.75
345.942	105.75
346.17	102.75
346.397	107.75
346.625	107.75
346.853	104.75
347.08	90.75
347.308	104.75
347.535	113.75
347.763	105.75
347.99	101.75
348.218	105.75
348.445	114.75
348.673	106.75
348.9	109.75
349.128	95.75
349.355	98.75
349.583	100.75
349.81	91.75
350.037	88.75
350.265	104.75
350.492	92.75
350.72	97.75
350.947	109.75
351.174	113.75
351.402	121.75
351.629	108.75
351.856	103.75
352.083	104.75
352.311	108.75
352.538	108.75
352.765	123.75
352.992	117.75
353.22	110.75
353.447	101.75
353.674	105.75
353.901	101.75
354.128	96.75
354.355	98.75
354.583	99.75
354.81	90.75
355.037	104.75
355.264	100.75
355.491	94.75
355.718	103.75
355.945	90.75
356.172	101.75
356.399	85.75
356.626	85.75
356.853	101.75
357.08	93.75
357.307	98.75
357.534	100.75
357.761	91.75
357.988	95.75
358.215	103.75
358.441	102.75
358.668	102.75
358.895	101.75
359.122	103.75
359.349	90.75
359.576	105.75
359.802	108.75
360.029	125.75
360.256	129.75
360.483	110.75
360.709	90.75
360.936	98.75
361.163	116.75
361.39	92.75
361.616	93.75
361.843	98.75
362.07	104.75
362.296	103.75
362.523	87.75
362.749	96.75
362.976	93.75
363.203	99.75
363.429	90.75
363.656	87.75
363.882	85.75
364.109	91.75
364.335	113.75
364.562	98.75
364.788	90.75
365.015	103.75
365.241	117.75
365.468	123.75
365.694	113.75
365.92	94.75
366.147	103.75
366.373	99.75
366.599	102.75
366.826	89.75
367.052	98.75
367.278	95.75
367.505	104.75
367.731	97.75
367.957	97.75
368.184	104.75
368.41	101.75
368.636	149.75
368.862	142.75
369.089	120.75
369.315	109.75
369.541	103.75
369.767	86.75
369.993	92.75
370.219	108.75
370.445	100.75
370.672	104.75
370.898	97.75
371.124	100.75
371.35	93.75
371.576	102.75
371.802	88.75
372.028	82.75
372.254	85.75
372.48	93.75
372.706	80.75
372.932	93.75
373.158	91.75
373.384	96.75
373.61	87.75
373.835	88.75
374.061	85.75
374.287	91.75
374.513	99.75
374.739	103.75
374.965	95.75
375.191	96.75
375.416	96.75
375.642	78.75
375.868	89.75
376.094	93.75
376.319	85.75
376.545	87.75
376.771	105.75
376.997	81.75
377.222	85.75
377.448	86.75
377.674	90.75
377.899	96.75
378.125	77.75
378.35	101.75
378.576	96.75
378.802	86.75
379.027	91.75
379.253	103.75
379.478	91.75
379.704	97.75
379.929	96.75
380.155	82.75
380.38	112.75
380.606	98.75
380.831	103.75
381.057	94.75
381.282	97.75
381.507	96.75
381.733	91.75
381.958	98.75
382.184	121.75
382.409	101.75
382.634	115.75
382.86	112.75
383.085	102.75
383.31	113.75
383.535	110.75
383.761	94.75
383.986	94.75
384.211	103.75
384.436	94.75
384.662	105.75
384.887	104.75
385.112	100.75
385.337	99.75
385.562	119.75
385.787	104.75
386.013	113.75
386.238	133.75
386.463	121.75
386.688	120.75
386.913	110.75
387.138	117.75
387.363	102.75
387.588	103.75
387.813	105.75
388.038	104.75
388.263	103.75
388.488	110.75
388.713	109.75
388.938	106.75
389.163	94.75
389.387	101.75
389.612	91.75
389.837	90.75
390.062	95.75
390.287	84.75
390.512	91.75
390.736	88.75
390.961	81.75
391.186	98.75
391.411	81.75
391.636	89.75
391.86	73.75
392.085	89.75
392.31	82.75
392.534	83.75
392.759	102.75
392.984	87.75
393.208	81.75
393.433	103.75
393.658	102.75
393.882	94.75
394.107	96.75
394.331	84.75
394.556	73.75
394.78	85.75
395.005	78.75
395.229	96.75
395.454	94.75
395.678	83.75
395.903	79.75
396.127	98.75
396.352	82.75
396.576	84.75
396.801	100.75
397.025	90.75
397.249	103.75
397.474	88.75
397.698	94.75
397.922	93.75
398.147	91.75
398.371	87.75
398.595	95.75
398.82	104.75
399.044	79.75
399.268	92.75
399.492	97.75
399.717	93.75
399.941	77.75
400.165	83.75
400.389	95.75
400.613	98.75
400.837	85.75
401.062	93.75
401.286	99.75
401.51	96.75
401.734	93.75
401.958	112.75
402.182	142.75
402.406	201.75
402.63	124.75
402.854	95.75
403.078	91.75
403.302	97.75
403.526	82.75
403.75	88.75
403.974	74.75
404.198	90.75
404.422	96.75
404.645	93.75
404.869	102.75
405.093	128.75
405.317	145.75
405.541	135.75
405.765	111.75
405.988	119.75
406.212	214.75
406.436	296.75
406.66	190.75
406.883	118.75
407.107	98.75
407.331	103.75
407.555	104.75
407.778	112.75
408.002	102.75
408.226	94.75
408.449	90.75
408.673	96.75
408.896	96.75
409.12	110.75
409.344	87.75
409.567	85.75
409.791	83.75
410.014	90.75
410.238	99.75
410.461	100.75
410.685	93.75
410.908	96.75
411.132	81.75
411.355	100.75
411.578	93.75
411.802	102.75
412.025	106.75
412.249	114.75
412.472	106.75
412.695	155.75
412.919	128.75
413.142	90.75
413.365	77.75
413.589	83.75
413.812	93.75
414.035	97.75
414.258	95.75
414.482	109.75
414.705	104.75
414.928	89.75
415.151	93.75
415.374	95.75
415.597	88.75
415.821	95.75
416.044	93.75
416.267	101.75
416.49	96.75
416.713	93.75
416.936	115.75
417.159	104.75
417.382	106.75
417.605	121.75
417.828	109.75
418.051	101.75
418.274	91.75
418.497	103.75
418.72	94.75
418.943	90.75
419.166	93.75
419.389	83.75
419.611	93.75
419.834	95.75
420.057	95.75
420.28	98.75
420.503	83.75
420.726	99.75
420.948	107.75
421.171	107.75
421.394	99.75
421.617	91.75
421.839	85.75
422.062	96.75
422.285	105.75
422.507	102.75
422.73	106.75
422.953	89.75
423.175	88.75
423.398	102.75
423.621	90.75
423.843	90.75
424.066	83.75
424.288	79.75
424.511	86.75
424.733	106.75
424.956	110.75
425.178	106.75
425.401	104.75
425.623	113.75
425.846	90.75
426.068	101.75
426.291	100.75
426.513	94.75
426.735	97.75
426.958	100.75
427.18	104.75
427.402	164.75
427.625	245.75
427.847	249.75
428.069	199.75
428.292	145.75
428.514	107.75
428.736	97.75
428.958	90.75
429.181	96.75
429.403	82.75
429.625	91.75
429.847	106.75
430.069	117.75
430.292	98.75
430.514	93.75
430.736	101.75
430.958	99.75
431.18	67.75
431.402	94.75
431.624	83.75
431.846	84.75
432.068	95.75
432.29	89.75
432.512	86.75
432.734	93.75
432.956	106.75
433.178	106.75
433.4	88.75
433.622	100.75
433.844	90.75
434.066	105.75
434.287	102.75
434.509	81.75
434.731	99.75
434.953	111.75
435.175	92.75
435.397	90.75
435.618	82.75
435.84	118.75
436.062	122.75
436.284	130.75
436.505	107.75
436.727	104.75
436.949	95.75
437.17	89.75
437.392	90.75
437.614	106.75
437.835	113.75
438.057	152.75
438.278	127.75
438.5	110.75
438.721	123.75
438.943	124.75
439.165	109.75
439.386	86.75
439.608	92.75
439.829	98.75
440.05	141.75
440.272	159.75
440.493	115.75
440.715	94.75
440.936	90.75
441.158	88.75
441.379	104.75
441.6	102.75
441.822	104.75
442.043	96.75
442.264	118.75
442.486	108.75
442.707	100.75
442.928	118.75
443.149	160.75
443.371	159.75
443.592	122.75
443.813	125.75
444.034	98.75
444.255	73.75
444.476	88.75
444.698	76.75
444.919	78.75
445.14	142.75
445.361	123.75
445.582	113.75
445.803	169.75
446.024	146.75
446.245	159.75
446.466	117.75
446.687	102.75
446.908	101.75
447.129	85.75
447.35	95.75
447.571	111.75
447.792	92.75
448.013	103.75
448.234	134.75
448.455	110.75
448.675	113.75
448.896	138.75
449.117	101.75
449.338	109.75
449.559	140.75
449.779	127.75
450	102.75
450.221	93.75
450.442	87.75
450.662	96.75
450.883	118.75
451.104	139.75
451.324	104.75
451.545	89.75
451.766	86.75
451.986	88.75
452.207	98.75
452.428	103.75
452.648	105.75
452.869	124.75
453.089	126.75
453.31	142.75
453.53	118.75
453.751	95.75
453.971	119.75
454.192	132.75
454.412	95.75
454.633	101.75
454.853	92.75
455.073	109.75
455.294	102.75
455.514	118.75
455.734	96.75
455.955	86.75
456.175	93.75
456.395	101.75
456.616	89.75
456.836	90.75
457.056	86.75
457.276	87.75
457.497	88.75
457.717	86.75
457.937	106.75
458.157	78.75
458.377	98.75
458.598	123.75
458.818	194.75
459.038	230.75
459.258	145.75
459.478	100.75
459.698	92.75
459.918	94.75
460.138	86.75
460.358	92.75
460.578	91.75
460.798	93.75
461.018	101.75
461.238	94.75
461.458	98.75
461.678	100.75
461.898	93.75
462.118	101.75
462.338	86.75
462.558	97.75
462.777	83.75
462.997	113.75
463.217	135.75
463.437	106.75
463.657	102.75
463.876	86.75
464.096	86.75
464.316	106.75
464.536	92.75
464.755	94.75
464.975	132.75
465.195	238.75
465.414	231.75
465.634	104.75
465.854	104.75
466.073	87.75
466.293	105.75
466.512	108.75
466.732	101.75
466.951	111.75
467.171	126.75
467.391	125.75
467.61	174.75
467.829	331.75
468.049	1154.75
468.268	1805.75
468.488	399.75
468.707	128.75
468.927	96.75
469.146	112.75
469.365	103.75
469.585	113.75
469.804	108.75
470.023	106.75
470.243	119.75
470.462	120.75
470.681	141.75
470.901	109.75
471.12	114.75
471.339	130.75
471.558	148.75
471.777	216.75
471.997	496.75
472.216	2168.75
472.435	4952.75
472.654	1037.75
472.873	244.75
473.092	141.75
473.311	114.75
473.53	105.75
473.749	109.75
473.968	98.75
474.187	125.75
474.406	107.75
474.625	107.75
474.844	82.75
475.063	93.75
475.282	103.75
475.501	83.75
475.72	105.75
475.939	89.75
476.158	95.75
476.377	93.75
476.596	104.75
476.814	107.75
477.033	105.75
477.252	102.75
477.471	89.75
477.69	93.75
477.908	90.75
478.127	102.75
478.346	93.75
478.564	118.75
478.783	116.75
479.002	115.75
479.22	122.75
479.439	143.75
479.658	159.75
479.876	146.75
480.095	153.75
480.313	167.75
480.532	235.75
480.751	450.75
480.969	1777.75
481.188	8059.75
481.406	4461.75
481.624	606.75
481.843	195.75
482.061	112.75
482.28	118.75
482.498	97.75
482.717	105.75
482.935	109.75
483.153	111.75
483.372	94.75
483.59	98.75
483.808	103.75
484.027	88.75
484.245	102.75
484.463	110.75
484.681	106.75
484.9	91.75
485.118	104.75
485.336	97.75
485.554	89.75
485.772	102.75
485.99	127.75
486.209	127.75
486.427	130.75
486.645	132.75
486.863	137.75
487.081	120.75
487.299	108.75
487.517	94.75
487.735	81.75
487.953	94.75
488.171	90.75
488.389	102.75
488.607	103.75
488.825	101.75
489.043	92.75
489.261	93.75
489.479	88.75
489.696	104.75
489.914	102.75
490.132	81.75
490.35	91.75
490.568	92.75
490.786	88.75
491.003	99.75
491.221	79.75
491.439	106.75
491.657	103.75
491.874	109.75
492.092	93.75
492.31	107.75
492.527	100.75
492.745	101.75
492.963	88.75
493.18	88.75
493.398	92.75
493.615	92.75
493.833	98.75
494.05	84.75
494.268	81.75
494.485	86.75
494.703	84.75
494.92	103.75
495.138	90.75
495.355	89.75
495.573	88.75
495.79	97.75
496.008	90.75
496.225	104.75
496.442	93.75
496.66	107.75
496.877	80.75
497.094	91.75
497.312	102.75
497.529	99.75
497.746	92.75
497.963	102.75
498.181	95.75
498.398	96.75
498.615	114.75
498.832	111.75
499.049	91.75
499.267	78.75
499.484	98.75
499.701	88.75
499.918	96.75
500.135	106.75
500.352	97.75
500.569	98.75
500.786	128.75
501.003	105.75
501.22	93.75
501.437	83.75
501.654	111.75
501.871	145.75
502.088	96.75
502.305	105.75
502.522	86.75
502.739	81.75
502.956	90.75
503.172	111.75
503.389	116.75
503.606	128.75
503.823	98.75
504.04	104.75
504.256	88.75
504.473	88.75
504.69	97.75
504.907	96.75
505.123	101.75
505.34	81.75
505.557	90.75
505.773	87.75
505.99	90.75
506.207	96.75
506.423	97.75
506.64	100.75
506.856	87.75
507.073	95.75
507.289	104.75
507.506	94.75
507.722	132.75
507.939	121.75
508.155	93.75
508.372	95.75
508.588	99.75
508.805	101.75
509.021	93.75
509.238	98.75
509.454	110.75
509.67	107.75
509.887	130.75
510.103	153.75
510.319	253.75
510.536	984.75
510.752	3435.75
510.968	915.75
511.184	200.75
511.401	126.75
