Data from Circ_1988_H10_HRD10591_00008.txt Node
Date: Wed Jan 03 12:05:36 EST 2024
User: Yrep
Spectrometer: HR+D1059
Trigger mode: 1
Integration Time (sec): 1.000000E-1
Scans to average: 1
Electric dark correction enabled: true
Nonlinearity correction enabled: false
Boxcar width: 0
XAxis mode: Wavelengths
Number of Pixels in Spectrum: 2048
>>>>>Begin Spectral Data<<<<<
223.165	-13.38
223.4	-13.38
223.635	-13.38
223.869	-20.38
224.104	-28.38
224.338	-17.38
224.573	-8.38
224.808	-13.38
225.042	-8.38
225.277	-1.38
225.511	-15.38
225.746	6.62
225.98	17.62
226.215	8.62
226.449	23.62
226.683	30.62
226.918	19.62
227.152	19.62
227.387	31.62
227.621	49.62
227.856	52.62
228.09	52.62
228.324	63.62
228.559	65.62
228.793	50.62
229.027	68.62
229.262	63.62
229.496	93.62
229.73	115.62
229.964	106.62
230.199	91.62
230.433	85.62
230.667	94.62
230.901	74.62
231.136	64.62
231.37	85.62
231.604	85.62
231.838	76.62
232.072	98.62
232.306	82.62
232.541	88.62
232.775	85.62
233.009	80.62
233.243	78.62
233.477	76.62
233.711	86.62
233.945	100.62
234.179	85.62
234.413	83.62
234.647	91.62
234.881	86.62
235.115	90.62
235.349	80.62
235.583	87.62
235.817	82.62
236.051	86.62
236.285	89.62
236.519	93.62
236.753	79.62
236.987	71.62
237.221	83.62
237.455	82.62
237.689	87.62
237.922	88.62
238.156	79.62
238.39	77.62
238.624	75.62
238.858	77.62
239.091	83.62
239.325	80.62
239.559	77.62
239.793	80.62
240.027	82.62
240.26	87.62
240.494	80.62
240.728	87.62
240.961	81.62
241.195	74.62
241.429	83.62
241.662	89.62
241.896	83.62
242.13	85.62
242.363	85.62
242.597	86.62
242.83	81.62
243.064	80.62
243.298	87.62
243.531	73.62
243.765	77.62
243.998	88.62
244.232	90.62
244.465	90.62
244.699	92.62
244.932	98.62
245.166	85.62
245.399	86.62
245.633	89.62
245.866	90.62
246.099	79.62
246.333	85.62
246.566	99.62
246.8	90.62
247.033	83.62
247.266	80.62
247.5	80.62
247.733	79.62
247.966	86.62
248.2	87.62
248.433	88.62
248.666	87.62
248.899	97.62
249.133	95.62
249.366	88.62
249.599	116.62
249.832	82.62
250.066	102.62
250.299	98.62
250.532	98.62
250.765	98.62
250.998	89.62
251.231	94.62
251.465	87.62
251.698	98.62
251.931	112.62
252.164	96.62
252.397	96.62
252.63	71.62
252.863	94.62
253.096	83.62
253.329	82.62
253.562	81.62
253.795	81.62
254.028	82.62
254.261	93.62
254.494	90.62
254.727	84.62
254.96	81.62
255.193	79.62
255.426	82.62
255.659	92.62
255.892	94.62
256.124	118.62
256.357	103.62
256.59	83.62
256.823	99.62
257.056	105.62
257.289	98.62
257.521	109.62
257.754	91.62
257.987	93.62
258.22	108.62
258.452	119.62
258.685	114.62
258.918	89.62
259.151	83.62
259.383	92.62
259.616	71.62
259.849	72.62
260.081	91.62
260.314	82.62
260.547	87.62
260.779	126.62
261.012	171.62
261.244	159.62
261.477	131.62
261.71	120.62
261.942	137.62
262.175	145.62
262.407	106.62
262.64	101.62
262.872	98.62
263.105	101.62
263.337	74.62
263.57	79.62
263.802	100.62
264.035	91.62
264.267	85.62
264.499	89.62
264.732	92.62
264.964	82.62
265.197	78.62
265.429	91.62
265.661	94.62
265.894	84.62
266.126	102.62
266.358	75.62
266.591	89.62
266.823	96.62
267.055	95.62
267.287	97.62
267.52	82.62
267.752	90.62
267.984	86.62
268.216	88.62
268.448	104.62
268.681	99.62
268.913	92.62
269.145	82.62
269.377	96.62
269.609	88.62
269.841	86.62
270.073	81.62
270.306	94.62
270.538	82.62
270.77	67.62
271.002	96.62
271.234	98.62
271.466	115.62
271.698	87.62
271.93	101.62
272.162	103.62
272.394	96.62
272.626	91.62
272.858	84.62
273.09	98.62
273.322	91.62
273.553	82.62
273.785	86.62
274.017	99.62
274.249	86.62
274.481	81.62
274.713	98.62
274.945	101.62
275.176	102.62
275.408	119.62
275.64	165.62
275.872	214.62
276.104	147.62
276.335	113.62
276.567	144.62
276.799	219.62
277.031	289.62
277.262	407.62
277.494	269.62
277.726	145.62
277.957	112.62
278.189	107.62
278.421	107.62
278.652	111.62
278.884	96.62
279.115	94.62
279.347	97.62
279.579	136.62
279.81	222.62
280.042	394.62
280.273	598.62
280.505	351.62
280.736	166.62
280.968	117.62
281.199	105.62
281.431	101.62
281.662	90.62
281.894	91.62
282.125	110.62
282.356	141.62
282.588	193.62
282.819	142.62
283.051	98.62
283.282	103.62
283.513	96.62
283.745	105.62
283.976	74.62
284.207	87.62
284.439	98.62
284.67	91.62
284.901	89.62
285.132	98.62
285.364	99.62
285.595	74.62
285.826	101.62
286.057	96.62
286.288	95.62
286.52	83.62
286.751	83.62
286.982	104.62
287.213	88.62
287.444	91.62
287.675	85.62
287.906	110.62
288.138	106.62
288.369	102.62
288.6	103.62
288.831	78.62
289.062	91.62
289.293	94.62
289.524	78.62
289.755	88.62
289.986	90.62
290.217	85.62
290.448	100.62
290.679	101.62
290.91	100.62
291.141	84.62
291.371	90.62
291.602	103.62
291.833	87.62
292.064	85.62
292.295	85.62
292.526	91.62
292.757	80.62
292.987	78.62
293.218	82.62
293.449	85.62
293.68	101.62
293.91	98.62
294.141	94.62
294.372	95.62
294.603	80.62
294.833	91.62
295.064	93.62
295.295	106.62
295.525	109.62
295.756	114.62
295.987	115.62
296.217	205.62
296.448	163.62
296.679	113.62
296.909	95.62
297.14	94.62
297.37	93.62
297.601	102.62
297.831	95.62
298.062	89.62
298.292	97.62
298.523	98.62
298.753	101.62
298.984	92.62
299.214	95.62
299.445	103.62
299.675	102.62
299.905	116.62
300.136	90.62
300.366	102.62
300.597	87.62
300.827	98.62
301.057	118.62
301.288	141.62
301.518	114.62
301.748	127.62
301.979	155.62
302.209	130.62
302.439	109.62
302.669	101.62
302.9	88.62
303.13	107.62
303.36	141.62
303.59	215.62
303.82	214.62
304.051	120.62
304.281	96.62
304.511	87.62
304.741	101.62
304.971	88.62
305.201	106.62
305.431	107.62
305.661	90.62
305.891	95.62
306.121	102.62
306.352	114.62
306.582	130.62
306.812	142.62
307.042	187.62
307.272	280.62
307.502	327.62
307.731	275.62
307.961	185.62
308.191	107.62
308.421	97.62
308.651	102.62
308.881	99.62
309.111	102.62
309.341	107.62
309.571	129.62
309.8	113.62
310.03	98.62
310.26	110.62
310.49	102.62
310.72	119.62
310.949	128.62
311.179	106.62
311.409	121.62
311.639	96.62
311.868	120.62
312.098	105.62
312.328	106.62
312.557	124.62
312.787	125.62
313.017	117.62
313.246	111.62
313.476	99.62
313.706	97.62
313.935	114.62
314.165	119.62
314.394	136.62
314.624	112.62
314.853	113.62
315.083	110.62
315.312	108.62
315.542	97.62
315.771	95.62
316.001	106.62
316.23	96.62
316.46	110.62
316.689	94.62
316.919	99.62
317.148	115.62
317.377	98.62
317.607	95.62
317.836	97.62
318.065	90.62
318.295	109.62
318.524	94.62
318.753	104.62
318.983	95.62
319.212	104.62
319.441	123.62
319.67	124.62
319.9	95.62
320.129	90.62
320.358	97.62
320.587	95.62
320.816	105.62
321.046	110.62
321.275	110.62
321.504	110.62
321.733	101.62
321.962	98.62
322.191	106.62
322.42	128.62
322.649	135.62
322.878	130.62
323.108	157.62
323.337	161.62
323.566	173.62
323.795	179.62
324.024	253.62
324.253	452.62
324.482	987.62
324.71	2010.62
324.939	2651.62
325.168	1021.62
325.397	316.62
325.626	186.62
325.855	142.62
326.084	161.62
326.313	135.62
326.542	175.62
326.77	270.62
326.999	490.62
327.228	960.62
327.457	1828.62
327.686	1568.62
327.914	753.62
328.143	1027.62
328.372	1477.62
328.6	742.62
328.829	296.62
329.058	233.62
329.287	242.62
329.515	258.62
329.744	472.62
329.972	982.62
330.201	2244.62
330.43	3263.62
330.658	1306.62
330.887	425.62
331.115	245.62
331.344	159.62
331.572	133.62
331.801	163.62
332.03	145.62
332.258	130.62
332.486	149.62
332.715	132.62
332.943	141.62
333.172	163.62
333.4	171.62
333.629	235.62
333.857	385.62
334.085	819.62
334.314	1898.62
334.542	3931.62
334.771	3646.62
334.999	839.62
335.227	276.62
335.455	166.62
335.684	157.62
335.912	130.62
336.14	121.62
336.369	130.62
336.597	125.62
336.825	105.62
337.053	115.62
337.281	113.62
337.51	108.62
337.738	111.62
337.966	113.62
338.194	114.62
338.422	112.62
338.65	94.62
338.878	97.62
339.106	94.62
339.334	89.62
339.562	112.62
339.79	105.62
340.018	111.62
340.246	114.62
340.474	109.62
340.702	97.62
340.93	95.62
341.158	105.62
341.386	112.62
341.614	102.62
341.842	109.62
342.07	102.62
342.298	94.62
342.526	91.62
342.754	97.62
342.981	88.62
343.209	90.62
343.437	102.62
343.665	101.62
343.893	95.62
344.12	114.62
344.348	98.62
344.576	101.62
344.804	111.62
345.031	110.62
345.259	118.62
345.487	105.62
345.714	111.62
345.942	101.62
346.17	88.62
346.397	115.62
346.625	122.62
346.853	103.62
347.08	100.62
347.308	94.62
347.535	120.62
347.763	121.62
347.99	114.62
348.218	104.62
348.445	123.62
348.673	123.62
348.9	108.62
349.128	93.62
349.355	93.62
349.583	101.62
349.81	97.62
350.037	107.62
350.265	114.62
350.492	108.62
350.72	104.62
350.947	97.62
351.174	123.62
351.402	122.62
351.629	104.62
351.856	114.62
352.083	125.62
352.311	116.62
352.538	138.62
352.765	115.62
352.992	113.62
353.22	113.62
353.447	103.62
353.674	94.62
353.901	94.62
354.128	102.62
354.355	90.62
354.583	111.62
354.81	110.62
355.037	99.62
355.264	92.62
355.491	100.62
355.718	100.62
355.945	114.62
356.172	111.62
356.399	103.62
356.626	92.62
356.853	89.62
357.08	90.62
357.307	105.62
357.534	95.62
357.761	101.62
357.988	121.62
358.215	116.62
358.441	115.62
358.668	116.62
358.895	115.62
359.122	112.62
359.349	96.62
359.576	91.62
359.802	117.62
360.029	155.62
360.256	153.62
360.483	107.62
360.709	77.62
360.936	116.62
361.163	102.62
361.39	115.62
361.616	104.62
361.843	97.62
362.07	114.62
362.296	125.62
362.523	89.62
362.749	99.62
362.976	96.62
363.203	111.62
363.429	89.62
363.656	112.62
363.882	95.62
364.109	93.62
364.335	101.62
364.562	87.62
364.788	91.62
365.015	99.62
365.241	114.62
365.468	136.62
365.694	126.62
365.92	113.62
366.147	103.62
366.373	105.62
366.599	110.62
366.826	97.62
367.052	101.62
367.278	98.62
367.505	110.62
367.731	106.62
367.957	115.62
368.184	94.62
368.41	118.62
368.636	118.62
368.862	133.62
369.089	132.62
369.315	112.62
369.541	108.62
369.767	97.62
369.993	87.62
370.219	97.62
370.445	87.62
370.672	90.62
370.898	81.62
371.124	89.62
371.35	90.62
371.576	87.62
371.802	97.62
372.028	96.62
372.254	83.62
372.48	101.62
372.706	92.62
372.932	91.62
373.158	92.62
373.384	95.62
373.61	106.62
373.835	99.62
374.061	88.62
374.287	95.62
374.513	111.62
374.739	107.62
374.965	101.62
375.191	101.62
375.416	102.62
375.642	97.62
375.868	91.62
376.094	88.62
376.319	98.62
376.545	102.62
376.771	92.62
376.997	117.62
377.222	101.62
377.448	92.62
377.674	93.62
377.899	96.62
378.125	100.62
378.35	104.62
378.576	114.62
378.802	126.62
379.027	108.62
379.253	112.62
379.478	123.62
379.704	120.62
379.929	120.62
380.155	120.62
380.38	110.62
380.606	119.62
380.831	120.62
381.057	123.62
381.282	130.62
381.507	118.62
381.733	114.62
381.958	125.62
382.184	122.62
382.409	121.62
382.634	128.62
382.86	130.62
383.085	135.62
383.31	133.62
383.535	132.62
383.761	141.62
383.986	126.62
384.211	143.62
384.436	141.62
384.662	151.62
384.887	170.62
385.112	165.62
385.337	169.62
385.562	174.62
385.787	163.62
386.013	160.62
386.238	192.62
386.463	176.62
386.688	157.62
386.913	165.62
387.138	167.62
387.363	139.62
387.588	130.62
387.813	146.62
388.038	159.62
388.263	198.62
388.488	170.62
388.713	105.62
388.938	91.62
389.163	104.62
389.387	93.62
389.612	99.62
389.837	92.62
390.062	89.62
390.287	93.62
390.512	89.62
390.736	93.62
390.961	84.62
391.186	92.62
391.411	87.62
391.636	94.62
391.86	84.62
392.085	90.62
392.31	88.62
392.534	86.62
392.759	81.62
392.984	105.62
393.208	105.62
393.433	116.62
393.658	113.62
393.882	78.62
394.107	80.62
394.331	94.62
394.556	88.62
394.78	99.62
395.005	102.62
395.229	96.62
395.454	88.62
395.678	94.62
395.903	101.62
396.127	100.62
396.352	115.62
396.576	100.62
396.801	98.62
397.025	96.62
397.249	103.62
397.474	83.62
397.698	93.62
397.922	107.62
398.147	90.62
398.371	83.62
398.595	72.62
398.82	84.62
399.044	85.62
399.268	82.62
399.492	66.62
399.717	80.62
399.941	95.62
400.165	92.62
400.389	98.62
400.613	91.62
400.837	94.62
401.062	102.62
401.286	92.62
401.51	115.62
401.734	106.62
401.958	111.62
402.182	127.62
402.406	221.62
402.63	146.62
402.854	108.62
403.078	100.62
403.302	91.62
403.526	83.62
403.75	101.62
403.974	86.62
404.198	93.62
404.422	98.62
404.645	92.62
404.869	102.62
405.093	129.62
405.317	155.62
405.541	140.62
405.765	131.62
405.988	161.62
406.212	221.62
406.436	335.62
406.66	230.62
406.883	130.62
407.107	112.62
407.331	114.62
407.555	109.62
407.778	101.62
408.002	89.62
408.226	96.62
408.449	98.62
408.673	96.62
408.896	105.62
409.12	97.62
409.344	98.62
409.567	99.62
409.791	82.62
410.014	92.62
410.238	86.62
410.461	98.62
410.685	103.62
410.908	108.62
411.132	114.62
411.355	107.62
411.578	80.62
411.802	93.62
412.025	86.62
412.249	95.62
412.472	131.62
412.695	147.62
412.919	122.62
413.142	107.62
413.365	104.62
413.589	106.62
413.812	100.62
414.035	111.62
414.258	107.62
414.482	81.62
414.705	97.62
414.928	106.62
415.151	99.62
415.374	98.62
415.597	94.62
415.821	95.62
416.044	116.62
416.267	100.62
416.49	99.62
416.713	92.62
416.936	111.62
417.159	97.62
417.382	118.62
417.605	133.62
417.828	135.62
418.051	122.62
418.274	100.62
418.497	100.62
418.72	99.62
418.943	91.62
419.166	86.62
419.389	105.62
419.611	119.62
419.834	101.62
420.057	110.62
420.28	97.62
420.503	95.62
420.726	87.62
420.948	108.62
421.171	113.62
421.394	107.62
421.617	92.62
421.839	95.62
422.062	99.62
422.285	122.62
422.507	117.62
422.73	138.62
422.953	118.62
423.175	97.62
423.398	93.62
423.621	85.62
423.843	95.62
424.066	92.62
424.288	91.62
424.511	100.62
424.733	110.62
424.956	133.62
425.178	107.62
425.401	116.62
425.623	118.62
425.846	95.62
426.068	99.62
426.291	107.62
426.513	97.62
426.735	96.62
426.958	104.62
427.18	114.62
427.402	172.62
427.625	274.62
427.847	266.62
428.069	227.62
428.292	161.62
428.514	118.62
428.736	83.62
428.958	92.62
429.181	91.62
429.403	97.62
429.625	80.62
429.847	95.62
430.069	110.62
430.292	101.62
430.514	89.62
430.736	85.62
430.958	88.62
431.18	90.62
431.402	86.62
431.624	86.62
431.846	94.62
432.068	86.62
432.29	97.62
432.512	91.62
432.734	100.62
432.956	98.62
433.178	94.62
433.4	117.62
433.622	101.62
433.844	98.62
434.066	94.62
434.287	95.62
434.509	99.62
434.731	109.62
434.953	86.62
435.175	90.62
435.397	91.62
435.618	87.62
435.84	107.62
436.062	125.62
436.284	123.62
436.505	96.62
436.727	104.62
436.949	87.62
437.17	95.62
437.392	89.62
437.614	88.62
437.835	118.62
438.057	161.62
438.278	138.62
438.5	116.62
438.721	138.62
438.943	107.62
439.165	105.62
439.386	93.62
439.608	94.62
439.829	113.62
440.05	139.62
440.272	175.62
440.493	106.62
440.715	101.62
440.936	83.62
441.158	86.62
441.379	93.62
441.6	113.62
441.822	114.62
442.043	107.62
442.264	113.62
442.486	103.62
442.707	105.62
442.928	134.62
443.149	175.62
443.371	193.62
443.592	152.62
443.813	131.62
444.034	119.62
444.255	89.62
444.476	91.62
444.698	85.62
444.919	90.62
445.14	146.62
445.361	137.62
445.582	125.62
445.803	171.62
446.024	165.62
446.245	152.62
446.466	121.62
446.687	107.62
446.908	102.62
447.129	100.62
447.35	90.62
447.571	88.62
447.792	104.62
448.013	118.62
448.234	119.62
448.455	113.62
448.675	112.62
448.896	133.62
449.117	109.62
449.338	125.62
449.559	137.62
449.779	151.62
450	101.62
450.221	95.62
450.442	93.62
450.662	102.62
450.883	133.62
451.104	150.62
451.324	106.62
451.545	101.62
451.766	112.62
451.986	93.62
452.207	89.62
452.428	103.62
452.648	106.62
452.869	146.62
453.089	152.62
453.31	162.62
453.53	115.62
453.751	112.62
453.971	129.62
454.192	141.62
454.412	99.62
454.633	99.62
454.853	85.62
455.073	96.62
455.294	110.62
455.514	105.62
455.734	89.62
455.955	107.62
456.175	96.62
456.395	79.62
456.616	85.62
456.836	97.62
457.056	88.62
457.276	91.62
457.497	95.62
457.717	96.62
457.937	100.62
458.157	84.62
458.377	102.62
458.598	138.62
458.818	230.62
459.038	238.62
459.258	157.62
459.478	89.62
459.698	106.62
459.918	94.62
460.138	97.62
460.358	86.62
460.578	95.62
460.798	95.62
461.018	89.62
461.238	93.62
461.458	93.62
461.678	86.62
461.898	95.62
462.118	82.62
462.338	104.62
462.558	105.62
462.777	117.62
462.997	124.62
463.217	150.62
463.437	125.62
463.657	90.62
463.876	95.62
464.096	95.62
464.316	114.62
464.536	99.62
464.755	111.62
464.975	146.62
465.195	273.62
465.414	256.62
465.634	115.62
465.854	89.62
466.073	103.62
466.293	102.62
466.512	95.62
466.732	104.62
466.951	107.62
467.171	115.62
467.391	157.62
467.61	202.62
467.829	409.62
468.049	1456.62
468.268	2289.62
468.488	478.62
468.707	171.62
468.927	120.62
469.146	121.62
469.365	109.62
469.585	102.62
469.804	112.62
470.023	122.62
470.243	120.62
470.462	136.62
470.681	159.62
470.901	121.62
471.12	111.62
471.339	125.62
471.558	153.62
471.777	228.62
471.997	605.62
472.216	2561.62
472.435	6043.62
472.654	1248.62
472.873	291.62
473.092	144.62
473.311	127.62
473.53	118.62
473.749	109.62
473.968	107.62
474.187	122.62
474.406	114.62
474.625	117.62
474.844	102.62
475.063	106.62
475.282	90.62
475.501	93.62
475.72	107.62
475.939	82.62
476.158	93.62
476.377	105.62
476.596	96.62
476.814	99.62
477.033	110.62
477.252	93.62
477.471	84.62
477.69	117.62
477.908	101.62
478.127	104.62
478.346	98.62
478.564	117.62
478.783	122.62
479.002	129.62
479.22	124.62
479.439	139.62
479.658	150.62
479.876	146.62
480.095	157.62
480.313	193.62
480.532	270.62
480.751	518.62
480.969	2150.62
481.188	9638.62
481.406	5372.62
481.624	669.62
481.843	211.62
482.061	142.62
482.28	141.62
482.498	124.62
482.717	123.62
482.935	118.62
483.153	114.62
483.372	102.62
483.59	98.62
483.808	94.62
484.027	88.62
484.245	96.62
484.463	118.62
484.681	104.62
484.9	102.62
485.118	104.62
485.336	98.62
485.554	88.62
485.772	109.62
485.99	112.62
486.209	129.62
486.427	105.62
486.645	136.62
486.863	133.62
487.081	134.62
487.299	114.62
487.517	98.62
487.735	101.62
487.953	105.62
488.171	100.62
488.389	108.62
488.607	110.62
488.825	102.62
489.043	93.62
489.261	101.62
489.479	91.62
489.696	109.62
489.914	87.62
490.132	99.62
490.35	85.62
490.568	87.62
490.786	86.62
491.003	96.62
491.221	97.62
491.439	121.62
491.657	103.62
491.874	123.62
492.092	97.62
492.31	88.62
492.527	115.62
492.745	98.62
492.963	98.62
493.18	106.62
493.398	90.62
493.615	98.62
493.833	106.62
494.05	95.62
494.268	98.62
494.485	92.62
494.703	85.62
494.92	90.62
495.138	91.62
495.355	107.62
495.573	106.62
495.79	97.62
496.008	124.62
496.225	108.62
496.442	89.62
496.66	107.62
496.877	99.62
497.094	102.62
497.312	91.62
497.529	95.62
497.746	96.62
497.963	102.62
498.181	103.62
498.398	94.62
498.615	122.62
498.832	131.62
499.049	103.62
499.267	95.62
499.484	102.62
499.701	100.62
499.918	99.62
500.135	103.62
500.352	98.62
500.569	107.62
500.786	117.62
501.003	89.62
501.22	93.62
501.437	102.62
501.654	110.62
501.871	128.62
502.088	108.62
502.305	95.62
502.522	83.62
502.739	110.62
502.956	94.62
503.172	103.62
503.389	100.62
503.606	131.62
503.823	114.62
504.04	101.62
504.256	85.62
504.473	89.62
504.69	96.62
504.907	89.62
505.123	88.62
505.34	98.62
505.557	98.62
505.773	101.62
505.99	102.62
506.207	97.62
506.423	89.62
506.64	85.62
506.856	95.62
507.073	100.62
507.289	97.62
507.506	106.62
507.722	145.62
507.939	144.62
508.155	130.62
508.372	94.62
508.588	94.62
508.805	109.62
509.021	109.62
509.238	104.62
509.454	110.62
509.67	107.62
509.887	122.62
