Data from Circ_1988_H10_HRD10591_00024.txt Node
Date: Wed Jan 03 12:05:39 EST 2024
User: Yrep
Spectrometer: HR+D1059
Trigger mode: 1
Integration Time (sec): 1.000000E-1
Scans to average: 1
Electric dark correction enabled: true
Nonlinearity correction enabled: false
Boxcar width: 0
XAxis mode: Wavelengths
Number of Pixels in Spectrum: 2048
>>>>>Begin Spectral Data<<<<<
223.165	-22.12
223.4	-22.12
223.635	-22.12
223.869	-7.12
224.104	-14.12
224.338	-15.12
224.573	-13.12
224.808	-7.12
225.042	-13.12
225.277	-4.12
225.511	2.88
225.746	6.88
225.98	1.88
226.215	6.88
226.449	16.88
226.683	18.88
226.918	18.88
227.152	22.88
227.387	47.88
227.621	32.88
227.856	36.88
228.09	40.88
228.324	46.88
228.559	55.88
228.793	52.88
229.027	71.88
229.262	54.88
229.496	85.88
229.73	76.88
229.964	94.88
230.199	77.88
230.433	71.88
230.667	75.88
230.901	83.88
231.136	69.88
231.37	82.88
231.604	85.88
231.838	75.88
232.072	65.88
232.306	80.88
232.541	79.88
232.775	74.88
233.009	85.88
233.243	78.88
233.477	78.88
233.711	88.88
233.945	69.88
234.179	77.88
234.413	71.88
234.647	81.88
234.881	72.88
235.115	87.88
235.349	84.88
235.583	91.88
235.817	88.88
236.051	80.88
236.285	69.88
236.519	85.88
236.753	79.88
236.987	71.88
237.221	80.88
237.455	93.88
237.689	77.88
237.922	80.88
238.156	66.88
238.39	81.88
238.624	78.88
238.858	78.88
239.091	82.88
239.325	86.88
239.559	83.88
239.793	96.88
240.027	86.88
240.26	72.88
240.494	77.88
240.728	74.88
240.961	74.88
241.195	86.88
241.429	62.88
241.662	69.88
241.896	72.88
242.13	79.88
242.363	71.88
242.597	84.88
242.83	88.88
243.064	82.88
243.298	74.88
243.531	94.88
243.765	76.88
243.998	71.88
244.232	82.88
244.465	101.88
244.699	84.88
244.932	71.88
245.166	76.88
245.399	63.88
245.633	85.88
245.866	88.88
246.099	80.88
246.333	83.88
246.566	76.88
246.8	68.88
247.033	92.88
247.266	76.88
247.5	85.88
247.733	85.88
247.966	77.88
248.2	79.88
248.433	96.88
248.666	87.88
248.899	88.88
249.133	104.88
249.366	106.88
249.599	87.88
249.832	89.88
250.066	100.88
250.299	91.88
250.532	95.88
250.765	84.88
250.998	95.88
251.231	86.88
251.465	92.88
251.698	85.88
251.931	91.88
252.164	90.88
252.397	85.88
252.63	86.88
252.863	84.88
253.096	67.88
253.329	90.88
253.562	81.88
253.795	68.88
254.028	87.88
254.261	82.88
254.494	77.88
254.727	86.88
254.96	90.88
255.193	70.88
255.426	74.88
255.659	100.88
255.892	121.88
256.124	127.88
256.357	84.88
256.59	94.88
256.823	98.88
257.056	97.88
257.289	97.88
257.521	88.88
257.754	99.88
257.987	88.88
258.22	113.88
258.452	127.88
258.685	99.88
258.918	94.88
259.151	91.88
259.383	88.88
259.616	79.88
259.849	67.88
260.081	87.88
260.314	96.88
260.547	83.88
260.779	110.88
261.012	146.88
261.244	143.88
261.477	123.88
261.71	112.88
261.942	138.88
262.175	146.88
262.407	102.88
262.64	84.88
262.872	88.88
263.105	89.88
263.337	91.88
263.57	76.88
263.802	70.88
264.035	80.88
264.267	92.88
264.499	85.88
264.732	79.88
264.964	77.88
265.197	79.88
265.429	71.88
265.661	87.88
265.894	92.88
266.126	99.88
266.358	93.88
266.591	85.88
266.823	92.88
267.055	88.88
267.287	87.88
267.52	99.88
267.752	82.88
267.984	76.88
268.216	74.88
268.448	86.88
268.681	83.88
268.913	109.88
269.145	86.88
269.377	82.88
269.609	68.88
269.841	81.88
270.073	94.88
270.306	92.88
270.538	80.88
270.77	85.88
271.002	85.88
271.234	91.88
271.466	131.88
271.698	100.88
271.93	71.88
272.162	71.88
272.394	92.88
272.626	94.88
272.858	92.88
273.09	92.88
273.322	94.88
273.553	72.88
273.785	96.88
274.017	100.88
274.249	99.88
274.481	81.88
274.713	90.88
274.945	103.88
275.176	99.88
275.408	126.88
275.64	156.88
275.872	186.88
276.104	133.88
276.335	109.88
276.567	144.88
276.799	210.88
277.031	282.88
277.262	372.88
277.494	268.88
277.726	140.88
277.957	104.88
278.189	102.88
278.421	94.88
278.652	102.88
278.884	102.88
279.115	108.88
279.347	113.88
279.579	144.88
279.81	224.88
280.042	371.88
280.273	580.88
280.505	368.88
280.736	160.88
280.968	105.88
281.199	95.88
281.431	86.88
281.662	104.88
281.894	86.88
282.125	99.88
282.356	155.88
282.588	190.88
282.819	136.88
283.051	86.88
283.282	104.88
283.513	75.88
283.745	86.88
283.976	96.88
284.207	92.88
284.439	80.88
284.67	69.88
284.901	84.88
285.132	91.88
285.364	99.88
285.595	84.88
285.826	87.88
286.057	81.88
286.288	84.88
286.52	84.88
286.751	75.88
286.982	79.88
287.213	83.88
287.444	91.88
287.675	78.88
287.906	81.88
288.138	100.88
288.369	86.88
288.6	78.88
288.831	87.88
289.062	96.88
289.293	88.88
289.524	99.88
289.755	77.88
289.986	89.88
290.217	87.88
290.448	91.88
290.679	80.88
290.91	101.88
291.141	101.88
291.371	94.88
291.602	90.88
291.833	88.88
292.064	96.88
292.295	88.88
292.526	82.88
292.757	90.88
292.987	80.88
293.218	82.88
293.449	101.88
293.68	95.88
293.91	85.88
294.141	76.88
294.372	86.88
294.603	92.88
294.833	102.88
295.064	97.88
295.295	94.88
295.525	88.88
295.756	112.88
295.987	131.88
296.217	186.88
296.448	157.88
296.679	87.88
296.909	95.88
297.14	90.88
297.37	99.88
297.601	92.88
297.831	94.88
298.062	84.88
298.292	85.88
298.523	87.88
298.753	93.88
298.984	92.88
299.214	102.88
299.445	94.88
299.675	99.88
299.905	108.88
300.136	96.88
300.366	93.88
300.597	91.88
300.827	99.88
301.057	103.88
301.288	124.88
301.518	110.88
301.748	108.88
301.979	135.88
302.209	109.88
302.439	84.88
302.669	90.88
302.9	92.88
303.13	104.88
303.36	123.88
303.59	184.88
303.82	202.88
304.051	139.88
304.281	93.88
304.511	94.88
304.741	86.88
304.971	86.88
305.201	77.88
305.431	92.88
305.661	92.88
305.891	105.88
306.121	103.88
306.352	123.88
306.582	130.88
306.812	133.88
307.042	186.88
307.272	270.88
307.502	325.88
307.731	282.88
307.961	178.88
308.191	110.88
308.421	102.88
308.651	99.88
308.881	84.88
309.111	89.88
309.341	111.88
309.571	111.88
309.8	103.88
310.03	106.88
310.26	97.88
310.49	101.88
310.72	105.88
310.949	119.88
311.179	103.88
311.409	111.88
311.639	103.88
311.868	105.88
312.098	110.88
312.328	98.88
312.557	114.88
312.787	116.88
313.017	120.88
313.246	99.88
313.476	115.88
313.706	98.88
313.935	109.88
314.165	95.88
314.394	115.88
314.624	107.88
314.853	112.88
315.083	113.88
315.312	95.88
315.542	95.88
315.771	88.88
316.001	101.88
316.23	85.88
316.46	92.88
316.689	98.88
316.919	99.88
317.148	105.88
317.377	101.88
317.607	112.88
317.836	101.88
318.065	91.88
318.295	84.88
318.524	92.88
318.753	106.88
318.983	86.88
319.212	100.88
319.441	117.88
319.67	114.88
319.9	101.88
320.129	83.88
320.358	110.88
320.587	87.88
320.816	116.88
321.046	116.88
321.275	99.88
321.504	87.88
321.733	101.88
321.962	94.88
322.191	106.88
322.42	107.88
322.649	122.88
322.878	113.88
323.108	123.88
323.337	143.88
323.566	159.88
323.795	180.88
324.024	229.88
324.253	438.88
324.482	899.88
324.71	1845.88
324.939	2530.88
325.168	990.88
325.397	291.88
325.626	186.88
325.855	160.88
326.084	141.88
326.313	158.88
326.542	170.88
326.77	236.88
326.999	463.88
327.228	954.88
327.457	1717.88
327.686	1478.88
327.914	726.88
328.143	992.88
328.372	1397.88
328.6	688.88
328.829	264.88
329.058	247.88
329.287	236.88
329.515	246.88
329.744	434.88
329.972	941.88
330.201	2096.88
330.43	3186.88
330.658	1273.88
330.887	404.88
331.115	235.88
331.344	152.88
331.572	141.88
331.801	138.88
332.03	143.88
332.258	113.88
332.486	126.88
332.715	138.88
332.943	128.88
333.172	157.88
333.4	175.88
333.629	215.88
333.857	355.88
334.085	793.88
334.314	1805.88
334.542	3745.88
334.771	3526.88
334.999	824.88
335.227	251.88
335.455	156.88
335.684	137.88
335.912	129.88
336.14	122.88
336.369	130.88
336.597	128.88
336.825	114.88
337.053	100.88
337.281	86.88
337.51	97.88
337.738	104.88
337.966	100.88
338.194	122.88
338.422	109.88
338.65	109.88
338.878	94.88
339.106	87.88
339.334	99.88
339.562	109.88
339.79	97.88
340.018	98.88
340.246	93.88
340.474	95.88
340.702	98.88
340.93	99.88
341.158	100.88
341.386	99.88
341.614	101.88
341.842	94.88
342.07	95.88
342.298	93.88
342.526	103.88
342.754	86.88
342.981	86.88
343.209	98.88
343.437	86.88
343.665	84.88
343.893	87.88
344.12	86.88
344.348	99.88
344.576	75.88
344.804	78.88
345.031	104.88
345.259	121.88
345.487	120.88
345.714	99.88
345.942	100.88
346.17	100.88
346.397	89.88
346.625	95.88
346.853	105.88
347.08	100.88
347.308	95.88
347.535	110.88
347.763	100.88
347.99	101.88
348.218	132.88
348.445	118.88
348.673	112.88
348.9	94.88
349.128	111.88
349.355	88.88
349.583	87.88
349.81	95.88
350.037	99.88
350.265	100.88
350.492	111.88
350.72	89.88
350.947	87.88
351.174	111.88
351.402	100.88
351.629	102.88
351.856	113.88
352.083	126.88
352.311	122.88
352.538	112.88
352.765	115.88
352.992	116.88
353.22	135.88
353.447	105.88
353.674	84.88
353.901	83.88
354.128	88.88
354.355	86.88
354.583	97.88
354.81	104.88
355.037	98.88
355.264	95.88
355.491	87.88
355.718	85.88
355.945	87.88
356.172	105.88
356.399	79.88
356.626	107.88
356.853	109.88
357.08	85.88
357.307	73.88
357.534	110.88
357.761	91.88
357.988	98.88
358.215	98.88
358.441	106.88
358.668	101.88
358.895	89.88
359.122	103.88
359.349	94.88
359.576	115.88
359.802	97.88
360.029	134.88
360.256	149.88
360.483	127.88
360.709	96.88
360.936	109.88
361.163	102.88
361.39	95.88
361.616	108.88
361.843	98.88
362.07	97.88
362.296	110.88
362.523	92.88
362.749	84.88
362.976	96.88
363.203	91.88
363.429	78.88
363.656	101.88
363.882	78.88
364.109	97.88
364.335	100.88
364.562	92.88
364.788	84.88
365.015	95.88
365.241	102.88
365.468	114.88
365.694	116.88
365.92	104.88
366.147	93.88
366.373	80.88
366.599	85.88
366.826	90.88
367.052	94.88
367.278	94.88
367.505	82.88
367.731	95.88
367.957	111.88
368.184	95.88
368.41	110.88
368.636	120.88
368.862	140.88
369.089	118.88
369.315	100.88
369.541	86.88
369.767	92.88
369.993	90.88
370.219	102.88
370.445	81.88
370.672	82.88
370.898	78.88
371.124	79.88
371.35	80.88
371.576	80.88
371.802	102.88
372.028	89.88
372.254	88.88
372.48	80.88
372.706	96.88
372.932	78.88
373.158	85.88
373.384	100.88
373.61	89.88
373.835	89.88
374.061	83.88
374.287	101.88
374.513	95.88
374.739	85.88
374.965	91.88
375.191	93.88
375.416	95.88
375.642	94.88
375.868	106.88
376.094	83.88
376.319	89.88
376.545	92.88
376.771	88.88
376.997	83.88
377.222	95.88
377.448	113.88
377.674	92.88
377.899	83.88
378.125	91.88
378.35	93.88
378.576	87.88
378.802	98.88
379.027	91.88
379.253	100.88
379.478	99.88
379.704	104.88
379.929	104.88
380.155	99.88
380.38	111.88
380.606	107.88
380.831	105.88
381.057	117.88
381.282	98.88
381.507	116.88
381.733	108.88
381.958	119.88
382.184	114.88
382.409	115.88
382.634	122.88
382.86	107.88
383.085	127.88
383.31	101.88
383.535	113.88
383.761	105.88
383.986	123.88
384.211	110.88
384.436	122.88
384.662	114.88
384.887	114.88
385.112	134.88
385.337	132.88
385.562	132.88
385.787	155.88
386.013	148.88
386.238	148.88
386.463	149.88
386.688	135.88
386.913	135.88
387.138	142.88
387.363	130.88
387.588	97.88
387.813	116.88
388.038	131.88
388.263	140.88
388.488	175.88
388.713	104.88
388.938	86.88
389.163	83.88
389.387	77.88
389.612	81.88
389.837	86.88
390.062	89.88
390.287	101.88
390.512	82.88
390.736	92.88
390.961	82.88
391.186	83.88
391.411	103.88
391.636	83.88
391.86	81.88
392.085	93.88
392.31	86.88
392.534	88.88
392.759	87.88
392.984	87.88
393.208	91.88
393.433	93.88
393.658	99.88
393.882	94.88
394.107	98.88
394.331	95.88
394.556	87.88
394.78	91.88
395.005	98.88
395.229	86.88
395.454	89.88
395.678	86.88
395.903	79.88
396.127	88.88
396.352	96.88
396.576	92.88
396.801	94.88
397.025	94.88
397.249	97.88
397.474	94.88
397.698	86.88
397.922	80.88
398.147	79.88
398.371	86.88
398.595	94.88
398.82	87.88
399.044	90.88
399.268	88.88
399.492	92.88
399.717	86.88
399.941	84.88
400.165	101.88
400.389	99.88
400.613	82.88
400.837	78.88
401.062	82.88
401.286	88.88
401.51	101.88
401.734	90.88
401.958	112.88
402.182	157.88
402.406	209.88
402.63	150.88
402.854	84.88
403.078	84.88
403.302	94.88
403.526	91.88
403.75	100.88
403.974	79.88
404.198	81.88
404.422	97.88
404.645	93.88
404.869	102.88
405.093	128.88
405.317	141.88
405.541	138.88
405.765	136.88
405.988	154.88
406.212	224.88
406.436	326.88
406.66	220.88
406.883	138.88
407.107	110.88
407.331	117.88
407.555	111.88
407.778	113.88
408.002	95.88
408.226	98.88
408.449	86.88
408.673	88.88
408.896	101.88
409.12	101.88
409.344	88.88
409.567	90.88
409.791	94.88
410.014	87.88
410.238	85.88
410.461	89.88
410.685	88.88
410.908	88.88
411.132	96.88
411.355	102.88
411.578	90.88
411.802	80.88
412.025	95.88
412.249	112.88
412.472	110.88
412.695	161.88
412.919	106.88
413.142	104.88
413.365	81.88
413.589	96.88
413.812	93.88
414.035	87.88
414.258	101.88
414.482	96.88
414.705	83.88
414.928	90.88
415.151	93.88
415.374	99.88
415.597	93.88
415.821	96.88
416.044	88.88
416.267	78.88
416.49	69.88
416.713	94.88
416.936	95.88
417.159	111.88
417.382	103.88
417.605	123.88
417.828	112.88
418.051	115.88
418.274	100.88
418.497	85.88
418.72	84.88
418.943	91.88
419.166	95.88
419.389	90.88
419.611	105.88
419.834	106.88
420.057	99.88
420.28	90.88
420.503	91.88
420.726	76.88
420.948	93.88
421.171	104.88
421.394	98.88
421.617	72.88
421.839	81.88
422.062	100.88
422.285	120.88
422.507	99.88
422.73	112.88
422.953	105.88
423.175	83.88
423.398	101.88
423.621	78.88
423.843	84.88
424.066	80.88
424.288	100.88
424.511	93.88
424.733	102.88
424.956	128.88
425.178	123.88
425.401	98.88
425.623	103.88
425.846	97.88
426.068	115.88
426.291	98.88
426.513	82.88
426.735	85.88
426.958	108.88
427.18	132.88
427.402	174.88
427.625	278.88
427.847	259.88
428.069	219.88
428.292	156.88
428.514	109.88
428.736	106.88
428.958	88.88
429.181	88.88
429.403	87.88
429.625	95.88
429.847	100.88
430.069	117.88
430.292	101.88
430.514	84.88
430.736	95.88
430.958	78.88
431.18	92.88
431.402	72.88
431.624	78.88
431.846	78.88
432.068	71.88
432.29	87.88
432.512	87.88
432.734	77.88
432.956	86.88
433.178	103.88
433.4	105.88
433.622	100.88
433.844	90.88
434.066	97.88
434.287	88.88
434.509	79.88
434.731	90.88
434.953	82.88
435.175	77.88
435.397	98.88
435.618	103.88
435.84	92.88
436.062	121.88
436.284	123.88
436.505	96.88
436.727	105.88
436.949	92.88
437.17	85.88
437.392	79.88
437.614	95.88
437.835	118.88
438.057	152.88
438.278	119.88
438.5	115.88
438.721	125.88
438.943	115.88
439.165	97.88
439.386	94.88
439.608	91.88
439.829	109.88
440.05	139.88
440.272	150.88
440.493	109.88
440.715	98.88
440.936	100.88
441.158	88.88
441.379	86.88
441.6	106.88
441.822	97.88
442.043	84.88
442.264	119.88
442.486	112.88
442.707	98.88
442.928	127.88
443.149	181.88
443.371	172.88
443.592	128.88
443.813	115.88
444.034	112.88
444.255	98.88
444.476	83.88
444.698	90.88
444.919	82.88
445.14	140.88
445.361	124.88
445.582	135.88
445.803	179.88
446.024	144.88
446.245	143.88
446.466	132.88
446.687	92.88
446.908	89.88
447.129	78.88
447.35	84.88
447.571	88.88
447.792	91.88
448.013	100.88
448.234	130.88
448.455	109.88
448.675	123.88
448.896	131.88
449.117	109.88
449.338	101.88
449.559	141.88
449.779	124.88
450	92.88
450.221	101.88
450.442	90.88
450.662	98.88
450.883	118.88
451.104	133.88
451.324	96.88
451.545	96.88
451.766	83.88
451.986	96.88
452.207	99.88
452.428	91.88
452.648	105.88
452.869	124.88
453.089	140.88
453.31	148.88
453.53	113.88
453.751	115.88
453.971	107.88
454.192	125.88
454.412	108.88
454.633	100.88
454.853	77.88
455.073	96.88
455.294	85.88
455.514	104.88
455.734	91.88
455.955	84.88
456.175	100.88
456.395	76.88
456.616	85.88
456.836	88.88
457.056	83.88
457.276	91.88
457.497	79.88
457.717	83.88
457.937	88.88
458.157	83.88
458.377	101.88
458.598	138.88
458.818	215.88
459.038	249.88
459.258	155.88
459.478	93.88
459.698	90.88
459.918	86.88
460.138	91.88
460.358	78.88
460.578	91.88
460.798	94.88
461.018	97.88
461.238	91.88
461.458	92.88
461.678	87.88
461.898	78.88
462.118	114.88
462.338	96.88
462.558	77.88
462.777	99.88
462.997	111.88
463.217	149.88
463.437	119.88
463.657	101.88
463.876	89.88
464.096	102.88
464.316	92.88
464.536	91.88
464.755	108.88
464.975	129.88
465.195	252.88
465.414	246.88
465.634	105.88
465.854	95.88
466.073	87.88
466.293	79.88
466.512	97.88
466.732	114.88
466.951	101.88
467.171	97.88
467.391	132.88
467.61	208.88
467.829	396.88
468.049	1417.88
468.268	2196.88
468.488	455.88
468.707	156.88
468.927	104.88
469.146	108.88
469.365	111.88
469.585	102.88
469.804	96.88
470.023	130.88
470.243	110.88
470.462	121.88
470.681	150.88
470.901	122.88
471.12	112.88
471.339	141.88
471.558	167.88
471.777	228.88
471.997	583.88
472.216	2527.88
472.435	5890.88
472.654	1220.88
472.873	287.88
473.092	144.88
473.311	117.88
473.53	109.88
473.749	107.88
473.968	112.88
474.187	141.88
474.406	111.88
474.625	110.88
474.844	98.88
475.063	89.88
475.282	108.88
475.501	85.88
475.72	95.88
475.939	90.88
476.158	101.88
476.377	106.88
476.596	85.88
476.814	118.88
477.033	112.88
477.252	84.88
477.471	95.88
477.69	95.88
477.908	111.88
478.127	113.88
478.346	112.88
478.564	110.88
478.783	123.88
479.002	111.88
479.22	140.88
479.439	147.88
479.658	159.88
479.876	149.88
480.095	153.88
480.313	171.88
480.532	274.88
480.751	517.88
480.969	2084.88
481.188	9374.88
481.406	5137.88
481.624	646.88
481.843	193.88
482.061	148.88
482.28	120.88
482.498	112.88
482.717	108.88
482.935	102.88
483.153	92.88
483.372	96.88
483.59	100.88
483.808	91.88
484.027	95.88
484.245	92.88
484.463	99.88
484.681	113.88
484.9	97.88
485.118	95.88
485.336	107.88
485.554	90.88
485.772	106.88
485.99	95.88
486.209	111.88
486.427	117.88
486.645	122.88
486.863	138.88
487.081	118.88
487.299	102.88
487.517	100.88
487.735	96.88
487.953	101.88
488.171	102.88
488.389	102.88
488.607	101.88
488.825	96.88
489.043	88.88
489.261	86.88
489.479	90.88
489.696	85.88
489.914	86.88
490.132	89.88
490.35	97.88
490.568	89.88
490.786	92.88
491.003	88.88
491.221	100.88
491.439	112.88
491.657	96.88
491.874	91.88
492.092	86.88
492.31	98.88
492.527	103.88
492.745	117.88
492.963	108.88
493.18	101.88
493.398	105.88
493.615	90.88
493.833	93.88
494.05	82.88
494.268	97.88
494.485	95.88
494.703	89.88
494.92	88.88
495.138	80.88
495.355	75.88
495.573	90.88
495.79	93.88
496.008	94.88
496.225	91.88
496.442	94.88
496.66	87.88
496.877	97.88
497.094	97.88
497.312	93.88
497.529	97.88
497.746	93.88
497.963	88.88
498.181	94.88
498.398	107.88
498.615	115.88
498.832	109.88
499.049	87.88
499.267	90.88
499.484	93.88
499.701	88.88
499.918	98.88
500.135	90.88
500.352	93.88
500.569	109.88
500.786	105.88
501.003	103.88
501.22	98.88
501.437	91.88
501.654	104.88
501.871	126.88
502.088	98.88
502.305	86.88
502.522	93.88
502.739	95.88
502.956	87.88
503.172	96.88
503.389	115.88
503.606	144.88
503.823	107.88
504.04	96.88
504.256	94.88
504.473	77.88
504.69	92.88
504.907	103.88
505.123	86.88
505.34	96.88
505.557	87.88
505.773	99.88
505.99	97.88
506.207	86.88
506.423	92.88
506.64	99.88
506.856	94.88
507.073	95.88
507.289	90.88
507.506	110.88
507.722	120.88
507.939	142.88
508.155	114.88
508.372	99.88
508.588	107.88
508.805	105.88
509.021	102.88
509.238	115.88
509.454	107.88
509.67	103.88
509.887	118.88
510.103	172.88
510.319	276.88
510.536	1050.88
510.752	3874.88
510.968	977.88
511.184	197.88
511.401	131.88
511.617	133.88
511.833	130.88
512.049	114.88
