Data from Circ_1988_H10_HRD10591_00066.txt Node
Date: Wed Jan 03 12:05:48 EST 2024
User: Yrep
Spectrometer: HR+D1059
Trigger mode: 1
Integration Time (sec): 1.000000E-1
Scans to average: 1
Electric dark correction enabled: true
Nonlinearity correction enabled: false
Boxcar width: 0
XAxis mode: Wavelengths
Number of Pixels in Spectrum: 2048
>>>>>Begin Spectral Data<<<<<
223.165	-13.69
223.4	-13.69
223.635	-13.69
223.869	7.31
224.104	-23.69
224.338	-21.69
224.573	-16.69
224.808	-12.69
225.042	6.31
225.277	-7.69
225.511	-12.69
225.746	4.31
225.98	3.31
226.215	18.31
226.449	16.31
226.683	19.31
226.918	6.31
227.152	27.31
227.387	21.31
227.621	40.31
227.856	37.31
228.09	45.31
228.324	53.31
228.559	61.31
228.793	53.31
229.027	80.31
229.262	80.31
229.496	86.31
229.73	106.31
229.964	102.31
230.199	82.31
230.433	74.31
230.667	78.31
230.901	88.31
231.136	81.31
231.37	80.31
231.604	67.31
231.838	77.31
232.072	83.31
232.306	77.31
232.541	67.31
232.775	83.31
233.009	81.31
233.243	90.31
233.477	91.31
233.711	79.31
233.945	76.31
234.179	62.31
234.413	64.31
234.647	75.31
234.881	74.31
235.115	87.31
235.349	82.31
235.583	92.31
235.817	76.31
236.051	71.31
236.285	90.31
236.519	71.31
236.753	71.31
236.987	86.31
237.221	103.31
237.455	102.31
237.689	87.31
237.922	85.31
238.156	70.31
238.39	70.31
238.624	78.31
238.858	87.31
239.091	77.31
239.325	84.31
239.559	87.31
239.793	88.31
240.027	80.31
240.26	81.31
240.494	70.31
240.728	97.31
240.961	72.31
241.195	73.31
241.429	89.31
241.662	67.31
241.896	78.31
242.13	79.31
242.363	80.31
242.597	67.31
242.83	84.31
243.064	83.31
243.298	89.31
243.531	74.31
243.765	79.31
243.998	89.31
244.232	87.31
244.465	101.31
244.699	80.31
244.932	78.31
245.166	63.31
245.399	78.31
245.633	89.31
245.866	86.31
246.099	81.31
246.333	78.31
246.566	83.31
246.8	83.31
247.033	82.31
247.266	89.31
247.5	89.31
247.733	71.31
247.966	68.31
248.2	84.31
248.433	89.31
248.666	82.31
248.899	85.31
249.133	91.31
249.366	106.31
249.599	113.31
249.832	92.31
250.066	95.31
250.299	96.31
250.532	97.31
250.765	94.31
250.998	79.31
251.231	75.31
251.465	95.31
251.698	81.31
251.931	85.31
252.164	86.31
252.397	88.31
252.63	83.31
252.863	80.31
253.096	83.31
253.329	79.31
253.562	81.31
253.795	70.31
254.028	80.31
254.261	63.31
254.494	95.31
254.727	89.31
254.96	72.31
255.193	76.31
255.426	59.31
255.659	85.31
255.892	108.31
256.124	121.31
256.357	98.31
256.59	74.31
256.823	86.31
257.056	94.31
257.289	90.31
257.521	83.31
257.754	105.31
257.987	92.31
258.22	101.31
258.452	127.31
258.685	121.31
258.918	81.31
259.151	89.31
259.383	78.31
259.616	62.31
259.849	82.31
260.081	86.31
260.314	108.31
260.547	112.31
260.779	124.31
261.012	141.31
261.244	160.31
261.477	111.31
261.71	108.31
261.942	140.31
262.175	182.31
262.407	107.31
262.64	95.31
262.872	86.31
263.105	103.31
263.337	100.31
263.57	84.31
263.802	78.31
264.035	92.31
264.267	81.31
264.499	95.31
264.732	77.31
264.964	90.31
265.197	74.31
265.429	92.31
265.661	69.31
265.894	86.31
266.126	88.31
266.358	84.31
266.591	83.31
266.823	81.31
267.055	94.31
267.287	86.31
267.52	83.31
267.752	89.31
267.984	95.31
268.216	93.31
268.448	91.31
268.681	100.31
268.913	91.31
269.145	75.31
269.377	66.31
269.609	81.31
269.841	91.31
270.073	88.31
270.306	86.31
270.538	98.31
270.77	82.31
271.002	87.31
271.234	86.31
271.466	104.31
271.698	95.31
271.93	97.31
272.162	95.31
272.394	95.31
272.626	91.31
272.858	100.31
273.09	99.31
273.322	96.31
273.553	83.31
273.785	90.31
274.017	102.31
274.249	91.31
274.481	97.31
274.713	85.31
274.945	97.31
275.176	102.31
275.408	125.31
275.64	171.31
275.872	192.31
276.104	137.31
276.335	125.31
276.567	161.31
276.799	199.31
277.031	295.31
277.262	381.31
277.494	260.31
277.726	127.31
277.957	112.31
278.189	89.31
278.421	101.31
278.652	110.31
278.884	89.31
279.115	93.31
279.347	119.31
279.579	132.31
279.81	211.31
280.042	395.31
280.273	596.31
280.505	380.31
280.736	143.31
280.968	114.31
281.199	101.31
281.431	107.31
281.662	98.31
281.894	106.31
282.125	109.31
282.356	150.31
282.588	189.31
282.819	145.31
283.051	100.31
283.282	93.31
283.513	98.31
283.745	83.31
283.976	103.31
284.207	82.31
284.439	95.31
284.67	95.31
284.901	97.31
285.132	99.31
285.364	89.31
285.595	96.31
285.826	97.31
286.057	84.31
286.288	81.31
286.52	83.31
286.751	87.31
286.982	89.31
287.213	86.31
287.444	87.31
287.675	91.31
287.906	100.31
288.138	100.31
288.369	97.31
288.6	95.31
288.831	91.31
289.062	86.31
289.293	81.31
289.524	84.31
289.755	84.31
289.986	80.31
290.217	98.31
290.448	106.31
290.679	77.31
290.91	87.31
291.141	99.31
291.371	85.31
291.602	82.31
291.833	79.31
292.064	77.31
292.295	82.31
292.526	91.31
292.757	86.31
292.987	92.31
293.218	96.31
293.449	89.31
293.68	97.31
293.91	100.31
294.141	98.31
294.372	87.31
294.603	87.31
294.833	83.31
295.064	103.31
295.295	100.31
295.525	94.31
295.756	129.31
295.987	133.31
296.217	173.31
296.448	163.31
296.679	109.31
296.909	91.31
297.14	90.31
297.37	77.31
297.601	75.31
297.831	99.31
298.062	98.31
298.292	95.31
298.523	98.31
298.753	96.31
298.984	80.31
299.214	91.31
299.445	93.31
299.675	101.31
299.905	87.31
300.136	95.31
300.366	91.31
300.597	95.31
300.827	93.31
301.057	96.31
301.288	95.31
301.518	110.31
301.748	102.31
301.979	133.31
302.209	125.31
302.439	92.31
302.669	103.31
302.9	99.31
303.13	111.31
303.36	143.31
303.59	181.31
303.82	220.31
304.051	139.31
304.281	87.31
304.511	80.31
304.741	97.31
304.971	83.31
305.201	89.31
305.431	89.31
305.661	105.31
305.891	101.31
306.121	96.31
306.352	111.31
306.582	115.31
306.812	126.31
307.042	181.31
307.272	267.31
307.502	309.31
307.731	266.31
307.961	171.31
308.191	117.31
308.421	109.31
308.651	92.31
308.881	110.31
309.111	97.31
309.341	100.31
309.571	115.31
309.8	96.31
310.03	96.31
310.26	118.31
310.49	106.31
310.72	87.31
310.949	126.31
311.179	113.31
311.409	103.31
311.639	97.31
311.868	103.31
312.098	113.31
312.328	120.31
312.557	127.31
312.787	132.31
313.017	127.31
313.246	93.31
313.476	92.31
313.706	93.31
313.935	125.31
314.165	110.31
314.394	115.31
314.624	109.31
314.853	116.31
315.083	96.31
315.312	101.31
315.542	99.31
315.771	92.31
316.001	94.31
316.23	97.31
316.46	90.31
316.689	90.31
316.919	103.31
317.148	109.31
317.377	89.31
317.607	115.31
317.836	102.31
318.065	90.31
318.295	94.31
318.524	83.31
318.753	98.31
318.983	116.31
319.212	111.31
319.441	131.31
319.67	134.31
319.9	90.31
320.129	99.31
320.358	103.31
320.587	87.31
320.816	109.31
321.046	109.31
321.275	106.31
321.504	109.31
321.733	99.31
321.962	107.31
322.191	99.31
322.42	111.31
322.649	126.31
322.878	117.31
323.108	125.31
323.337	138.31
323.566	159.31
323.795	174.31
324.024	237.31
324.253	440.31
324.482	909.31
324.71	1875.31
324.939	2486.31
325.168	965.31
325.397	293.31
325.626	169.31
325.855	152.31
326.084	140.31
326.313	141.31
326.542	168.31
326.77	260.31
326.999	434.31
327.228	915.31
327.457	1696.31
327.686	1485.31
327.914	729.31
328.143	997.31
328.372	1486.31
328.6	747.31
328.829	276.31
329.058	233.31
329.287	257.31
329.515	275.31
329.744	450.31
329.972	994.31
330.201	2259.31
330.43	3345.31
330.658	1342.31
330.887	467.31
331.115	258.31
331.344	159.31
331.572	150.31
331.801	153.31
332.03	152.31
332.258	140.31
332.486	124.31
332.715	131.31
332.943	141.31
333.172	145.31
333.4	167.31
333.629	223.31
333.857	388.31
334.085	809.31
334.314	1929.31
334.542	4060.31
334.771	3731.31
334.999	897.31
335.227	295.31
335.455	172.31
335.684	138.31
335.912	142.31
336.14	127.31
336.369	129.31
336.597	121.31
336.825	128.31
337.053	108.31
337.281	93.31
337.51	109.31
337.738	114.31
337.966	100.31
338.194	105.31
338.422	102.31
338.65	105.31
338.878	95.31
339.106	91.31
339.334	104.31
339.562	94.31
339.79	98.31
340.018	116.31
340.246	120.31
340.474	103.31
340.702	81.31
340.93	93.31
341.158	100.31
341.386	120.31
341.614	109.31
341.842	97.31
342.07	89.31
342.298	94.31
342.526	97.31
342.754	94.31
342.981	103.31
343.209	88.31
343.437	97.31
343.665	79.31
343.893	93.31
344.12	92.31
344.348	98.31
344.576	99.31
344.804	79.31
345.031	112.31
345.259	121.31
345.487	92.31
345.714	92.31
345.942	95.31
346.17	96.31
346.397	86.31
346.625	91.31
346.853	79.31
347.08	85.31
347.308	98.31
347.535	97.31
347.763	94.31
347.99	112.31
348.218	116.31
348.445	127.31
348.673	117.31
348.9	106.31
349.128	91.31
349.355	91.31
349.583	86.31
349.81	85.31
350.037	106.31
350.265	90.31
350.492	110.31
350.72	98.31
350.947	106.31
351.174	114.31
351.402	130.31
351.629	107.31
351.856	113.31
352.083	106.31
352.311	113.31
352.538	123.31
352.765	117.31
352.992	111.31
353.22	126.31
353.447	112.31
353.674	100.31
353.901	93.31
354.128	101.31
354.355	94.31
354.583	92.31
354.81	94.31
355.037	87.31
355.264	98.31
355.491	99.31
355.718	94.31
355.945	89.31
356.172	90.31
356.399	88.31
356.626	99.31
356.853	94.31
357.08	93.31
357.307	82.31
357.534	91.31
357.761	92.31
357.988	81.31
358.215	93.31
358.441	95.31
358.668	97.31
358.895	108.31
359.122	93.31
359.349	93.31
359.576	127.31
359.802	118.31
360.029	149.31
360.256	157.31
360.483	123.31
360.709	110.31
360.936	90.31
361.163	92.31
361.39	104.31
361.616	113.31
361.843	95.31
362.07	100.31
362.296	110.31
362.523	103.31
362.749	109.31
362.976	86.31
363.203	88.31
363.429	86.31
363.656	82.31
363.882	94.31
364.109	95.31
364.335	106.31
364.562	99.31
364.788	99.31
365.015	106.31
365.241	98.31
365.468	129.31
365.694	104.31
365.92	102.31
366.147	109.31
366.373	90.31
366.599	101.31
366.826	85.31
367.052	71.31
367.278	81.31
367.505	87.31
367.731	100.31
367.957	91.31
368.184	98.31
368.41	105.31
368.636	123.31
368.862	143.31
369.089	132.31
369.315	102.31
369.541	91.31
369.767	87.31
369.993	93.31
370.219	100.31
370.445	93.31
370.672	84.31
370.898	89.31
371.124	97.31
371.35	82.31
371.576	90.31
371.802	86.31
372.028	94.31
372.254	92.31
372.48	93.31
372.706	78.31
372.932	78.31
373.158	91.31
373.384	84.31
373.61	95.31
373.835	85.31
374.061	74.31
374.287	90.31
374.513	82.31
374.739	86.31
374.965	96.31
375.191	89.31
375.416	104.31
375.642	92.31
375.868	97.31
376.094	91.31
376.319	73.31
376.545	90.31
376.771	93.31
376.997	85.31
377.222	101.31
377.448	93.31
377.674	100.31
377.899	82.31
378.125	94.31
378.35	95.31
378.576	88.31
378.802	91.31
379.027	81.31
379.253	85.31
379.478	98.31
379.704	92.31
379.929	95.31
380.155	90.31
380.38	87.31
380.606	88.31
380.831	83.31
381.057	96.31
381.282	107.31
381.507	97.31
381.733	97.31
381.958	95.31
382.184	106.31
382.409	89.31
382.634	91.31
382.86	109.31
383.085	95.31
383.31	67.31
383.535	84.31
383.761	89.31
383.986	98.31
384.211	102.31
384.436	97.31
384.662	110.31
384.887	89.31
385.112	98.31
385.337	88.31
385.562	97.31
385.787	119.31
386.013	116.31
386.238	120.31
386.463	108.31
386.688	110.31
386.913	93.31
387.138	100.31
387.363	96.31
387.588	93.31
387.813	120.31
388.038	116.31
388.263	116.31
388.488	107.31
388.713	102.31
388.938	98.31
389.163	94.31
389.387	97.31
389.612	81.31
389.837	96.31
390.062	87.31
390.287	85.31
390.512	76.31
390.736	92.31
390.961	71.31
391.186	93.31
391.411	81.31
391.636	83.31
391.86	90.31
392.085	94.31
392.31	78.31
392.534	100.31
392.759	89.31
392.984	81.31
393.208	77.31
393.433	95.31
393.658	101.31
393.882	88.31
394.107	79.31
394.331	85.31
394.556	73.31
394.78	86.31
395.005	93.31
395.229	78.31
395.454	82.31
395.678	84.31
395.903	82.31
396.127	89.31
396.352	79.31
396.576	92.31
396.801	93.31
397.025	87.31
397.249	90.31
397.474	90.31
397.698	96.31
397.922	83.31
398.147	89.31
398.371	80.31
398.595	98.31
398.82	83.31
399.044	85.31
399.268	94.31
399.492	84.31
399.717	92.31
399.941	90.31
400.165	95.31
400.389	93.31
400.613	66.31
400.837	90.31
401.062	90.31
401.286	84.31
401.51	97.31
401.734	107.31
401.958	104.31
402.182	162.31
402.406	219.31
402.63	155.31
402.854	118.31
403.078	108.31
403.302	70.31
403.526	94.31
403.75	97.31
403.974	79.31
404.198	93.31
404.422	86.31
404.645	92.31
404.869	115.31
405.093	134.31
405.317	160.31
405.541	143.31
405.765	143.31
405.988	143.31
406.212	236.31
406.436	347.31
406.66	231.31
406.883	142.31
407.107	99.31
407.331	113.31
407.555	119.31
407.778	114.31
408.002	86.31
408.226	96.31
408.449	83.31
408.673	108.31
408.896	90.31
409.12	105.31
409.344	90.31
409.567	77.31
409.791	89.31
410.014	94.31
410.238	106.31
410.461	94.31
410.685	90.31
410.908	84.31
411.132	109.31
411.355	114.31
411.578	111.31
411.802	83.31
412.025	101.31
412.249	117.31
412.472	137.31
412.695	143.31
412.919	114.31
413.142	102.31
413.365	89.31
413.589	97.31
413.812	90.31
414.035	102.31
414.258	106.31
414.482	93.31
414.705	107.31
414.928	107.31
415.151	95.31
415.374	106.31
415.597	85.31
415.821	110.31
416.044	90.31
416.267	99.31
416.49	99.31
416.713	92.31
416.936	102.31
417.159	105.31
417.382	97.31
417.605	126.31
417.828	140.31
418.051	100.31
418.274	83.31
418.497	78.31
418.72	85.31
418.943	79.31
419.166	99.31
419.389	94.31
419.611	99.31
419.834	89.31
420.057	85.31
420.28	118.31
420.503	89.31
420.726	89.31
420.948	103.31
421.171	107.31
421.394	94.31
421.617	96.31
421.839	91.31
422.062	84.31
422.285	87.31
422.507	91.31
422.73	96.31
422.953	101.31
423.175	92.31
423.398	99.31
423.621	75.31
423.843	78.31
424.066	83.31
424.288	81.31
424.511	98.31
424.733	104.31
424.956	125.31
425.178	106.31
425.401	118.31
425.623	107.31
425.846	90.31
426.068	111.31
426.291	99.31
426.513	83.31
426.735	77.31
426.958	102.31
427.18	123.31
427.402	187.31
427.625	285.31
427.847	275.31
428.069	215.31
428.292	129.31
428.514	106.31
428.736	85.31
428.958	71.31
429.181	85.31
429.403	78.31
429.625	85.31
429.847	99.31
430.069	122.31
430.292	95.31
430.514	94.31
430.736	90.31
430.958	91.31
431.18	78.31
431.402	85.31
431.624	84.31
431.846	102.31
432.068	90.31
432.29	77.31
432.512	85.31
432.734	85.31
432.956	80.31
433.178	91.31
433.4	78.31
433.622	84.31
433.844	107.31
434.066	85.31
434.287	81.31
434.509	97.31
434.731	82.31
434.953	95.31
435.175	81.31
435.397	97.31
435.618	100.31
435.84	100.31
436.062	122.31
436.284	124.31
436.505	93.31
436.727	93.31
436.949	92.31
437.17	99.31
437.392	98.31
437.614	100.31
437.835	117.31
438.057	166.31
438.278	137.31
438.5	126.31
438.721	128.31
438.943	121.31
439.165	91.31
439.386	98.31
439.608	87.31
439.829	116.31
440.05	147.31
440.272	185.31
440.493	121.31
440.715	86.31
440.936	82.31
441.158	114.31
441.379	86.31
441.6	106.31
441.822	105.31
442.043	108.31
442.264	113.31
442.486	125.31
442.707	113.31
442.928	103.31
443.149	181.31
443.371	195.31
443.592	130.31
443.813	126.31
444.034	123.31
444.255	104.31
444.476	87.31
444.698	90.31
444.919	86.31
445.14	131.31
445.361	136.31
445.582	127.31
445.803	181.31
446.024	183.31
446.245	174.31
446.466	136.31
446.687	95.31
446.908	91.31
447.129	105.31
447.35	97.31
447.571	103.31
447.792	88.31
448.013	106.31
448.234	123.31
448.455	117.31
448.675	137.31
448.896	137.31
449.117	99.31
449.338	110.31
449.559	137.31
449.779	143.31
450	95.31
450.221	89.31
450.442	95.31
450.662	108.31
450.883	130.31
451.104	143.31
451.324	107.31
451.545	98.31
451.766	95.31
451.986	94.31
452.207	96.31
452.428	102.31
452.648	105.31
452.869	129.31
453.089	145.31
453.31	164.31
453.53	101.31
453.751	101.31
453.971	125.31
454.192	150.31
454.412	107.31
454.633	95.31
454.853	77.31
455.073	78.31
455.294	107.31
455.514	106.31
455.734	92.31
455.955	80.31
456.175	83.31
456.395	79.31
456.616	78.31
456.836	83.31
457.056	82.31
457.276	89.31
457.497	87.31
457.717	79.31
457.937	85.31
458.157	92.31
458.377	96.31
458.598	142.31
458.818	244.31
459.038	249.31
459.258	166.31
459.478	101.31
459.698	85.31
459.918	95.31
460.138	99.31
460.358	83.31
460.578	96.31
460.798	110.31
461.018	80.31
461.238	84.31
461.458	89.31
461.678	92.31
461.898	83.31
462.118	78.31
462.338	95.31
462.558	86.31
462.777	91.31
462.997	117.31
463.217	151.31
463.437	106.31
463.657	89.31
463.876	84.31
464.096	97.31
464.316	111.31
464.536	92.31
464.755	100.31
464.975	133.31
465.195	259.31
465.414	275.31
465.634	125.31
465.854	103.31
466.073	99.31
466.293	92.31
466.512	93.31
466.732	122.31
466.951	104.31
467.171	113.31
467.391	135.31
467.61	205.31
467.829	389.31
468.049	1351.31
468.268	2188.31
468.488	450.31
468.707	157.31
468.927	115.31
469.146	101.31
469.365	93.31
469.585	101.31
469.804	117.31
470.023	131.31
470.243	117.31
470.462	126.31
470.681	161.31
470.901	121.31
471.12	123.31
471.339	122.31
471.558	157.31
471.777	246.31
471.997	586.31
472.216	2466.31
472.435	5936.31
472.654	1221.31
472.873	295.31
473.092	139.31
473.311	126.31
473.53	105.31
473.749	102.31
473.968	112.31
474.187	140.31
474.406	111.31
474.625	95.31
474.844	102.31
475.063	88.31
475.282	102.31
475.501	103.31
475.72	95.31
475.939	93.31
476.158	95.31
476.377	78.31
476.596	86.31
476.814	108.31
477.033	110.31
477.252	90.31
477.471	113.31
477.69	90.31
477.908	109.31
478.127	100.31
478.346	90.31
478.564	117.31
478.783	125.31
479.002	116.31
479.22	119.31
479.439	134.31
479.658	177.31
479.876	150.31
480.095	150.31
480.313	191.31
480.532	246.31
480.751	516.31
480.969	2064.31
481.188	9449.31
481.406	5383.31
481.624	690.31
481.843	223.31
482.061	146.31
482.28	111.31
482.498	108.31
482.717	99.31
482.935	94.31
483.153	103.31
483.372	102.31
483.59	105.31
483.808	105.31
484.027	94.31
484.245	103.31
484.463	99.31
484.681	103.31
484.9	84.31
485.118	100.31
485.336	101.31
485.554	112.31
485.772	102.31
485.99	110.31
486.209	111.31
486.427	118.31
486.645	116.31
486.863	143.31
487.081	118.31
487.299	106.31
487.517	98.31
487.735	108.31
487.953	107.31
488.171	97.31
488.389	105.31
488.607	109.31
488.825	100.31
489.043	93.31
489.261	99.31
489.479	94.31
489.696	79.31
489.914	81.31
490.132	85.31
490.35	96.31
490.568	94.31
490.786	89.31
491.003	100.31
491.221	101.31
491.439	110.31
491.657	110.31
491.874	88.31
492.092	107.31
492.31	99.31
492.527	120.31
492.745	120.31
492.963	108.31
493.18	86.31
493.398	91.31
493.615	91.31
493.833	98.31
494.05	99.31
494.268	93.31
494.485	91.31
494.703	94.31
494.92	85.31
495.138	89.31
495.355	91.31
495.573	90.31
495.79	81.31
496.008	107.31
496.225	93.31
496.442	103.31
496.66	99.31
496.877	97.31
497.094	93.31
497.312	90.31
497.529	86.31
497.746	85.31
497.963	94.31
498.181	107.31
498.398	105.31
498.615	104.31
498.832	102.31
499.049	102.31
499.267	89.31
499.484	85.31
499.701	95.31
499.918	97.31
500.135	83.31
500.352	97.31
500.569	111.31
500.786	105.31
501.003	103.31
501.22	97.31
501.437	90.31
501.654	97.31
501.871	130.31
502.088	105.31
502.305	78.31
502.522	98.31
502.739	95.31
502.956	86.31
503.172	98.31
503.389	133.31
503.606	141.31
503.823	105.31
504.04	103.31
504.256	94.31
504.473	104.31
504.69	83.31
504.907	98.31
505.123	90.31
505.34	91.31
505.557	89.31
505.773	91.31
505.99	85.31
506.207	93.31
506.423	92.31
506.64	88.31
506.856	85.31
507.073	94.31
507.289	88.31
507.506	103.31
507.722	143.31
507.939	152.31
508.155	104.31
508.372	105.31
508.588	84.31
508.805	112.31
509.021	108.31
509.238	94.31
509.454	94.31
509.67	126.31
509.887	127.31
510.103	144.31
510.319	256.31
510.536	1057.31
510.752	3839.31
510.968	995.31
511.184	211.31
511.401	135.31
511.617	110.31
511.833	130.31
512.049	109.31
