Data from Circ_1988_H10_HRD10591_00085.txt Node
Date: Wed Jan 03 12:05:51 EST 2024
User: Yrep
Spectrometer: HR+D1059
Trigger mode: 1
Integration Time (sec): 1.000000E-1
Scans to average: 1
Electric dark correction enabled: true
Nonlinearity correction enabled: false
Boxcar width: 0
XAxis mode: Wavelengths
Number of Pixels in Spectrum: 2048
>>>>>Begin Spectral Data<<<<<
223.165	-21.5
223.4	-21.5
223.635	-21.5
223.869	-12.5
224.104	-10.5
224.338	-15.5
224.573	-21.5
224.808	-10.5
225.042	-14.5
225.277	-8.5
225.511	3.5
225.746	7.5
225.98	3.5
226.215	14.5
226.449	20.5
226.683	20.5
226.918	15.5
227.152	29.5
227.387	27.5
227.621	53.5
227.856	31.5
228.09	60.5
228.324	47.5
228.559	50.5
228.793	65.5
229.027	50.5
229.262	67.5
229.496	80.5
229.73	96.5
229.964	89.5
230.199	83.5
230.433	90.5
230.667	75.5
230.901	89.5
231.136	84.5
231.37	83.5
231.604	88.5
231.838	75.5
232.072	86.5
232.306	81.5
232.541	80.5
232.775	78.5
233.009	84.5
233.243	88.5
233.477	81.5
233.711	86.5
233.945	94.5
234.179	93.5
234.413	99.5
234.647	85.5
234.881	80.5
235.115	83.5
235.349	77.5
235.583	88.5
235.817	82.5
236.051	92.5
236.285	85.5
236.519	64.5
236.753	92.5
236.987	92.5
237.221	97.5
237.455	93.5
237.689	71.5
237.922	77.5
238.156	77.5
238.39	81.5
238.624	80.5
238.858	88.5
239.091	83.5
239.325	79.5
239.559	89.5
239.793	72.5
240.027	89.5
240.26	77.5
240.494	67.5
240.728	74.5
240.961	83.5
241.195	81.5
241.429	74.5
241.662	73.5
241.896	68.5
242.13	75.5
242.363	79.5
242.597	91.5
242.83	97.5
243.064	77.5
243.298	77.5
243.531	69.5
243.765	74.5
243.998	86.5
244.232	94.5
244.465	83.5
244.699	87.5
244.932	81.5
245.166	79.5
245.399	81.5
245.633	83.5
245.866	76.5
246.099	83.5
246.333	88.5
246.566	73.5
246.8	73.5
247.033	74.5
247.266	69.5
247.5	90.5
247.733	88.5
247.966	78.5
248.2	95.5
248.433	102.5
248.666	102.5
248.899	87.5
249.133	94.5
249.366	96.5
249.599	85.5
249.832	85.5
250.066	87.5
250.299	82.5
250.532	80.5
250.765	91.5
250.998	91.5
251.231	91.5
251.465	83.5
251.698	96.5
251.931	85.5
252.164	77.5
252.397	87.5
252.63	75.5
252.863	81.5
253.096	91.5
253.329	99.5
253.562	88.5
253.795	93.5
254.028	74.5
254.261	81.5
254.494	84.5
254.727	89.5
254.96	89.5
255.193	96.5
255.426	98.5
255.659	100.5
255.892	109.5
256.124	109.5
256.357	87.5
256.59	93.5
256.823	90.5
257.056	96.5
257.289	90.5
257.521	98.5
257.754	107.5
257.987	98.5
258.22	118.5
258.452	120.5
258.685	119.5
258.918	99.5
259.151	82.5
259.383	69.5
259.616	81.5
259.849	89.5
260.081	94.5
260.314	92.5
260.547	102.5
260.779	101.5
261.012	138.5
261.244	137.5
261.477	112.5
261.71	123.5
261.942	128.5
262.175	152.5
262.407	87.5
262.64	96.5
262.872	88.5
263.105	114.5
263.337	89.5
263.57	97.5
263.802	84.5
264.035	93.5
264.267	104.5
264.499	80.5
264.732	75.5
264.964	84.5
265.197	88.5
265.429	89.5
265.661	87.5
265.894	80.5
266.126	91.5
266.358	89.5
266.591	97.5
266.823	85.5
267.055	96.5
267.287	92.5
267.52	89.5
267.752	96.5
267.984	80.5
268.216	78.5
268.448	96.5
268.681	77.5
268.913	78.5
269.145	97.5
269.377	86.5
269.609	89.5
269.841	90.5
270.073	90.5
270.306	84.5
270.538	90.5
270.77	90.5
271.002	94.5
271.234	109.5
271.466	93.5
271.698	91.5
271.93	89.5
272.162	104.5
272.394	91.5
272.626	90.5
272.858	89.5
273.09	105.5
273.322	97.5
273.553	77.5
273.785	99.5
274.017	86.5
274.249	99.5
274.481	80.5
274.713	84.5
274.945	99.5
275.176	87.5
275.408	97.5
275.64	142.5
275.872	173.5
276.104	128.5
276.335	109.5
276.567	132.5
276.799	160.5
277.031	227.5
277.262	312.5
277.494	222.5
277.726	107.5
277.957	106.5
278.189	91.5
278.421	85.5
278.652	86.5
278.884	101.5
279.115	101.5
279.347	101.5
279.579	118.5
279.81	192.5
280.042	313.5
280.273	465.5
280.505	277.5
280.736	133.5
280.968	109.5
281.199	83.5
281.431	93.5
281.662	87.5
281.894	94.5
282.125	84.5
282.356	141.5
282.588	187.5
282.819	126.5
283.051	102.5
283.282	89.5
283.513	88.5
283.745	85.5
283.976	93.5
284.207	95.5
284.439	87.5
284.67	84.5
284.901	82.5
285.132	88.5
285.364	103.5
285.595	95.5
285.826	94.5
286.057	93.5
286.288	106.5
286.52	111.5
286.751	88.5
286.982	81.5
287.213	87.5
287.444	95.5
287.675	90.5
287.906	97.5
288.138	70.5
288.369	89.5
288.6	90.5
288.831	89.5
289.062	94.5
289.293	68.5
289.524	71.5
289.755	87.5
289.986	94.5
290.217	87.5
290.448	85.5
290.679	69.5
290.91	91.5
291.141	74.5
291.371	91.5
291.602	90.5
291.833	96.5
292.064	85.5
292.295	81.5
292.526	95.5
292.757	89.5
292.987	95.5
293.218	85.5
293.449	102.5
293.68	98.5
293.91	85.5
294.141	91.5
294.372	90.5
294.603	89.5
294.833	81.5
295.064	100.5
295.295	103.5
295.525	94.5
295.756	104.5
295.987	142.5
296.217	171.5
296.448	142.5
296.679	114.5
296.909	93.5
297.14	95.5
297.37	89.5
297.601	94.5
297.831	95.5
298.062	93.5
298.292	95.5
298.523	98.5
298.753	90.5
298.984	91.5
299.214	84.5
299.445	100.5
299.675	95.5
299.905	99.5
300.136	97.5
300.366	94.5
300.597	100.5
300.827	101.5
301.057	103.5
301.288	144.5
301.518	112.5
301.748	106.5
301.979	133.5
302.209	94.5
302.439	102.5
302.669	104.5
302.9	94.5
303.13	112.5
303.36	117.5
303.59	177.5
303.82	191.5
304.051	113.5
304.281	100.5
304.511	98.5
304.741	90.5
304.971	87.5
305.201	101.5
305.431	101.5
305.661	84.5
305.891	83.5
306.121	95.5
306.352	122.5
306.582	122.5
306.812	112.5
307.042	154.5
307.272	225.5
307.502	281.5
307.731	253.5
307.961	161.5
308.191	112.5
308.421	101.5
308.651	104.5
308.881	103.5
309.111	97.5
309.341	104.5
309.571	101.5
309.8	103.5
310.03	107.5
310.26	108.5
310.49	105.5
310.72	102.5
310.949	116.5
311.179	114.5
311.409	99.5
311.639	114.5
311.868	112.5
312.098	107.5
312.328	109.5
312.557	119.5
312.787	114.5
313.017	119.5
313.246	98.5
313.476	100.5
313.706	108.5
313.935	105.5
314.165	113.5
314.394	111.5
314.624	106.5
314.853	104.5
315.083	93.5
315.312	85.5
315.542	99.5
315.771	120.5
316.001	93.5
316.23	97.5
316.46	98.5
316.689	87.5
316.919	104.5
317.148	112.5
317.377	110.5
317.607	92.5
317.836	93.5
318.065	92.5
318.295	92.5
318.524	91.5
318.753	86.5
318.983	99.5
319.212	109.5
319.441	132.5
319.67	118.5
319.9	103.5
320.129	97.5
320.358	96.5
320.587	106.5
320.816	122.5
321.046	121.5
321.275	111.5
321.504	93.5
321.733	90.5
321.962	89.5
322.191	105.5
322.42	109.5
322.649	140.5
322.878	131.5
323.108	118.5
323.337	123.5
323.566	135.5
323.795	146.5
324.024	209.5
324.253	374.5
324.482	765.5
324.71	1528.5
324.939	2049.5
325.168	817.5
325.397	255.5
325.626	165.5
325.855	140.5
326.084	143.5
326.313	147.5
326.542	154.5
326.77	227.5
326.999	406.5
327.228	793.5
327.457	1391.5
327.686	1223.5
327.914	591.5
328.143	799.5
328.372	1153.5
328.6	602.5
328.829	238.5
329.058	221.5
329.287	234.5
329.515	223.5
329.744	343.5
329.972	770.5
330.201	1685.5
330.43	2600.5
330.658	1057.5
330.887	373.5
331.115	221.5
331.344	149.5
331.572	132.5
331.801	141.5
332.03	138.5
332.258	131.5
332.486	118.5
332.715	110.5
332.943	125.5
333.172	139.5
333.4	152.5
333.629	194.5
333.857	303.5
334.085	634.5
334.314	1402.5
334.542	3014.5
334.771	2929.5
334.999	713.5
335.227	224.5
335.455	159.5
335.684	121.5
335.912	101.5
336.14	115.5
336.369	129.5
336.597	127.5
336.825	115.5
337.053	104.5
337.281	115.5
337.51	97.5
337.738	106.5
337.966	110.5
338.194	114.5
338.422	110.5
338.65	106.5
338.878	101.5
339.106	97.5
339.334	109.5
339.562	105.5
339.79	96.5
340.018	90.5
340.246	107.5
340.474	106.5
340.702	102.5
340.93	96.5
341.158	110.5
341.386	93.5
341.614	98.5
341.842	101.5
342.07	109.5
342.298	106.5
342.526	93.5
342.754	90.5
342.981	89.5
343.209	91.5
343.437	105.5
343.665	93.5
343.893	96.5
344.12	88.5
344.348	89.5
344.576	94.5
344.804	89.5
345.031	104.5
345.259	102.5
345.487	106.5
345.714	116.5
345.942	106.5
346.17	99.5
346.397	85.5
346.625	97.5
346.853	91.5
347.08	95.5
347.308	97.5
347.535	124.5
347.763	116.5
347.99	100.5
348.218	108.5
348.445	124.5
348.673	106.5
348.9	92.5
349.128	94.5
349.355	99.5
349.583	82.5
349.81	91.5
350.037	91.5
350.265	109.5
350.492	93.5
350.72	108.5
350.947	97.5
351.174	114.5
351.402	130.5
351.629	101.5
351.856	105.5
352.083	113.5
352.311	125.5
352.538	118.5
352.765	119.5
352.992	120.5
353.22	105.5
353.447	109.5
353.674	96.5
353.901	95.5
354.128	111.5
354.355	111.5
354.583	100.5
354.81	98.5
355.037	90.5
355.264	79.5
355.491	89.5
355.718	87.5
355.945	105.5
356.172	94.5
356.399	69.5
356.626	101.5
356.853	92.5
357.08	81.5
357.307	95.5
357.534	97.5
357.761	92.5
357.988	104.5
358.215	100.5
358.441	98.5
358.668	101.5
358.895	80.5
359.122	90.5
359.349	90.5
359.576	90.5
359.802	125.5
360.029	131.5
360.256	130.5
360.483	109.5
360.709	101.5
360.936	103.5
361.163	86.5
361.39	98.5
361.616	102.5
361.843	89.5
362.07	107.5
362.296	101.5
362.523	78.5
362.749	91.5
362.976	101.5
363.203	99.5
363.429	89.5
363.656	83.5
363.882	92.5
364.109	104.5
364.335	93.5
364.562	90.5
364.788	76.5
365.015	82.5
365.241	117.5
365.468	109.5
365.694	112.5
365.92	114.5
366.147	101.5
366.373	98.5
366.599	99.5
366.826	93.5
367.052	97.5
367.278	86.5
367.505	87.5
367.731	99.5
367.957	110.5
368.184	105.5
368.41	113.5
368.636	114.5
368.862	134.5
369.089	130.5
369.315	106.5
369.541	98.5
369.767	97.5
369.993	92.5
370.219	98.5
370.445	94.5
370.672	81.5
370.898	80.5
371.124	94.5
371.35	79.5
371.576	88.5
371.802	88.5
372.028	90.5
372.254	88.5
372.48	78.5
372.706	88.5
372.932	80.5
373.158	101.5
373.384	84.5
373.61	86.5
373.835	112.5
374.061	92.5
374.287	93.5
374.513	87.5
374.739	106.5
374.965	89.5
375.191	82.5
375.416	88.5
375.642	93.5
375.868	91.5
376.094	93.5
376.319	103.5
376.545	102.5
376.771	85.5
376.997	96.5
377.222	88.5
377.448	91.5
377.674	91.5
377.899	88.5
378.125	100.5
378.35	96.5
378.576	85.5
378.802	89.5
379.027	72.5
379.253	96.5
379.478	86.5
379.704	93.5
379.929	110.5
380.155	107.5
380.38	94.5
380.606	87.5
380.831	86.5
381.057	93.5
381.282	88.5
381.507	92.5
381.733	96.5
381.958	98.5
382.184	111.5
382.409	104.5
382.634	111.5
382.86	102.5
383.085	86.5
383.31	93.5
383.535	97.5
383.761	107.5
383.986	87.5
384.211	100.5
384.436	117.5
384.662	101.5
384.887	99.5
385.112	110.5
385.337	111.5
385.562	99.5
385.787	103.5
386.013	123.5
386.238	125.5
386.463	98.5
386.688	115.5
386.913	109.5
387.138	111.5
387.363	112.5
387.588	118.5
387.813	106.5
388.038	117.5
388.263	107.5
388.488	95.5
388.713	81.5
388.938	92.5
389.163	99.5
389.387	89.5
389.612	85.5
389.837	97.5
390.062	89.5
390.287	90.5
390.512	83.5
390.736	85.5
390.961	96.5
391.186	96.5
391.411	95.5
391.636	83.5
391.86	98.5
392.085	75.5
392.31	93.5
392.534	84.5
392.759	82.5
392.984	94.5
393.208	81.5
393.433	94.5
393.658	93.5
393.882	90.5
394.107	91.5
394.331	81.5
394.556	82.5
394.78	81.5
395.005	82.5
395.229	89.5
395.454	77.5
395.678	81.5
395.903	101.5
396.127	78.5
396.352	79.5
396.576	106.5
396.801	107.5
397.025	86.5
397.249	93.5
397.474	100.5
397.698	81.5
397.922	88.5
398.147	95.5
398.371	82.5
398.595	92.5
398.82	87.5
399.044	104.5
399.268	106.5
399.492	92.5
399.717	82.5
399.941	93.5
400.165	109.5
400.389	92.5
400.613	98.5
400.837	89.5
401.062	84.5
401.286	91.5
401.51	89.5
401.734	77.5
401.958	110.5
402.182	148.5
402.406	194.5
402.63	144.5
402.854	104.5
403.078	91.5
403.302	104.5
403.526	92.5
403.75	90.5
403.974	82.5
404.198	94.5
404.422	94.5
404.645	99.5
404.869	88.5
405.093	127.5
405.317	155.5
405.541	133.5
405.765	132.5
405.988	136.5
406.212	197.5
406.436	295.5
406.66	195.5
406.883	123.5
407.107	101.5
407.331	95.5
407.555	117.5
407.778	99.5
408.002	108.5
408.226	96.5
408.449	97.5
408.673	103.5
408.896	97.5
409.12	116.5
409.344	107.5
409.567	81.5
409.791	85.5
410.014	100.5
410.238	95.5
410.461	97.5
410.685	95.5
410.908	111.5
411.132	104.5
411.355	102.5
411.578	91.5
411.802	86.5
412.025	90.5
412.249	100.5
412.472	121.5
412.695	158.5
412.919	122.5
413.142	85.5
413.365	93.5
413.589	86.5
413.812	87.5
414.035	97.5
414.258	104.5
414.482	100.5
414.705	86.5
414.928	92.5
415.151	104.5
415.374	87.5
415.597	73.5
415.821	95.5
416.044	97.5
416.267	104.5
416.49	93.5
416.713	92.5
416.936	101.5
417.159	91.5
417.382	111.5
417.605	123.5
417.828	135.5
418.051	96.5
418.274	102.5
418.497	83.5
418.72	93.5
418.943	74.5
419.166	95.5
419.389	77.5
419.611	96.5
419.834	103.5
420.057	104.5
420.28	93.5
420.503	99.5
420.726	105.5
420.948	115.5
421.171	115.5
421.394	89.5
421.617	103.5
421.839	89.5
422.062	66.5
422.285	86.5
422.507	100.5
422.73	105.5
422.953	105.5
423.175	96.5
423.398	70.5
423.621	80.5
423.843	88.5
424.066	80.5
424.288	89.5
424.511	101.5
424.733	98.5
424.956	111.5
425.178	107.5
425.401	115.5
425.623	104.5
425.846	102.5
426.068	95.5
426.291	95.5
426.513	94.5
426.735	93.5
426.958	87.5
427.18	125.5
427.402	166.5
427.625	254.5
427.847	228.5
428.069	207.5
428.292	130.5
428.514	104.5
428.736	93.5
428.958	96.5
429.181	81.5
429.403	89.5
429.625	97.5
429.847	101.5
430.069	97.5
430.292	114.5
430.514	80.5
430.736	77.5
430.958	95.5
431.18	75.5
431.402	83.5
431.624	90.5
431.846	90.5
432.068	86.5
432.29	91.5
432.512	96.5
432.734	89.5
432.956	75.5
433.178	93.5
433.4	110.5
433.622	78.5
433.844	90.5
434.066	85.5
434.287	93.5
434.509	91.5
434.731	103.5
434.953	86.5
435.175	90.5
435.397	91.5
435.618	91.5
435.84	95.5
436.062	124.5
436.284	121.5
436.505	102.5
436.727	98.5
436.949	72.5
437.17	87.5
437.392	88.5
437.614	102.5
437.835	143.5
438.057	126.5
438.278	117.5
438.5	120.5
438.721	133.5
438.943	107.5
439.165	113.5
439.386	100.5
439.608	97.5
439.829	103.5
440.05	122.5
440.272	167.5
440.493	105.5
440.715	96.5
440.936	79.5
441.158	94.5
441.379	86.5
441.6	102.5
441.822	106.5
442.043	105.5
442.264	106.5
442.486	102.5
442.707	118.5
442.928	130.5
443.149	164.5
443.371	163.5
443.592	130.5
443.813	132.5
444.034	104.5
444.255	103.5
444.476	101.5
444.698	102.5
444.919	87.5
445.14	148.5
445.361	110.5
445.582	124.5
445.803	166.5
446.024	159.5
446.245	123.5
446.466	122.5
446.687	86.5
446.908	93.5
447.129	93.5
447.35	95.5
447.571	98.5
447.792	88.5
448.013	97.5
448.234	126.5
448.455	108.5
448.675	129.5
448.896	141.5
449.117	115.5
449.338	122.5
449.559	137.5
449.779	140.5
450	107.5
450.221	89.5
450.442	104.5
450.662	103.5
450.883	111.5
451.104	137.5
451.324	101.5
451.545	106.5
451.766	95.5
451.986	90.5
452.207	105.5
452.428	96.5
452.648	113.5
452.869	125.5
453.089	117.5
453.31	139.5
453.53	113.5
453.751	110.5
453.971	118.5
454.192	127.5
454.412	106.5
454.633	81.5
454.853	97.5
455.073	82.5
455.294	88.5
455.514	102.5
455.734	102.5
455.955	86.5
456.175	82.5
456.395	74.5
456.616	82.5
456.836	77.5
457.056	81.5
457.276	75.5
457.497	98.5
457.717	103.5
457.937	86.5
458.157	98.5
458.377	91.5
458.598	131.5
458.818	195.5
459.038	236.5
459.258	157.5
459.478	92.5
459.698	89.5
459.918	84.5
460.138	96.5
460.358	94.5
460.578	92.5
460.798	98.5
461.018	93.5
461.238	77.5
461.458	87.5
461.678	93.5
461.898	82.5
462.118	89.5
462.338	68.5
462.558	97.5
462.777	86.5
462.997	117.5
463.217	134.5
463.437	102.5
463.657	102.5
463.876	93.5
464.096	89.5
464.316	106.5
464.536	95.5
464.755	106.5
464.975	127.5
465.195	236.5
465.414	224.5
465.634	101.5
465.854	95.5
466.073	107.5
466.293	112.5
466.512	83.5
466.732	97.5
466.951	86.5
467.171	105.5
467.391	122.5
467.61	191.5
467.829	317.5
468.049	1091.5
468.268	1724.5
468.488	381.5
468.707	144.5
468.927	103.5
469.146	90.5
469.365	94.5
469.585	113.5
469.804	122.5
470.023	114.5
470.243	116.5
470.462	132.5
470.681	138.5
470.901	112.5
471.12	129.5
471.339	120.5
471.558	131.5
471.777	201.5
471.997	467.5
472.216	2027.5
472.435	4885.5
472.654	1011.5
472.873	256.5
473.092	129.5
473.311	103.5
473.53	112.5
473.749	106.5
473.968	115.5
474.187	112.5
474.406	99.5
474.625	103.5
474.844	88.5
475.063	81.5
475.282	84.5
475.501	87.5
475.72	93.5
475.939	98.5
476.158	106.5
476.377	105.5
476.596	96.5
476.814	101.5
477.033	100.5
477.252	115.5
477.471	98.5
477.69	93.5
477.908	98.5
478.127	99.5
478.346	100.5
478.564	96.5
478.783	130.5
479.002	110.5
479.22	117.5
479.439	123.5
479.658	136.5
479.876	148.5
480.095	135.5
480.313	168.5
480.532	234.5
480.751	420.5
480.969	1750.5
481.188	7810.5
481.406	4411.5
481.624	555.5
481.843	193.5
482.061	139.5
482.28	124.5
482.498	106.5
482.717	101.5
482.935	102.5
483.153	98.5
483.372	97.5
483.59	91.5
483.808	83.5
484.027	98.5
484.245	94.5
484.463	107.5
484.681	111.5
484.9	89.5
485.118	104.5
485.336	107.5
485.554	112.5
485.772	119.5
485.99	113.5
486.209	106.5
486.427	114.5
486.645	128.5
486.863	141.5
487.081	115.5
487.299	112.5
487.517	99.5
487.735	103.5
487.953	84.5
488.171	96.5
488.389	102.5
488.607	106.5
488.825	99.5
489.043	93.5
489.261	103.5
489.479	111.5
489.696	99.5
489.914	95.5
490.132	91.5
490.35	97.5
490.568	81.5
490.786	86.5
491.003	95.5
491.221	94.5
491.439	105.5
491.657	101.5
491.874	96.5
492.092	101.5
492.31	99.5
492.527	109.5
492.745	105.5
492.963	108.5
493.18	105.5
493.398	90.5
493.615	95.5
493.833	105.5
494.05	93.5
494.268	87.5
494.485	104.5
494.703	86.5
494.92	110.5
495.138	86.5
495.355	94.5
495.573	88.5
495.79	86.5
496.008	99.5
496.225	101.5
496.442	95.5
496.66	107.5
496.877	105.5
497.094	101.5
497.312	96.5
497.529	94.5
497.746	94.5
497.963	83.5
498.181	94.5
498.398	100.5
498.615	107.5
498.832	102.5
499.049	104.5
499.267	99.5
499.484	88.5
499.701	94.5
499.918	107.5
500.135	104.5
500.352	99.5
500.569	96.5
500.786	93.5
501.003	83.5
501.22	105.5
501.437	98.5
501.654	101.5
501.871	130.5
502.088	102.5
502.305	83.5
502.522	100.5
502.739	95.5
502.956	96.5
503.172	90.5
503.389	91.5
503.606	120.5
503.823	112.5
504.04	97.5
504.256	102.5
504.473	90.5
504.69	102.5
504.907	95.5
505.123	95.5
505.34	93.5
505.557	96.5
505.773	92.5
505.99	102.5
506.207	97.5
506.423	98.5
506.64	97.5
506.856	95.5
507.073	87.5
507.289	104.5
507.506	104.5
507.722	127.5
507.939	134.5
508.155	97.5
508.372	95.5
508.588	103.5
508.805	88.5
509.021	98.5
509.238	117.5
509.454	113.5
509.67	104.5
509.887	115.5
510.103	147.5
510.319	246.5
510.536	964.5
510.752	3414.5
510.968	909.5
511.184	189.5
511.401	131.5
511.617	125.5
511.833	113.5
512.049	101.5
512.265	106.5
512.481	104.5
512.698	88.5
512.914	106.5
513.13	98.5
513.346	101.5
513.562	111.5
513.778	110.5
513.994	126.5
514.21	121.5
514.426	133.5
514.642	177.5
514.858	157.5
515.074	222.5
515.29	677.5
515.506	2527.5
515.721	898.5
515.937	217.5
516.153	145.5
516.369	127.5
516.585	124.5
516.801	120.5
517.016	103.5
517.232	105.5
517.448	89.5
517.664	104.5
517.879	94.5
518.095	94.5
518.311	120.5
518.527	121.5
518.742	104.5
518.958	91.5
519.173	109.5
519.389	103.5
519.605	99.5
519.82	107.5
520.036	114.5
520.251	155.5
520.467	134.5
520.682	130.5
520.898	123.5
521.113	149.5
521.329	175.5
521.544	298.5
521.76	893.5
521.975	4316.5
522.19	2562.5
522.406	500.5
522.621	183.5
522.836	112.5
523.052	107.5
523.267	101.5
523.482	111.5
523.698	110.5
523.913	140.5
524.128	117.5
524.343	101.5
524.559	112.5
524.774	99.5
524.989	105.5
525.204	116.5
525.419	123.5
525.634	95.5
525.849	98.5
526.064	101.5
526.28	87.5
526.495	91.5
526.71	105.5
526.925	89.5
527.14	104.5
527.355	97.5
527.57	97.5
527.785	95.5
527.999	99.5
528.214	97.5
528.429	88.5
528.644	95.5
528.859	105.5
529.074	106.5
529.289	142.5
529.503	279.5
529.718	128.5
529.933	99.5
530.148	93.5
530.363	89.5
530.577	105.5
