Data from Circ_1988_H10_HRD10591_00010.txt Node
Date: Wed Jan 03 12:05:36 EST 2024
User: Yrep
Spectrometer: HR+D1059
Trigger mode: 1
Integration Time (sec): 1.000000E-1
Scans to average: 1
Electric dark correction enabled: true
Nonlinearity correction enabled: false
Boxcar width: 0
XAxis mode: Wavelengths
Number of Pixels in Spectrum: 2048
>>>>>Begin Spectral Data<<<<<
223.165	-25.31
223.4	-25.31
223.635	-25.31
223.869	-9.31
224.104	-28.31
224.338	-11.31
224.573	-18.31
224.808	-19.31
225.042	-19.31
225.277	4.69
225.511	2.69
225.746	3.69
225.98	4.69
226.215	8.69
226.449	11.69
226.683	31.69
226.918	33.69
227.152	29.69
227.387	35.69
227.621	34.69
227.856	24.69
228.09	44.69
228.324	61.69
228.559	53.69
228.793	60.69
229.027	55.69
229.262	62.69
229.496	80.69
229.73	88.69
229.964	83.69
230.199	71.69
230.433	70.69
230.667	87.69
230.901	81.69
231.136	87.69
231.37	81.69
231.604	63.69
231.838	86.69
232.072	64.69
232.306	70.69
232.541	85.69
232.775	73.69
233.009	77.69
233.243	70.69
233.477	83.69
233.711	88.69
233.945	95.69
234.179	87.69
234.413	79.69
234.647	75.69
234.881	76.69
235.115	78.69
235.349	85.69
235.583	95.69
235.817	85.69
236.051	79.69
236.285	80.69
236.519	85.69
236.753	77.69
236.987	81.69
237.221	80.69
237.455	102.69
237.689	82.69
237.922	83.69
238.156	84.69
238.39	71.69
238.624	83.69
238.858	64.69
239.091	70.69
239.325	62.69
239.559	90.69
239.793	80.69
240.027	79.69
240.26	66.69
240.494	84.69
240.728	84.69
240.961	68.69
241.195	78.69
241.429	86.69
241.662	76.69
241.896	80.69
242.13	68.69
242.363	65.69
242.597	86.69
242.83	67.69
243.064	70.69
243.298	78.69
243.531	75.69
243.765	91.69
243.998	84.69
244.232	91.69
244.465	91.69
244.699	85.69
244.932	83.69
245.166	80.69
245.399	97.69
245.633	82.69
245.866	84.69
246.099	80.69
246.333	62.69
246.566	69.69
246.8	81.69
247.033	84.69
247.266	81.69
247.5	85.69
247.733	77.69
247.966	86.69
248.2	93.69
248.433	76.69
248.666	80.69
248.899	91.69
249.133	97.69
249.366	112.69
249.599	115.69
249.832	88.69
250.066	64.69
250.299	83.69
250.532	93.69
250.765	87.69
250.998	78.69
251.231	95.69
251.465	87.69
251.698	91.69
251.931	98.69
252.164	101.69
252.397	84.69
252.63	84.69
252.863	88.69
253.096	100.69
253.329	79.69
253.562	80.69
253.795	83.69
254.028	69.69
254.261	75.69
254.494	93.69
254.727	81.69
254.96	73.69
255.193	72.69
255.426	75.69
255.659	91.69
255.892	105.69
256.124	108.69
256.357	97.69
256.59	84.69
256.823	81.69
257.056	91.69
257.289	107.69
257.521	91.69
257.754	80.69
257.987	79.69
258.22	117.69
258.452	135.69
258.685	108.69
258.918	86.69
259.151	73.69
259.383	81.69
259.616	85.69
259.849	95.69
260.081	72.69
260.314	91.69
260.547	90.69
260.779	111.69
261.012	157.69
261.244	148.69
261.477	122.69
261.71	116.69
261.942	123.69
262.175	148.69
262.407	91.69
262.64	87.69
262.872	93.69
263.105	89.69
263.337	87.69
263.57	97.69
263.802	85.69
264.035	86.69
264.267	92.69
264.499	89.69
264.732	85.69
264.964	79.69
265.197	86.69
265.429	70.69
265.661	80.69
265.894	91.69
266.126	69.69
266.358	79.69
266.591	82.69
266.823	81.69
267.055	77.69
267.287	84.69
267.52	83.69
267.752	76.69
267.984	88.69
268.216	98.69
268.448	90.69
268.681	83.69
268.913	76.69
269.145	102.69
269.377	91.69
269.609	84.69
269.841	95.69
270.073	85.69
270.306	85.69
270.538	86.69
270.77	89.69
271.002	96.69
271.234	97.69
271.466	100.69
271.698	94.69
271.93	87.69
272.162	89.69
272.394	87.69
272.626	80.69
272.858	98.69
273.09	84.69
273.322	92.69
273.553	76.69
273.785	89.69
274.017	98.69
274.249	92.69
274.481	91.69
274.713	102.69
274.945	88.69
275.176	110.69
275.408	117.69
275.64	164.69
275.872	195.69
276.104	139.69
276.335	100.69
276.567	133.69
276.799	175.69
277.031	256.69
277.262	339.69
277.494	241.69
277.726	116.69
277.957	99.69
278.189	113.69
278.421	108.69
278.652	93.69
278.884	87.69
279.115	83.69
279.347	103.69
279.579	114.69
279.81	195.69
280.042	358.69
280.273	495.69
280.505	302.69
280.736	149.69
280.968	85.69
281.199	90.69
281.431	89.69
281.662	86.69
281.894	95.69
282.125	96.69
282.356	128.69
282.588	172.69
282.819	135.69
283.051	96.69
283.282	84.69
283.513	93.69
283.745	85.69
283.976	101.69
284.207	85.69
284.439	97.69
284.67	99.69
284.901	88.69
285.132	95.69
285.364	92.69
285.595	92.69
285.826	91.69
286.057	89.69
286.288	90.69
286.52	87.69
286.751	94.69
286.982	87.69
287.213	94.69
287.444	96.69
287.675	100.69
287.906	84.69
288.138	102.69
288.369	85.69
288.6	99.69
288.831	96.69
289.062	100.69
289.293	84.69
289.524	89.69
289.755	92.69
289.986	80.69
290.217	91.69
290.448	75.69
290.679	76.69
290.91	99.69
291.141	81.69
291.371	88.69
291.602	102.69
291.833	94.69
292.064	85.69
292.295	88.69
292.526	102.69
292.757	81.69
292.987	89.69
293.218	83.69
293.449	78.69
293.68	89.69
293.91	91.69
294.141	83.69
294.372	93.69
294.603	97.69
294.833	86.69
295.064	98.69
295.295	80.69
295.525	89.69
295.756	93.69
295.987	123.69
296.217	157.69
296.448	151.69
296.679	120.69
296.909	84.69
297.14	88.69
297.37	96.69
297.601	88.69
297.831	99.69
298.062	95.69
298.292	94.69
298.523	88.69
298.753	82.69
298.984	97.69
299.214	85.69
299.445	86.69
299.675	110.69
299.905	99.69
300.136	101.69
300.366	96.69
300.597	101.69
300.827	100.69
301.057	98.69
301.288	120.69
301.518	114.69
301.748	110.69
301.979	133.69
302.209	98.69
302.439	100.69
302.669	96.69
302.9	100.69
303.13	95.69
303.36	112.69
303.59	175.69
303.82	197.69
304.051	106.69
304.281	104.69
304.511	99.69
304.741	89.69
304.971	95.69
305.201	100.69
305.431	90.69
305.661	101.69
305.891	93.69
306.121	104.69
306.352	107.69
306.582	121.69
306.812	125.69
307.042	167.69
307.272	253.69
307.502	300.69
307.731	255.69
307.961	173.69
308.191	117.69
308.421	90.69
308.651	94.69
308.881	105.69
309.111	97.69
309.341	109.69
309.571	111.69
309.8	100.69
310.03	105.69
310.26	111.69
310.49	107.69
310.72	100.69
310.949	107.69
311.179	98.69
311.409	96.69
311.639	102.69
311.868	93.69
312.098	110.69
312.328	93.69
312.557	112.69
312.787	130.69
313.017	109.69
313.246	105.69
313.476	96.69
313.706	87.69
313.935	93.69
314.165	116.69
314.394	110.69
314.624	98.69
314.853	111.69
315.083	100.69
315.312	97.69
315.542	101.69
315.771	95.69
316.001	95.69
316.23	92.69
316.46	100.69
316.689	92.69
316.919	108.69
317.148	117.69
317.377	105.69
317.607	91.69
317.836	95.69
318.065	89.69
318.295	95.69
318.524	95.69
318.753	88.69
318.983	99.69
319.212	107.69
319.441	116.69
319.67	121.69
319.9	92.69
320.129	90.69
320.358	104.69
320.587	97.69
320.816	116.69
321.046	113.69
321.275	99.69
321.504	101.69
321.733	90.69
321.962	113.69
322.191	113.69
322.42	120.69
322.649	112.69
322.878	129.69
323.108	132.69
323.337	136.69
323.566	157.69
323.795	163.69
324.024	235.69
324.253	439.69
324.482	910.69
324.71	1838.69
324.939	2399.69
325.168	932.69
325.397	291.69
325.626	157.69
325.855	143.69
326.084	121.69
326.313	141.69
326.542	163.69
326.77	240.69
326.999	450.69
327.228	915.69
327.457	1672.69
327.686	1431.69
327.914	683.69
328.143	890.69
328.372	1267.69
328.6	635.69
328.829	248.69
329.058	216.69
329.287	208.69
329.515	259.69
329.744	411.69
329.972	856.69
330.201	1910.69
330.43	2824.69
330.658	1147.69
330.887	379.69
331.115	216.69
331.344	146.69
331.572	134.69
331.801	133.69
332.03	154.69
332.258	117.69
332.486	116.69
332.715	127.69
332.943	134.69
333.172	147.69
333.4	155.69
333.629	215.69
333.857	313.69
334.085	727.69
334.314	1717.69
334.542	3399.69
334.771	3191.69
334.999	748.69
335.227	267.69
335.455	155.69
335.684	126.69
335.912	109.69
336.14	115.69
336.369	128.69
336.597	120.69
336.825	128.69
337.053	96.69
337.281	94.69
337.51	101.69
337.738	120.69
337.966	108.69
338.194	111.69
338.422	99.69
338.65	103.69
338.878	99.69
339.106	93.69
339.334	105.69
339.562	93.69
339.79	93.69
340.018	100.69
340.246	99.69
340.474	108.69
340.702	96.69
340.93	75.69
341.158	109.69
341.386	97.69
341.614	108.69
341.842	106.69
342.07	93.69
342.298	110.69
342.526	111.69
342.754	83.69
342.981	96.69
343.209	85.69
343.437	99.69
343.665	80.69
343.893	86.69
344.12	91.69
344.348	86.69
344.576	79.69
344.804	95.69
345.031	98.69
345.259	116.69
345.487	105.69
345.714	85.69
345.942	92.69
346.17	85.69
346.397	105.69
346.625	103.69
346.853	94.69
347.08	97.69
347.308	93.69
347.535	108.69
347.763	119.69
347.99	99.69
348.218	108.69
348.445	105.69
348.673	101.69
348.9	94.69
349.128	94.69
349.355	88.69
349.583	98.69
349.81	92.69
350.037	96.69
350.265	101.69
350.492	96.69
350.72	88.69
350.947	109.69
351.174	113.69
351.402	124.69
351.629	123.69
351.856	92.69
352.083	113.69
352.311	119.69
352.538	123.69
352.765	123.69
352.992	126.69
353.22	109.69
353.447	104.69
353.674	107.69
353.901	94.69
354.128	89.69
354.355	96.69
354.583	102.69
354.81	104.69
355.037	114.69
355.264	96.69
355.491	79.69
355.718	80.69
355.945	106.69
356.172	88.69
356.399	99.69
356.626	115.69
356.853	105.69
357.08	81.69
357.307	89.69
357.534	99.69
357.761	111.69
357.988	103.69
358.215	100.69
358.441	127.69
358.668	106.69
358.895	104.69
359.122	109.69
359.349	91.69
359.576	89.69
359.802	105.69
360.029	134.69
360.256	127.69
360.483	128.69
360.709	89.69
360.936	87.69
361.163	111.69
361.39	110.69
361.616	109.69
361.843	100.69
362.07	108.69
362.296	99.69
362.523	84.69
362.749	104.69
362.976	109.69
363.203	98.69
363.429	110.69
363.656	98.69
363.882	97.69
364.109	89.69
364.335	107.69
364.562	107.69
364.788	93.69
365.015	104.69
365.241	109.69
365.468	116.69
365.694	105.69
365.92	103.69
366.147	99.69
366.373	92.69
366.599	84.69
366.826	87.69
367.052	79.69
367.278	108.69
367.505	112.69
367.731	108.69
367.957	100.69
368.184	96.69
368.41	117.69
368.636	112.69
368.862	143.69
369.089	107.69
369.315	92.69
369.541	95.69
369.767	101.69
369.993	105.69
370.219	92.69
370.445	85.69
370.672	92.69
370.898	100.69
371.124	91.69
371.35	100.69
371.576	105.69
371.802	88.69
372.028	85.69
372.254	97.69
372.48	83.69
372.706	92.69
372.932	95.69
373.158	88.69
373.384	90.69
373.61	96.69
373.835	92.69
374.061	83.69
374.287	100.69
374.513	87.69
374.739	87.69
374.965	100.69
375.191	96.69
375.416	101.69
375.642	98.69
375.868	97.69
376.094	102.69
376.319	93.69
376.545	95.69
376.771	91.69
376.997	107.69
377.222	100.69
377.448	100.69
377.674	110.69
377.899	84.69
378.125	106.69
378.35	95.69
378.576	108.69
378.802	106.69
379.027	98.69
379.253	92.69
379.478	100.69
379.704	115.69
379.929	110.69
380.155	102.69
380.38	113.69
380.606	121.69
380.831	118.69
381.057	109.69
381.282	121.69
381.507	101.69
381.733	119.69
381.958	115.69
382.184	112.69
382.409	109.69
382.634	128.69
382.86	113.69
383.085	122.69
383.31	142.69
383.535	125.69
383.761	119.69
383.986	129.69
384.211	123.69
384.436	139.69
384.662	120.69
384.887	156.69
385.112	151.69
385.337	161.69
385.562	163.69
385.787	165.69
386.013	170.69
386.238	166.69
386.463	161.69
386.688	157.69
386.913	137.69
387.138	161.69
387.363	147.69
387.588	126.69
387.813	127.69
388.038	154.69
388.263	194.69
388.488	169.69
388.713	121.69
388.938	94.69
389.163	92.69
389.387	95.69
389.612	92.69
389.837	87.69
390.062	91.69
390.287	89.69
390.512	84.69
390.736	90.69
390.961	89.69
391.186	87.69
391.411	76.69
391.636	92.69
391.86	86.69
392.085	88.69
392.31	86.69
392.534	81.69
392.759	86.69
392.984	87.69
393.208	99.69
393.433	118.69
393.658	95.69
393.882	76.69
394.107	87.69
394.331	88.69
394.556	88.69
394.78	87.69
395.005	79.69
395.229	80.69
395.454	90.69
395.678	65.69
395.903	80.69
396.127	87.69
396.352	81.69
396.576	83.69
396.801	107.69
397.025	88.69
397.249	93.69
397.474	91.69
397.698	83.69
397.922	89.69
398.147	87.69
398.371	109.69
398.595	78.69
398.82	82.69
399.044	88.69
399.268	86.69
399.492	97.69
399.717	94.69
399.941	85.69
400.165	83.69
400.389	79.69
400.613	85.69
400.837	70.69
401.062	97.69
401.286	88.69
401.51	101.69
401.734	84.69
401.958	108.69
402.182	148.69
402.406	184.69
402.63	137.69
402.854	101.69
403.078	99.69
403.302	88.69
403.526	85.69
403.75	68.69
403.974	99.69
404.198	87.69
404.422	89.69
404.645	92.69
404.869	94.69
405.093	114.69
405.317	143.69
405.541	142.69
405.765	117.69
405.988	121.69
406.212	213.69
406.436	327.69
406.66	211.69
406.883	128.69
407.107	112.69
407.331	102.69
407.555	105.69
407.778	103.69
408.002	84.69
408.226	104.69
408.449	93.69
408.673	85.69
408.896	90.69
409.12	105.69
409.344	93.69
409.567	92.69
409.791	98.69
410.014	92.69
410.238	88.69
410.461	79.69
410.685	96.69
410.908	114.69
411.132	110.69
411.355	102.69
411.578	93.69
411.802	96.69
412.025	99.69
412.249	109.69
412.472	128.69
412.695	139.69
412.919	115.69
413.142	104.69
413.365	85.69
413.589	97.69
413.812	102.69
414.035	106.69
414.258	110.69
414.482	95.69
414.705	100.69
414.928	82.69
415.151	122.69
415.374	106.69
415.597	105.69
415.821	101.69
416.044	108.69
416.267	99.69
416.49	95.69
416.713	102.69
416.936	101.69
417.159	87.69
417.382	100.69
417.605	121.69
417.828	140.69
418.051	112.69
418.274	94.69
418.497	85.69
418.72	83.69
418.943	93.69
419.166	84.69
419.389	107.69
419.611	86.69
419.834	108.69
420.057	93.69
420.28	102.69
420.503	99.69
420.726	88.69
420.948	99.69
421.171	102.69
421.394	100.69
421.617	109.69
421.839	98.69
422.062	78.69
422.285	99.69
422.507	110.69
422.73	133.69
422.953	108.69
423.175	96.69
423.398	96.69
423.621	87.69
423.843	83.69
424.066	93.69
424.288	89.69
424.511	93.69
424.733	89.69
424.956	94.69
425.178	117.69
425.401	95.69
425.623	103.69
425.846	95.69
426.068	97.69
426.291	99.69
426.513	92.69
426.735	102.69
426.958	102.69
427.18	108.69
427.402	169.69
427.625	257.69
427.847	250.69
428.069	216.69
428.292	146.69
428.514	116.69
428.736	101.69
428.958	81.69
429.181	93.69
429.403	95.69
429.625	93.69
429.847	104.69
430.069	132.69
430.292	102.69
430.514	92.69
430.736	89.69
430.958	96.69
431.18	96.69
431.402	83.69
431.624	87.69
431.846	94.69
432.068	91.69
432.29	79.69
432.512	79.69
432.734	87.69
432.956	87.69
433.178	98.69
433.4	101.69
433.622	98.69
433.844	99.69
434.066	84.69
434.287	94.69
434.509	86.69
434.731	84.69
434.953	86.69
435.175	92.69
435.397	97.69
435.618	91.69
435.84	114.69
436.062	130.69
436.284	124.69
436.505	98.69
436.727	103.69
436.949	87.69
437.17	95.69
437.392	91.69
437.614	101.69
437.835	131.69
438.057	156.69
438.278	110.69
438.5	107.69
438.721	125.69
438.943	104.69
439.165	80.69
439.386	75.69
439.608	85.69
439.829	100.69
440.05	150.69
440.272	179.69
440.493	114.69
440.715	88.69
440.936	89.69
441.158	83.69
441.379	84.69
441.6	99.69
441.822	93.69
442.043	91.69
442.264	117.69
442.486	103.69
442.707	100.69
442.928	123.69
443.149	159.69
443.371	168.69
443.592	131.69
443.813	120.69
444.034	114.69
444.255	89.69
444.476	89.69
444.698	97.69
444.919	99.69
445.14	126.69
445.361	136.69
445.582	146.69
445.803	175.69
446.024	163.69
446.245	157.69
446.466	125.69
446.687	94.69
446.908	107.69
447.129	85.69
447.35	102.69
447.571	89.69
447.792	93.69
448.013	111.69
448.234	121.69
448.455	119.69
448.675	119.69
448.896	121.69
449.117	97.69
449.338	94.69
449.559	139.69
449.779	133.69
450	97.69
450.221	99.69
450.442	103.69
450.662	107.69
450.883	128.69
451.104	136.69
451.324	100.69
451.545	96.69
451.766	97.69
451.986	89.69
452.207	87.69
452.428	107.69
452.648	104.69
452.869	150.69
453.089	128.69
453.31	153.69
453.53	101.69
453.751	96.69
453.971	94.69
454.192	122.69
454.412	101.69
454.633	101.69
454.853	83.69
455.073	104.69
455.294	86.69
455.514	111.69
455.734	86.69
455.955	83.69
456.175	94.69
456.395	86.69
456.616	78.69
456.836	83.69
457.056	81.69
457.276	77.69
457.497	91.69
457.717	84.69
457.937	88.69
458.157	88.69
458.377	97.69
458.598	129.69
458.818	188.69
459.038	218.69
459.258	146.69
459.478	101.69
459.698	89.69
459.918	83.69
460.138	80.69
460.358	75.69
460.578	102.69
460.798	105.69
461.018	98.69
461.238	84.69
461.458	94.69
461.678	109.69
461.898	88.69
462.118	91.69
462.338	97.69
462.558	93.69
462.777	100.69
462.997	99.69
463.217	151.69
463.437	114.69
463.657	96.69
463.876	93.69
464.096	89.69
464.316	95.69
464.536	89.69
464.755	104.69
464.975	116.69
465.195	225.69
465.414	216.69
465.634	104.69
465.854	97.69
466.073	103.69
466.293	95.69
466.512	92.69
466.732	92.69
466.951	103.69
467.171	110.69
467.391	118.69
467.61	184.69
467.829	348.69
468.049	1222.69
468.268	1955.69
468.488	407.69
468.707	156.69
468.927	104.69
469.146	100.69
469.365	103.69
469.585	105.69
469.804	116.69
470.023	108.69
470.243	104.69
470.462	115.69
470.681	130.69
470.901	110.69
471.12	118.69
471.339	115.69
471.558	148.69
471.777	225.69
471.997	529.69
472.216	2274.69
472.435	5311.69
472.654	1115.69
472.873	267.69
473.092	143.69
473.311	96.69
473.53	102.69
473.749	88.69
473.968	109.69
474.187	111.69
474.406	110.69
474.625	88.69
474.844	96.69
475.063	89.69
475.282	86.69
475.501	89.69
475.72	108.69
475.939	97.69
476.158	83.69
476.377	92.69
476.596	103.69
476.814	98.69
477.033	84.69
477.252	91.69
477.471	88.69
477.69	94.69
477.908	102.69
478.127	96.69
478.346	95.69
478.564	113.69
478.783	111.69
479.002	115.69
479.22	120.69
479.439	142.69
479.658	152.69
479.876	160.69
480.095	151.69
480.313	166.69
480.532	240.69
480.751	462.69
480.969	1941.69
481.188	8443.69
481.406	4734.69
481.624	606.69
481.843	196.69
482.061	111.69
482.28	121.69
482.498	108.69
482.717	97.69
482.935	102.69
483.153	90.69
483.372	108.69
483.59	113.69
483.808	94.69
484.027	97.69
484.245	100.69
484.463	109.69
484.681	93.69
484.9	80.69
485.118	104.69
485.336	104.69
485.554	110.69
485.772	109.69
485.99	120.69
486.209	123.69
486.427	103.69
486.645	129.69
486.863	135.69
487.081	115.69
487.299	102.69
487.517	95.69
487.735	81.69
487.953	82.69
488.171	96.69
488.389	96.69
488.607	102.69
488.825	97.69
489.043	100.69
489.261	101.69
489.479	101.69
489.696	88.69
489.914	90.69
490.132	85.69
490.35	87.69
490.568	79.69
490.786	98.69
491.003	98.69
491.221	101.69
491.439	113.69
491.657	97.69
491.874	87.69
492.092	102.69
492.31	101.69
492.527	108.69
492.745	93.69
492.963	86.69
493.18	83.69
493.398	85.69
493.615	106.69
493.833	93.69
494.05	79.69
494.268	88.69
494.485	100.69
494.703	92.69
494.92	86.69
495.138	85.69
495.355	87.69
495.573	95.69
495.79	104.69
496.008	100.69
496.225	80.69
496.442	92.69
496.66	84.69
496.877	96.69
497.094	101.69
497.312	94.69
497.529	91.69
497.746	92.69
497.963	103.69
498.181	90.69
498.398	105.69
498.615	122.69
498.832	99.69
499.049	95.69
499.267	103.69
499.484	103.69
499.701	92.69
499.918	106.69
500.135	99.69
500.352	102.69
500.569	92.69
500.786	102.69
501.003	93.69
501.22	95.69
501.437	80.69
501.654	98.69
501.871	123.69
502.088	101.69
502.305	103.69
502.522	98.69
502.739	86.69
502.956	108.69
503.172	95.69
503.389	105.69
503.606	122.69
503.823	98.69
504.04	111.69
504.256	98.69
504.473	103.69
504.69	90.69
504.907	101.69
505.123	97.69
505.34	87.69
505.557	96.69
505.773	93.69
505.99	83.69
506.207	93.69
506.423	88.69
506.64	94.69
506.856	90.69
507.073	103.69
507.289	106.69
507.506	95.69
507.722	124.69
507.939	118.69
508.155	103.69
508.372	104.69
508.588	105.69
508.805	111.69
509.021	101.69
509.238	112.69
509.454	107.69
509.67	120.69
509.887	114.69
510.103	145.69
510.319	260.69
510.536	940.69
510.752	3460.69
510.968	904.69
511.184	197.69
511.401	118.69
511.617	109.69
