Data from Circ_1988_H10_HRD10591_00030.txt Node
Date: Wed Jan 03 12:05:40 EST 2024
User: Yrep
Spectrometer: HR+D1059
Trigger mode: 1
Integration Time (sec): 1.000000E-1
Scans to average: 1
Electric dark correction enabled: true
Nonlinearity correction enabled: false
Boxcar width: 0
XAxis mode: Wavelengths
Number of Pixels in Spectrum: 2048
>>>>>Begin Spectral Data<<<<<
223.165	-36.56
223.4	-36.56
223.635	-36.56
223.869	-34.56
224.104	-23.56
224.338	-19.56
224.573	-6.56
224.808	-7.56
225.042	4.44
225.277	-11.56
225.511	-1.56
225.746	0.44
225.98	4.44
226.215	5.44
226.449	29.44
226.683	24.44
226.918	39.44
227.152	33.44
227.387	32.44
227.621	35.44
227.856	52.44
228.09	49.44
228.324	42.44
228.559	55.44
228.793	56.44
229.027	63.44
229.262	65.44
229.496	73.44
229.73	91.44
229.964	92.44
230.199	72.44
230.433	72.44
230.667	78.44
230.901	89.44
231.136	70.44
231.37	78.44
231.604	85.44
231.838	77.44
232.072	74.44
232.306	81.44
232.541	84.44
232.775	77.44
233.009	79.44
233.243	77.44
233.477	87.44
233.711	87.44
233.945	79.44
234.179	66.44
234.413	100.44
234.647	78.44
234.881	87.44
235.115	82.44
235.349	93.44
235.583	85.44
235.817	73.44
236.051	88.44
236.285	80.44
236.519	78.44
236.753	71.44
236.987	86.44
237.221	86.44
237.455	79.44
237.689	88.44
237.922	78.44
238.156	75.44
238.39	68.44
238.624	57.44
238.858	85.44
239.091	63.44
239.325	75.44
239.559	90.44
239.793	83.44
240.027	76.44
240.26	80.44
240.494	90.44
240.728	94.44
240.961	71.44
241.195	96.44
241.429	68.44
241.662	83.44
241.896	83.44
242.13	76.44
242.363	77.44
242.597	82.44
242.83	71.44
243.064	86.44
243.298	89.44
243.531	71.44
243.765	72.44
243.998	64.44
244.232	76.44
244.465	91.44
244.699	87.44
244.932	87.44
245.166	73.44
245.399	90.44
245.633	79.44
245.866	85.44
246.099	70.44
246.333	88.44
246.566	94.44
246.8	87.44
247.033	90.44
247.266	83.44
247.5	90.44
247.733	86.44
247.966	81.44
248.2	82.44
248.433	92.44
248.666	83.44
248.899	72.44
249.133	97.44
249.366	108.44
249.599	101.44
249.832	85.44
250.066	97.44
250.299	83.44
250.532	91.44
250.765	84.44
250.998	88.44
251.231	88.44
251.465	89.44
251.698	91.44
251.931	96.44
252.164	96.44
252.397	84.44
252.63	84.44
252.863	84.44
253.096	89.44
253.329	79.44
253.562	82.44
253.795	77.44
254.028	83.44
254.261	93.44
254.494	85.44
254.727	82.44
254.96	95.44
255.193	73.44
255.426	63.44
255.659	92.44
255.892	113.44
256.124	102.44
256.357	93.44
256.59	99.44
256.823	104.44
257.056	99.44
257.289	82.44
257.521	81.44
257.754	86.44
257.987	89.44
258.22	105.44
258.452	120.44
258.685	118.44
258.918	81.44
259.151	79.44
259.383	86.44
259.616	100.44
259.849	84.44
260.081	87.44
260.314	92.44
260.547	97.44
260.779	100.44
261.012	144.44
261.244	148.44
261.477	108.44
261.71	108.44
261.942	139.44
262.175	131.44
262.407	109.44
262.64	88.44
262.872	92.44
263.105	86.44
263.337	85.44
263.57	81.44
263.802	96.44
264.035	89.44
264.267	85.44
264.499	95.44
264.732	89.44
264.964	71.44
265.197	89.44
265.429	96.44
265.661	86.44
265.894	89.44
266.126	86.44
266.358	84.44
266.591	88.44
266.823	88.44
267.055	86.44
267.287	86.44
267.52	78.44
267.752	81.44
267.984	84.44
268.216	80.44
268.448	93.44
268.681	98.44
268.913	94.44
269.145	83.44
269.377	102.44
269.609	78.44
269.841	104.44
270.073	107.44
270.306	85.44
270.538	86.44
270.77	86.44
271.002	102.44
271.234	103.44
271.466	85.44
271.698	81.44
271.93	84.44
272.162	91.44
272.394	87.44
272.626	86.44
272.858	91.44
273.09	93.44
273.322	80.44
273.553	86.44
273.785	80.44
274.017	92.44
274.249	79.44
274.481	83.44
274.713	85.44
274.945	98.44
275.176	105.44
275.408	127.44
275.64	154.44
275.872	183.44
276.104	140.44
276.335	118.44
276.567	143.44
276.799	177.44
277.031	263.44
277.262	359.44
277.494	255.44
277.726	139.44
277.957	101.44
278.189	99.44
278.421	101.44
278.652	93.44
278.884	98.44
279.115	105.44
279.347	95.44
279.579	132.44
279.81	189.44
280.042	341.44
280.273	513.44
280.505	320.44
280.736	144.44
280.968	111.44
281.199	96.44
281.431	99.44
281.662	96.44
281.894	91.44
282.125	102.44
282.356	121.44
282.588	184.44
282.819	127.44
283.051	95.44
283.282	87.44
283.513	90.44
283.745	108.44
283.976	91.44
284.207	88.44
284.439	96.44
284.67	78.44
284.901	85.44
285.132	78.44
285.364	71.44
285.595	81.44
285.826	81.44
286.057	91.44
286.288	89.44
286.52	93.44
286.751	90.44
286.982	93.44
287.213	85.44
287.444	95.44
287.675	84.44
287.906	83.44
288.138	79.44
288.369	102.44
288.6	111.44
288.831	83.44
289.062	103.44
289.293	87.44
289.524	90.44
289.755	80.44
289.986	71.44
290.217	86.44
290.448	97.44
290.679	79.44
290.91	95.44
291.141	81.44
291.371	84.44
291.602	83.44
291.833	96.44
292.064	86.44
292.295	88.44
292.526	93.44
292.757	87.44
292.987	93.44
293.218	90.44
293.449	81.44
293.68	86.44
293.91	76.44
294.141	101.44
294.372	85.44
294.603	93.44
294.833	88.44
295.064	79.44
295.295	75.44
295.525	80.44
295.756	100.44
295.987	114.44
296.217	175.44
296.448	139.44
296.679	111.44
296.909	85.44
297.14	108.44
297.37	89.44
297.601	92.44
297.831	77.44
298.062	101.44
298.292	83.44
298.523	98.44
298.753	77.44
298.984	79.44
299.214	96.44
299.445	85.44
299.675	85.44
299.905	97.44
300.136	100.44
300.366	84.44
300.597	87.44
300.827	97.44
301.057	109.44
301.288	115.44
301.518	117.44
301.748	105.44
301.979	120.44
302.209	120.44
302.439	100.44
302.669	87.44
302.9	85.44
303.13	101.44
303.36	125.44
303.59	171.44
303.82	206.44
304.051	120.44
304.281	114.44
304.511	93.44
304.741	91.44
304.971	102.44
305.201	90.44
305.431	92.44
305.661	93.44
305.891	100.44
306.121	112.44
306.352	113.44
306.582	126.44
306.812	121.44
307.042	168.44
307.272	254.44
307.502	295.44
307.731	257.44
307.961	161.44
308.191	108.44
308.421	97.44
308.651	95.44
308.881	85.44
309.111	92.44
309.341	103.44
309.571	111.44
309.8	98.44
310.03	99.44
310.26	98.44
310.49	97.44
310.72	116.44
310.949	112.44
311.179	117.44
311.409	101.44
311.639	97.44
311.868	93.44
312.098	107.44
312.328	100.44
312.557	106.44
312.787	111.44
313.017	116.44
313.246	100.44
313.476	95.44
313.706	102.44
313.935	104.44
314.165	103.44
314.394	111.44
314.624	115.44
314.853	94.44
315.083	89.44
315.312	111.44
315.542	100.44
315.771	89.44
316.001	96.44
316.23	92.44
316.46	104.44
316.689	87.44
316.919	95.44
317.148	103.44
317.377	102.44
317.607	108.44
317.836	89.44
318.065	88.44
318.295	101.44
318.524	102.44
318.753	93.44
318.983	100.44
319.212	109.44
319.441	112.44
319.67	109.44
319.9	104.44
320.129	105.44
320.358	101.44
320.587	113.44
320.816	105.44
321.046	116.44
321.275	105.44
321.504	95.44
321.733	84.44
321.962	104.44
322.191	109.44
322.42	104.44
322.649	114.44
322.878	125.44
323.108	132.44
323.337	129.44
323.566	129.44
323.795	156.44
324.024	211.44
324.253	395.44
324.482	800.44
324.71	1623.44
324.939	2163.44
325.168	868.44
325.397	254.44
325.626	159.44
325.855	137.44
326.084	134.44
326.313	147.44
326.542	146.44
326.77	222.44
326.999	417.44
327.228	803.44
327.457	1461.44
327.686	1304.44
327.914	625.44
328.143	873.44
328.372	1237.44
328.6	623.44
328.829	249.44
329.058	216.44
329.287	227.44
329.515	229.44
329.744	400.44
329.972	865.44
330.201	1862.44
330.43	2809.44
330.658	1124.44
330.887	381.44
331.115	213.44
331.344	165.44
331.572	140.44
331.801	151.44
332.03	135.44
332.258	129.44
332.486	121.44
332.715	122.44
332.943	142.44
333.172	149.44
333.4	152.44
333.629	213.44
333.857	340.44
334.085	717.44
334.314	1582.44
334.542	3307.44
334.771	3124.44
334.999	765.44
335.227	243.44
335.455	153.44
335.684	119.44
335.912	123.44
336.14	110.44
336.369	112.44
336.597	123.44
336.825	110.44
337.053	112.44
337.281	95.44
337.51	104.44
337.738	102.44
337.966	97.44
338.194	106.44
338.422	110.44
338.65	89.44
338.878	104.44
339.106	101.44
339.334	116.44
339.562	96.44
339.79	96.44
340.018	94.44
340.246	100.44
340.474	104.44
340.702	90.44
340.93	96.44
341.158	86.44
341.386	102.44
341.614	100.44
341.842	106.44
342.07	86.44
342.298	95.44
342.526	103.44
342.754	98.44
342.981	95.44
343.209	82.44
343.437	100.44
343.665	105.44
343.893	95.44
344.12	77.44
344.348	96.44
344.576	77.44
344.804	85.44
345.031	109.44
345.259	109.44
345.487	97.44
345.714	100.44
345.942	86.44
346.17	85.44
346.397	99.44
346.625	98.44
346.853	100.44
347.08	101.44
347.308	100.44
347.535	110.44
347.763	106.44
347.99	117.44
348.218	108.44
348.445	113.44
348.673	117.44
348.9	108.44
349.128	96.44
349.355	88.44
349.583	103.44
349.81	84.44
350.037	103.44
350.265	95.44
350.492	99.44
350.72	98.44
350.947	113.44
351.174	123.44
351.402	126.44
351.629	117.44
351.856	115.44
352.083	112.44
352.311	104.44
352.538	115.44
352.765	109.44
352.992	116.44
353.22	111.44
353.447	101.44
353.674	81.44
353.901	91.44
354.128	93.44
354.355	96.44
354.583	108.44
354.81	97.44
355.037	104.44
355.264	95.44
355.491	94.44
355.718	89.44
355.945	87.44
356.172	95.44
356.399	96.44
356.626	95.44
356.853	103.44
357.08	94.44
357.307	85.44
357.534	84.44
357.761	96.44
357.988	92.44
358.215	86.44
358.441	104.44
358.668	105.44
358.895	104.44
359.122	94.44
359.349	85.44
359.576	113.44
359.802	106.44
360.029	146.44
360.256	136.44
360.483	121.44
360.709	92.44
360.936	100.44
361.163	103.44
361.39	108.44
361.616	107.44
361.843	96.44
362.07	108.44
362.296	106.44
362.523	93.44
362.749	91.44
362.976	106.44
363.203	93.44
363.429	91.44
363.656	100.44
363.882	97.44
364.109	107.44
364.335	89.44
364.562	87.44
364.788	110.44
365.015	99.44
365.241	102.44
365.468	124.44
365.694	115.44
365.92	104.44
366.147	93.44
366.373	93.44
366.599	88.44
366.826	100.44
367.052	100.44
367.278	103.44
367.505	94.44
367.731	92.44
367.957	81.44
368.184	86.44
368.41	87.44
368.636	120.44
368.862	122.44
369.089	129.44
369.315	111.44
369.541	93.44
369.767	95.44
369.993	93.44
370.219	80.44
370.445	81.44
370.672	88.44
370.898	100.44
371.124	84.44
371.35	89.44
371.576	93.44
371.802	88.44
372.028	86.44
372.254	96.44
372.48	96.44
372.706	86.44
372.932	87.44
373.158	89.44
373.384	98.44
373.61	101.44
373.835	97.44
374.061	91.44
374.287	80.44
374.513	88.44
374.739	88.44
374.965	96.44
375.191	82.44
375.416	97.44
375.642	95.44
375.868	97.44
376.094	89.44
376.319	96.44
376.545	100.44
376.771	92.44
376.997	100.44
377.222	93.44
377.448	110.44
377.674	101.44
377.899	93.44
378.125	116.44
378.35	98.44
378.576	90.44
378.802	105.44
379.027	92.44
379.253	85.44
379.478	100.44
379.704	96.44
379.929	98.44
380.155	102.44
380.38	113.44
380.606	119.44
380.831	113.44
381.057	106.44
381.282	96.44
381.507	101.44
381.733	117.44
381.958	111.44
382.184	107.44
382.409	116.44
382.634	112.44
382.86	112.44
383.085	109.44
383.31	109.44
383.535	106.44
383.761	120.44
383.986	109.44
384.211	103.44
384.436	101.44
384.662	124.44
384.887	139.44
385.112	132.44
385.337	151.44
385.562	133.44
385.787	135.44
386.013	119.44
386.238	141.44
386.463	135.44
386.688	124.44
386.913	143.44
387.138	124.44
387.363	127.44
387.588	115.44
387.813	117.44
388.038	123.44
388.263	125.44
388.488	143.44
388.713	109.44
388.938	91.44
389.163	88.44
389.387	87.44
389.612	87.44
389.837	98.44
390.062	88.44
390.287	86.44
390.512	72.44
390.736	93.44
390.961	94.44
391.186	89.44
391.411	87.44
391.636	87.44
391.86	94.44
392.085	84.44
392.31	80.44
392.534	89.44
392.759	105.44
392.984	108.44
393.208	99.44
393.433	99.44
393.658	94.44
393.882	90.44
394.107	81.44
394.331	90.44
394.556	72.44
394.78	90.44
395.005	94.44
395.229	87.44
395.454	83.44
395.678	83.44
395.903	71.44
396.127	92.44
396.352	91.44
396.576	97.44
396.801	99.44
397.025	103.44
397.249	81.44
397.474	85.44
397.698	93.44
397.922	108.44
398.147	80.44
398.371	81.44
398.595	89.44
398.82	95.44
399.044	81.44
399.268	86.44
399.492	86.44
399.717	97.44
399.941	90.44
400.165	87.44
400.389	87.44
400.613	91.44
400.837	92.44
401.062	92.44
401.286	99.44
401.51	85.44
401.734	99.44
401.958	106.44
402.182	134.44
402.406	202.44
402.63	145.44
402.854	95.44
403.078	89.44
403.302	89.44
403.526	84.44
403.75	86.44
403.974	87.44
404.198	101.44
404.422	79.44
404.645	94.44
404.869	100.44
405.093	128.44
405.317	155.44
405.541	142.44
405.765	111.44
405.988	131.44
406.212	213.44
406.436	299.44
406.66	193.44
406.883	113.44
407.107	107.44
407.331	114.44
407.555	109.44
407.778	99.44
408.002	102.44
408.226	89.44
408.449	89.44
408.673	83.44
408.896	97.44
409.12	105.44
409.344	100.44
409.567	85.44
409.791	85.44
410.014	90.44
410.238	85.44
410.461	94.44
410.685	75.44
410.908	112.44
411.132	95.44
411.355	104.44
411.578	94.44
411.802	95.44
412.025	99.44
412.249	108.44
412.472	120.44
412.695	128.44
412.919	117.44
413.142	103.44
413.365	94.44
413.589	95.44
413.812	91.44
414.035	86.44
414.258	93.44
414.482	105.44
414.705	91.44
414.928	109.44
415.151	104.44
415.374	95.44
415.597	90.44
415.821	97.44
416.044	112.44
416.267	85.44
416.49	93.44
416.713	92.44
416.936	101.44
417.159	95.44
417.382	105.44
417.605	128.44
417.828	127.44
418.051	93.44
418.274	95.44
418.497	94.44
418.72	105.44
418.943	92.44
419.166	78.44
419.389	107.44
419.611	91.44
419.834	96.44
420.057	99.44
420.28	97.44
420.503	99.44
420.726	84.44
420.948	96.44
421.171	100.44
421.394	101.44
421.617	87.44
421.839	88.44
422.062	80.44
422.285	100.44
422.507	125.44
422.73	125.44
422.953	116.44
423.175	104.44
423.398	76.44
423.621	100.44
423.843	93.44
424.066	94.44
424.288	100.44
424.511	98.44
424.733	90.44
424.956	113.44
425.178	98.44
425.401	105.44
425.623	99.44
425.846	99.44
426.068	110.44
426.291	100.44
426.513	112.44
426.735	81.44
426.958	99.44
427.18	114.44
427.402	161.44
427.625	241.44
427.847	239.44
428.069	216.44
428.292	143.44
428.514	87.44
428.736	88.44
428.958	88.44
429.181	95.44
429.403	83.44
429.625	94.44
429.847	115.44
430.069	113.44
430.292	99.44
430.514	82.44
430.736	81.44
430.958	96.44
431.18	97.44
431.402	84.44
431.624	84.44
431.846	88.44
432.068	84.44
432.29	87.44
432.512	95.44
432.734	87.44
432.956	95.44
433.178	102.44
433.4	109.44
433.622	84.44
433.844	99.44
434.066	101.44
434.287	92.44
434.509	99.44
434.731	81.44
434.953	78.44
435.175	87.44
435.397	88.44
435.618	81.44
435.84	98.44
436.062	110.44
436.284	121.44
436.505	115.44
436.727	101.44
436.949	87.44
437.17	81.44
437.392	78.44
437.614	96.44
437.835	117.44
438.057	143.44
438.278	125.44
438.5	121.44
438.721	131.44
438.943	102.44
439.165	77.44
439.386	93.44
439.608	83.44
439.829	121.44
440.05	138.44
440.272	168.44
440.493	105.44
440.715	94.44
440.936	75.44
441.158	92.44
441.379	88.44
441.6	110.44
441.822	104.44
442.043	93.44
442.264	120.44
442.486	112.44
442.707	95.44
442.928	110.44
443.149	171.44
443.371	157.44
443.592	121.44
443.813	120.44
444.034	115.44
444.255	96.44
444.476	104.44
444.698	95.44
444.919	91.44
445.14	125.44
445.361	120.44
445.582	115.44
445.803	151.44
446.024	145.44
446.245	145.44
446.466	118.44
446.687	107.44
446.908	92.44
447.129	88.44
447.35	107.44
447.571	98.44
447.792	103.44
448.013	127.44
448.234	128.44
448.455	103.44
448.675	120.44
448.896	123.44
449.117	97.44
449.338	100.44
449.559	137.44
449.779	131.44
450	104.44
450.221	87.44
450.442	95.44
450.662	101.44
450.883	124.44
451.104	140.44
451.324	117.44
451.545	84.44
451.766	85.44
451.986	81.44
452.207	86.44
452.428	93.44
452.648	111.44
452.869	134.44
453.089	136.44
453.31	145.44
453.53	105.44
453.751	95.44
453.971	114.44
454.192	131.44
454.412	99.44
454.633	86.44
454.853	93.44
455.073	92.44
455.294	99.44
455.514	95.44
455.734	103.44
455.955	86.44
456.175	87.44
456.395	94.44
456.616	84.44
456.836	78.44
457.056	85.44
457.276	99.44
457.497	88.44
457.717	81.44
457.937	95.44
458.157	88.44
458.377	89.44
458.598	121.44
458.818	205.44
459.038	216.44
459.258	134.44
459.478	99.44
459.698	77.44
459.918	92.44
460.138	102.44
460.358	78.44
460.578	86.44
460.798	81.44
461.018	77.44
461.238	100.44
461.458	81.44
461.678	76.44
461.898	84.44
462.118	96.44
462.338	86.44
462.558	92.44
462.777	103.44
462.997	125.44
463.217	128.44
463.437	101.44
463.657	102.44
463.876	88.44
464.096	108.44
464.316	96.44
464.536	97.44
464.755	92.44
464.975	143.44
465.195	218.44
465.414	235.44
465.634	119.44
465.854	104.44
466.073	86.44
466.293	89.44
466.512	94.44
466.732	101.44
466.951	102.44
467.171	115.44
467.391	123.44
467.61	183.44
467.829	367.44
468.049	1217.44
468.268	1985.44
468.488	420.44
468.707	143.44
468.927	111.44
469.146	108.44
469.365	108.44
469.585	101.44
469.804	115.44
470.023	127.44
470.243	103.44
470.462	133.44
470.681	155.44
470.901	120.44
471.12	125.44
471.339	122.44
471.558	144.44
471.777	217.44
471.997	517.44
472.216	2163.44
472.435	5236.44
472.654	1073.44
472.873	252.44
473.092	142.44
473.311	119.44
473.53	105.44
473.749	101.44
473.968	115.44
474.187	107.44
474.406	107.44
474.625	101.44
474.844	95.44
475.063	101.44
475.282	102.44
475.501	84.44
475.72	99.44
475.939	98.44
476.158	96.44
476.377	102.44
476.596	81.44
476.814	98.44
477.033	99.44
477.252	100.44
477.471	117.44
477.69	95.44
477.908	98.44
478.127	113.44
478.346	109.44
478.564	119.44
478.783	128.44
479.002	117.44
479.22	110.44
479.439	126.44
479.658	143.44
479.876	153.44
480.095	144.44
480.313	164.44
480.532	242.44
480.751	461.44
480.969	1839.44
481.188	8270.44
481.406	4602.44
481.624	598.44
481.843	173.44
482.061	136.44
482.28	135.44
482.498	105.44
482.717	115.44
482.935	101.44
483.153	98.44
483.372	91.44
483.59	92.44
483.808	102.44
484.027	108.44
484.245	93.44
484.463	104.44
484.681	109.44
484.9	91.44
485.118	104.44
485.336	89.44
485.554	114.44
485.772	125.44
485.99	102.44
486.209	110.44
486.427	122.44
486.645	117.44
486.863	122.44
487.081	110.44
487.299	116.44
487.517	101.44
487.735	93.44
487.953	91.44
488.171	93.44
488.389	109.44
488.607	107.44
488.825	84.44
489.043	95.44
489.261	90.44
489.479	95.44
489.696	89.44
489.914	94.44
490.132	98.44
490.35	91.44
490.568	107.44
490.786	102.44
491.003	77.44
491.221	98.44
491.439	105.44
491.657	92.44
491.874	104.44
492.092	93.44
492.31	94.44
492.527	114.44
492.745	85.44
492.963	85.44
493.18	102.44
493.398	94.44
493.615	84.44
493.833	103.44
494.05	117.44
494.268	92.44
494.485	107.44
494.703	89.44
494.92	89.44
495.138	79.44
495.355	92.44
495.573	99.44
495.79	101.44
496.008	104.44
496.225	87.44
496.442	95.44
496.66	89.44
496.877	104.44
497.094	88.44
497.312	93.44
497.529	89.44
497.746	97.44
497.963	93.44
498.181	103.44
498.398	92.44
498.615	104.44
498.832	109.44
499.049	96.44
499.267	80.44
499.484	80.44
499.701	109.44
499.918	91.44
500.135	89.44
500.352	108.44
500.569	116.44
500.786	100.44
501.003	99.44
501.22	99.44
501.437	101.44
501.654	107.44
501.871	106.44
502.088	104.44
502.305	84.44
502.522	93.44
502.739	91.44
502.956	108.44
503.172	110.44
503.389	113.44
503.606	121.44
503.823	104.44
504.04	103.44
504.256	91.44
504.473	92.44
504.69	78.44
504.907	97.44
505.123	95.44
505.34	94.44
505.557	102.44
505.773	100.44
505.99	95.44
506.207	83.44
506.423	104.44
506.64	86.44
506.856	94.44
507.073	104.44
507.289	96.44
507.506	94.44
507.722	121.44
507.939	134.44
508.155	87.44
508.372	99.44
508.588	83.44
508.805	103.44
509.021	100.44
509.238	107.44
509.454	108.44
509.67	112.44
509.887	115.44
510.103	144.44
510.319	228.44
510.536	904.44
510.752	3357.44
510.968	883.44
511.184	191.44
511.401	126.44
511.617	120.44
