Data from Circ_1988_H10_HRD10591_00039.txt Node
Date: Wed Jan 03 12:05:42 EST 2024
User: Yrep
Spectrometer: HR+D1059
Trigger mode: 1
Integration Time (sec): 1.000000E-1
Scans to average: 1
Electric dark correction enabled: true
Nonlinearity correction enabled: false
Boxcar width: 0
XAxis mode: Wavelengths
Number of Pixels in Spectrum: 2048
>>>>>Begin Spectral Data<<<<<
223.165	-12.94
223.4	-12.94
223.635	-12.94
223.869	-20.94
224.104	5.06
224.338	-17.94
224.573	-25.94
224.808	-12.94
225.042	-11.94
225.277	-5.94
225.511	-10.94
225.746	11.06
225.98	-4.94
226.215	1.06
226.449	18.06
226.683	21.06
226.918	25.06
227.152	43.06
227.387	42.06
227.621	52.06
227.856	50.06
228.09	42.06
228.324	66.06
228.559	58.06
228.793	62.06
229.027	69.06
229.262	74.06
229.496	83.06
229.73	85.06
229.964	97.06
230.199	78.06
230.433	60.06
230.667	73.06
230.901	75.06
231.136	81.06
231.37	81.06
231.604	84.06
231.838	103.06
232.072	97.06
232.306	84.06
232.541	96.06
232.775	74.06
233.009	79.06
233.243	75.06
233.477	72.06
233.711	82.06
233.945	86.06
234.179	61.06
234.413	79.06
234.647	83.06
234.881	66.06
235.115	80.06
235.349	83.06
235.583	89.06
235.817	75.06
236.051	79.06
236.285	93.06
236.519	78.06
236.753	94.06
236.987	78.06
237.221	96.06
237.455	95.06
237.689	81.06
237.922	74.06
238.156	69.06
238.39	80.06
238.624	82.06
238.858	83.06
239.091	79.06
239.325	79.06
239.559	89.06
239.793	71.06
240.027	97.06
240.26	85.06
240.494	84.06
240.728	82.06
240.961	74.06
241.195	81.06
241.429	80.06
241.662	94.06
241.896	90.06
242.13	92.06
242.363	82.06
242.597	87.06
242.83	91.06
243.064	88.06
243.298	99.06
243.531	87.06
243.765	87.06
243.998	90.06
244.232	88.06
244.465	81.06
244.699	93.06
244.932	80.06
245.166	70.06
245.399	82.06
245.633	81.06
245.866	91.06
246.099	86.06
246.333	85.06
246.566	86.06
246.8	89.06
247.033	81.06
247.266	100.06
247.5	86.06
247.733	85.06
247.966	91.06
248.2	90.06
248.433	103.06
248.666	92.06
248.899	97.06
249.133	111.06
249.366	118.06
249.599	107.06
249.832	103.06
250.066	98.06
250.299	91.06
250.532	101.06
250.765	89.06
250.998	90.06
251.231	75.06
251.465	99.06
251.698	102.06
251.931	105.06
252.164	65.06
252.397	88.06
252.63	77.06
252.863	99.06
253.096	82.06
253.329	83.06
253.562	88.06
253.795	68.06
254.028	95.06
254.261	89.06
254.494	77.06
254.727	87.06
254.96	95.06
255.193	80.06
255.426	80.06
255.659	93.06
255.892	135.06
256.124	134.06
256.357	93.06
256.59	117.06
256.823	90.06
257.056	99.06
257.289	105.06
257.521	121.06
257.754	79.06
257.987	89.06
258.22	116.06
258.452	122.06
258.685	144.06
258.918	100.06
259.151	94.06
259.383	86.06
259.616	90.06
259.849	102.06
260.081	101.06
260.314	93.06
260.547	108.06
260.779	117.06
261.012	171.06
261.244	145.06
261.477	109.06
261.71	109.06
261.942	142.06
262.175	155.06
262.407	109.06
262.64	95.06
262.872	102.06
263.105	97.06
263.337	96.06
263.57	82.06
263.802	88.06
264.035	77.06
264.267	85.06
264.499	96.06
264.732	90.06
264.964	82.06
265.197	74.06
265.429	82.06
265.661	81.06
265.894	84.06
266.126	101.06
266.358	86.06
266.591	91.06
266.823	99.06
267.055	95.06
267.287	90.06
267.52	95.06
267.752	85.06
267.984	94.06
268.216	84.06
268.448	108.06
268.681	106.06
268.913	96.06
269.145	83.06
269.377	89.06
269.609	87.06
269.841	83.06
270.073	82.06
270.306	83.06
270.538	99.06
270.77	88.06
271.002	93.06
271.234	98.06
271.466	117.06
271.698	106.06
271.93	92.06
272.162	100.06
272.394	102.06
272.626	91.06
272.858	82.06
273.09	91.06
273.322	88.06
273.553	81.06
273.785	87.06
274.017	91.06
274.249	93.06
274.481	90.06
274.713	95.06
274.945	102.06
275.176	109.06
275.408	117.06
275.64	179.06
275.872	198.06
276.104	151.06
276.335	127.06
276.567	145.06
276.799	203.06
277.031	307.06
277.262	394.06
277.494	275.06
277.726	143.06
277.957	125.06
278.189	97.06
278.421	97.06
278.652	101.06
278.884	105.06
279.115	97.06
279.347	119.06
279.579	133.06
279.81	228.06
280.042	431.06
280.273	621.06
280.505	376.06
280.736	167.06
280.968	117.06
281.199	112.06
281.431	106.06
281.662	102.06
281.894	108.06
282.125	98.06
282.356	133.06
282.588	185.06
282.819	142.06
283.051	97.06
283.282	101.06
283.513	100.06
283.745	87.06
283.976	85.06
284.207	92.06
284.439	93.06
284.67	95.06
284.901	93.06
285.132	89.06
285.364	97.06
285.595	96.06
285.826	96.06
286.057	74.06
286.288	89.06
286.52	81.06
286.751	83.06
286.982	90.06
287.213	81.06
287.444	95.06
287.675	101.06
287.906	84.06
288.138	89.06
288.369	97.06
288.6	101.06
288.831	96.06
289.062	87.06
289.293	85.06
289.524	81.06
289.755	83.06
289.986	95.06
290.217	87.06
290.448	88.06
290.679	75.06
290.91	102.06
291.141	107.06
291.371	91.06
291.602	97.06
291.833	87.06
292.064	94.06
292.295	106.06
292.526	105.06
292.757	79.06
292.987	90.06
293.218	104.06
293.449	87.06
293.68	99.06
293.91	103.06
294.141	96.06
294.372	93.06
294.603	100.06
294.833	95.06
295.064	91.06
295.295	98.06
295.525	103.06
295.756	87.06
295.987	137.06
296.217	170.06
296.448	143.06
296.679	105.06
296.909	96.06
297.14	102.06
297.37	82.06
297.601	94.06
297.831	88.06
298.062	99.06
298.292	103.06
298.523	97.06
298.753	85.06
298.984	93.06
299.214	96.06
299.445	100.06
299.675	104.06
299.905	103.06
300.136	92.06
300.366	88.06
300.597	100.06
300.827	90.06
301.057	109.06
301.288	115.06
301.518	104.06
301.748	123.06
301.979	149.06
302.209	111.06
302.439	105.06
302.669	89.06
302.9	90.06
303.13	122.06
303.36	127.06
303.59	183.06
303.82	222.06
304.051	127.06
304.281	96.06
304.511	90.06
304.741	90.06
304.971	106.06
305.201	87.06
305.431	100.06
305.661	89.06
305.891	93.06
306.121	96.06
306.352	106.06
306.582	128.06
306.812	137.06
307.042	194.06
307.272	266.06
307.502	325.06
307.731	266.06
307.961	175.06
308.191	106.06
308.421	91.06
308.651	101.06
308.881	110.06
309.111	95.06
309.341	96.06
309.571	104.06
309.8	109.06
310.03	106.06
310.26	109.06
310.49	96.06
310.72	107.06
310.949	113.06
311.179	106.06
311.409	112.06
311.639	123.06
311.868	109.06
312.098	96.06
312.328	122.06
312.557	125.06
312.787	128.06
313.017	110.06
313.246	98.06
313.476	107.06
313.706	91.06
313.935	99.06
314.165	111.06
314.394	102.06
314.624	107.06
314.853	111.06
315.083	97.06
315.312	106.06
315.542	102.06
315.771	98.06
316.001	90.06
316.23	90.06
316.46	107.06
316.689	94.06
316.919	94.06
317.148	104.06
317.377	114.06
317.607	112.06
317.836	109.06
318.065	102.06
318.295	97.06
318.524	98.06
318.753	95.06
318.983	97.06
319.212	101.06
319.441	122.06
319.67	111.06
319.9	104.06
320.129	101.06
320.358	107.06
320.587	105.06
320.816	123.06
321.046	114.06
321.275	107.06
321.504	105.06
321.733	105.06
321.962	107.06
322.191	109.06
322.42	114.06
322.649	128.06
322.878	130.06
323.108	131.06
323.337	154.06
323.566	161.06
323.795	178.06
324.024	248.06
324.253	447.06
324.482	962.06
324.71	1945.06
324.939	2581.06
325.168	945.06
325.397	298.06
325.626	162.06
325.855	170.06
326.084	145.06
326.313	155.06
326.542	168.06
326.77	255.06
326.999	472.06
327.228	955.06
327.457	1802.06
327.686	1525.06
327.914	743.06
328.143	1078.06
328.372	1542.06
328.6	776.06
328.829	295.06
329.058	253.06
329.287	269.06
329.515	270.06
329.744	507.06
329.972	1089.06
330.201	2479.06
330.43	3607.06
330.658	1355.06
330.887	444.06
331.115	255.06
331.344	158.06
331.572	166.06
331.801	162.06
332.03	144.06
332.258	135.06
332.486	129.06
332.715	131.06
332.943	137.06
333.172	155.06
333.4	167.06
333.629	224.06
333.857	391.06
334.085	909.06
334.314	2173.06
334.542	4431.06
334.771	3934.06
334.999	899.06
335.227	309.06
335.455	185.06
335.684	155.06
335.912	129.06
336.14	132.06
336.369	116.06
336.597	130.06
336.825	130.06
337.053	108.06
337.281	99.06
337.51	88.06
337.738	116.06
337.966	106.06
338.194	122.06
338.422	104.06
338.65	105.06
338.878	101.06
339.106	103.06
339.334	87.06
339.562	91.06
339.79	113.06
340.018	94.06
340.246	99.06
340.474	87.06
340.702	93.06
340.93	110.06
341.158	97.06
341.386	114.06
341.614	95.06
341.842	102.06
342.07	111.06
342.298	89.06
342.526	105.06
342.754	104.06
342.981	90.06
343.209	97.06
343.437	121.06
343.665	98.06
343.893	100.06
344.12	111.06
344.348	91.06
344.576	93.06
344.804	102.06
345.031	109.06
345.259	120.06
345.487	106.06
345.714	106.06
345.942	100.06
346.17	103.06
346.397	102.06
346.625	92.06
346.853	103.06
347.08	94.06
347.308	106.06
347.535	110.06
347.763	113.06
347.99	106.06
348.218	104.06
348.445	118.06
348.673	101.06
348.9	99.06
349.128	106.06
349.355	112.06
349.583	97.06
349.81	105.06
350.037	100.06
350.265	93.06
350.492	85.06
350.72	107.06
350.947	101.06
351.174	118.06
351.402	125.06
351.629	123.06
351.856	108.06
352.083	117.06
352.311	107.06
352.538	127.06
352.765	136.06
352.992	117.06
353.22	106.06
353.447	103.06
353.674	105.06
353.901	104.06
354.128	91.06
354.355	86.06
354.583	110.06
354.81	98.06
355.037	101.06
355.264	90.06
355.491	103.06
355.718	105.06
355.945	106.06
356.172	110.06
356.399	94.06
356.626	89.06
356.853	94.06
357.08	94.06
357.307	95.06
357.534	102.06
357.761	88.06
357.988	99.06
358.215	85.06
358.441	95.06
358.668	99.06
358.895	98.06
359.122	106.06
359.349	111.06
359.576	120.06
359.802	117.06
360.029	134.06
360.256	153.06
360.483	124.06
360.709	106.06
360.936	93.06
361.163	96.06
361.39	100.06
361.616	102.06
361.843	90.06
362.07	101.06
362.296	112.06
362.523	111.06
362.749	108.06
362.976	106.06
363.203	86.06
363.429	94.06
363.656	99.06
363.882	89.06
364.109	80.06
364.335	94.06
364.562	98.06
364.788	107.06
365.015	113.06
365.241	106.06
365.468	108.06
365.694	132.06
365.92	103.06
366.147	109.06
366.373	83.06
366.599	85.06
366.826	90.06
367.052	89.06
367.278	88.06
367.505	97.06
367.731	104.06
367.957	93.06
368.184	98.06
368.41	120.06
368.636	136.06
368.862	120.06
369.089	124.06
369.315	110.06
369.541	88.06
369.767	95.06
369.993	119.06
370.219	90.06
370.445	98.06
370.672	93.06
370.898	98.06
371.124	83.06
371.35	95.06
371.576	104.06
371.802	109.06
372.028	86.06
372.254	84.06
372.48	82.06
372.706	88.06
372.932	99.06
373.158	101.06
373.384	102.06
373.61	98.06
373.835	96.06
374.061	105.06
374.287	107.06
374.513	99.06
374.739	98.06
374.965	79.06
375.191	104.06
375.416	104.06
375.642	90.06
375.868	91.06
376.094	99.06
376.319	101.06
376.545	98.06
376.771	92.06
376.997	99.06
377.222	110.06
377.448	80.06
377.674	93.06
377.899	99.06
378.125	107.06
378.35	93.06
378.576	103.06
378.802	92.06
379.027	85.06
379.253	112.06
379.478	95.06
379.704	103.06
379.929	105.06
380.155	113.06
380.38	101.06
380.606	97.06
380.831	90.06
381.057	98.06
381.282	114.06
381.507	107.06
381.733	112.06
381.958	103.06
382.184	102.06
382.409	115.06
382.634	117.06
382.86	108.06
383.085	101.06
383.31	117.06
383.535	131.06
383.761	114.06
383.986	99.06
384.211	115.06
384.436	94.06
384.662	115.06
384.887	107.06
385.112	118.06
385.337	122.06
385.562	117.06
385.787	127.06
386.013	132.06
386.238	153.06
386.463	128.06
386.688	133.06
386.913	132.06
387.138	129.06
387.363	124.06
387.588	116.06
387.813	120.06
388.038	119.06
388.263	128.06
388.488	130.06
388.713	99.06
388.938	104.06
389.163	92.06
389.387	94.06
389.612	87.06
389.837	93.06
390.062	103.06
390.287	112.06
390.512	103.06
390.736	100.06
390.961	89.06
391.186	105.06
391.411	91.06
391.636	98.06
391.86	93.06
392.085	93.06
392.31	83.06
392.534	85.06
392.759	86.06
392.984	93.06
393.208	91.06
393.433	105.06
393.658	86.06
393.882	73.06
394.107	96.06
394.331	83.06
394.556	70.06
394.78	84.06
395.005	87.06
395.229	96.06
395.454	77.06
395.678	94.06
395.903	100.06
396.127	89.06
396.352	100.06
396.576	95.06
396.801	92.06
397.025	90.06
397.249	92.06
397.474	102.06
397.698	97.06
397.922	89.06
398.147	83.06
398.371	90.06
398.595	78.06
398.82	94.06
399.044	79.06
399.268	88.06
399.492	90.06
399.717	83.06
399.941	78.06
400.165	105.06
400.389	95.06
400.613	86.06
400.837	74.06
401.062	101.06
401.286	94.06
401.51	111.06
401.734	88.06
401.958	107.06
402.182	144.06
402.406	206.06
402.63	151.06
402.854	116.06
403.078	98.06
403.302	96.06
403.526	100.06
403.75	94.06
403.974	84.06
404.198	88.06
404.422	89.06
404.645	103.06
404.869	113.06
405.093	134.06
405.317	181.06
405.541	171.06
405.765	112.06
405.988	149.06
406.212	209.06
406.436	312.06
406.66	229.06
406.883	137.06
407.107	113.06
407.331	112.06
407.555	101.06
407.778	101.06
408.002	104.06
408.226	99.06
408.449	86.06
408.673	104.06
408.896	94.06
409.12	97.06
409.344	95.06
409.567	86.06
409.791	84.06
410.014	98.06
410.238	90.06
410.461	95.06
410.685	88.06
410.908	101.06
411.132	111.06
411.355	114.06
411.578	107.06
411.802	85.06
412.025	98.06
412.249	116.06
412.472	140.06
412.695	181.06
412.919	129.06
413.142	113.06
413.365	106.06
413.589	87.06
413.812	99.06
414.035	96.06
414.258	106.06
414.482	99.06
414.705	102.06
414.928	102.06
415.151	100.06
415.374	91.06
415.597	98.06
415.821	103.06
416.044	103.06
416.267	93.06
416.49	85.06
416.713	103.06
416.936	111.06
417.159	117.06
417.382	115.06
417.605	141.06
417.828	145.06
418.051	115.06
418.274	95.06
418.497	88.06
418.72	96.06
418.943	87.06
419.166	91.06
419.389	100.06
419.611	100.06
419.834	93.06
420.057	108.06
420.28	113.06
420.503	114.06
420.726	110.06
420.948	107.06
421.171	125.06
421.394	107.06
421.617	91.06
421.839	95.06
422.062	108.06
422.285	106.06
422.507	109.06
422.73	120.06
422.953	113.06
423.175	111.06
423.398	99.06
423.621	103.06
423.843	83.06
424.066	93.06
424.288	88.06
424.511	101.06
424.733	126.06
424.956	118.06
425.178	117.06
425.401	107.06
425.623	107.06
425.846	106.06
426.068	105.06
426.291	100.06
426.513	97.06
426.735	99.06
426.958	96.06
427.18	132.06
427.402	197.06
427.625	291.06
427.847	279.06
428.069	260.06
428.292	159.06
428.514	122.06
428.736	118.06
428.958	93.06
429.181	100.06
429.403	95.06
429.625	78.06
429.847	103.06
430.069	126.06
430.292	109.06
430.514	101.06
430.736	100.06
430.958	94.06
431.18	93.06
431.402	79.06
431.624	95.06
431.846	97.06
432.068	99.06
432.29	94.06
432.512	81.06
432.734	105.06
432.956	82.06
433.178	112.06
433.4	103.06
433.622	107.06
433.844	91.06
434.066	102.06
434.287	83.06
434.509	102.06
434.731	85.06
434.953	108.06
435.175	102.06
435.397	97.06
435.618	114.06
435.84	115.06
436.062	120.06
436.284	138.06
436.505	105.06
436.727	123.06
436.949	93.06
437.17	90.06
437.392	93.06
437.614	105.06
437.835	115.06
438.057	154.06
438.278	129.06
438.5	117.06
438.721	142.06
438.943	121.06
439.165	97.06
439.386	100.06
439.608	96.06
439.829	110.06
440.05	153.06
440.272	183.06
440.493	131.06
440.715	95.06
440.936	92.06
441.158	103.06
441.379	84.06
441.6	105.06
441.822	93.06
442.043	103.06
442.264	118.06
442.486	109.06
442.707	95.06
442.928	136.06
443.149	185.06
443.371	181.06
443.592	135.06
443.813	147.06
444.034	128.06
444.255	106.06
444.476	94.06
444.698	97.06
444.919	93.06
445.14	146.06
445.361	141.06
445.582	144.06
445.803	205.06
446.024	175.06
446.245	169.06
446.466	133.06
446.687	106.06
446.908	98.06
447.129	103.06
447.35	95.06
447.571	93.06
447.792	98.06
448.013	110.06
448.234	139.06
448.455	109.06
448.675	125.06
448.896	144.06
449.117	103.06
449.338	107.06
449.559	147.06
449.779	189.06
450	95.06
450.221	99.06
450.442	105.06
450.662	110.06
450.883	132.06
451.104	147.06
451.324	102.06
451.545	107.06
451.766	86.06
451.986	102.06
452.207	107.06
452.428	98.06
452.648	100.06
452.869	122.06
453.089	129.06
453.31	148.06
453.53	108.06
453.751	110.06
453.971	128.06
454.192	155.06
454.412	114.06
454.633	91.06
454.853	88.06
455.073	87.06
455.294	118.06
455.514	120.06
455.734	107.06
455.955	75.06
456.175	87.06
456.395	78.06
456.616	86.06
456.836	85.06
457.056	96.06
457.276	98.06
457.497	90.06
457.717	93.06
457.937	105.06
458.157	81.06
458.377	111.06
458.598	126.06
458.818	211.06
459.038	247.06
459.258	160.06
459.478	105.06
459.698	79.06
459.918	94.06
460.138	68.06
460.358	94.06
460.578	86.06
460.798	103.06
461.018	104.06
461.238	93.06
461.458	107.06
461.678	90.06
461.898	97.06
462.118	91.06
462.338	82.06
462.558	112.06
462.777	108.06
462.997	113.06
463.217	164.06
463.437	114.06
463.657	114.06
463.876	79.06
464.096	102.06
464.316	90.06
464.536	100.06
464.755	109.06
464.975	137.06
465.195	248.06
465.414	241.06
465.634	107.06
465.854	101.06
466.073	97.06
466.293	89.06
466.512	94.06
466.732	104.06
466.951	108.06
467.171	139.06
467.391	138.06
467.61	218.06
467.829	393.06
468.049	1396.06
468.268	2199.06
468.488	468.06
468.707	166.06
468.927	125.06
469.146	122.06
469.365	102.06
469.585	110.06
469.804	132.06
470.023	129.06
470.243	126.06
470.462	134.06
470.681	145.06
470.901	132.06
471.12	115.06
471.339	119.06
471.558	178.06
471.777	239.06
471.997	591.06
472.216	2609.06
472.435	6229.06
472.654	1271.06
472.873	274.06
473.092	145.06
473.311	123.06
473.53	119.06
473.749	115.06
473.968	121.06
474.187	139.06
474.406	122.06
474.625	109.06
474.844	99.06
475.063	93.06
475.282	100.06
475.501	95.06
475.72	92.06
475.939	107.06
476.158	82.06
476.377	99.06
476.596	102.06
476.814	119.06
477.033	116.06
477.252	101.06
477.471	104.06
477.69	104.06
477.908	102.06
478.127	104.06
478.346	101.06
478.564	117.06
478.783	130.06
479.002	114.06
479.22	134.06
479.439	143.06
479.658	170.06
479.876	150.06
480.095	155.06
480.313	171.06
480.532	261.06
480.751	531.06
480.969	2223.06
481.188	10004.06
481.406	5577.06
481.624	705.06
481.843	215.06
482.061	149.06
482.28	113.06
482.498	117.06
482.717	105.06
482.935	104.06
483.153	108.06
483.372	96.06
483.59	102.06
483.808	115.06
484.027	91.06
484.245	104.06
484.463	107.06
484.681	107.06
484.9	104.06
485.118	106.06
485.336	101.06
485.554	113.06
485.772	103.06
485.99	110.06
486.209	119.06
486.427	107.06
486.645	126.06
486.863	138.06
487.081	107.06
487.299	120.06
487.517	110.06
487.735	110.06
487.953	110.06
488.171	106.06
488.389	101.06
488.607	103.06
488.825	106.06
489.043	93.06
489.261	96.06
489.479	101.06
489.696	96.06
489.914	101.06
490.132	83.06
490.35	103.06
490.568	98.06
490.786	102.06
491.003	98.06
491.221	106.06
491.439	110.06
491.657	103.06
491.874	103.06
492.092	91.06
492.31	101.06
492.527	121.06
492.745	133.06
492.963	111.06
493.18	106.06
493.398	101.06
493.615	102.06
493.833	94.06
494.05	113.06
494.268	100.06
494.485	87.06
494.703	90.06
494.92	88.06
495.138	100.06
495.355	101.06
495.573	101.06
495.79	111.06
496.008	96.06
496.225	109.06
496.442	101.06
496.66	94.06
496.877	102.06
497.094	103.06
497.312	100.06
497.529	95.06
497.746	91.06
497.963	92.06
498.181	89.06
498.398	109.06
498.615	131.06
498.832	118.06
499.049	113.06
499.267	119.06
499.484	93.06
499.701	101.06
499.918	90.06
500.135	88.06
500.352	102.06
500.569	110.06
500.786	113.06
501.003	85.06
501.22	97.06
501.437	98.06
501.654	109.06
501.871	128.06
502.088	115.06
502.305	83.06
502.522	93.06
502.739	100.06
502.956	106.06
503.172	103.06
503.389	129.06
503.606	139.06
503.823	117.06
504.04	88.06
504.256	80.06
504.473	99.06
504.69	99.06
504.907	103.06
505.123	87.06
505.34	94.06
505.557	90.06
505.773	95.06
505.99	91.06
506.207	88.06
506.423	87.06
506.64	104.06
506.856	104.06
507.073	87.06
507.289	91.06
507.506	103.06
507.722	143.06
507.939	135.06
508.155	109.06
508.372	101.06
508.588	93.06
508.805	117.06
509.021	101.06
509.238	121.06
509.454	110.06
509.67	105.06
