Data from Circ_1988_H10_HRD10591_00012.txt Node
Date: Wed Jan 03 12:05:37 EST 2024
User: Yrep
Spectrometer: HR+D1059
Trigger mode: 1
Integration Time (sec): 1.000000E-1
Scans to average: 1
Electric dark correction enabled: true
Nonlinearity correction enabled: false
Boxcar width: 0
XAxis mode: Wavelengths
Number of Pixels in Spectrum: 2048
>>>>>Begin Spectral Data<<<<<
223.165	-10.12
223.4	-10.12
223.635	-10.12
223.869	-28.12
224.104	-15.12
224.338	3.88
224.573	-21.12
224.808	-31.12
225.042	-5.12
225.277	1.88
225.511	5.88
225.746	0.88
225.98	5.88
226.215	14.88
226.449	23.88
226.683	13.88
226.918	14.88
227.152	24.88
227.387	39.88
227.621	29.88
227.856	44.88
228.09	48.88
228.324	54.88
228.559	45.88
228.793	152.88
229.027	460.88
229.262	518.88
229.496	595.88
229.73	804.88
229.964	814.88
230.199	563.88
230.433	515.88
230.667	484.88
230.901	490.88
231.136	482.88
231.37	466.88
231.604	498.88
231.838	501.88
232.072	509.88
232.306	497.88
232.541	515.88
232.775	537.88
233.009	522.88
233.243	513.88
233.477	542.88
233.711	547.88
233.945	560.88
234.179	557.88
234.413	550.88
234.647	543.88
234.881	560.88
235.115	586.88
235.349	588.88
235.583	620.88
235.817	632.88
236.051	676.88
236.285	674.88
236.519	688.88
236.753	739.88
236.987	909.88
237.221	1318.88
237.455	1408.88
237.689	893.88
237.922	767.88
238.156	755.88
238.39	736.88
238.624	722.88
238.858	736.88
239.091	739.88
239.325	746.88
239.559	769.88
239.793	788.88
240.027	846.88
240.26	961.88
240.494	956.88
240.728	978.88
240.961	977.88
241.195	891.88
241.429	865.88
241.662	871.88
241.896	887.88
242.13	891.88
242.363	887.88
242.597	923.88
242.83	976.88
243.064	957.88
243.298	973.88
243.531	998.88
243.765	1010.88
243.998	1007.88
244.232	1014.88
244.465	1060.88
244.699	1048.88
244.932	1048.88
245.166	1067.88
245.399	1085.88
245.633	1070.88
245.866	1085.88
246.099	1109.88
246.333	1119.88
246.566	1126.88
246.8	1138.88
247.033	1176.88
247.266	1219.88
247.5	1250.88
247.733	1334.88
247.966	1312.88
248.2	1346.88
248.433	1367.88
248.666	1390.88
248.899	1526.88
249.133	1616.88
249.366	1693.88
249.599	1710.88
249.832	1748.88
250.066	2059.88
250.299	2920.88
250.532	3946.88
250.765	3496.88
250.998	2737.88
251.231	2248.88
251.465	1994.88
251.698	1891.88
251.931	1804.88
252.164	1757.88
252.397	1712.88
252.63	1714.88
252.863	1720.88
253.096	1837.88
253.329	1868.88
253.562	1835.88
253.795	1780.88
254.028	1816.88
254.261	1882.88
254.494	2071.88
254.727	2308.88
254.96	2461.88
255.193	2445.88
255.426	2644.88
255.659	3462.88
255.892	5347.88
256.124	7198.88
256.357	5623.88
256.59	3876.88
256.823	3042.88
257.056	2641.88
257.289	2414.88
257.521	2296.88
257.754	2187.88
257.987	2098.88
258.22	2064.88
258.452	2092.88
258.685	2061.88
258.918	2038.88
259.151	2011.88
259.383	2035.88
259.616	1992.88
259.849	2039.88
260.081	2149.88
260.314	2304.88
260.547	2238.88
260.779	2182.88
261.012	2126.88
261.244	2143.88
261.477	2089.88
261.71	2094.88
261.942	2111.88
262.175	2162.88
262.407	2077.88
262.64	1924.88
262.872	1964.88
263.105	1926.88
263.337	1929.88
263.57	1971.88
263.802	1962.88
264.035	1944.88
264.267	1958.88
264.499	1935.88
264.732	1937.88
264.964	2011.88
265.197	1936.88
265.429	1976.88
265.661	1951.88
265.894	2045.88
266.126	2039.88
266.358	2014.88
266.591	2082.88
266.823	2129.88
267.055	2105.88
267.287	2150.88
267.52	2079.88
267.752	2112.88
267.984	2107.88
268.216	2130.88
268.448	2202.88
268.681	2225.88
268.913	2356.88
269.145	2444.88
269.377	2479.88
269.609	2425.88
269.841	2405.88
270.073	2463.88
270.306	2663.88
270.538	2742.88
270.77	2638.88
271.002	2588.88
271.234	2559.88
271.466	2749.88
271.698	2911.88
271.93	2800.88
272.162	2839.88
272.394	2764.88
272.626	2647.88
272.858	2631.88
273.09	2573.88
273.322	2592.88
273.553	2554.88
273.785	2587.88
274.017	2608.88
274.249	2625.88
274.481	2713.88
274.713	2705.88
274.945	2831.88
275.176	2852.88
275.408	2931.88
275.64	3109.88
275.872	3202.88
276.104	3108.88
276.335	3120.88
276.567	3294.88
276.799	3660.88
277.031	4161.88
277.262	4563.88
277.494	4191.88
277.726	3636.88
277.957	3410.88
278.189	3250.88
278.421	3175.88
278.652	3097.88
278.884	3103.88
279.115	3089.88
279.347	3192.88
279.579	3388.88
279.81	3794.88
280.042	4439.88
280.273	5054.88
280.505	4631.88
280.736	3756.88
280.968	3473.88
281.199	3271.88
281.431	3235.88
281.662	3119.88
281.894	3063.88
282.125	3070.88
282.356	3274.88
282.588	3440.88
282.819	3252.88
283.051	3060.88
283.282	2940.88
283.513	2996.88
283.745	3045.88
283.976	3025.88
284.207	3070.88
284.439	3045.88
284.67	3087.88
284.901	3055.88
285.132	3022.88
285.364	3030.88
285.595	3028.88
285.826	3059.88
286.057	3138.88
286.288	3079.88
286.52	3135.88
286.751	3085.88
286.982	3120.88
287.213	3086.88
287.444	3143.88
287.675	3153.88
287.906	3234.88
288.138	3246.88
288.369	3265.88
288.6	3264.88
288.831	3195.88
289.062	3216.88
289.293	3208.88
289.524	3234.88
289.755	3177.88
289.986	3190.88
290.217	3155.88
290.448	3194.88
290.679	3206.88
290.91	3195.88
291.141	3107.88
291.371	3134.88
291.602	3128.88
291.833	3088.88
292.064	3153.88
292.295	3107.88
292.526	3158.88
292.757	3081.88
292.987	3075.88
293.218	3066.88
293.449	3099.88
293.68	3130.88
293.91	3118.88
294.141	3082.88
294.372	3104.88
294.603	3124.88
294.833	3162.88
295.064	3178.88
295.295	3177.88
295.525	3155.88
295.756	3207.88
295.987	3377.88
296.217	3598.88
296.448	3490.88
296.679	3232.88
296.909	3189.88
297.14	3233.88
297.37	3384.88
297.601	3366.88
297.831	3368.88
298.062	3393.88
298.292	3387.88
298.523	3399.88
298.753	3466.88
298.984	3417.88
299.214	3407.88
299.445	3395.88
299.675	3440.88
299.905	3528.88
300.136	3440.88
300.366	3426.88
300.597	3506.88
300.827	3647.88
301.057	3677.88
301.288	3694.88
301.518	3637.88
301.748	3736.88
301.979	3916.88
302.209	3871.88
302.439	3724.88
302.669	3663.88
302.9	3678.88
303.13	3654.88
303.36	3864.88
303.59	4097.88
303.82	4311.88
304.051	4048.88
304.281	3770.88
304.511	3703.88
304.741	3660.88
304.971	3706.88
305.201	3598.88
305.431	3584.88
305.661	3626.88
305.891	3664.88
306.121	3631.88
306.352	3691.88
306.582	3712.88
306.812	3758.88
307.042	4057.88
307.272	4509.88
307.502	4757.88
307.731	4462.88
307.961	4047.88
308.191	3819.88
308.421	3748.88
308.651	3732.88
308.881	3673.88
309.111	3749.88
309.341	3740.88
309.571	3844.88
309.8	3893.88
310.03	3996.88
310.26	4012.88
310.49	3973.88
310.72	4072.88
310.949	4217.88
311.179	4150.88
311.409	4008.88
311.639	4041.88
311.868	4019.88
312.098	4020.88
312.328	4118.88
312.557	4324.88
312.787	4444.88
313.017	4268.88
313.246	4114.88
313.476	4103.88
313.706	4128.88
313.935	4188.88
314.165	4291.88
314.394	4312.88
314.624	4289.88
314.853	4209.88
315.083	4184.88
315.312	4044.88
315.542	4088.88
315.771	4000.88
316.001	4091.88
316.23	4052.88
316.46	4120.88
316.689	4114.88
316.919	4114.88
317.148	4239.88
317.377	4200.88
317.607	4162.88
317.836	4194.88
318.065	4103.88
318.295	4150.88
318.524	4201.88
318.753	4152.88
318.983	4172.88
319.212	4109.88
319.441	4217.88
319.67	4241.88
319.9	4100.88
320.129	4140.88
320.358	4185.88
320.587	4236.88
320.816	4245.88
321.046	4407.88
321.275	4315.88
321.504	4331.88
321.733	4296.88
321.962	4489.88
322.191	4585.88
322.42	4691.88
322.649	4770.88
322.878	4942.88
323.108	5052.88
323.337	5352.88
323.566	5534.88
323.795	5896.88
324.024	6495.88
324.253	8466.88
324.482	12426.88
324.71	15626.88
324.939	15626.88
325.168	14104.88
325.397	7671.88
325.626	6348.88
325.855	6062.88
326.084	5948.88
326.313	6003.88
326.542	6300.88
326.77	7104.88
326.999	8693.88
327.228	12290.88
327.457	15626.88
327.686	15468.88
327.914	12416.88
328.143	13824.88
328.372	14804.88
328.6	11702.88
328.829	8895.88
329.058	8757.88
329.287	9192.88
329.515	9858.88
329.744	12050.88
329.972	15140.88
330.201	15626.88
330.43	15626.88
330.658	15626.88
330.887	11385.88
331.115	9184.88
331.344	7878.88
331.572	7340.88
331.801	7301.88
332.03	7250.88
332.258	7165.88
332.486	7221.88
332.715	7537.88
332.943	8028.88
333.172	8594.88
333.4	9476.88
333.629	10806.88
333.857	13105.88
334.085	15626.88
334.314	15626.88
334.542	15626.88
334.771	15626.88
334.999	15344.88
335.227	11172.88
335.455	9112.88
335.684	8026.88
335.912	7380.88
336.14	6852.88
336.369	6654.88
336.597	6526.88
336.825	6363.88
337.053	6013.88
337.281	5923.88
337.51	5812.88
337.738	5657.88
337.966	5586.88
338.194	5554.88
338.422	5374.88
338.65	5245.88
338.878	5246.88
339.106	5192.88
339.334	5092.88
339.562	5018.88
339.79	4949.88
340.018	5022.88
340.246	4999.88
340.474	5023.88
340.702	4946.88
340.93	4942.88
341.158	4911.88
341.386	4950.88
341.614	4863.88
341.842	4848.88
342.07	4688.88
342.298	4785.88
342.526	4715.88
342.754	4704.88
342.981	4701.88
343.209	4792.88
343.437	5022.88
343.665	5219.88
343.893	5422.88
344.12	5496.88
344.348	5305.88
344.576	5197.88
344.804	5151.88
345.031	5024.88
345.259	5028.88
345.487	4810.88
345.714	4727.88
345.942	4630.88
346.17	4584.88
346.397	4578.88
346.625	4564.88
346.853	4548.88
347.08	4487.88
347.308	4626.88
347.535	4675.88
347.763	4716.88
347.99	4647.88
348.218	4718.88
348.445	4731.88
348.673	4622.88
348.9	4485.88
349.128	4452.88
349.355	4407.88
349.583	4408.88
349.81	4445.88
350.037	4372.88
350.265	4389.88
350.492	4375.88
350.72	4346.88
350.947	4460.88
351.174	4554.88
351.402	4611.88
351.629	4534.88
351.856	4573.88
352.083	4661.88
352.311	4652.88
352.538	4654.88
352.765	4588.88
352.992	4565.88
353.22	4529.88
353.447	4432.88
353.674	4391.88
353.901	4341.88
354.128	4286.88
354.355	4349.88
354.583	4344.88
354.81	4252.88
355.037	4282.88
355.264	4307.88
355.491	4317.88
355.718	4288.88
355.945	4279.88
356.172	4282.88
356.399	4242.88
356.626	4304.88
356.853	4241.88
357.08	4224.88
357.307	4199.88
357.534	4248.88
357.761	4291.88
357.988	4302.88
358.215	4287.88
358.441	4287.88
358.668	4303.88
358.895	4340.88
359.122	4416.88
359.349	4476.88
359.576	4564.88
359.802	4822.88
360.029	5000.88
360.256	4973.88
360.483	4716.88
360.709	4530.88
360.936	4543.88
361.163	4506.88
361.39	4551.88
361.616	4561.88
361.843	4552.88
362.07	4500.88
362.296	4596.88
362.523	4475.88
362.749	4515.88
362.976	4462.88
363.203	4383.88
363.429	4390.88
363.656	4398.88
363.882	4378.88
364.109	4327.88
364.335	4348.88
364.562	4327.88
364.788	4410.88
365.015	4342.88
365.241	4388.88
365.468	4470.88
365.694	4442.88
365.92	4467.88
366.147	4301.88
366.373	4376.88
366.599	4369.88
366.826	4358.88
367.052	4366.88
367.278	4384.88
367.505	4376.88
367.731	4416.88
367.957	4356.88
368.184	4402.88
368.41	4454.88
368.636	4570.88
368.862	4624.88
369.089	4485.88
369.315	4422.88
369.541	4499.88
369.767	4463.88
369.993	4434.88
370.219	4529.88
370.445	4576.88
370.672	4512.88
370.898	4541.88
371.124	4596.88
371.35	4569.88
371.576	4512.88
371.802	4544.88
372.028	4572.88
372.254	4575.88
372.48	4605.88
372.706	4696.88
372.932	4751.88
373.158	4709.88
373.384	4600.88
373.61	4599.88
373.835	4621.88
374.061	4648.88
374.287	4733.88
374.513	4725.88
374.739	4934.88
374.965	4910.88
375.191	4909.88
375.416	4879.88
375.642	4747.88
375.868	4700.88
376.094	4647.88
376.319	4722.88
376.545	4602.88
376.771	4602.88
376.997	4593.88
377.222	4535.88
377.448	4519.88
377.674	4529.88
377.899	4538.88
378.125	4482.88
378.35	4513.88
378.576	4457.88
378.802	4434.88
379.027	4536.88
379.253	4518.88
379.478	4501.88
379.704	4511.88
379.929	4571.88
380.155	4542.88
380.38	4542.88
380.606	4631.88
380.831	4539.88
381.057	4614.88
381.282	4567.88
381.507	4579.88
381.733	4654.88
381.958	4688.88
382.184	4719.88
382.409	4833.88
382.634	4853.88
382.86	4846.88
383.085	4895.88
383.31	4965.88
383.535	5057.88
383.761	5102.88
383.986	5121.88
384.211	5223.88
384.436	5279.88
384.662	5360.88
384.887	5484.88
385.112	5415.88
385.337	5539.88
385.562	5562.88
385.787	5466.88
386.013	5623.88
386.238	5751.88
386.463	5637.88
386.688	5550.88
386.913	5406.88
387.138	5519.88
387.363	5453.88
387.588	5414.88
387.813	5426.88
388.038	5444.88
388.263	5474.88
388.488	5575.88
388.713	5386.88
388.938	5408.88
389.163	5287.88
389.387	5258.88
389.612	5218.88
389.837	5279.88
390.062	5231.88
390.287	5227.88
390.512	5283.88
390.736	5373.88
390.961	5469.88
391.186	5551.88
391.411	5707.88
391.636	5767.88
391.86	5889.88
392.085	5927.88
392.31	5893.88
392.534	5805.88
392.759	5663.88
392.984	5537.88
393.208	5632.88
393.433	5685.88
393.658	5572.88
393.882	5562.88
394.107	5578.88
394.331	5526.88
394.556	5671.88
394.78	5680.88
395.005	5671.88
395.229	5701.88
395.454	5880.88
395.678	5949.88
395.903	6014.88
396.127	6115.88
396.352	5962.88
396.576	5784.88
396.801	5684.88
397.025	5845.88
397.249	5940.88
397.474	6031.88
397.698	6074.88
397.922	6175.88
398.147	6280.88
398.371	6388.88
398.595	6499.88
398.82	6802.88
399.044	7413.88
399.268	7962.88
399.492	8944.88
399.717	9572.88
399.941	9342.88
400.165	8921.88
400.389	8272.88
400.613	7457.88
400.837	7044.88
401.062	6919.88
401.286	6722.88
401.51	6844.88
401.734	6685.88
401.958	6883.88
402.182	6886.88
402.406	7144.88
402.63	7216.88
402.854	7273.88
403.078	7261.88
403.302	7497.88
403.526	7604.88
403.75	7582.88
403.974	7742.88
404.198	7890.88
404.422	8000.88
404.645	8264.88
404.869	8621.88
405.093	9307.88
405.317	9831.88
405.541	9684.88
405.765	8743.88
405.988	8238.88
406.212	8225.88
406.436	8272.88
406.66	8338.88
406.883	8123.88
407.107	8667.88
407.331	9057.88
407.555	9519.88
407.778	9213.88
408.002	8565.88
408.226	8206.88
408.449	8152.88
408.673	7996.88
408.896	8057.88
409.12	8094.88
409.344	7703.88
409.567	7434.88
409.791	7502.88
410.014	7401.88
410.238	7330.88
410.461	7280.88
410.685	7427.88
410.908	7414.88
411.132	7626.88
411.355	7616.88
411.578	7460.88
411.802	7489.88
412.025	7688.88
412.249	8420.88
412.472	9150.88
412.695	9792.88
412.919	9145.88
413.142	8498.88
413.365	8024.88
413.589	7741.88
413.812	7380.88
414.035	7265.88
414.258	7287.88
414.482	7189.88
414.705	7071.88
414.928	6999.88
415.151	6937.88
415.374	6875.88
415.597	6870.88
415.821	6761.88
416.044	6940.88
416.267	6804.88
416.49	6645.88
416.713	6595.88
416.936	6749.88
417.159	6967.88
417.382	7123.88
417.605	7458.88
417.828	7559.88
418.051	7182.88
418.274	6960.88
418.497	6804.88
418.72	6994.88
418.943	6946.88
419.166	7352.88
419.389	7904.88
419.611	8007.88
419.834	7979.88
420.057	8281.88
420.28	8806.88
420.503	8495.88
420.726	8062.88
420.948	7957.88
421.171	7929.88
421.394	7552.88
421.617	7118.88
421.839	7008.88
422.062	6937.88
422.285	7167.88
422.507	7689.88
422.73	8058.88
422.953	7527.88
423.175	7263.88
423.398	7229.88
423.621	7101.88
423.843	7392.88
424.066	7289.88
424.288	7235.88
424.511	7474.88
424.733	7903.88
424.956	8224.88
425.178	7824.88
425.401	7949.88
425.623	7828.88
425.846	7002.88
426.068	6854.88
426.291	6872.88
426.513	6758.88
426.735	6945.88
426.958	7337.88
427.18	8060.88
427.402	9348.88
427.625	10219.88
427.847	9884.88
428.069	9537.88
428.292	8176.88
428.514	7057.88
428.736	6587.88
428.958	6458.88
429.181	6289.88
429.403	6216.88
429.625	6342.88
429.847	6618.88
430.069	7067.88
430.292	6656.88
430.514	6057.88
430.736	6140.88
430.958	5940.88
431.18	5910.88
431.402	5931.88
431.624	5903.88
431.846	5992.88
432.068	6002.88
432.29	6075.88
432.512	5905.88
432.734	6102.88
432.956	5994.88
433.178	6114.88
433.4	6126.88
433.622	6035.88
433.844	6105.88
434.066	6032.88
434.287	6171.88
434.509	6360.88
434.731	6517.88
434.953	6646.88
435.175	6752.88
435.397	6794.88
435.618	6700.88
435.84	7104.88
436.062	7930.88
436.284	7701.88
436.505	6629.88
436.727	6350.88
436.949	6140.88
437.17	5971.88
437.392	5987.88
437.614	6128.88
437.835	6536.88
438.057	7444.88
438.278	7941.88
438.5	7799.88
438.721	8556.88
438.943	7491.88
439.165	6446.88
439.386	6228.88
439.608	6309.88
439.829	6494.88
440.05	6943.88
440.272	7325.88
440.493	6556.88
440.715	6350.88
440.936	6281.88
441.158	6354.88
441.379	6488.88
441.6	6744.88
441.822	6925.88
442.043	7310.88
442.264	7938.88
442.486	7716.88
442.707	6983.88
442.928	6800.88
443.149	7073.88
443.371	7280.88
443.592	7708.88
443.813	8626.88
444.034	8465.88
444.255	7513.88
444.476	7325.88
444.698	7533.88
444.919	7564.88
445.14	7480.88
445.361	7432.88
445.582	7588.88
445.803	8270.88
446.024	8905.88
446.245	8441.88
446.466	7526.88
446.687	6530.88
446.908	6196.88
447.129	5924.88
447.35	5799.88
447.571	5804.88
447.792	5763.88
448.013	5786.88
448.234	5944.88
448.455	6561.88
448.675	7682.88
448.896	8108.88
449.117	6693.88
449.338	6910.88
449.559	8212.88
449.779	8334.88
450	6481.88
450.221	5806.88
450.442	5614.88
450.662	5650.88
450.883	5793.88
451.104	5940.88
451.324	5633.88
451.545	5553.88
451.766	5377.88
451.986	5228.88
452.207	5212.88
452.428	5222.88
452.648	5361.88
452.869	5297.88
453.089	5267.88
453.31	5511.88
453.53	5242.88
453.751	5189.88
453.971	5315.88
454.192	5501.88
454.412	5217.88
454.633	5137.88
454.853	5087.88
455.073	5100.88
455.294	5446.88
455.514	5948.88
455.734	5453.88
455.955	4944.88
456.175	4916.88
456.395	4821.88
456.616	4981.88
456.836	4956.88
457.056	4931.88
457.276	4904.88
457.497	5046.88
457.717	5028.88
457.937	5112.88
458.157	5186.88
458.377	5243.88
458.598	5622.88
458.818	6377.88
459.038	7091.88
459.258	6918.88
459.478	6164.88
459.698	6077.88
459.918	6090.88
460.138	6211.88
460.358	6453.88
460.578	6430.88
460.798	6580.88
461.018	6635.88
461.238	6460.88
461.458	6452.88
461.678	6373.88
461.898	6597.88
462.118	6605.88
462.338	6921.88
462.558	7141.88
462.777	7322.88
462.997	7897.88
463.217	8348.88
463.437	8176.88
463.657	7670.88
463.876	7514.88
464.096	7583.88
464.316	7430.88
464.536	7468.88
464.755	7288.88
464.975	7223.88
465.195	7598.88
465.414	7771.88
465.634	6606.88
465.854	6301.88
466.073	5991.88
466.293	5838.88
466.512	5766.88
466.732	5599.88
466.951	5680.88
467.171	5770.88
467.391	5953.88
467.61	6285.88
467.829	7224.88
468.049	10909.88
468.268	13926.88
468.488	8934.88
468.707	6987.88
468.927	6290.88
469.146	6081.88
469.365	6000.88
469.585	5825.88
469.804	6064.88
470.023	6156.88
470.243	6070.88
470.462	6232.88
470.681	6438.88
470.901	6284.88
471.12	6225.88
471.339	6240.88
471.558	6579.88
471.777	7053.88
471.997	8798.88
472.216	14817.88
472.435	15626.88
472.654	15591.88
472.873	10292.88
473.092	8354.88
473.311	7404.88
473.53	6996.88
473.749	6682.88
473.968	6933.88
474.187	7688.88
474.406	7119.88
474.625	6224.88
474.844	6010.88
475.063	5894.88
475.282	5881.88
475.501	5874.88
475.72	5981.88
475.939	5806.88
476.158	5886.88
476.377	5905.88
476.596	5995.88
476.814	6090.88
477.033	6165.88
477.252	6173.88
477.471	6281.88
477.69	6399.88
477.908	6410.88
478.127	6627.88
478.346	6734.88
478.564	6885.88
478.783	7036.88
479.002	7180.88
479.22	7182.88
479.439	7459.88
479.658	7719.88
479.876	7854.88
480.095	8204.88
480.313	8951.88
480.532	9522.88
480.751	11231.88
480.969	15564.88
481.188	15626.88
481.406	15626.88
481.624	15626.88
481.843	13168.88
482.061	10994.88
482.28	9708.88
482.498	8932.88
482.717	8492.88
482.935	8180.88
483.153	7985.88
483.372	7686.88
483.59	7576.88
483.808	7449.88
484.027	7422.88
484.245	7360.88
484.463	7318.88
484.681	7377.88
484.9	7372.88
485.118	7380.88
485.336	7336.88
485.554	7498.88
485.772	7431.88
485.99	7350.88
486.209	7532.88
486.427	7516.88
486.645	7513.88
486.863	7709.88
487.081	7703.88
487.299	7582.88
