Data from Circ_1988_H10_HRD10591_00060.txt Node
Date: Wed Jan 03 12:05:46 EST 2024
User: Yrep
Spectrometer: HR+D1059
Trigger mode: 1
Integration Time (sec): 1.000000E-1
Scans to average: 1
Electric dark correction enabled: true
Nonlinearity correction enabled: false
Boxcar width: 0
XAxis mode: Wavelengths
Number of Pixels in Spectrum: 2048
>>>>>Begin Spectral Data<<<<<
223.165	-10.69
223.4	-10.69
223.635	-10.69
223.869	-29.69
224.104	-22.69
224.338	0.31
224.573	-7.69
224.808	-17.69
225.042	-7.69
225.277	1.31
225.511	-6.69
225.746	-2.69
225.98	22.31
226.215	7.31
226.449	8.31
226.683	8.31
226.918	22.31
227.152	35.31
227.387	58.31
227.621	33.31
227.856	37.31
228.09	56.31
228.324	60.31
228.559	56.31
228.793	63.31
229.027	68.31
229.262	78.31
229.496	89.31
229.73	100.31
229.964	95.31
230.199	87.31
230.433	80.31
230.667	84.31
230.901	64.31
231.136	87.31
231.37	83.31
231.604	90.31
231.838	70.31
232.072	81.31
232.306	73.31
232.541	60.31
232.775	93.31
233.009	87.31
233.243	92.31
233.477	97.31
233.711	85.31
233.945	81.31
234.179	84.31
234.413	70.31
234.647	88.31
234.881	91.31
235.115	74.31
235.349	76.31
235.583	88.31
235.817	82.31
236.051	90.31
236.285	82.31
236.519	78.31
236.753	79.31
236.987	72.31
237.221	86.31
237.455	100.31
237.689	79.31
237.922	94.31
238.156	71.31
238.39	78.31
238.624	76.31
238.858	76.31
239.091	79.31
239.325	78.31
239.559	89.31
239.793	89.31
240.027	82.31
240.26	87.31
240.494	87.31
240.728	78.31
240.961	87.31
241.195	81.31
241.429	86.31
241.662	75.31
241.896	76.31
242.13	78.31
242.363	88.31
242.597	87.31
242.83	79.31
243.064	83.31
243.298	86.31
243.531	90.31
243.765	90.31
243.998	81.31
244.232	79.31
244.465	95.31
244.699	95.31
244.932	90.31
245.166	84.31
245.399	80.31
245.633	94.31
245.866	79.31
246.099	69.31
246.333	92.31
246.566	79.31
246.8	93.31
247.033	81.31
247.266	76.31
247.5	73.31
247.733	68.31
247.966	85.31
248.2	84.31
248.433	90.31
248.666	92.31
248.899	83.31
249.133	91.31
249.366	110.31
249.599	95.31
249.832	102.31
250.066	88.31
250.299	88.31
250.532	88.31
250.765	81.31
250.998	82.31
251.231	78.31
251.465	84.31
251.698	100.31
251.931	106.31
252.164	96.31
252.397	91.31
252.63	79.31
252.863	83.31
253.096	88.31
253.329	81.31
253.562	92.31
253.795	84.31
254.028	84.31
254.261	89.31
254.494	96.31
254.727	82.31
254.96	84.31
255.193	82.31
255.426	93.31
255.659	105.31
255.892	113.31
256.124	127.31
256.357	93.31
256.59	91.31
256.823	102.31
257.056	82.31
257.289	85.31
257.521	85.31
257.754	108.31
257.987	89.31
258.22	99.31
258.452	135.31
258.685	124.31
258.918	88.31
259.151	92.31
259.383	98.31
259.616	74.31
259.849	97.31
260.081	105.31
260.314	96.31
260.547	94.31
260.779	125.31
261.012	131.31
261.244	149.31
261.477	117.31
261.71	109.31
261.942	154.31
262.175	174.31
262.407	104.31
262.64	99.31
262.872	106.31
263.105	97.31
263.337	98.31
263.57	88.31
263.802	75.31
264.035	94.31
264.267	88.31
264.499	86.31
264.732	89.31
264.964	99.31
265.197	75.31
265.429	75.31
265.661	82.31
265.894	83.31
266.126	93.31
266.358	78.31
266.591	67.31
266.823	83.31
267.055	93.31
267.287	92.31
267.52	96.31
267.752	88.31
267.984	91.31
268.216	86.31
268.448	93.31
268.681	105.31
268.913	94.31
269.145	92.31
269.377	80.31
269.609	78.31
269.841	77.31
270.073	92.31
270.306	69.31
270.538	80.31
270.77	88.31
271.002	100.31
271.234	88.31
271.466	101.31
271.698	88.31
271.93	87.31
272.162	96.31
272.394	92.31
272.626	102.31
272.858	94.31
273.09	97.31
273.322	88.31
273.553	83.31
273.785	89.31
274.017	100.31
274.249	99.31
274.481	95.31
274.713	96.31
274.945	104.31
275.176	102.31
275.408	129.31
275.64	169.31
275.872	190.31
276.104	133.31
276.335	120.31
276.567	144.31
276.799	213.31
277.031	296.31
277.262	390.31
277.494	268.31
277.726	127.31
277.957	97.31
278.189	113.31
278.421	106.31
278.652	99.31
278.884	96.31
279.115	110.31
279.347	108.31
279.579	145.31
279.81	206.31
280.042	375.31
280.273	566.31
280.505	363.31
280.736	148.31
280.968	108.31
281.199	101.31
281.431	98.31
281.662	89.31
281.894	105.31
282.125	109.31
282.356	148.31
282.588	204.31
282.819	130.31
283.051	98.31
283.282	99.31
283.513	100.31
283.745	93.31
283.976	97.31
284.207	89.31
284.439	94.31
284.67	86.31
284.901	84.31
285.132	88.31
285.364	71.31
285.595	98.31
285.826	87.31
286.057	103.31
286.288	91.31
286.52	92.31
286.751	93.31
286.982	83.31
287.213	82.31
287.444	98.31
287.675	92.31
287.906	97.31
288.138	86.31
288.369	98.31
288.6	103.31
288.831	92.31
289.062	84.31
289.293	79.31
289.524	88.31
289.755	86.31
289.986	88.31
290.217	95.31
290.448	100.31
290.679	82.31
290.91	97.31
291.141	90.31
291.371	93.31
291.602	89.31
291.833	82.31
292.064	107.31
292.295	88.31
292.526	99.31
292.757	98.31
292.987	89.31
293.218	98.31
293.449	88.31
293.68	101.31
293.91	104.31
294.141	103.31
294.372	94.31
294.603	103.31
294.833	84.31
295.064	88.31
295.295	91.31
295.525	104.31
295.756	110.31
295.987	133.31
296.217	179.31
296.448	172.31
296.679	110.31
296.909	99.31
297.14	95.31
297.37	83.31
297.601	92.31
297.831	84.31
298.062	96.31
298.292	100.31
298.523	94.31
298.753	104.31
298.984	94.31
299.214	101.31
299.445	97.31
299.675	117.31
299.905	117.31
300.136	108.31
300.366	99.31
300.597	96.31
300.827	112.31
301.057	111.31
301.288	127.31
301.518	115.31
301.748	115.31
301.979	132.31
302.209	127.31
302.439	120.31
302.669	95.31
302.9	118.31
303.13	119.31
303.36	120.31
303.59	194.31
303.82	215.31
304.051	140.31
304.281	102.31
304.511	83.31
304.741	96.31
304.971	84.31
305.201	109.31
305.431	97.31
305.661	100.31
305.891	97.31
306.121	88.31
306.352	114.31
306.582	138.31
306.812	151.31
307.042	179.31
307.272	277.31
307.502	298.31
307.731	249.31
307.961	170.31
308.191	112.31
308.421	101.31
308.651	102.31
308.881	109.31
309.111	113.31
309.341	111.31
309.571	107.31
309.8	117.31
310.03	98.31
310.26	100.31
310.49	117.31
310.72	130.31
310.949	138.31
311.179	140.31
311.409	88.31
311.639	111.31
311.868	110.31
312.098	101.31
312.328	105.31
312.557	129.31
312.787	132.31
313.017	117.31
313.246	107.31
313.476	94.31
313.706	101.31
313.935	87.31
314.165	108.31
314.394	127.31
314.624	127.31
314.853	113.31
315.083	104.31
315.312	98.31
315.542	94.31
315.771	102.31
316.001	113.31
316.23	102.31
316.46	109.31
316.689	104.31
316.919	115.31
317.148	116.31
317.377	100.31
317.607	102.31
317.836	101.31
318.065	96.31
318.295	86.31
318.524	99.31
318.753	103.31
318.983	97.31
319.212	112.31
319.441	140.31
319.67	130.31
319.9	102.31
320.129	96.31
320.358	105.31
320.587	104.31
320.816	110.31
321.046	122.31
321.275	113.31
321.504	104.31
321.733	101.31
321.962	102.31
322.191	119.31
322.42	113.31
322.649	128.31
322.878	133.31
323.108	140.31
323.337	141.31
323.566	177.31
323.795	173.31
324.024	234.31
324.253	444.31
324.482	928.31
324.71	1822.31
324.939	2374.31
325.168	945.31
325.397	303.31
325.626	184.31
325.855	159.31
326.084	138.31
326.313	144.31
326.542	177.31
326.77	255.31
326.999	452.31
327.228	912.31
327.457	1650.31
327.686	1445.31
327.914	730.31
328.143	973.31
328.372	1418.31
328.6	708.31
328.829	274.31
329.058	248.31
329.287	245.31
329.515	244.31
329.744	439.31
329.972	951.31
330.201	2095.31
330.43	3124.31
330.658	1232.31
330.887	445.31
331.115	255.31
331.344	176.31
331.572	143.31
331.801	134.31
332.03	137.31
332.258	138.31
332.486	135.31
332.715	124.31
332.943	133.31
333.172	155.31
333.4	177.31
333.629	235.31
333.857	370.31
334.085	782.31
334.314	1802.31
334.542	3716.31
334.771	3432.31
334.999	817.31
335.227	276.31
335.455	181.31
335.684	133.31
335.912	123.31
336.14	125.31
336.369	123.31
336.597	129.31
336.825	118.31
337.053	104.31
337.281	111.31
337.51	108.31
337.738	112.31
337.966	104.31
338.194	125.31
338.422	104.31
338.65	109.31
338.878	119.31
339.106	110.31
339.334	105.31
339.562	91.31
339.79	110.31
340.018	102.31
340.246	105.31
340.474	110.31
340.702	115.31
340.93	108.31
341.158	110.31
341.386	110.31
341.614	105.31
341.842	109.31
342.07	96.31
342.298	113.31
342.526	103.31
342.754	86.31
342.981	94.31
343.209	88.31
343.437	97.31
343.665	105.31
343.893	95.31
344.12	85.31
344.348	92.31
344.576	101.31
344.804	106.31
345.031	119.31
345.259	116.31
345.487	100.31
345.714	95.31
345.942	105.31
346.17	73.31
346.397	89.31
346.625	92.31
346.853	92.31
347.08	103.31
347.308	103.31
347.535	112.31
347.763	114.31
347.99	103.31
348.218	100.31
348.445	125.31
348.673	116.31
348.9	102.31
349.128	105.31
349.355	98.31
349.583	97.31
349.81	100.31
350.037	98.31
350.265	110.31
350.492	94.31
350.72	89.31
350.947	107.31
351.174	122.31
351.402	136.31
351.629	120.31
351.856	105.31
352.083	111.31
352.311	126.31
352.538	144.31
352.765	146.31
352.992	146.31
353.22	134.31
353.447	131.31
353.674	104.31
353.901	95.31
354.128	94.31
354.355	113.31
354.583	103.31
354.81	103.31
355.037	92.31
355.264	94.31
355.491	110.31
355.718	86.31
355.945	99.31
356.172	90.31
356.399	87.31
356.626	99.31
356.853	89.31
357.08	86.31
357.307	87.31
357.534	99.31
357.761	94.31
357.988	89.31
358.215	110.31
358.441	90.31
358.668	107.31
358.895	100.31
359.122	99.31
359.349	92.31
359.576	96.31
359.802	121.31
360.029	163.31
360.256	164.31
360.483	120.31
360.709	97.31
360.936	107.31
361.163	97.31
361.39	99.31
361.616	121.31
361.843	101.31
362.07	106.31
362.296	115.31
362.523	104.31
362.749	92.31
362.976	93.31
363.203	105.31
363.429	92.31
363.656	85.31
363.882	95.31
364.109	87.31
364.335	102.31
364.562	100.31
364.788	89.31
365.015	110.31
365.241	110.31
365.468	108.31
365.694	122.31
365.92	115.31
366.147	105.31
366.373	106.31
366.599	104.31
366.826	93.31
367.052	91.31
367.278	79.31
367.505	92.31
367.731	109.31
367.957	104.31
368.184	85.31
368.41	99.31
368.636	118.31
368.862	129.31
369.089	121.31
369.315	94.31
369.541	91.31
369.767	101.31
369.993	103.31
370.219	108.31
370.445	87.31
370.672	90.31
370.898	92.31
371.124	78.31
371.35	95.31
371.576	96.31
371.802	89.31
372.028	85.31
372.254	100.31
372.48	82.31
372.706	86.31
372.932	92.31
373.158	93.31
373.384	100.31
373.61	108.31
373.835	97.31
374.061	98.31
374.287	101.31
374.513	85.31
374.739	89.31
374.965	86.31
375.191	86.31
375.416	77.31
375.642	87.31
375.868	90.31
376.094	104.31
376.319	83.31
376.545	80.31
376.771	119.31
376.997	106.31
377.222	86.31
377.448	99.31
377.674	88.31
377.899	84.31
378.125	94.31
378.35	94.31
378.576	88.31
378.802	92.31
379.027	86.31
379.253	87.31
379.478	88.31
379.704	96.31
379.929	105.31
380.155	92.31
380.38	89.31
380.606	94.31
380.831	109.31
381.057	96.31
381.282	111.31
381.507	102.31
381.733	102.31
381.958	96.31
382.184	108.31
382.409	102.31
382.634	110.31
382.86	98.31
383.085	102.31
383.31	115.31
383.535	88.31
383.761	98.31
383.986	114.31
384.211	109.31
384.436	95.31
384.662	112.31
384.887	110.31
385.112	123.31
385.337	108.31
385.562	110.31
385.787	106.31
386.013	110.31
386.238	134.31
386.463	123.31
386.688	115.31
386.913	111.31
387.138	111.31
387.363	115.31
387.588	98.31
387.813	92.31
388.038	115.31
388.263	109.31
388.488	108.31
388.713	96.31
388.938	103.31
389.163	102.31
389.387	107.31
389.612	98.31
389.837	89.31
390.062	93.31
390.287	86.31
390.512	84.31
390.736	89.31
390.961	92.31
391.186	106.31
391.411	98.31
391.636	91.31
391.86	88.31
392.085	84.31
392.31	95.31
392.534	94.31
392.759	80.31
392.984	86.31
393.208	85.31
393.433	103.31
393.658	108.31
393.882	88.31
394.107	90.31
394.331	88.31
394.556	87.31
394.78	87.31
395.005	89.31
395.229	91.31
395.454	73.31
395.678	94.31
395.903	91.31
396.127	92.31
396.352	99.31
396.576	86.31
396.801	94.31
397.025	80.31
397.249	89.31
397.474	98.31
397.698	84.31
397.922	84.31
398.147	81.31
398.371	85.31
398.595	84.31
398.82	87.31
399.044	110.31
399.268	97.31
399.492	86.31
399.717	75.31
399.941	85.31
400.165	91.31
400.389	92.31
400.613	96.31
400.837	87.31
401.062	101.31
401.286	89.31
401.51	92.31
401.734	96.31
401.958	119.31
402.182	165.31
402.406	215.31
402.63	168.31
402.854	111.31
403.078	110.31
403.302	98.31
403.526	77.31
403.75	85.31
403.974	78.31
404.198	98.31
404.422	93.31
404.645	105.31
404.869	118.31
405.093	122.31
405.317	163.31
405.541	144.31
405.765	118.31
405.988	141.31
406.212	245.31
406.436	361.31
406.66	232.31
406.883	124.31
407.107	119.31
407.331	107.31
407.555	106.31
407.778	113.31
408.002	104.31
408.226	93.31
408.449	110.31
408.673	99.31
408.896	84.31
409.12	108.31
409.344	101.31
409.567	95.31
409.791	92.31
410.014	97.31
410.238	101.31
410.461	102.31
410.685	91.31
410.908	96.31
411.132	98.31
411.355	100.31
411.578	101.31
411.802	95.31
412.025	113.31
412.249	100.31
412.472	123.31
412.695	168.31
412.919	115.31
413.142	94.31
413.365	102.31
413.589	98.31
413.812	98.31
414.035	105.31
414.258	106.31
414.482	100.31
414.705	103.31
414.928	93.31
415.151	97.31
415.374	104.31
415.597	90.31
415.821	95.31
416.044	92.31
416.267	99.31
416.49	95.31
416.713	96.31
416.936	88.31
417.159	89.31
417.382	106.31
417.605	137.31
417.828	134.31
418.051	126.31
418.274	92.31
418.497	91.31
418.72	92.31
418.943	91.31
419.166	98.31
419.389	90.31
419.611	100.31
419.834	111.31
420.057	107.31
420.28	101.31
420.503	101.31
420.726	110.31
420.948	92.31
421.171	115.31
421.394	101.31
421.617	83.31
421.839	99.31
422.062	101.31
422.285	88.31
422.507	98.31
422.73	113.31
422.953	90.31
423.175	82.31
423.398	104.31
423.621	101.31
423.843	99.31
424.066	80.31
424.288	82.31
424.511	107.31
424.733	110.31
424.956	130.31
425.178	101.31
425.401	108.31
425.623	90.31
425.846	90.31
426.068	116.31
426.291	93.31
426.513	112.31
426.735	99.31
426.958	100.31
427.18	111.31
427.402	198.31
427.625	281.31
427.847	272.31
428.069	201.31
428.292	137.31
428.514	101.31
428.736	99.31
428.958	98.31
429.181	99.31
429.403	102.31
429.625	94.31
429.847	115.31
430.069	108.31
430.292	96.31
430.514	82.31
430.736	98.31
430.958	80.31
431.18	93.31
431.402	78.31
431.624	77.31
431.846	83.31
432.068	96.31
432.29	82.31
432.512	111.31
432.734	88.31
432.956	97.31
433.178	92.31
433.4	86.31
433.622	92.31
433.844	105.31
434.066	88.31
434.287	86.31
434.509	86.31
434.731	82.31
434.953	92.31
435.175	100.31
435.397	94.31
435.618	103.31
435.84	109.31
436.062	114.31
436.284	109.31
436.505	106.31
436.727	90.31
436.949	92.31
437.17	102.31
437.392	100.31
437.614	117.31
437.835	130.31
438.057	150.31
438.278	140.31
438.5	114.31
438.721	125.31
438.943	110.31
439.165	97.31
439.386	80.31
439.608	103.31
439.829	125.31
440.05	164.31
440.272	172.31
440.493	111.31
440.715	107.31
440.936	90.31
441.158	99.31
441.379	86.31
441.6	94.31
441.822	121.31
442.043	124.31
442.264	114.31
442.486	112.31
442.707	117.31
442.928	110.31
443.149	181.31
443.371	189.31
443.592	137.31
443.813	145.31
444.034	118.31
444.255	107.31
444.476	86.31
444.698	96.31
444.919	96.31
445.14	123.31
445.361	133.31
445.582	145.31
445.803	185.31
446.024	169.31
446.245	155.31
446.466	133.31
446.687	114.31
446.908	87.31
447.129	91.31
447.35	108.31
447.571	106.31
447.792	111.31
448.013	119.31
448.234	119.31
448.455	118.31
448.675	131.31
448.896	133.31
449.117	105.31
449.338	126.31
449.559	140.31
449.779	137.31
450	105.31
450.221	94.31
450.442	93.31
450.662	106.31
450.883	141.31
451.104	152.31
451.324	118.31
451.545	105.31
451.766	106.31
451.986	107.31
452.207	100.31
452.428	97.31
452.648	120.31
452.869	131.31
453.089	163.31
453.31	166.31
453.53	113.31
453.751	105.31
453.971	125.31
454.192	158.31
454.412	109.31
454.633	81.31
454.853	91.31
455.073	96.31
455.294	99.31
455.514	106.31
455.734	108.31
455.955	94.31
456.175	88.31
456.395	68.31
456.616	92.31
456.836	94.31
457.056	93.31
457.276	95.31
457.497	96.31
457.717	92.31
457.937	106.31
458.157	91.31
458.377	107.31
458.598	125.31
458.818	228.31
459.038	261.31
459.258	156.31
459.478	113.31
459.698	93.31
459.918	102.31
460.138	80.31
460.358	84.31
460.578	92.31
460.798	111.31
461.018	113.31
461.238	78.31
461.458	96.31
461.678	97.31
461.898	105.31
462.118	81.31
462.338	81.31
462.558	97.31
462.777	108.31
462.997	129.31
463.217	143.31
463.437	128.31
463.657	101.31
463.876	88.31
464.096	98.31
464.316	112.31
464.536	100.31
464.755	111.31
464.975	141.31
465.195	290.31
465.414	274.31
465.634	125.31
465.854	115.31
466.073	103.31
466.293	107.31
466.512	95.31
466.732	99.31
466.951	109.31
467.171	117.31
467.391	161.31
467.61	208.31
467.829	381.31
468.049	1312.31
468.268	2097.31
468.488	454.31
468.707	153.31
468.927	103.31
469.146	105.31
469.365	110.31
469.585	104.31
469.804	124.31
470.023	114.31
470.243	133.31
470.462	124.31
470.681	154.31
470.901	133.31
471.12	132.31
471.339	132.31
471.558	161.31
471.777	236.31
471.997	577.31
472.216	2328.31
472.435	5605.31
472.654	1158.31
472.873	251.31
473.092	129.31
473.311	113.31
473.53	114.31
473.749	115.31
473.968	117.31
474.187	113.31
474.406	117.31
474.625	94.31
474.844	100.31
475.063	73.31
475.282	84.31
475.501	103.31
475.72	109.31
475.939	93.31
476.158	94.31
476.377	111.31
476.596	96.31
476.814	100.31
477.033	110.31
477.252	111.31
477.471	99.31
477.69	98.31
477.908	105.31
478.127	106.31
478.346	103.31
478.564	125.31
478.783	117.31
479.002	108.31
479.22	126.31
479.439	144.31
479.658	165.31
479.876	168.31
480.095	151.31
480.313	195.31
480.532	238.31
480.751	506.31
480.969	2018.31
481.188	8902.31
481.406	4997.31
481.624	652.31
481.843	209.31
482.061	160.31
482.28	129.31
482.498	112.31
482.717	116.31
482.935	105.31
483.153	100.31
483.372	101.31
483.59	101.31
483.808	98.31
484.027	114.31
484.245	98.31
484.463	109.31
484.681	110.31
484.9	97.31
485.118	111.31
485.336	110.31
485.554	110.31
485.772	106.31
485.99	108.31
486.209	119.31
486.427	119.31
486.645	130.31
486.863	142.31
487.081	107.31
487.299	105.31
487.517	108.31
487.735	111.31
487.953	95.31
488.171	96.31
488.389	105.31
488.607	104.31
488.825	97.31
489.043	95.31
489.261	100.31
489.479	101.31
489.696	94.31
489.914	95.31
490.132	95.31
490.35	90.31
490.568	94.31
490.786	92.31
491.003	88.31
491.221	94.31
491.439	113.31
491.657	96.31
491.874	96.31
492.092	101.31
492.31	107.31
492.527	125.31
492.745	109.31
492.963	102.31
493.18	110.31
493.398	106.31
493.615	104.31
493.833	99.31
494.05	86.31
494.268	98.31
494.485	95.31
494.703	93.31
494.92	92.31
495.138	79.31
495.355	87.31
495.573	83.31
495.79	96.31
496.008	104.31
496.225	92.31
496.442	82.31
496.66	101.31
496.877	91.31
497.094	97.31
497.312	100.31
497.529	85.31
497.746	103.31
497.963	102.31
498.181	89.31
498.398	93.31
498.615	130.31
498.832	113.31
499.049	90.31
499.267	103.31
499.484	94.31
499.701	92.31
499.918	95.31
500.135	93.31
500.352	99.31
500.569	106.31
500.786	109.31
501.003	112.31
501.22	107.31
501.437	107.31
501.654	114.31
501.871	140.31
502.088	98.31
502.305	96.31
502.522	105.31
502.739	96.31
502.956	94.31
503.172	107.31
503.389	130.31
503.606	141.31
503.823	120.31
504.04	97.31
504.256	80.31
504.473	97.31
504.69	93.31
504.907	86.31
505.123	89.31
505.34	74.31
505.557	101.31
505.773	92.31
505.99	105.31
506.207	89.31
506.423	103.31
506.64	88.31
506.856	87.31
507.073	104.31
507.289	106.31
507.506	110.31
507.722	144.31
507.939	136.31
508.155	106.31
508.372	97.31
508.588	113.31
508.805	104.31
509.021	96.31
509.238	114.31
509.454	97.31
509.67	109.31
509.887	122.31
510.103	173.31
510.319	267.31
