Data from Circ_1988_H10_HRD10591_00034.txt Node
Date: Wed Jan 03 12:05:41 EST 2024
User: Yrep
Spectrometer: HR+D1059
Trigger mode: 1
Integration Time (sec): 1.000000E-1
Scans to average: 1
Electric dark correction enabled: true
Nonlinearity correction enabled: false
Boxcar width: 0
XAxis mode: Wavelengths
Number of Pixels in Spectrum: 2048
>>>>>Begin Spectral Data<<<<<
223.165	-8.81
223.4	-8.81
223.635	-8.81
223.869	-18.81
224.104	-13.81
224.338	-13.81
224.573	-22.81
224.808	-2.81
225.042	-11.81
225.277	0.19
225.511	2.19
225.746	-7.81
225.98	-16.81
226.215	7.19
226.449	15.19
226.683	29.19
226.918	22.19
227.152	41.19
227.387	33.19
227.621	30.19
227.856	50.19
228.09	25.19
228.324	58.19
228.559	57.19
228.793	58.19
229.027	40.19
229.262	59.19
229.496	78.19
229.73	102.19
229.964	88.19
230.199	74.19
230.433	85.19
230.667	84.19
230.901	75.19
231.136	80.19
231.37	76.19
231.604	80.19
231.838	69.19
232.072	81.19
232.306	72.19
232.541	97.19
232.775	82.19
233.009	93.19
233.243	89.19
233.477	91.19
233.711	89.19
233.945	82.19
234.179	64.19
234.413	67.19
234.647	85.19
234.881	74.19
235.115	74.19
235.349	92.19
235.583	84.19
235.817	87.19
236.051	74.19
236.285	77.19
236.519	79.19
236.753	98.19
236.987	91.19
237.221	85.19
237.455	90.19
237.689	100.19
237.922	87.19
238.156	64.19
238.39	71.19
238.624	77.19
238.858	76.19
239.091	81.19
239.325	84.19
239.559	82.19
239.793	86.19
240.027	77.19
240.26	79.19
240.494	84.19
240.728	85.19
240.961	94.19
241.195	78.19
241.429	76.19
241.662	97.19
241.896	66.19
242.13	86.19
242.363	70.19
242.597	72.19
242.83	90.19
243.064	71.19
243.298	87.19
243.531	88.19
243.765	86.19
243.998	78.19
244.232	76.19
244.465	100.19
244.699	84.19
244.932	85.19
245.166	89.19
245.399	72.19
245.633	76.19
245.866	96.19
246.099	87.19
246.333	79.19
246.566	87.19
246.8	83.19
247.033	86.19
247.266	82.19
247.5	97.19
247.733	83.19
247.966	84.19
248.2	103.19
248.433	92.19
248.666	102.19
248.899	97.19
249.133	104.19
249.366	116.19
249.599	111.19
249.832	87.19
250.066	92.19
250.299	84.19
250.532	100.19
250.765	94.19
250.998	96.19
251.231	88.19
251.465	92.19
251.698	89.19
251.931	100.19
252.164	97.19
252.397	83.19
252.63	86.19
252.863	69.19
253.096	84.19
253.329	88.19
253.562	87.19
253.795	79.19
254.028	90.19
254.261	74.19
254.494	94.19
254.727	95.19
254.96	99.19
255.193	77.19
255.426	82.19
255.659	100.19
255.892	109.19
256.124	114.19
256.357	98.19
256.59	87.19
256.823	94.19
257.056	100.19
257.289	96.19
257.521	106.19
257.754	89.19
257.987	92.19
258.22	102.19
258.452	124.19
258.685	124.19
258.918	77.19
259.151	91.19
259.383	83.19
259.616	86.19
259.849	88.19
260.081	83.19
260.314	99.19
260.547	96.19
260.779	125.19
261.012	167.19
261.244	177.19
261.477	130.19
261.71	122.19
261.942	133.19
262.175	154.19
262.407	102.19
262.64	76.19
262.872	82.19
263.105	103.19
263.337	98.19
263.57	70.19
263.802	88.19
264.035	81.19
264.267	86.19
264.499	82.19
264.732	81.19
264.964	88.19
265.197	91.19
265.429	95.19
265.661	92.19
265.894	84.19
266.126	91.19
266.358	85.19
266.591	68.19
266.823	78.19
267.055	94.19
267.287	99.19
267.52	97.19
267.752	83.19
267.984	95.19
268.216	88.19
268.448	81.19
268.681	104.19
268.913	86.19
269.145	88.19
269.377	90.19
269.609	85.19
269.841	74.19
270.073	84.19
270.306	95.19
270.538	85.19
270.77	89.19
271.002	83.19
271.234	98.19
271.466	118.19
271.698	95.19
271.93	88.19
272.162	87.19
272.394	96.19
272.626	93.19
272.858	90.19
273.09	89.19
273.322	94.19
273.553	89.19
273.785	96.19
274.017	92.19
274.249	86.19
274.481	89.19
274.713	88.19
274.945	105.19
275.176	105.19
275.408	115.19
275.64	158.19
275.872	196.19
276.104	137.19
276.335	119.19
276.567	144.19
276.799	218.19
277.031	302.19
277.262	400.19
277.494	284.19
277.726	137.19
277.957	114.19
278.189	111.19
278.421	85.19
278.652	80.19
278.884	99.19
279.115	108.19
279.347	117.19
279.579	144.19
279.81	236.19
280.042	423.19
280.273	622.19
280.505	396.19
280.736	160.19
280.968	104.19
281.199	114.19
281.431	108.19
281.662	106.19
281.894	107.19
282.125	105.19
282.356	153.19
282.588	197.19
282.819	150.19
283.051	106.19
283.282	89.19
283.513	81.19
283.745	82.19
283.976	86.19
284.207	82.19
284.439	90.19
284.67	90.19
284.901	77.19
285.132	92.19
285.364	87.19
285.595	93.19
285.826	90.19
286.057	90.19
286.288	98.19
286.52	98.19
286.751	92.19
286.982	87.19
287.213	94.19
287.444	97.19
287.675	90.19
287.906	91.19
288.138	92.19
288.369	89.19
288.6	105.19
288.831	96.19
289.062	99.19
289.293	99.19
289.524	87.19
289.755	87.19
289.986	98.19
290.217	80.19
290.448	101.19
290.679	94.19
290.91	92.19
291.141	85.19
291.371	101.19
291.602	97.19
291.833	83.19
292.064	102.19
292.295	103.19
292.526	95.19
292.757	95.19
292.987	93.19
293.218	86.19
293.449	88.19
293.68	94.19
293.91	82.19
294.141	92.19
294.372	94.19
294.603	76.19
294.833	92.19
295.064	81.19
295.295	92.19
295.525	91.19
295.756	106.19
295.987	129.19
296.217	163.19
296.448	168.19
296.679	92.19
296.909	91.19
297.14	93.19
297.37	101.19
297.601	87.19
297.831	94.19
298.062	105.19
298.292	108.19
298.523	100.19
298.753	95.19
298.984	98.19
299.214	101.19
299.445	95.19
299.675	104.19
299.905	110.19
300.136	94.19
300.366	96.19
300.597	97.19
300.827	117.19
301.057	104.19
301.288	120.19
301.518	111.19
301.748	113.19
301.979	128.19
302.209	135.19
302.439	102.19
302.669	108.19
302.9	107.19
303.13	80.19
303.36	141.19
303.59	180.19
303.82	220.19
304.051	131.19
304.281	111.19
304.511	105.19
304.741	96.19
304.971	96.19
305.201	105.19
305.431	84.19
305.661	117.19
305.891	99.19
306.121	103.19
306.352	110.19
306.582	127.19
306.812	132.19
307.042	180.19
307.272	301.19
307.502	336.19
307.731	275.19
307.961	178.19
308.191	106.19
308.421	98.19
308.651	115.19
308.881	105.19
309.111	105.19
309.341	100.19
309.571	116.19
309.8	103.19
310.03	117.19
310.26	123.19
310.49	119.19
310.72	109.19
310.949	126.19
311.179	115.19
311.409	115.19
311.639	110.19
311.868	104.19
312.098	96.19
312.328	95.19
312.557	121.19
312.787	148.19
313.017	118.19
313.246	102.19
313.476	100.19
313.706	89.19
313.935	104.19
314.165	117.19
314.394	124.19
314.624	106.19
314.853	96.19
315.083	96.19
315.312	97.19
315.542	91.19
315.771	95.19
316.001	90.19
316.23	85.19
316.46	88.19
316.689	98.19
316.919	96.19
317.148	110.19
317.377	107.19
317.607	91.19
317.836	98.19
318.065	103.19
318.295	98.19
318.524	96.19
318.753	93.19
318.983	102.19
319.212	108.19
319.441	114.19
319.67	128.19
319.9	98.19
320.129	95.19
320.358	100.19
320.587	89.19
320.816	104.19
321.046	106.19
321.275	114.19
321.504	100.19
321.733	104.19
321.962	103.19
322.191	98.19
322.42	127.19
322.649	117.19
322.878	127.19
323.108	138.19
323.337	151.19
323.566	166.19
323.795	188.19
324.024	232.19
324.253	442.19
324.482	924.19
324.71	1859.19
324.939	2513.19
325.168	988.19
325.397	291.19
325.626	179.19
325.855	156.19
326.084	153.19
326.313	149.19
326.542	177.19
326.77	254.19
326.999	472.19
327.228	931.19
327.457	1708.19
327.686	1474.19
327.914	731.19
328.143	1017.19
328.372	1475.19
328.6	755.19
328.829	276.19
329.058	252.19
329.287	257.19
329.515	276.19
329.744	472.19
329.972	1026.19
330.201	2282.19
330.43	3464.19
330.658	1377.19
330.887	453.19
331.115	243.19
331.344	167.19
331.572	142.19
331.801	154.19
332.03	158.19
332.258	144.19
332.486	132.19
332.715	127.19
332.943	158.19
333.172	149.19
333.4	174.19
333.629	213.19
333.857	371.19
334.085	840.19
334.314	1915.19
334.542	4088.19
334.771	3819.19
334.999	876.19
335.227	275.19
335.455	184.19
335.684	141.19
335.912	120.19
336.14	134.19
336.369	115.19
336.597	129.19
336.825	115.19
337.053	117.19
337.281	109.19
337.51	102.19
337.738	115.19
337.966	107.19
338.194	117.19
338.422	103.19
338.65	112.19
338.878	96.19
339.106	96.19
339.334	110.19
339.562	104.19
339.79	88.19
340.018	109.19
340.246	106.19
340.474	99.19
340.702	108.19
340.93	88.19
341.158	99.19
341.386	100.19
341.614	123.19
341.842	89.19
342.07	98.19
342.298	96.19
342.526	99.19
342.754	98.19
342.981	102.19
343.209	88.19
343.437	108.19
343.665	82.19
343.893	91.19
344.12	89.19
344.348	108.19
344.576	98.19
344.804	92.19
345.031	108.19
345.259	115.19
345.487	104.19
345.714	101.19
345.942	104.19
346.17	90.19
346.397	94.19
346.625	102.19
346.853	89.19
347.08	93.19
347.308	113.19
347.535	96.19
347.763	108.19
347.99	113.19
348.218	116.19
348.445	112.19
348.673	115.19
348.9	89.19
349.128	93.19
349.355	96.19
349.583	113.19
349.81	97.19
350.037	106.19
350.265	115.19
350.492	105.19
350.72	107.19
350.947	105.19
351.174	109.19
351.402	128.19
351.629	112.19
351.856	107.19
352.083	105.19
352.311	110.19
352.538	122.19
352.765	116.19
352.992	120.19
353.22	128.19
353.447	115.19
353.674	122.19
353.901	91.19
354.128	87.19
354.355	96.19
354.583	96.19
354.81	112.19
355.037	100.19
355.264	98.19
355.491	95.19
355.718	100.19
355.945	106.19
356.172	94.19
356.399	97.19
356.626	97.19
356.853	97.19
357.08	106.19
357.307	112.19
357.534	101.19
357.761	103.19
357.988	89.19
358.215	108.19
358.441	104.19
358.668	93.19
358.895	95.19
359.122	104.19
359.349	87.19
359.576	101.19
359.802	120.19
360.029	148.19
360.256	149.19
360.483	117.19
360.709	93.19
360.936	92.19
361.163	107.19
361.39	113.19
361.616	126.19
361.843	100.19
362.07	109.19
362.296	120.19
362.523	105.19
362.749	101.19
362.976	112.19
363.203	81.19
363.429	100.19
363.656	105.19
363.882	85.19
364.109	91.19
364.335	88.19
364.562	111.19
364.788	106.19
365.015	100.19
365.241	125.19
365.468	99.19
365.694	121.19
365.92	105.19
366.147	92.19
366.373	100.19
366.599	99.19
366.826	91.19
367.052	106.19
367.278	96.19
367.505	95.19
367.731	94.19
367.957	92.19
368.184	105.19
368.41	112.19
368.636	138.19
368.862	138.19
369.089	114.19
369.315	110.19
369.541	116.19
369.767	109.19
369.993	94.19
370.219	113.19
370.445	98.19
370.672	84.19
370.898	85.19
371.124	87.19
371.35	98.19
371.576	90.19
371.802	90.19
372.028	77.19
372.254	99.19
372.48	86.19
372.706	105.19
372.932	99.19
373.158	95.19
373.384	98.19
373.61	92.19
373.835	92.19
374.061	87.19
374.287	86.19
374.513	93.19
374.739	102.19
374.965	83.19
375.191	70.19
375.416	102.19
375.642	103.19
375.868	100.19
376.094	93.19
376.319	88.19
376.545	90.19
376.771	96.19
376.997	96.19
377.222	88.19
377.448	88.19
377.674	88.19
377.899	96.19
378.125	106.19
378.35	89.19
378.576	103.19
378.802	93.19
379.027	92.19
379.253	83.19
379.478	97.19
379.704	110.19
379.929	104.19
380.155	110.19
380.38	123.19
380.606	105.19
380.831	100.19
381.057	105.19
381.282	98.19
381.507	104.19
381.733	106.19
381.958	109.19
382.184	111.19
382.409	133.19
382.634	107.19
382.86	110.19
383.085	110.19
383.31	106.19
383.535	109.19
383.761	119.19
383.986	113.19
384.211	114.19
384.436	127.19
384.662	118.19
384.887	120.19
385.112	115.19
385.337	133.19
385.562	129.19
385.787	134.19
386.013	142.19
386.238	135.19
386.463	129.19
386.688	116.19
386.913	117.19
387.138	150.19
387.363	122.19
387.588	117.19
387.813	119.19
388.038	120.19
388.263	128.19
388.488	142.19
388.713	94.19
388.938	91.19
389.163	96.19
389.387	96.19
389.612	94.19
389.837	103.19
390.062	88.19
390.287	91.19
390.512	82.19
390.736	99.19
390.961	99.19
391.186	85.19
391.411	92.19
391.636	81.19
391.86	87.19
392.085	83.19
392.31	86.19
392.534	102.19
392.759	93.19
392.984	101.19
393.208	126.19
393.433	195.19
393.658	170.19
393.882	102.19
394.107	87.19
394.331	91.19
394.556	97.19
394.78	86.19
395.005	72.19
395.229	88.19
395.454	82.19
395.678	92.19
395.903	103.19
396.127	89.19
396.352	103.19
396.576	110.19
396.801	132.19
397.025	160.19
397.249	120.19
397.474	86.19
397.698	100.19
397.922	88.19
398.147	89.19
398.371	88.19
398.595	86.19
398.82	96.19
399.044	94.19
399.268	100.19
399.492	90.19
399.717	95.19
399.941	99.19
400.165	100.19
400.389	99.19
400.613	102.19
400.837	96.19
401.062	94.19
401.286	93.19
401.51	111.19
401.734	104.19
401.958	113.19
402.182	156.19
402.406	221.19
402.63	156.19
402.854	95.19
403.078	105.19
403.302	113.19
403.526	91.19
403.75	82.19
403.974	95.19
404.198	90.19
404.422	93.19
404.645	92.19
404.869	113.19
405.093	112.19
405.317	160.19
405.541	151.19
405.765	141.19
405.988	158.19
406.212	217.19
406.436	317.19
406.66	233.19
406.883	132.19
407.107	108.19
407.331	115.19
407.555	117.19
407.778	112.19
408.002	92.19
408.226	95.19
408.449	111.19
408.673	90.19
408.896	108.19
409.12	91.19
409.344	98.19
409.567	102.19
409.791	95.19
410.014	116.19
410.238	102.19
410.461	94.19
410.685	102.19
410.908	82.19
411.132	90.19
411.355	111.19
411.578	88.19
411.802	82.19
412.025	85.19
412.249	96.19
412.472	124.19
412.695	149.19
412.919	114.19
413.142	116.19
413.365	101.19
413.589	103.19
413.812	90.19
414.035	110.19
414.258	108.19
414.482	113.19
414.705	105.19
414.928	98.19
415.151	88.19
415.374	97.19
415.597	90.19
415.821	98.19
416.044	98.19
416.267	99.19
416.49	96.19
416.713	100.19
416.936	91.19
417.159	107.19
417.382	111.19
417.605	134.19
417.828	153.19
418.051	122.19
418.274	95.19
418.497	105.19
418.72	94.19
418.943	101.19
419.166	88.19
419.389	98.19
419.611	96.19
419.834	110.19
420.057	99.19
420.28	109.19
420.503	78.19
420.726	83.19
420.948	96.19
421.171	116.19
421.394	105.19
421.617	89.19
421.839	98.19
422.062	105.19
422.285	103.19
422.507	112.19
422.73	158.19
422.953	137.19
423.175	89.19
423.398	87.19
423.621	104.19
423.843	97.19
424.066	84.19
424.288	92.19
424.511	92.19
424.733	96.19
424.956	126.19
425.178	111.19
425.401	115.19
425.623	120.19
425.846	97.19
426.068	100.19
426.291	97.19
426.513	104.19
426.735	97.19
426.958	109.19
427.18	124.19
427.402	178.19
427.625	275.19
427.847	276.19
428.069	237.19
428.292	154.19
428.514	113.19
428.736	100.19
428.958	84.19
429.181	90.19
429.403	97.19
429.625	98.19
429.847	110.19
430.069	122.19
430.292	107.19
430.514	97.19
430.736	101.19
430.958	98.19
431.18	91.19
431.402	89.19
431.624	75.19
431.846	103.19
432.068	94.19
432.29	84.19
432.512	98.19
432.734	94.19
432.956	99.19
433.178	96.19
433.4	112.19
433.622	106.19
433.844	103.19
434.066	97.19
434.287	97.19
434.509	109.19
434.731	92.19
434.953	78.19
435.175	102.19
435.397	89.19
435.618	94.19
435.84	104.19
436.062	115.19
436.284	104.19
436.505	104.19
436.727	106.19
436.949	95.19
437.17	98.19
437.392	87.19
437.614	94.19
437.835	131.19
438.057	151.19
438.278	112.19
438.5	110.19
438.721	152.19
438.943	116.19
439.165	97.19
439.386	103.19
439.608	95.19
439.829	109.19
440.05	155.19
440.272	176.19
440.493	118.19
440.715	97.19
440.936	97.19
441.158	88.19
441.379	79.19
441.6	103.19
441.822	111.19
442.043	105.19
442.264	121.19
442.486	121.19
442.707	102.19
442.928	137.19
443.149	178.19
443.371	201.19
443.592	130.19
443.813	123.19
444.034	112.19
444.255	84.19
444.476	93.19
444.698	83.19
444.919	89.19
445.14	142.19
445.361	129.19
445.582	139.19
445.803	182.19
446.024	175.19
446.245	167.19
446.466	118.19
446.687	88.19
446.908	93.19
447.129	84.19
447.35	92.19
447.571	104.19
447.792	100.19
448.013	100.19
448.234	125.19
448.455	115.19
448.675	122.19
448.896	128.19
449.117	105.19
449.338	107.19
449.559	149.19
449.779	134.19
450	103.19
450.221	81.19
450.442	96.19
450.662	113.19
450.883	134.19
451.104	152.19
451.324	116.19
451.545	89.19
451.766	88.19
451.986	95.19
452.207	106.19
452.428	96.19
452.648	121.19
452.869	117.19
453.089	142.19
453.31	152.19
453.53	104.19
453.751	91.19
453.971	119.19
454.192	142.19
454.412	111.19
454.633	96.19
454.853	95.19
455.073	91.19
455.294	95.19
455.514	126.19
455.734	98.19
455.955	98.19
456.175	90.19
456.395	84.19
456.616	93.19
456.836	102.19
457.056	84.19
457.276	76.19
457.497	83.19
457.717	76.19
457.937	88.19
458.157	92.19
458.377	109.19
458.598	137.19
458.818	215.19
459.038	233.19
459.258	164.19
459.478	102.19
459.698	80.19
459.918	96.19
460.138	92.19
460.358	101.19
460.578	94.19
460.798	96.19
461.018	85.19
461.238	88.19
461.458	97.19
461.678	72.19
461.898	92.19
462.118	92.19
462.338	88.19
462.558	90.19
462.777	97.19
462.997	114.19
463.217	169.19
463.437	119.19
463.657	99.19
463.876	88.19
464.096	94.19
464.316	106.19
464.536	118.19
464.755	118.19
464.975	142.19
465.195	249.19
465.414	265.19
465.634	122.19
465.854	95.19
466.073	98.19
466.293	89.19
466.512	87.19
466.732	103.19
466.951	96.19
467.171	108.19
467.391	137.19
467.61	216.19
467.829	398.19
468.049	1458.19
468.268	2282.19
468.488	470.19
468.707	160.19
468.927	103.19
469.146	104.19
469.365	112.19
469.585	103.19
469.804	120.19
470.023	117.19
470.243	112.19
470.462	150.19
470.681	150.19
470.901	122.19
471.12	127.19
471.339	132.19
471.558	174.19
471.777	256.19
471.997	585.19
472.216	2531.19
472.435	6122.19
472.654	1244.19
472.873	282.19
473.092	134.19
473.311	120.19
473.53	112.19
473.749	110.19
473.968	117.19
474.187	125.19
474.406	123.19
474.625	102.19
474.844	100.19
475.063	93.19
475.282	92.19
475.501	101.19
475.72	98.19
475.939	93.19
476.158	84.19
476.377	85.19
476.596	103.19
476.814	117.19
477.033	113.19
477.252	96.19
477.471	100.19
477.69	105.19
477.908	102.19
478.127	91.19
478.346	110.19
478.564	106.19
478.783	117.19
479.002	110.19
479.22	126.19
479.439	132.19
479.658	159.19
479.876	146.19
480.095	159.19
480.313	172.19
480.532	262.19
480.751	527.19
480.969	2122.19
481.188	9600.19
481.406	5424.19
481.624	684.19
481.843	215.19
482.061	149.19
482.28	125.19
482.498	110.19
482.717	106.19
482.935	98.19
483.153	97.19
483.372	102.19
483.59	93.19
483.808	112.19
484.027	93.19
484.245	113.19
484.463	108.19
484.681	109.19
484.9	105.19
485.118	95.19
485.336	111.19
485.554	102.19
485.772	100.19
485.99	116.19
486.209	109.19
486.427	116.19
486.645	131.19
486.863	132.19
487.081	114.19
487.299	108.19
487.517	99.19
487.735	103.19
487.953	99.19
488.171	92.19
488.389	112.19
488.607	119.19
488.825	92.19
489.043	95.19
489.261	92.19
489.479	89.19
489.696	96.19
489.914	105.19
490.132	94.19
490.35	88.19
490.568	101.19
490.786	100.19
491.003	96.19
491.221	97.19
491.439	110.19
491.657	110.19
491.874	101.19
492.092	99.19
492.31	91.19
492.527	140.19
492.745	105.19
492.963	108.19
493.18	98.19
493.398	106.19
493.615	100.19
493.833	95.19
494.05	102.19
494.268	85.19
494.485	91.19
494.703	89.19
494.92	97.19
495.138	103.19
495.355	100.19
495.573	89.19
495.79	112.19
496.008	108.19
496.225	94.19
496.442	102.19
496.66	90.19
496.877	101.19
497.094	95.19
497.312	87.19
497.529	83.19
497.746	104.19
497.963	87.19
498.181	103.19
498.398	101.19
498.615	123.19
498.832	112.19
499.049	102.19
499.267	109.19
499.484	106.19
499.701	93.19
499.918	92.19
500.135	91.19
500.352	90.19
500.569	124.19
500.786	103.19
501.003	95.19
501.22	82.19
501.437	92.19
501.654	112.19
501.871	133.19
502.088	93.19
502.305	95.19
502.522	99.19
502.739	106.19
502.956	101.19
503.172	105.19
503.389	116.19
503.606	143.19
503.823	108.19
504.04	89.19
504.256	100.19
504.473	96.19
504.69	94.19
504.907	90.19
505.123	104.19
505.34	92.19
505.557	101.19
505.773	85.19
505.99	94.19
506.207	84.19
506.423	106.19
506.64	106.19
506.856	97.19
507.073	94.19
507.289	96.19
507.506	96.19
507.722	118.19
507.939	137.19
508.155	110.19
508.372	97.19
508.588	86.19
508.805	95.19
509.021	98.19
509.238	93.19
509.454	109.19
509.67	109.19
509.887	114.19
510.103	137.19
510.319	259.19
510.536	982.19
