Data from Circ_1988_H10_HRD10591_00033.txt Node
Date: Wed Jan 03 12:05:41 EST 2024
User: Yrep
Spectrometer: HR+D1059
Trigger mode: 1
Integration Time (sec): 1.000000E-1
Scans to average: 1
Electric dark correction enabled: true
Nonlinearity correction enabled: false
Boxcar width: 0
XAxis mode: Wavelengths
Number of Pixels in Spectrum: 2048
>>>>>Begin Spectral Data<<<<<
223.165	-28.38
223.4	-28.38
223.635	-28.38
223.869	-28.38
224.104	-29.38
224.338	-15.38
224.573	-13.38
224.808	-10.38
225.042	-13.38
225.277	-8.38
225.511	6.62
225.746	5.62
225.98	-3.38
226.215	17.62
226.449	26.62
226.683	31.62
226.918	32.62
227.152	29.62
227.387	19.62
227.621	38.62
227.856	34.62
228.09	49.62
228.324	39.62
228.559	61.62
228.793	61.62
229.027	52.62
229.262	67.62
229.496	79.62
229.73	89.62
229.964	90.62
230.199	90.62
230.433	74.62
230.667	82.62
230.901	74.62
231.136	66.62
231.37	76.62
231.604	70.62
231.838	68.62
232.072	70.62
232.306	65.62
232.541	82.62
232.775	88.62
233.009	86.62
233.243	87.62
233.477	86.62
233.711	87.62
233.945	91.62
234.179	85.62
234.413	71.62
234.647	58.62
234.881	94.62
235.115	86.62
235.349	77.62
235.583	81.62
235.817	88.62
236.051	52.62
236.285	64.62
236.519	85.62
236.753	82.62
236.987	75.62
237.221	80.62
237.455	80.62
237.689	77.62
237.922	85.62
238.156	75.62
238.39	82.62
238.624	75.62
238.858	74.62
239.091	92.62
239.325	91.62
239.559	81.62
239.793	83.62
240.027	77.62
240.26	76.62
240.494	69.62
240.728	76.62
240.961	65.62
241.195	80.62
241.429	80.62
241.662	84.62
241.896	94.62
242.13	72.62
242.363	70.62
242.597	75.62
242.83	82.62
243.064	61.62
243.298	88.62
243.531	83.62
243.765	72.62
243.998	81.62
244.232	81.62
244.465	80.62
244.699	84.62
244.932	81.62
245.166	85.62
245.399	73.62
245.633	88.62
245.866	76.62
246.099	83.62
246.333	81.62
246.566	89.62
246.8	76.62
247.033	80.62
247.266	81.62
247.5	73.62
247.733	75.62
247.966	89.62
248.2	75.62
248.433	84.62
248.666	69.62
248.899	85.62
249.133	86.62
249.366	108.62
249.599	117.62
249.832	87.62
250.066	100.62
250.299	90.62
250.532	95.62
250.765	79.62
250.998	88.62
251.231	91.62
251.465	76.62
251.698	84.62
251.931	96.62
252.164	83.62
252.397	78.62
252.63	79.62
252.863	75.62
253.096	69.62
253.329	84.62
253.562	90.62
253.795	67.62
254.028	88.62
254.261	87.62
254.494	92.62
254.727	100.62
254.96	80.62
255.193	95.62
255.426	83.62
255.659	89.62
255.892	78.62
256.124	105.62
256.357	81.62
256.59	84.62
256.823	94.62
257.056	107.62
257.289	99.62
257.521	101.62
257.754	79.62
257.987	84.62
258.22	95.62
258.452	120.62
258.685	110.62
258.918	87.62
259.151	93.62
259.383	83.62
259.616	81.62
259.849	92.62
260.081	79.62
260.314	101.62
260.547	99.62
260.779	113.62
261.012	143.62
261.244	146.62
261.477	110.62
261.71	112.62
261.942	147.62
262.175	139.62
262.407	83.62
262.64	72.62
262.872	81.62
263.105	80.62
263.337	95.62
263.57	89.62
263.802	94.62
264.035	86.62
264.267	86.62
264.499	88.62
264.732	98.62
264.964	80.62
265.197	76.62
265.429	87.62
265.661	79.62
265.894	77.62
266.126	82.62
266.358	89.62
266.591	99.62
266.823	74.62
267.055	96.62
267.287	80.62
267.52	87.62
267.752	88.62
267.984	88.62
268.216	84.62
268.448	77.62
268.681	78.62
268.913	95.62
269.145	80.62
269.377	77.62
269.609	80.62
269.841	88.62
270.073	92.62
270.306	81.62
270.538	79.62
270.77	78.62
271.002	67.62
271.234	91.62
271.466	109.62
271.698	88.62
271.93	93.62
272.162	91.62
272.394	98.62
272.626	85.62
272.858	85.62
273.09	74.62
273.322	76.62
273.553	64.62
273.785	89.62
274.017	99.62
274.249	92.62
274.481	90.62
274.713	95.62
274.945	94.62
275.176	105.62
275.408	98.62
275.64	157.62
275.872	185.62
276.104	137.62
276.335	117.62
276.567	138.62
276.799	202.62
277.031	274.62
277.262	373.62
277.494	256.62
277.726	120.62
277.957	103.62
278.189	98.62
278.421	104.62
278.652	97.62
278.884	109.62
279.115	91.62
279.347	108.62
279.579	136.62
279.81	216.62
280.042	383.62
280.273	586.62
280.505	355.62
280.736	150.62
280.968	99.62
281.199	106.62
281.431	91.62
281.662	90.62
281.894	106.62
282.125	117.62
282.356	156.62
282.588	170.62
282.819	156.62
283.051	113.62
283.282	80.62
283.513	96.62
283.745	97.62
283.976	94.62
284.207	84.62
284.439	90.62
284.67	89.62
284.901	84.62
285.132	102.62
285.364	85.62
285.595	88.62
285.826	76.62
286.057	89.62
286.288	83.62
286.52	69.62
286.751	78.62
286.982	88.62
287.213	77.62
287.444	84.62
287.675	108.62
287.906	96.62
288.138	89.62
288.369	92.62
288.6	88.62
288.831	93.62
289.062	90.62
289.293	92.62
289.524	81.62
289.755	86.62
289.986	91.62
290.217	90.62
290.448	84.62
290.679	84.62
290.91	91.62
291.141	97.62
291.371	84.62
291.602	75.62
291.833	81.62
292.064	84.62
292.295	92.62
292.526	91.62
292.757	87.62
292.987	86.62
293.218	83.62
293.449	85.62
293.68	84.62
293.91	93.62
294.141	90.62
294.372	96.62
294.603	104.62
294.833	93.62
295.064	89.62
295.295	86.62
295.525	88.62
295.756	104.62
295.987	131.62
296.217	180.62
296.448	142.62
296.679	95.62
296.909	106.62
297.14	90.62
297.37	86.62
297.601	84.62
297.831	89.62
298.062	106.62
298.292	90.62
298.523	91.62
298.753	90.62
298.984	76.62
299.214	78.62
299.445	85.62
299.675	84.62
299.905	82.62
300.136	97.62
300.366	85.62
300.597	93.62
300.827	88.62
301.057	92.62
301.288	123.62
301.518	107.62
301.748	118.62
301.979	134.62
302.209	118.62
302.439	107.62
302.669	96.62
302.9	89.62
303.13	104.62
303.36	120.62
303.59	175.62
303.82	206.62
304.051	116.62
304.281	102.62
304.511	99.62
304.741	82.62
304.971	88.62
305.201	95.62
305.431	81.62
305.661	81.62
305.891	91.62
306.121	117.62
306.352	119.62
306.582	99.62
306.812	131.62
307.042	171.62
307.272	272.62
307.502	320.62
307.731	272.62
307.961	174.62
308.191	101.62
308.421	86.62
308.651	86.62
308.881	86.62
309.111	83.62
309.341	110.62
309.571	114.62
309.8	101.62
310.03	99.62
310.26	96.62
310.49	93.62
310.72	110.62
310.949	122.62
311.179	118.62
311.409	116.62
311.639	98.62
311.868	110.62
312.098	107.62
312.328	111.62
312.557	110.62
312.787	118.62
313.017	110.62
313.246	87.62
313.476	92.62
313.706	94.62
313.935	99.62
314.165	110.62
314.394	109.62
314.624	97.62
314.853	99.62
315.083	94.62
315.312	87.62
315.542	81.62
315.771	79.62
316.001	97.62
316.23	81.62
316.46	92.62
316.689	96.62
316.919	92.62
317.148	96.62
317.377	92.62
317.607	80.62
317.836	81.62
318.065	112.62
318.295	90.62
318.524	88.62
318.753	96.62
318.983	110.62
319.212	110.62
319.441	126.62
319.67	114.62
319.9	99.62
320.129	108.62
320.358	90.62
320.587	108.62
320.816	107.62
321.046	103.62
321.275	89.62
321.504	85.62
321.733	93.62
321.962	98.62
322.191	107.62
322.42	125.62
322.649	122.62
322.878	132.62
323.108	117.62
323.337	144.62
323.566	131.62
323.795	168.62
324.024	228.62
324.253	432.62
324.482	888.62
324.71	1777.62
324.939	2373.62
325.168	899.62
325.397	275.62
325.626	155.62
325.855	127.62
326.084	118.62
326.313	147.62
326.542	181.62
326.77	239.62
326.999	443.62
327.228	878.62
327.457	1626.62
327.686	1407.62
327.914	693.62
328.143	948.62
328.372	1358.62
328.6	698.62
328.829	256.62
329.058	220.62
329.287	221.62
329.515	243.62
329.744	417.62
329.972	922.62
330.201	2061.62
330.43	3030.62
330.658	1216.62
330.887	399.62
331.115	247.62
331.344	148.62
331.572	127.62
331.801	141.62
332.03	140.62
332.258	125.62
332.486	134.62
332.715	118.62
332.943	132.62
333.172	141.62
333.4	170.62
333.629	206.62
333.857	339.62
334.085	757.62
334.314	1779.62
334.542	3599.62
334.771	3466.62
334.999	815.62
335.227	272.62
335.455	171.62
335.684	133.62
335.912	126.62
336.14	113.62
336.369	120.62
336.597	117.62
336.825	124.62
337.053	114.62
337.281	98.62
337.51	101.62
337.738	85.62
337.966	105.62
338.194	124.62
338.422	106.62
338.65	83.62
338.878	94.62
339.106	96.62
339.334	93.62
339.562	103.62
339.79	100.62
340.018	82.62
340.246	98.62
340.474	96.62
340.702	102.62
340.93	94.62
341.158	88.62
341.386	94.62
341.614	98.62
341.842	102.62
342.07	89.62
342.298	104.62
342.526	90.62
342.754	84.62
342.981	88.62
343.209	88.62
343.437	94.62
343.665	90.62
343.893	87.62
344.12	99.62
344.348	90.62
344.576	93.62
344.804	102.62
345.031	103.62
345.259	105.62
345.487	92.62
345.714	84.62
345.942	94.62
346.17	106.62
346.397	109.62
346.625	99.62
346.853	95.62
347.08	88.62
347.308	97.62
347.535	92.62
347.763	110.62
347.99	94.62
348.218	94.62
348.445	121.62
348.673	99.62
348.9	103.62
349.128	106.62
349.355	84.62
349.583	81.62
349.81	82.62
350.037	83.62
350.265	98.62
350.492	88.62
350.72	100.62
350.947	93.62
351.174	121.62
351.402	123.62
351.629	101.62
351.856	107.62
352.083	116.62
352.311	117.62
352.538	122.62
352.765	112.62
352.992	128.62
353.22	116.62
353.447	100.62
353.674	100.62
353.901	99.62
354.128	77.62
354.355	97.62
354.583	102.62
354.81	107.62
355.037	93.62
355.264	89.62
355.491	88.62
355.718	92.62
355.945	105.62
356.172	85.62
356.399	83.62
356.626	98.62
356.853	85.62
357.08	110.62
357.307	92.62
357.534	93.62
357.761	89.62
357.988	103.62
358.215	98.62
358.441	107.62
358.668	107.62
358.895	93.62
359.122	96.62
359.349	101.62
359.576	87.62
359.802	108.62
360.029	130.62
360.256	113.62
360.483	115.62
360.709	89.62
360.936	91.62
361.163	113.62
361.39	96.62
361.616	92.62
361.843	87.62
362.07	98.62
362.296	89.62
362.523	96.62
362.749	106.62
362.976	93.62
363.203	90.62
363.429	86.62
363.656	91.62
363.882	76.62
364.109	85.62
364.335	82.62
364.562	86.62
364.788	99.62
365.015	112.62
365.241	117.62
365.468	115.62
365.694	121.62
365.92	102.62
366.147	97.62
366.373	101.62
366.599	77.62
366.826	85.62
367.052	101.62
367.278	96.62
367.505	96.62
367.731	96.62
367.957	95.62
368.184	88.62
368.41	104.62
368.636	117.62
368.862	114.62
369.089	108.62
369.315	106.62
369.541	90.62
369.767	100.62
369.993	97.62
370.219	94.62
370.445	88.62
370.672	86.62
370.898	93.62
371.124	84.62
371.35	97.62
371.576	80.62
371.802	85.62
372.028	93.62
372.254	93.62
372.48	89.62
372.706	98.62
372.932	94.62
373.158	67.62
373.384	98.62
373.61	98.62
373.835	87.62
374.061	90.62
374.287	82.62
374.513	91.62
374.739	78.62
374.965	108.62
375.191	90.62
375.416	85.62
375.642	76.62
375.868	89.62
376.094	103.62
376.319	77.62
376.545	92.62
376.771	98.62
376.997	92.62
377.222	90.62
377.448	101.62
377.674	91.62
377.899	93.62
378.125	103.62
378.35	97.62
378.576	91.62
378.802	101.62
379.027	93.62
379.253	85.62
379.478	92.62
379.704	93.62
379.929	111.62
380.155	84.62
380.38	90.62
380.606	93.62
380.831	105.62
381.057	103.62
381.282	110.62
381.507	102.62
381.733	98.62
381.958	105.62
382.184	114.62
382.409	100.62
382.634	95.62
382.86	99.62
383.085	89.62
383.31	101.62
383.535	126.62
383.761	114.62
383.986	116.62
384.211	114.62
384.436	107.62
384.662	113.62
384.887	132.62
385.112	115.62
385.337	115.62
385.562	125.62
385.787	114.62
386.013	125.62
386.238	155.62
386.463	121.62
386.688	112.62
386.913	121.62
387.138	124.62
387.363	124.62
387.588	95.62
387.813	117.62
388.038	115.62
388.263	144.62
388.488	116.62
388.713	94.62
388.938	100.62
389.163	99.62
389.387	75.62
389.612	85.62
389.837	77.62
390.062	86.62
390.287	88.62
390.512	81.62
390.736	76.62
390.961	91.62
391.186	88.62
391.411	85.62
391.636	82.62
391.86	80.62
392.085	94.62
392.31	96.62
392.534	93.62
392.759	98.62
392.984	141.62
393.208	88.62
393.433	98.62
393.658	98.62
393.882	93.62
394.107	88.62
394.331	86.62
394.556	86.62
394.78	84.62
395.005	68.62
395.229	71.62
395.454	81.62
395.678	90.62
395.903	91.62
396.127	78.62
396.352	87.62
396.576	88.62
396.801	99.62
397.025	84.62
397.249	91.62
397.474	81.62
397.698	80.62
397.922	83.62
398.147	89.62
398.371	93.62
398.595	89.62
398.82	75.62
399.044	84.62
399.268	85.62
399.492	102.62
399.717	85.62
399.941	87.62
400.165	90.62
400.389	95.62
400.613	88.62
400.837	94.62
401.062	88.62
401.286	92.62
401.51	98.62
401.734	100.62
401.958	102.62
402.182	147.62
402.406	188.62
402.63	150.62
402.854	102.62
403.078	90.62
403.302	84.62
403.526	99.62
403.75	95.62
403.974	95.62
404.198	77.62
404.422	89.62
404.645	89.62
404.869	102.62
405.093	123.62
405.317	161.62
405.541	138.62
405.765	133.62
405.988	161.62
406.212	233.62
406.436	319.62
406.66	215.62
406.883	113.62
407.107	98.62
407.331	92.62
407.555	102.62
407.778	114.62
408.002	88.62
408.226	94.62
408.449	76.62
408.673	95.62
408.896	92.62
409.12	98.62
409.344	100.62
409.567	101.62
409.791	86.62
410.014	93.62
410.238	94.62
410.461	90.62
410.685	94.62
410.908	97.62
411.132	107.62
411.355	107.62
411.578	99.62
411.802	100.62
412.025	106.62
412.249	100.62
412.472	132.62
412.695	163.62
412.919	114.62
413.142	105.62
413.365	85.62
413.589	82.62
413.812	105.62
414.035	102.62
414.258	107.62
414.482	81.62
414.705	98.62
414.928	96.62
415.151	82.62
415.374	98.62
415.597	93.62
415.821	93.62
416.044	89.62
416.267	101.62
416.49	78.62
416.713	96.62
416.936	90.62
417.159	99.62
417.382	111.62
417.605	134.62
417.828	127.62
418.051	117.62
418.274	107.62
418.497	91.62
418.72	85.62
418.943	68.62
419.166	76.62
419.389	91.62
419.611	97.62
419.834	87.62
420.057	98.62
420.28	103.62
420.503	69.62
420.726	96.62
420.948	99.62
421.171	108.62
421.394	106.62
421.617	80.62
421.839	91.62
422.062	84.62
422.285	89.62
422.507	105.62
422.73	113.62
422.953	112.62
423.175	87.62
423.398	94.62
423.621	91.62
423.843	84.62
424.066	93.62
424.288	84.62
424.511	94.62
424.733	95.62
424.956	107.62
425.178	106.62
425.401	111.62
425.623	101.62
425.846	87.62
426.068	99.62
426.291	101.62
426.513	89.62
426.735	89.62
426.958	101.62
427.18	120.62
427.402	172.62
427.625	271.62
427.847	250.62
428.069	233.62
428.292	160.62
428.514	102.62
428.736	99.62
428.958	88.62
429.181	72.62
429.403	93.62
429.625	91.62
429.847	109.62
430.069	102.62
430.292	109.62
430.514	92.62
430.736	90.62
430.958	86.62
431.18	85.62
431.402	85.62
431.624	96.62
431.846	85.62
432.068	85.62
432.29	73.62
432.512	89.62
432.734	80.62
432.956	78.62
433.178	99.62
433.4	102.62
433.622	102.62
433.844	90.62
434.066	93.62
434.287	90.62
434.509	94.62
434.731	97.62
434.953	74.62
435.175	76.62
435.397	98.62
435.618	90.62
435.84	119.62
436.062	129.62
436.284	123.62
436.505	93.62
436.727	91.62
436.949	89.62
437.17	82.62
437.392	91.62
437.614	91.62
437.835	122.62
438.057	147.62
438.278	130.62
438.5	122.62
438.721	122.62
438.943	101.62
439.165	88.62
439.386	88.62
439.608	82.62
439.829	98.62
440.05	142.62
440.272	170.62
440.493	116.62
440.715	81.62
440.936	83.62
441.158	82.62
441.379	95.62
441.6	101.62
441.822	109.62
442.043	96.62
442.264	101.62
442.486	106.62
442.707	91.62
442.928	117.62
443.149	175.62
443.371	158.62
443.592	142.62
443.813	117.62
444.034	115.62
444.255	99.62
444.476	92.62
444.698	98.62
444.919	105.62
445.14	143.62
445.361	131.62
445.582	122.62
445.803	176.62
446.024	163.62
446.245	137.62
446.466	133.62
446.687	89.62
446.908	82.62
447.129	83.62
447.35	83.62
447.571	111.62
447.792	98.62
448.013	96.62
448.234	129.62
448.455	125.62
448.675	114.62
448.896	122.62
449.117	105.62
449.338	96.62
449.559	133.62
449.779	137.62
450	101.62
450.221	68.62
450.442	87.62
450.662	109.62
450.883	121.62
451.104	150.62
451.324	100.62
451.545	86.62
451.766	90.62
451.986	78.62
452.207	97.62
452.428	104.62
452.648	105.62
452.869	108.62
453.089	128.62
453.31	141.62
453.53	96.62
453.751	100.62
453.971	128.62
454.192	130.62
454.412	104.62
454.633	76.62
454.853	89.62
455.073	87.62
455.294	89.62
455.514	101.62
455.734	119.62
455.955	83.62
456.175	80.62
456.395	72.62
456.616	102.62
456.836	86.62
457.056	91.62
457.276	97.62
457.497	65.62
457.717	101.62
457.937	92.62
458.157	88.62
458.377	91.62
458.598	120.62
458.818	221.62
459.038	216.62
459.258	143.62
459.478	98.62
459.698	77.62
459.918	70.62
460.138	91.62
460.358	87.62
460.578	83.62
460.798	96.62
461.018	101.62
461.238	90.62
461.458	96.62
461.678	89.62
461.898	80.62
462.118	92.62
462.338	83.62
462.558	96.62
462.777	109.62
462.997	130.62
463.217	151.62
463.437	119.62
463.657	90.62
463.876	99.62
464.096	81.62
464.316	110.62
464.536	103.62
464.755	96.62
464.975	117.62
465.195	252.62
465.414	241.62
465.634	107.62
465.854	102.62
466.073	109.62
466.293	102.62
466.512	92.62
466.732	93.62
466.951	97.62
467.171	98.62
467.391	136.62
467.61	188.62
467.829	383.62
468.049	1330.62
468.268	2104.62
468.488	446.62
468.707	156.62
468.927	106.62
469.146	98.62
469.365	105.62
469.585	100.62
469.804	106.62
470.023	117.62
470.243	101.62
470.462	117.62
470.681	149.62
470.901	106.62
471.12	107.62
471.339	120.62
471.558	145.62
471.777	236.62
471.997	551.62
472.216	2365.62
472.435	5686.62
472.654	1164.62
472.873	258.62
473.092	138.62
473.311	119.62
473.53	90.62
473.749	101.62
473.968	109.62
474.187	112.62
474.406	108.62
474.625	96.62
474.844	93.62
475.063	96.62
475.282	85.62
475.501	82.62
475.72	87.62
475.939	90.62
476.158	100.62
476.377	97.62
476.596	100.62
476.814	99.62
477.033	91.62
477.252	91.62
477.471	80.62
477.69	89.62
477.908	105.62
478.127	104.62
478.346	116.62
478.564	111.62
478.783	101.62
479.002	115.62
479.22	105.62
479.439	130.62
479.658	152.62
479.876	152.62
480.095	145.62
480.313	198.62
480.532	248.62
480.751	492.62
480.969	1974.62
481.188	9048.62
481.406	5044.62
481.624	633.62
481.843	202.62
482.061	138.62
482.28	110.62
482.498	100.62
482.717	95.62
482.935	98.62
483.153	99.62
483.372	100.62
483.59	96.62
483.808	94.62
484.027	96.62
484.245	92.62
484.463	108.62
484.681	103.62
484.9	101.62
485.118	101.62
485.336	98.62
485.554	89.62
485.772	108.62
485.99	102.62
486.209	118.62
486.427	127.62
486.645	120.62
486.863	127.62
487.081	106.62
487.299	111.62
487.517	111.62
487.735	104.62
487.953	103.62
488.171	90.62
488.389	92.62
488.607	105.62
488.825	91.62
489.043	95.62
489.261	91.62
489.479	93.62
489.696	93.62
489.914	86.62
490.132	87.62
490.35	91.62
490.568	88.62
490.786	91.62
491.003	83.62
491.221	91.62
491.439	115.62
491.657	89.62
491.874	85.62
492.092	89.62
492.31	94.62
492.527	106.62
492.745	106.62
492.963	82.62
493.18	98.62
493.398	88.62
493.615	82.62
493.833	77.62
494.05	86.62
494.268	90.62
494.485	104.62
494.703	97.62
494.92	89.62
495.138	90.62
495.355	79.62
495.573	85.62
495.79	90.62
496.008	103.62
496.225	85.62
496.442	101.62
496.66	112.62
496.877	95.62
497.094	91.62
497.312	93.62
497.529	88.62
497.746	85.62
497.963	88.62
498.181	99.62
498.398	99.62
498.615	105.62
498.832	111.62
499.049	97.62
499.267	85.62
499.484	88.62
499.701	90.62
499.918	98.62
500.135	102.62
500.352	93.62
500.569	108.62
500.786	92.62
501.003	94.62
501.22	82.62
501.437	103.62
501.654	97.62
501.871	128.62
502.088	91.62
502.305	92.62
502.522	92.62
502.739	95.62
502.956	95.62
503.172	100.62
503.389	105.62
503.606	131.62
503.823	108.62
504.04	99.62
504.256	87.62
504.473	84.62
504.69	78.62
504.907	90.62
505.123	91.62
505.34	91.62
505.557	106.62
505.773	91.62
505.99	91.62
506.207	100.62
506.423	86.62
506.64	94.62
506.856	87.62
507.073	86.62
507.289	93.62
507.506	96.62
507.722	118.62
507.939	128.62
508.155	109.62
508.372	110.62
508.588	107.62
508.805	100.62
509.021	107.62
509.238	99.62
509.454	97.62
509.67	98.62
509.887	118.62
510.103	141.62
510.319	243.62
510.536	1003.62
510.752	3653.62
510.968	945.62
511.184	186.62
511.401	121.62
511.617	122.62
511.833	124.62
512.049	104.62
512.265	91.62
512.481	92.62
