Data from Circ_1988_H10_HRD10591_00076.txt Node
Date: Wed Jan 03 12:05:50 EST 2024
User: Yrep
Spectrometer: HR+D1059
Trigger mode: 1
Integration Time (sec): 1.000000E-1
Scans to average: 1
Electric dark correction enabled: true
Nonlinearity correction enabled: false
Boxcar width: 0
XAxis mode: Wavelengths
Number of Pixels in Spectrum: 2048
>>>>>Begin Spectral Data<<<<<
223.165	-16.69
223.4	-16.69
223.635	-16.69
223.869	-14.69
224.104	-17.69
224.338	-7.69
224.573	-7.69
224.808	-17.69
225.042	-12.69
225.277	-11.69
225.511	0.31
225.746	8.31
225.98	1.31
226.215	13.31
226.449	12.31
226.683	26.31
226.918	20.31
227.152	24.31
227.387	44.31
227.621	28.31
227.856	54.31
228.09	45.31
228.324	45.31
228.559	47.31
228.793	49.31
229.027	67.31
229.262	48.31
229.496	82.31
229.73	90.31
229.964	84.31
230.199	79.31
230.433	76.31
230.667	68.31
230.901	66.31
231.136	80.31
231.37	71.31
231.604	85.31
231.838	74.31
232.072	69.31
232.306	74.31
232.541	62.31
232.775	74.31
233.009	78.31
233.243	76.31
233.477	93.31
233.711	79.31
233.945	74.31
234.179	66.31
234.413	83.31
234.647	90.31
234.881	69.31
235.115	69.31
235.349	78.31
235.583	62.31
235.817	67.31
236.051	73.31
236.285	74.31
236.519	77.31
236.753	78.31
236.987	78.31
237.221	85.31
237.455	73.31
237.689	70.31
237.922	65.31
238.156	61.31
238.39	80.31
238.624	71.31
238.858	64.31
239.091	70.31
239.325	91.31
239.559	72.31
239.793	100.31
240.027	77.31
240.26	82.31
240.494	82.31
240.728	88.31
240.961	94.31
241.195	79.31
241.429	101.31
241.662	86.31
241.896	75.31
242.13	78.31
242.363	75.31
242.597	77.31
242.83	83.31
243.064	93.31
243.298	94.31
243.531	78.31
243.765	75.31
243.998	77.31
244.232	64.31
244.465	84.31
244.699	87.31
244.932	74.31
245.166	92.31
245.399	89.31
245.633	84.31
245.866	82.31
246.099	79.31
246.333	72.31
246.566	104.31
246.8	91.31
247.033	87.31
247.266	79.31
247.5	95.31
247.733	81.31
247.966	92.31
248.2	86.31
248.433	79.31
248.666	74.31
248.899	88.31
249.133	79.31
249.366	110.31
249.599	121.31
249.832	96.31
250.066	88.31
250.299	84.31
250.532	83.31
250.765	74.31
250.998	80.31
251.231	72.31
251.465	78.31
251.698	96.31
251.931	89.31
252.164	70.31
252.397	68.31
252.63	95.31
252.863	76.31
253.096	79.31
253.329	75.31
253.562	55.31
253.795	83.31
254.028	79.31
254.261	83.31
254.494	89.31
254.727	98.31
254.96	85.31
255.193	80.31
255.426	92.31
255.659	86.31
255.892	92.31
256.124	94.31
256.357	103.31
256.59	92.31
256.823	97.31
257.056	100.31
257.289	96.31
257.521	67.31
257.754	71.31
257.987	90.31
258.22	93.31
258.452	109.31
258.685	105.31
258.918	88.31
259.151	78.31
259.383	88.31
259.616	83.31
259.849	80.31
260.081	115.31
260.314	88.31
260.547	90.31
260.779	108.31
261.012	126.31
261.244	114.31
261.477	116.31
261.71	103.31
261.942	131.31
262.175	130.31
262.407	103.31
262.64	89.31
262.872	84.31
263.105	84.31
263.337	82.31
263.57	91.31
263.802	94.31
264.035	80.31
264.267	69.31
264.499	96.31
264.732	78.31
264.964	86.31
265.197	83.31
265.429	81.31
265.661	78.31
265.894	98.31
266.126	87.31
266.358	78.31
266.591	69.31
266.823	87.31
267.055	93.31
267.287	100.31
267.52	91.31
267.752	73.31
267.984	83.31
268.216	99.31
268.448	86.31
268.681	98.31
268.913	86.31
269.145	85.31
269.377	85.31
269.609	88.31
269.841	80.31
270.073	79.31
270.306	64.31
270.538	88.31
270.77	72.31
271.002	94.31
271.234	89.31
271.466	91.31
271.698	88.31
271.93	86.31
272.162	71.31
272.394	88.31
272.626	92.31
272.858	80.31
273.09	82.31
273.322	90.31
273.553	82.31
273.785	95.31
274.017	94.31
274.249	94.31
274.481	81.31
274.713	85.31
274.945	107.31
275.176	100.31
275.408	111.31
275.64	136.31
275.872	160.31
276.104	115.31
276.335	108.31
276.567	130.31
276.799	146.31
277.031	234.31
277.262	299.31
277.494	186.31
277.726	108.31
277.957	89.31
278.189	98.31
278.421	98.31
278.652	92.31
278.884	98.31
279.115	78.31
279.347	95.31
279.579	109.31
279.81	168.31
280.042	300.31
280.273	429.31
280.505	282.31
280.736	133.31
280.968	103.31
281.199	101.31
281.431	90.31
281.662	95.31
281.894	98.31
282.125	99.31
282.356	126.31
282.588	161.31
282.819	132.31
283.051	89.31
283.282	83.31
283.513	100.31
283.745	97.31
283.976	83.31
284.207	86.31
284.439	91.31
284.67	90.31
284.901	91.31
285.132	74.31
285.364	87.31
285.595	104.31
285.826	82.31
286.057	90.31
286.288	80.31
286.52	87.31
286.751	80.31
286.982	90.31
287.213	83.31
287.444	92.31
287.675	84.31
287.906	91.31
288.138	103.31
288.369	93.31
288.6	91.31
288.831	82.31
289.062	96.31
289.293	86.31
289.524	98.31
289.755	82.31
289.986	75.31
290.217	94.31
290.448	87.31
290.679	97.31
290.91	92.31
291.141	91.31
291.371	91.31
291.602	97.31
291.833	84.31
292.064	77.31
292.295	94.31
292.526	96.31
292.757	79.31
292.987	87.31
293.218	93.31
293.449	76.31
293.68	95.31
293.91	96.31
294.141	88.31
294.372	91.31
294.603	81.31
294.833	94.31
295.064	108.31
295.295	90.31
295.525	89.31
295.756	108.31
295.987	130.31
296.217	159.31
296.448	143.31
296.679	109.31
296.909	87.31
297.14	90.31
297.37	86.31
297.601	78.31
297.831	99.31
298.062	93.31
298.292	100.31
298.523	96.31
298.753	95.31
298.984	84.31
299.214	93.31
299.445	87.31
299.675	98.31
299.905	95.31
300.136	103.31
300.366	88.31
300.597	92.31
300.827	98.31
301.057	89.31
301.288	115.31
301.518	103.31
301.748	105.31
301.979	128.31
302.209	110.31
302.439	108.31
302.669	90.31
302.9	92.31
303.13	98.31
303.36	116.31
303.59	159.31
303.82	174.31
304.051	100.31
304.281	93.31
304.511	91.31
304.741	81.31
304.971	99.31
305.201	95.31
305.431	106.31
305.661	103.31
305.891	93.31
306.121	90.31
306.352	115.31
306.582	115.31
306.812	104.31
307.042	152.31
307.272	219.31
307.502	256.31
307.731	227.31
307.961	159.31
308.191	97.31
308.421	103.31
308.651	92.31
308.881	101.31
309.111	97.31
309.341	102.31
309.571	88.31
309.8	110.31
310.03	121.31
310.26	97.31
310.49	99.31
310.72	120.31
310.949	109.31
311.179	106.31
311.409	101.31
311.639	94.31
311.868	95.31
312.098	99.31
312.328	87.31
312.557	96.31
312.787	112.31
313.017	109.31
313.246	91.31
313.476	101.31
313.706	90.31
313.935	102.31
314.165	102.31
314.394	102.31
314.624	91.31
314.853	119.31
315.083	101.31
315.312	82.31
315.542	97.31
315.771	86.31
316.001	92.31
316.23	82.31
316.46	104.31
316.689	88.31
316.919	103.31
317.148	100.31
317.377	109.31
317.607	92.31
317.836	101.31
318.065	111.31
318.295	86.31
318.524	95.31
318.753	107.31
318.983	110.31
319.212	110.31
319.441	115.31
319.67	103.31
319.9	78.31
320.129	80.31
320.358	108.31
320.587	89.31
320.816	106.31
321.046	110.31
321.275	99.31
321.504	95.31
321.733	109.31
321.962	90.31
322.191	96.31
322.42	103.31
322.649	120.31
322.878	125.31
323.108	128.31
323.337	131.31
323.566	140.31
323.795	169.31
324.024	203.31
324.253	372.31
324.482	775.31
324.71	1540.31
324.939	2058.31
325.168	823.31
325.397	262.31
325.626	163.31
325.855	130.31
326.084	134.31
326.313	136.31
326.542	160.31
326.77	223.31
326.999	411.31
327.228	792.31
327.457	1430.31
327.686	1224.31
327.914	552.31
328.143	762.31
328.372	1101.31
328.6	558.31
328.829	232.31
329.058	188.31
329.287	204.31
329.515	221.31
329.744	351.31
329.972	741.31
330.201	1645.31
330.43	2493.31
330.658	1012.31
330.887	349.31
331.115	208.31
331.344	142.31
331.572	133.31
331.801	134.31
332.03	122.31
332.258	115.31
332.486	122.31
332.715	126.31
332.943	132.31
333.172	125.31
333.4	150.31
333.629	190.31
333.857	299.31
334.085	599.31
334.314	1389.31
334.542	2902.31
334.771	2782.31
334.999	674.31
335.227	246.31
335.455	154.31
335.684	123.31
335.912	114.31
336.14	116.31
336.369	106.31
336.597	110.31
336.825	102.31
337.053	109.31
337.281	91.31
337.51	109.31
337.738	93.31
337.966	92.31
338.194	106.31
338.422	99.31
338.65	104.31
338.878	79.31
339.106	112.31
339.334	83.31
339.562	94.31
339.79	109.31
340.018	94.31
340.246	99.31
340.474	112.31
340.702	92.31
340.93	85.31
341.158	98.31
341.386	94.31
341.614	107.31
341.842	100.31
342.07	101.31
342.298	108.31
342.526	101.31
342.754	93.31
342.981	84.31
343.209	92.31
343.437	79.31
343.665	94.31
343.893	87.31
344.12	100.31
344.348	96.31
344.576	99.31
344.804	95.31
345.031	95.31
345.259	107.31
345.487	94.31
345.714	88.31
345.942	94.31
346.17	90.31
346.397	95.31
346.625	95.31
346.853	101.31
347.08	83.31
347.308	102.31
347.535	122.31
347.763	91.31
347.99	115.31
348.218	110.31
348.445	116.31
348.673	111.31
348.9	104.31
349.128	102.31
349.355	107.31
349.583	94.31
349.81	85.31
350.037	102.31
350.265	88.31
350.492	98.31
350.72	94.31
350.947	98.31
351.174	94.31
351.402	101.31
351.629	95.31
351.856	104.31
352.083	109.31
352.311	115.31
352.538	111.31
352.765	94.31
352.992	102.31
353.22	109.31
353.447	115.31
353.674	110.31
353.901	103.31
354.128	86.31
354.355	95.31
354.583	91.31
354.81	107.31
355.037	103.31
355.264	97.31
355.491	90.31
355.718	92.31
355.945	99.31
356.172	111.31
356.399	86.31
356.626	87.31
356.853	79.31
357.08	87.31
357.307	78.31
357.534	93.31
357.761	86.31
357.988	101.31
358.215	99.31
358.441	88.31
358.668	96.31
358.895	94.31
359.122	100.31
359.349	77.31
359.576	80.31
359.802	104.31
360.029	138.31
360.256	146.31
360.483	93.31
360.709	94.31
360.936	102.31
361.163	107.31
361.39	90.31
361.616	107.31
361.843	96.31
362.07	110.31
362.296	96.31
362.523	87.31
362.749	97.31
362.976	97.31
363.203	100.31
363.429	100.31
363.656	66.31
363.882	86.31
364.109	96.31
364.335	83.31
364.562	67.31
364.788	92.31
365.015	105.31
365.241	101.31
365.468	97.31
365.694	115.31
365.92	101.31
366.147	94.31
366.373	85.31
366.599	91.31
366.826	104.31
367.052	97.31
367.278	87.31
367.505	98.31
367.731	95.31
367.957	92.31
368.184	88.31
368.41	102.31
368.636	122.31
368.862	125.31
369.089	114.31
369.315	95.31
369.541	99.31
369.767	97.31
369.993	84.31
370.219	95.31
370.445	76.31
370.672	70.31
370.898	92.31
371.124	91.31
371.35	79.31
371.576	87.31
371.802	83.31
372.028	97.31
372.254	86.31
372.48	90.31
372.706	76.31
372.932	100.31
373.158	97.31
373.384	83.31
373.61	78.31
373.835	85.31
374.061	98.31
374.287	101.31
374.513	97.31
374.739	97.31
374.965	111.31
375.191	94.31
375.416	92.31
375.642	97.31
375.868	106.31
376.094	91.31
376.319	92.31
376.545	92.31
376.771	90.31
376.997	93.31
377.222	72.31
377.448	88.31
377.674	83.31
377.899	84.31
378.125	93.31
378.35	102.31
378.576	86.31
378.802	84.31
379.027	90.31
379.253	94.31
379.478	71.31
379.704	84.31
379.929	85.31
380.155	90.31
380.38	84.31
380.606	101.31
380.831	91.31
381.057	106.31
381.282	101.31
381.507	97.31
381.733	82.31
381.958	104.31
382.184	98.31
382.409	99.31
382.634	99.31
382.86	86.31
383.085	104.31
383.31	92.31
383.535	112.31
383.761	91.31
383.986	96.31
384.211	94.31
384.436	97.31
384.662	120.31
384.887	95.31
385.112	102.31
385.337	114.31
385.562	88.31
385.787	102.31
386.013	109.31
386.238	117.31
386.463	111.31
386.688	109.31
386.913	114.31
387.138	107.31
387.363	107.31
387.588	99.31
387.813	99.31
388.038	112.31
388.263	112.31
388.488	102.31
388.713	92.31
388.938	91.31
389.163	100.31
389.387	81.31
389.612	92.31
389.837	96.31
390.062	89.31
390.287	89.31
390.512	80.31
390.736	89.31
390.961	70.31
391.186	87.31
391.411	96.31
391.636	79.31
391.86	77.31
392.085	77.31
392.31	86.31
392.534	93.31
392.759	93.31
392.984	88.31
393.208	94.31
393.433	71.31
393.658	87.31
393.882	88.31
394.107	100.31
394.331	96.31
394.556	85.31
394.78	86.31
395.005	78.31
395.229	84.31
395.454	88.31
395.678	91.31
395.903	80.31
396.127	81.31
396.352	90.31
396.576	78.31
396.801	91.31
397.025	85.31
397.249	86.31
397.474	86.31
397.698	89.31
397.922	84.31
398.147	95.31
398.371	101.31
398.595	93.31
398.82	79.31
399.044	90.31
399.268	70.31
399.492	86.31
399.717	97.31
399.941	88.31
400.165	101.31
400.389	90.31
400.613	94.31
400.837	84.31
401.062	88.31
401.286	90.31
401.51	70.31
401.734	102.31
401.958	96.31
402.182	139.31
402.406	189.31
402.63	145.31
402.854	91.31
403.078	94.31
403.302	101.31
403.526	83.31
403.75	94.31
403.974	95.31
404.198	80.31
404.422	92.31
404.645	83.31
404.869	101.31
405.093	118.31
405.317	130.31
405.541	140.31
405.765	121.31
405.988	125.31
406.212	194.31
406.436	292.31
406.66	178.31
406.883	115.31
407.107	103.31
407.331	96.31
407.555	107.31
407.778	112.31
408.002	94.31
408.226	97.31
408.449	109.31
408.673	96.31
408.896	93.31
409.12	94.31
409.344	101.31
409.567	94.31
409.791	108.31
410.014	95.31
410.238	82.31
410.461	86.31
410.685	90.31
410.908	95.31
411.132	98.31
411.355	101.31
411.578	94.31
411.802	91.31
412.025	90.31
412.249	103.31
412.472	135.31
412.695	136.31
412.919	117.31
413.142	96.31
413.365	87.31
413.589	84.31
413.812	94.31
414.035	92.31
414.258	90.31
414.482	104.31
414.705	95.31
414.928	93.31
415.151	94.31
415.374	94.31
415.597	103.31
415.821	91.31
416.044	78.31
416.267	100.31
416.49	93.31
416.713	83.31
416.936	76.31
417.159	90.31
417.382	85.31
417.605	120.31
417.828	126.31
418.051	112.31
418.274	88.31
418.497	100.31
418.72	85.31
418.943	85.31
419.166	81.31
419.389	91.31
419.611	87.31
419.834	86.31
420.057	90.31
420.28	90.31
420.503	84.31
420.726	107.31
420.948	80.31
421.171	118.31
421.394	103.31
421.617	91.31
421.839	76.31
422.062	97.31
422.285	99.31
422.507	101.31
422.73	111.31
422.953	78.31
423.175	88.31
423.398	77.31
423.621	96.31
423.843	97.31
424.066	90.31
424.288	99.31
424.511	83.31
424.733	99.31
424.956	115.31
425.178	93.31
425.401	107.31
425.623	96.31
425.846	87.31
426.068	101.31
426.291	99.31
426.513	91.31
426.735	94.31
426.958	105.31
427.18	111.31
427.402	176.31
427.625	223.31
427.847	212.31
428.069	187.31
428.292	132.31
428.514	100.31
428.736	100.31
428.958	81.31
429.181	92.31
429.403	92.31
429.625	103.31
429.847	88.31
430.069	121.31
430.292	104.31
430.514	105.31
430.736	87.31
430.958	77.31
431.18	81.31
431.402	85.31
431.624	81.31
431.846	85.31
432.068	81.31
432.29	87.31
432.512	96.31
432.734	95.31
432.956	84.31
433.178	90.31
433.4	91.31
433.622	99.31
433.844	93.31
434.066	97.31
434.287	94.31
434.509	87.31
434.731	91.31
434.953	81.31
435.175	91.31
435.397	94.31
435.618	93.31
435.84	111.31
436.062	139.31
436.284	118.31
436.505	100.31
436.727	100.31
436.949	97.31
437.17	88.31
437.392	104.31
437.614	99.31
437.835	115.31
438.057	157.31
438.278	129.31
438.5	102.31
438.721	123.31
438.943	110.31
439.165	78.31
439.386	86.31
439.608	101.31
439.829	93.31
440.05	139.31
440.272	145.31
440.493	116.31
440.715	100.31
440.936	101.31
441.158	83.31
441.379	88.31
441.6	99.31
441.822	102.31
442.043	95.31
442.264	116.31
442.486	101.31
442.707	94.31
442.928	135.31
443.149	167.31
443.371	152.31
443.592	133.31
443.813	128.31
444.034	112.31
444.255	97.31
444.476	84.31
444.698	75.31
444.919	85.31
445.14	140.31
445.361	118.31
445.582	127.31
445.803	158.31
446.024	168.31
446.245	151.31
446.466	122.31
446.687	98.31
446.908	99.31
447.129	93.31
447.35	90.31
447.571	94.31
447.792	91.31
448.013	103.31
448.234	102.31
448.455	113.31
448.675	115.31
448.896	130.31
449.117	97.31
449.338	102.31
449.559	150.31
449.779	151.31
450	91.31
450.221	99.31
450.442	90.31
450.662	86.31
450.883	119.31
451.104	120.31
451.324	113.31
451.545	105.31
451.766	93.31
451.986	84.31
452.207	109.31
452.428	90.31
452.648	112.31
452.869	133.31
453.089	118.31
453.31	131.31
453.53	97.31
453.751	95.31
453.971	117.31
454.192	128.31
454.412	94.31
454.633	91.31
454.853	96.31
455.073	83.31
455.294	82.31
455.514	120.31
455.734	89.31
455.955	86.31
456.175	95.31
456.395	96.31
456.616	81.31
456.836	92.31
457.056	88.31
457.276	95.31
457.497	93.31
457.717	79.31
457.937	78.31
458.157	87.31
458.377	106.31
458.598	119.31
458.818	209.31
459.038	222.31
459.258	134.31
459.478	97.31
459.698	75.31
459.918	81.31
460.138	85.31
460.358	80.31
460.578	86.31
460.798	103.31
461.018	103.31
461.238	87.31
461.458	72.31
461.678	93.31
461.898	90.31
462.118	92.31
462.338	89.31
462.558	90.31
462.777	93.31
462.997	109.31
463.217	122.31
463.437	98.31
463.657	87.31
463.876	83.31
464.096	80.31
464.316	86.31
464.536	114.31
464.755	112.31
464.975	109.31
465.195	223.31
465.414	227.31
465.634	103.31
465.854	90.31
466.073	89.31
466.293	98.31
466.512	97.31
466.732	99.31
466.951	88.31
467.171	103.31
467.391	135.31
467.61	175.31
467.829	298.31
468.049	1070.31
468.268	1633.31
468.488	342.31
468.707	125.31
468.927	108.31
469.146	94.31
469.365	104.31
469.585	99.31
469.804	108.31
470.023	105.31
470.243	112.31
470.462	120.31
470.681	154.31
470.901	125.31
471.12	114.31
471.339	118.31
471.558	140.31
471.777	206.31
471.997	450.31
472.216	1912.31
472.435	4666.31
472.654	987.31
472.873	222.31
473.092	143.31
473.311	103.31
473.53	99.31
473.749	99.31
473.968	114.31
474.187	90.31
474.406	102.31
474.625	81.31
474.844	106.31
475.063	97.31
475.282	82.31
475.501	77.31
475.72	85.31
475.939	94.31
476.158	84.31
476.377	93.31
476.596	78.31
476.814	100.31
477.033	95.31
477.252	87.31
477.471	86.31
477.69	95.31
477.908	102.31
478.127	90.31
478.346	104.31
478.564	99.31
478.783	124.31
479.002	112.31
479.22	109.31
479.439	131.31
479.658	150.31
479.876	133.31
480.095	143.31
480.313	167.31
480.532	226.31
480.751	430.31
480.969	1644.31
481.188	7512.31
481.406	4138.31
481.624	542.31
481.843	184.31
482.061	134.31
482.28	115.31
482.498	108.31
482.717	103.31
482.935	113.31
483.153	96.31
483.372	88.31
483.59	100.31
483.808	96.31
484.027	104.31
484.245	112.31
484.463	99.31
484.681	117.31
484.9	88.31
485.118	104.31
485.336	99.31
485.554	120.31
485.772	111.31
485.99	94.31
486.209	121.31
486.427	125.31
486.645	129.31
486.863	130.31
487.081	115.31
487.299	103.31
487.517	110.31
487.735	84.31
487.953	98.31
488.171	104.31
488.389	95.31
488.607	95.31
488.825	90.31
489.043	75.31
489.261	83.31
489.479	97.31
489.696	91.31
489.914	95.31
490.132	92.31
490.35	109.31
490.568	79.31
490.786	91.31
491.003	76.31
491.221	97.31
491.439	116.31
491.657	91.31
491.874	93.31
492.092	88.31
492.31	94.31
492.527	88.31
492.745	118.31
492.963	93.31
493.18	85.31
493.398	108.31
493.615	96.31
493.833	95.31
494.05	96.31
494.268	97.31
494.485	86.31
494.703	90.31
494.92	76.31
495.138	92.31
495.355	96.31
495.573	100.31
495.79	90.31
496.008	111.31
496.225	91.31
496.442	85.31
496.66	91.31
496.877	83.31
497.094	108.31
497.312	79.31
497.529	82.31
497.746	91.31
497.963	90.31
498.181	95.31
498.398	86.31
498.615	96.31
498.832	102.31
499.049	96.31
499.267	84.31
499.484	92.31
499.701	78.31
499.918	90.31
500.135	97.31
500.352	90.31
500.569	104.31
500.786	104.31
501.003	108.31
501.22	89.31
501.437	82.31
501.654	94.31
501.871	132.31
502.088	98.31
502.305	96.31
502.522	95.31
502.739	82.31
502.956	87.31
503.172	98.31
503.389	104.31
503.606	127.31
503.823	115.31
504.04	100.31
504.256	102.31
504.473	95.31
504.69	82.31
504.907	96.31
505.123	87.31
505.34	88.31
505.557	86.31
505.773	107.31
505.99	99.31
506.207	98.31
506.423	79.31
506.64	81.31
506.856	86.31
507.073	90.31
507.289	96.31
507.506	87.31
507.722	120.31
507.939	134.31
508.155	97.31
508.372	100.31
508.588	100.31
508.805	80.31
509.021	91.31
509.238	116.31
509.454	111.31
509.67	103.31
509.887	127.31
510.103	127.31
510.319	230.31
510.536	892.31
510.752	3188.31
510.968	847.31
511.184	174.31
511.401	118.31
511.617	103.31
511.833	123.31
512.049	96.31
512.265	100.31
512.481	99.31
512.698	99.31
512.914	102.31
