Data from Circ_1988_H10_HRD10591_00095.txt Node
Date: Wed Jan 03 12:05:53 EST 2024
User: Yrep
Spectrometer: HR+D1059
Trigger mode: 1
Integration Time (sec): 1.000000E-1
Scans to average: 1
Electric dark correction enabled: true
Nonlinearity correction enabled: false
Boxcar width: 0
XAxis mode: Wavelengths
Number of Pixels in Spectrum: 2048
>>>>>Begin Spectral Data<<<<<
223.165	-22.19
223.4	-22.19
223.635	-22.19
223.869	-19.19
224.104	-12.19
224.338	-10.19
224.573	-6.19
224.808	-16.19
225.042	-19.19
225.277	-10.19
225.511	-10.19
225.746	7.81
225.98	5.81
226.215	23.81
226.449	3.81
226.683	25.81
226.918	35.81
227.152	22.81
227.387	23.81
227.621	34.81
227.856	31.81
228.09	47.81
228.324	55.81
228.559	53.81
228.793	50.81
229.027	79.81
229.262	61.81
229.496	88.81
229.73	100.81
229.964	105.81
230.199	70.81
230.433	75.81
230.667	67.81
230.901	89.81
231.136	93.81
231.37	79.81
231.604	81.81
231.838	84.81
232.072	85.81
232.306	78.81
232.541	70.81
232.775	79.81
233.009	87.81
233.243	79.81
233.477	86.81
233.711	91.81
233.945	79.81
234.179	74.81
234.413	93.81
234.647	79.81
234.881	77.81
235.115	67.81
235.349	79.81
235.583	83.81
235.817	91.81
236.051	89.81
236.285	79.81
236.519	92.81
236.753	83.81
236.987	80.81
237.221	99.81
237.455	93.81
237.689	79.81
237.922	83.81
238.156	60.81
238.39	83.81
238.624	75.81
238.858	84.81
239.091	80.81
239.325	72.81
239.559	95.81
239.793	88.81
240.027	80.81
240.26	77.81
240.494	82.81
240.728	71.81
240.961	85.81
241.195	79.81
241.429	69.81
241.662	71.81
241.896	77.81
242.13	78.81
242.363	81.81
242.597	93.81
242.83	86.81
243.064	91.81
243.298	76.81
243.531	84.81
243.765	79.81
243.998	95.81
244.232	63.81
244.465	82.81
244.699	83.81
244.932	80.81
245.166	85.81
245.399	79.81
245.633	77.81
245.866	90.81
246.099	75.81
246.333	91.81
246.566	87.81
246.8	85.81
247.033	68.81
247.266	89.81
247.5	88.81
247.733	76.81
247.966	66.81
248.2	83.81
248.433	77.81
248.666	94.81
248.899	98.81
249.133	67.81
249.366	101.81
249.599	92.81
249.832	83.81
250.066	96.81
250.299	94.81
250.532	96.81
250.765	91.81
250.998	77.81
251.231	92.81
251.465	83.81
251.698	93.81
251.931	102.81
252.164	77.81
252.397	82.81
252.63	69.81
252.863	80.81
253.096	87.81
253.329	76.81
253.562	85.81
253.795	92.81
254.028	86.81
254.261	76.81
254.494	84.81
254.727	85.81
254.96	77.81
255.193	94.81
255.426	83.81
255.659	93.81
255.892	111.81
256.124	116.81
256.357	104.81
256.59	90.81
256.823	90.81
257.056	83.81
257.289	97.81
257.521	85.81
257.754	96.81
257.987	101.81
258.22	100.81
258.452	123.81
258.685	102.81
258.918	99.81
259.151	80.81
259.383	87.81
259.616	72.81
259.849	93.81
260.081	84.81
260.314	103.81
260.547	95.81
260.779	100.81
261.012	153.81
261.244	146.81
261.477	134.81
261.71	102.81
261.942	128.81
262.175	163.81
262.407	99.81
262.64	77.81
262.872	97.81
263.105	73.81
263.337	86.81
263.57	85.81
263.802	86.81
264.035	80.81
264.267	72.81
264.499	87.81
264.732	76.81
264.964	88.81
265.197	83.81
265.429	87.81
265.661	91.81
265.894	91.81
266.126	82.81
266.358	78.81
266.591	79.81
266.823	89.81
267.055	79.81
267.287	75.81
267.52	68.81
267.752	73.81
267.984	88.81
268.216	96.81
268.448	87.81
268.681	100.81
268.913	96.81
269.145	87.81
269.377	80.81
269.609	90.81
269.841	75.81
270.073	82.81
270.306	88.81
270.538	93.81
270.77	89.81
271.002	85.81
271.234	95.81
271.466	104.81
271.698	95.81
271.93	78.81
272.162	87.81
272.394	94.81
272.626	83.81
272.858	94.81
273.09	85.81
273.322	82.81
273.553	94.81
273.785	88.81
274.017	96.81
274.249	80.81
274.481	86.81
274.713	85.81
274.945	112.81
275.176	93.81
275.408	121.81
275.64	157.81
275.872	189.81
276.104	150.81
276.335	109.81
276.567	135.81
276.799	173.81
277.031	257.81
277.262	335.81
277.494	216.81
277.726	133.81
277.957	107.81
278.189	98.81
278.421	95.81
278.652	100.81
278.884	95.81
279.115	99.81
279.347	105.81
279.579	131.81
279.81	185.81
280.042	348.81
280.273	509.81
280.505	322.81
280.736	153.81
280.968	119.81
281.199	96.81
281.431	85.81
281.662	89.81
281.894	96.81
282.125	117.81
282.356	140.81
282.588	183.81
282.819	137.81
283.051	96.81
283.282	101.81
283.513	87.81
283.745	78.81
283.976	96.81
284.207	94.81
284.439	88.81
284.67	94.81
284.901	89.81
285.132	89.81
285.364	100.81
285.595	99.81
285.826	77.81
286.057	89.81
286.288	80.81
286.52	100.81
286.751	97.81
286.982	83.81
287.213	84.81
287.444	91.81
287.675	87.81
287.906	83.81
288.138	86.81
288.369	110.81
288.6	94.81
288.831	92.81
289.062	86.81
289.293	81.81
289.524	85.81
289.755	88.81
289.986	73.81
290.217	91.81
290.448	93.81
290.679	96.81
290.91	102.81
291.141	94.81
291.371	97.81
291.602	90.81
291.833	87.81
292.064	87.81
292.295	69.81
292.526	94.81
292.757	95.81
292.987	83.81
293.218	73.81
293.449	92.81
293.68	94.81
293.91	88.81
294.141	92.81
294.372	87.81
294.603	83.81
294.833	82.81
295.064	79.81
295.295	97.81
295.525	102.81
295.756	107.81
295.987	134.81
296.217	153.81
296.448	175.81
296.679	111.81
296.909	89.81
297.14	85.81
297.37	106.81
297.601	83.81
297.831	98.81
298.062	91.81
298.292	88.81
298.523	103.81
298.753	87.81
298.984	86.81
299.214	102.81
299.445	80.81
299.675	93.81
299.905	93.81
300.136	100.81
300.366	112.81
300.597	96.81
300.827	104.81
301.057	109.81
301.288	100.81
301.518	101.81
301.748	100.81
301.979	118.81
302.209	103.81
302.439	97.81
302.669	101.81
302.9	91.81
303.13	116.81
303.36	137.81
303.59	163.81
303.82	189.81
304.051	111.81
304.281	104.81
304.511	87.81
304.741	80.81
304.971	95.81
305.201	95.81
305.431	83.81
305.661	95.81
305.891	100.81
306.121	90.81
306.352	125.81
306.582	123.81
306.812	126.81
307.042	176.81
307.272	253.81
307.502	285.81
307.731	260.81
307.961	158.81
308.191	96.81
308.421	109.81
308.651	92.81
308.881	93.81
309.111	108.81
309.341	96.81
309.571	116.81
309.8	112.81
310.03	102.81
310.26	108.81
310.49	84.81
310.72	101.81
310.949	113.81
311.179	114.81
311.409	100.81
311.639	110.81
311.868	103.81
312.098	99.81
312.328	95.81
312.557	116.81
312.787	132.81
313.017	111.81
313.246	113.81
313.476	87.81
313.706	113.81
313.935	109.81
314.165	106.81
314.394	106.81
314.624	99.81
314.853	101.81
315.083	102.81
315.312	110.81
315.542	100.81
315.771	104.81
316.001	91.81
316.23	85.81
316.46	99.81
316.689	89.81
316.919	98.81
317.148	100.81
317.377	99.81
317.607	100.81
317.836	99.81
318.065	103.81
318.295	103.81
318.524	99.81
318.753	94.81
318.983	94.81
319.212	99.81
319.441	113.81
319.67	132.81
319.9	93.81
320.129	93.81
320.358	123.81
320.587	98.81
320.816	110.81
321.046	122.81
321.275	112.81
321.504	99.81
321.733	101.81
321.962	108.81
322.191	100.81
322.42	110.81
322.649	105.81
322.878	125.81
323.108	125.81
323.337	129.81
323.566	152.81
323.795	162.81
324.024	212.81
324.253	403.81
324.482	803.81
324.71	1655.81
324.939	2231.81
325.168	866.81
325.397	266.81
325.626	163.81
325.855	132.81
326.084	132.81
326.313	135.81
326.542	160.81
326.77	223.81
326.999	422.81
327.228	805.81
327.457	1502.81
327.686	1279.81
327.914	630.81
328.143	879.81
328.372	1299.81
328.6	653.81
328.829	252.81
329.058	223.81
329.287	222.81
329.515	238.81
329.744	381.81
329.972	823.81
330.201	1846.81
330.43	2925.81
330.658	1166.81
330.887	390.81
331.115	237.81
331.344	146.81
331.572	143.81
331.801	147.81
332.03	139.81
332.258	124.81
332.486	114.81
332.715	123.81
332.943	114.81
333.172	144.81
333.4	158.81
333.629	200.81
333.857	337.81
334.085	707.81
334.314	1600.81
334.542	3377.81
334.771	3287.81
334.999	771.81
335.227	253.81
335.455	153.81
335.684	144.81
335.912	132.81
336.14	117.81
336.369	107.81
336.597	130.81
336.825	116.81
337.053	103.81
337.281	104.81
337.51	104.81
337.738	93.81
337.966	101.81
338.194	104.81
338.422	112.81
338.65	90.81
338.878	102.81
339.106	94.81
339.334	101.81
339.562	102.81
339.79	89.81
340.018	108.81
340.246	98.81
340.474	104.81
340.702	95.81
340.93	103.81
341.158	94.81
341.386	102.81
341.614	88.81
341.842	105.81
342.07	100.81
342.298	103.81
342.526	93.81
342.754	104.81
342.981	97.81
343.209	94.81
343.437	102.81
343.665	94.81
343.893	113.81
344.12	99.81
344.348	89.81
344.576	110.81
344.804	97.81
345.031	75.81
345.259	104.81
345.487	104.81
345.714	89.81
345.942	91.81
346.17	100.81
346.397	90.81
346.625	99.81
346.853	102.81
347.08	82.81
347.308	101.81
347.535	112.81
347.763	97.81
347.99	100.81
348.218	95.81
348.445	112.81
348.673	130.81
348.9	111.81
349.128	93.81
349.355	88.81
349.583	92.81
349.81	91.81
350.037	102.81
350.265	88.81
350.492	87.81
350.72	87.81
350.947	94.81
351.174	111.81
351.402	102.81
351.629	120.81
351.856	121.81
352.083	100.81
352.311	121.81
352.538	120.81
352.765	116.81
352.992	117.81
353.22	125.81
353.447	111.81
353.674	101.81
353.901	85.81
354.128	101.81
354.355	94.81
354.583	98.81
354.81	97.81
355.037	91.81
355.264	100.81
355.491	98.81
355.718	101.81
355.945	87.81
356.172	103.81
356.399	101.81
356.626	87.81
356.853	84.81
357.08	94.81
357.307	99.81
357.534	96.81
357.761	91.81
357.988	95.81
358.215	92.81
358.441	116.81
358.668	85.81
358.895	91.81
359.122	92.81
359.349	80.81
359.576	87.81
359.802	108.81
360.029	149.81
360.256	139.81
360.483	108.81
360.709	102.81
360.936	106.81
361.163	108.81
361.39	99.81
361.616	103.81
361.843	106.81
362.07	98.81
362.296	108.81
362.523	100.81
362.749	109.81
362.976	100.81
363.203	99.81
363.429	89.81
363.656	81.81
363.882	83.81
364.109	82.81
364.335	96.81
364.562	96.81
364.788	81.81
365.015	104.81
365.241	118.81
365.468	116.81
365.694	117.81
365.92	112.81
366.147	106.81
366.373	80.81
366.599	92.81
366.826	95.81
367.052	94.81
367.278	92.81
367.505	90.81
367.731	96.81
367.957	99.81
368.184	98.81
368.41	111.81
368.636	132.81
368.862	132.81
369.089	111.81
369.315	108.81
369.541	93.81
369.767	108.81
369.993	99.81
370.219	89.81
370.445	99.81
370.672	97.81
370.898	91.81
371.124	83.81
371.35	93.81
371.576	86.81
371.802	89.81
372.028	73.81
372.254	87.81
372.48	90.81
372.706	70.81
372.932	94.81
373.158	85.81
373.384	91.81
373.61	99.81
373.835	95.81
374.061	101.81
374.287	91.81
374.513	92.81
374.739	98.81
374.965	99.81
375.191	87.81
375.416	89.81
375.642	85.81
375.868	62.81
376.094	94.81
376.319	89.81
376.545	88.81
376.771	96.81
376.997	100.81
377.222	90.81
377.448	93.81
377.674	101.81
377.899	94.81
378.125	83.81
378.35	98.81
378.576	99.81
378.802	94.81
379.027	101.81
379.253	111.81
379.478	100.81
379.704	89.81
379.929	90.81
380.155	102.81
380.38	99.81
380.606	97.81
380.831	96.81
381.057	103.81
381.282	83.81
381.507	100.81
381.733	103.81
381.958	98.81
382.184	100.81
382.409	106.81
382.634	108.81
382.86	108.81
383.085	103.81
383.31	105.81
383.535	79.81
383.761	98.81
383.986	109.81
384.211	90.81
384.436	107.81
384.662	102.81
384.887	87.81
385.112	115.81
385.337	109.81
385.562	105.81
385.787	118.81
386.013	118.81
386.238	129.81
386.463	115.81
386.688	113.81
386.913	100.81
387.138	108.81
387.363	97.81
387.588	108.81
387.813	120.81
388.038	93.81
388.263	110.81
388.488	103.81
388.713	102.81
388.938	98.81
389.163	103.81
389.387	93.81
389.612	93.81
389.837	97.81
390.062	82.81
390.287	92.81
390.512	92.81
390.736	88.81
390.961	96.81
391.186	80.81
391.411	93.81
391.636	83.81
391.86	88.81
392.085	94.81
392.31	81.81
392.534	81.81
392.759	78.81
392.984	97.81
393.208	95.81
393.433	90.81
393.658	74.81
393.882	89.81
394.107	97.81
394.331	85.81
394.556	91.81
394.78	87.81
395.005	88.81
395.229	83.81
395.454	87.81
395.678	89.81
395.903	98.81
396.127	116.81
396.352	96.81
396.576	83.81
396.801	88.81
397.025	91.81
397.249	93.81
397.474	99.81
397.698	87.81
397.922	73.81
398.147	87.81
398.371	92.81
398.595	88.81
398.82	92.81
399.044	96.81
399.268	103.81
399.492	80.81
399.717	95.81
399.941	90.81
400.165	93.81
400.389	75.81
400.613	91.81
400.837	96.81
401.062	98.81
401.286	91.81
401.51	105.81
401.734	96.81
401.958	111.81
402.182	145.81
402.406	203.81
402.63	146.81
402.854	99.81
403.078	95.81
403.302	101.81
403.526	104.81
403.75	107.81
403.974	91.81
404.198	91.81
404.422	88.81
404.645	95.81
404.869	109.81
405.093	128.81
405.317	151.81
405.541	159.81
405.765	131.81
405.988	123.81
406.212	214.81
406.436	300.81
406.66	197.81
406.883	128.81
407.107	103.81
407.331	102.81
407.555	110.81
407.778	95.81
408.002	104.81
408.226	88.81
408.449	92.81
408.673	97.81
408.896	97.81
409.12	99.81
409.344	93.81
409.567	92.81
409.791	87.81
410.014	105.81
410.238	78.81
410.461	91.81
410.685	104.81
410.908	86.81
411.132	104.81
411.355	100.81
411.578	91.81
411.802	101.81
412.025	82.81
412.249	107.81
412.472	137.81
412.695	150.81
412.919	127.81
413.142	101.81
413.365	89.81
413.589	90.81
413.812	90.81
414.035	95.81
414.258	105.81
414.482	92.81
414.705	95.81
414.928	81.81
415.151	112.81
415.374	91.81
415.597	87.81
415.821	93.81
416.044	93.81
416.267	109.81
416.49	86.81
416.713	83.81
416.936	77.81
417.159	97.81
417.382	100.81
417.605	113.81
417.828	135.81
418.051	108.81
418.274	96.81
418.497	95.81
418.72	81.81
418.943	78.81
419.166	87.81
419.389	85.81
419.611	81.81
419.834	92.81
420.057	104.81
420.28	110.81
420.503	94.81
420.726	111.81
420.948	102.81
421.171	112.81
421.394	108.81
421.617	96.81
421.839	89.81
422.062	84.81
422.285	88.81
422.507	107.81
422.73	113.81
422.953	83.81
423.175	104.81
423.398	101.81
423.621	83.81
423.843	86.81
424.066	97.81
424.288	96.81
424.511	100.81
424.733	104.81
424.956	106.81
425.178	119.81
425.401	105.81
425.623	99.81
425.846	95.81
426.068	95.81
426.291	95.81
426.513	97.81
426.735	90.81
426.958	88.81
427.18	102.81
427.402	183.81
427.625	262.81
427.847	241.81
428.069	209.81
428.292	149.81
428.514	93.81
428.736	104.81
428.958	87.81
429.181	68.81
429.403	91.81
429.625	98.81
429.847	98.81
430.069	125.81
430.292	100.81
430.514	93.81
430.736	83.81
430.958	91.81
431.18	79.81
431.402	95.81
431.624	97.81
431.846	88.81
432.068	86.81
432.29	88.81
432.512	98.81
432.734	88.81
432.956	87.81
433.178	93.81
433.4	87.81
433.622	95.81
433.844	99.81
434.066	76.81
434.287	84.81
434.509	99.81
434.731	96.81
434.953	101.81
435.175	85.81
435.397	91.81
435.618	91.81
435.84	120.81
436.062	141.81
436.284	135.81
436.505	113.81
436.727	111.81
436.949	104.81
437.17	79.81
437.392	89.81
437.614	85.81
437.835	128.81
438.057	161.81
438.278	129.81
438.5	96.81
438.721	144.81
438.943	120.81
439.165	91.81
439.386	91.81
439.608	105.81
439.829	116.81
440.05	143.81
440.272	184.81
440.493	121.81
440.715	97.81
440.936	94.81
441.158	94.81
441.379	86.81
441.6	103.81
441.822	111.81
442.043	102.81
442.264	127.81
442.486	104.81
442.707	110.81
442.928	114.81
443.149	179.81
443.371	163.81
443.592	132.81
443.813	127.81
444.034	120.81
444.255	88.81
444.476	92.81
444.698	100.81
444.919	103.81
445.14	126.81
445.361	128.81
445.582	124.81
445.803	182.81
446.024	183.81
446.245	146.81
446.466	128.81
446.687	87.81
446.908	94.81
447.129	97.81
447.35	95.81
447.571	109.81
447.792	100.81
448.013	104.81
448.234	131.81
448.455	108.81
448.675	125.81
448.896	143.81
449.117	119.81
449.338	117.81
449.559	166.81
449.779	151.81
450	92.81
450.221	72.81
450.442	96.81
450.662	99.81
450.883	128.81
451.104	147.81
451.324	104.81
451.545	95.81
451.766	105.81
451.986	89.81
452.207	96.81
452.428	98.81
452.648	107.81
452.869	135.81
453.089	144.81
453.31	145.81
453.53	103.81
453.751	102.81
453.971	110.81
454.192	129.81
454.412	100.81
454.633	85.81
454.853	104.81
455.073	95.81
455.294	90.81
455.514	103.81
455.734	92.81
455.955	94.81
456.175	77.81
456.395	98.81
456.616	87.81
456.836	94.81
457.056	81.81
457.276	75.81
457.497	90.81
457.717	71.81
457.937	89.81
458.157	97.81
458.377	101.81
458.598	124.81
458.818	201.81
459.038	219.81
459.258	150.81
459.478	105.81
459.698	96.81
459.918	87.81
460.138	89.81
460.358	76.81
460.578	91.81
460.798	101.81
461.018	111.81
461.238	99.81
461.458	90.81
461.678	96.81
461.898	92.81
462.118	95.81
462.338	100.81
462.558	75.81
462.777	103.81
462.997	129.81
463.217	146.81
463.437	110.81
463.657	90.81
463.876	92.81
464.096	102.81
464.316	103.81
464.536	99.81
464.755	106.81
464.975	144.81
465.195	247.81
465.414	251.81
465.634	111.81
465.854	88.81
466.073	92.81
466.293	96.81
466.512	83.81
466.732	101.81
466.951	95.81
467.171	118.81
467.391	129.81
467.61	196.81
467.829	357.81
468.049	1211.81
468.268	1957.81
468.488	407.81
468.707	163.81
468.927	106.81
469.146	109.81
469.365	100.81
469.585	104.81
469.804	119.81
470.023	110.81
470.243	114.81
470.462	121.81
470.681	165.81
470.901	108.81
471.12	114.81
471.339	131.81
471.558	145.81
471.777	223.81
471.997	528.81
472.216	2243.81
472.435	5318.81
472.654	1108.81
472.873	251.81
473.092	141.81
473.311	113.81
473.53	103.81
473.749	96.81
473.968	111.81
474.187	141.81
474.406	94.81
474.625	105.81
474.844	86.81
475.063	103.81
475.282	92.81
475.501	84.81
475.72	97.81
475.939	82.81
476.158	96.81
476.377	97.81
476.596	99.81
476.814	123.81
477.033	113.81
477.252	117.81
477.471	105.81
477.69	97.81
477.908	94.81
478.127	112.81
478.346	102.81
478.564	96.81
478.783	117.81
479.002	119.81
479.22	122.81
479.439	154.81
479.658	146.81
479.876	118.81
480.095	144.81
480.313	177.81
480.532	244.81
480.751	467.81
480.969	1847.81
481.188	8709.81
481.406	4933.81
481.624	623.81
481.843	200.81
482.061	123.81
482.28	118.81
482.498	103.81
482.717	96.81
482.935	102.81
483.153	93.81
483.372	90.81
483.59	104.81
483.808	98.81
484.027	104.81
484.245	107.81
484.463	113.81
484.681	100.81
484.9	100.81
485.118	99.81
485.336	107.81
485.554	115.81
485.772	124.81
485.99	120.81
486.209	140.81
486.427	132.81
486.645	141.81
486.863	144.81
487.081	120.81
487.299	98.81
487.517	107.81
487.735	91.81
487.953	95.81
488.171	87.81
488.389	90.81
488.607	128.81
488.825	102.81
489.043	97.81
489.261	84.81
489.479	94.81
489.696	83.81
489.914	103.81
490.132	91.81
490.35	89.81
490.568	93.81
490.786	100.81
491.003	96.81
491.221	95.81
491.439	94.81
491.657	101.81
491.874	91.81
492.092	84.81
492.31	80.81
492.527	123.81
492.745	108.81
492.963	104.81
493.18	91.81
493.398	97.81
493.615	102.81
493.833	87.81
494.05	86.81
494.268	86.81
494.485	102.81
494.703	83.81
494.92	104.81
495.138	100.81
495.355	87.81
495.573	104.81
495.79	91.81
496.008	104.81
496.225	93.81
496.442	94.81
496.66	105.81
496.877	104.81
497.094	100.81
497.312	103.81
497.529	79.81
497.746	91.81
497.963	83.81
498.181	101.81
498.398	101.81
498.615	119.81
498.832	109.81
499.049	107.81
499.267	98.81
499.484	91.81
499.701	108.81
499.918	96.81
500.135	93.81
500.352	99.81
500.569	102.81
500.786	104.81
501.003	84.81
501.22	87.81
501.437	84.81
501.654	112.81
501.871	141.81
502.088	103.81
502.305	87.81
502.522	84.81
502.739	93.81
502.956	82.81
503.172	95.81
503.389	104.81
503.606	148.81
503.823	109.81
504.04	95.81
504.256	101.81
504.473	100.81
504.69	79.81
504.907	92.81
505.123	91.81
505.34	91.81
505.557	102.81
505.773	91.81
505.99	82.81
506.207	95.81
506.423	96.81
506.64	99.81
506.856	96.81
507.073	96.81
507.289	103.81
507.506	103.81
507.722	128.81
507.939	130.81
508.155	116.81
508.372	101.81
508.588	97.81
508.805	116.81
509.021	100.81
509.238	110.81
509.454	111.81
509.67	124.81
509.887	101.81
510.103	145.81
510.319	256.81
510.536	1046.81
510.752	3621.81
510.968	955.81
511.184	199.81
511.401	137.81
511.617	116.81
