Data from Circ_1988_H10_HRD10591_00065.txt Node
Date: Wed Jan 03 12:05:47 EST 2024
User: Yrep
Spectrometer: HR+D1059
Trigger mode: 1
Integration Time (sec): 1.000000E-1
Scans to average: 1
Electric dark correction enabled: true
Nonlinearity correction enabled: false
Boxcar width: 0
XAxis mode: Wavelengths
Number of Pixels in Spectrum: 2048
>>>>>Begin Spectral Data<<<<<
223.165	-13.38
223.4	-13.38
223.635	-13.38
223.869	-13.38
224.104	-19.38
224.338	-12.38
224.573	-11.38
224.808	-14.38
225.042	-13.38
225.277	-20.38
225.511	-1.38
225.746	11.62
225.98	7.62
226.215	2.62
226.449	8.62
226.683	26.62
226.918	31.62
227.152	30.62
227.387	26.62
227.621	31.62
227.856	40.62
228.09	46.62
228.324	56.62
228.559	58.62
228.793	69.62
229.027	74.62
229.262	65.62
229.496	65.62
229.73	116.62
229.964	110.62
230.199	87.62
230.433	87.62
230.667	78.62
230.901	78.62
231.136	79.62
231.37	87.62
231.604	72.62
231.838	81.62
232.072	91.62
232.306	67.62
232.541	85.62
232.775	70.62
233.009	82.62
233.243	81.62
233.477	76.62
233.711	92.62
233.945	84.62
234.179	78.62
234.413	83.62
234.647	89.62
234.881	90.62
235.115	67.62
235.349	90.62
235.583	95.62
235.817	81.62
236.051	87.62
236.285	89.62
236.519	90.62
236.753	74.62
236.987	69.62
237.221	94.62
237.455	96.62
237.689	74.62
237.922	85.62
238.156	75.62
238.39	75.62
238.624	88.62
238.858	87.62
239.091	82.62
239.325	97.62
239.559	80.62
239.793	95.62
240.027	87.62
240.26	91.62
240.494	81.62
240.728	88.62
240.961	77.62
241.195	95.62
241.429	82.62
241.662	71.62
241.896	69.62
242.13	88.62
242.363	82.62
242.597	73.62
242.83	79.62
243.064	68.62
243.298	88.62
243.531	89.62
243.765	83.62
243.998	86.62
244.232	91.62
244.465	92.62
244.699	92.62
244.932	84.62
245.166	70.62
245.399	82.62
245.633	85.62
245.866	89.62
246.099	85.62
246.333	78.62
246.566	92.62
246.8	90.62
247.033	82.62
247.266	88.62
247.5	84.62
247.733	81.62
247.966	84.62
248.2	94.62
248.433	92.62
248.666	90.62
248.899	96.62
249.133	97.62
249.366	107.62
249.599	121.62
249.832	96.62
250.066	88.62
250.299	97.62
250.532	98.62
250.765	88.62
250.998	85.62
251.231	82.62
251.465	82.62
251.698	92.62
251.931	97.62
252.164	91.62
252.397	78.62
252.63	102.62
252.863	79.62
253.096	89.62
253.329	91.62
253.562	82.62
253.795	72.62
254.028	94.62
254.261	72.62
254.494	85.62
254.727	95.62
254.96	73.62
255.193	84.62
255.426	71.62
255.659	83.62
255.892	112.62
256.124	118.62
256.357	97.62
256.59	88.62
256.823	78.62
257.056	107.62
257.289	90.62
257.521	97.62
257.754	107.62
257.987	98.62
258.22	118.62
258.452	124.62
258.685	116.62
258.918	83.62
259.151	94.62
259.383	94.62
259.616	88.62
259.849	86.62
260.081	81.62
260.314	94.62
260.547	106.62
260.779	110.62
261.012	153.62
261.244	163.62
261.477	127.62
261.71	118.62
261.942	139.62
262.175	145.62
262.407	86.62
262.64	90.62
262.872	97.62
263.105	81.62
263.337	79.62
263.57	90.62
263.802	103.62
264.035	88.62
264.267	101.62
264.499	85.62
264.732	88.62
264.964	78.62
265.197	80.62
265.429	80.62
265.661	81.62
265.894	91.62
266.126	91.62
266.358	73.62
266.591	81.62
266.823	85.62
267.055	85.62
267.287	98.62
267.52	87.62
267.752	93.62
267.984	84.62
268.216	89.62
268.448	91.62
268.681	114.62
268.913	94.62
269.145	88.62
269.377	85.62
269.609	104.62
269.841	83.62
270.073	81.62
270.306	100.62
270.538	86.62
270.77	86.62
271.002	86.62
271.234	96.62
271.466	102.62
271.698	98.62
271.93	85.62
272.162	80.62
272.394	86.62
272.626	91.62
272.858	86.62
273.09	86.62
273.322	83.62
273.553	91.62
273.785	97.62
274.017	90.62
274.249	97.62
274.481	94.62
274.713	87.62
274.945	109.62
275.176	96.62
275.408	122.62
275.64	153.62
275.872	191.62
276.104	146.62
276.335	117.62
276.567	133.62
276.799	195.62
277.031	288.62
277.262	380.62
277.494	256.62
277.726	130.62
277.957	112.62
278.189	98.62
278.421	112.62
278.652	118.62
278.884	81.62
279.115	98.62
279.347	113.62
279.579	130.62
279.81	193.62
280.042	377.62
280.273	550.62
280.505	343.62
280.736	147.62
280.968	102.62
281.199	102.62
281.431	106.62
281.662	94.62
281.894	94.62
282.125	114.62
282.356	168.62
282.588	167.62
282.819	134.62
283.051	100.62
283.282	102.62
283.513	91.62
283.745	99.62
283.976	98.62
284.207	105.62
284.439	101.62
284.67	94.62
284.901	100.62
285.132	100.62
285.364	98.62
285.595	92.62
285.826	93.62
286.057	89.62
286.288	75.62
286.52	103.62
286.751	81.62
286.982	103.62
287.213	86.62
287.444	86.62
287.675	94.62
287.906	96.62
288.138	97.62
288.369	83.62
288.6	106.62
288.831	93.62
289.062	103.62
289.293	95.62
289.524	103.62
289.755	78.62
289.986	90.62
290.217	87.62
290.448	94.62
290.679	81.62
290.91	91.62
291.141	90.62
291.371	93.62
291.602	102.62
291.833	90.62
292.064	82.62
292.295	80.62
292.526	85.62
292.757	96.62
292.987	100.62
293.218	89.62
293.449	100.62
293.68	92.62
293.91	92.62
294.141	103.62
294.372	95.62
294.603	86.62
294.833	98.62
295.064	95.62
295.295	88.62
295.525	88.62
295.756	114.62
295.987	139.62
296.217	180.62
296.448	159.62
296.679	116.62
296.909	82.62
297.14	102.62
297.37	110.62
297.601	90.62
297.831	80.62
298.062	107.62
298.292	94.62
298.523	97.62
298.753	97.62
298.984	104.62
299.214	94.62
299.445	107.62
299.675	108.62
299.905	105.62
300.136	99.62
300.366	97.62
300.597	98.62
300.827	106.62
301.057	106.62
301.288	130.62
301.518	107.62
301.748	122.62
301.979	124.62
302.209	130.62
302.439	91.62
302.669	101.62
302.9	96.62
303.13	110.62
303.36	148.62
303.59	168.62
303.82	205.62
304.051	138.62
304.281	112.62
304.511	96.62
304.741	95.62
304.971	86.62
305.201	91.62
305.431	98.62
305.661	84.62
305.891	87.62
306.121	102.62
306.352	109.62
306.582	135.62
306.812	125.62
307.042	193.62
307.272	270.62
307.502	292.62
307.731	249.62
307.961	168.62
308.191	103.62
308.421	114.62
308.651	103.62
308.881	95.62
309.111	96.62
309.341	107.62
309.571	112.62
309.8	106.62
310.03	104.62
310.26	118.62
310.49	102.62
310.72	114.62
310.949	119.62
311.179	112.62
311.409	120.62
311.639	99.62
311.868	110.62
312.098	109.62
312.328	102.62
312.557	103.62
312.787	134.62
313.017	114.62
313.246	110.62
313.476	105.62
313.706	94.62
313.935	101.62
314.165	115.62
314.394	121.62
314.624	104.62
314.853	105.62
315.083	112.62
315.312	100.62
315.542	94.62
315.771	113.62
316.001	99.62
316.23	69.62
316.46	99.62
316.689	96.62
316.919	98.62
317.148	117.62
317.377	101.62
317.607	112.62
317.836	102.62
318.065	96.62
318.295	79.62
318.524	107.62
318.753	99.62
318.983	94.62
319.212	116.62
319.441	124.62
319.67	118.62
319.9	105.62
320.129	96.62
320.358	94.62
320.587	107.62
320.816	105.62
321.046	103.62
321.275	94.62
321.504	102.62
321.733	114.62
321.962	119.62
322.191	114.62
322.42	119.62
322.649	122.62
322.878	122.62
323.108	129.62
323.337	160.62
323.566	162.62
323.795	195.62
324.024	251.62
324.253	461.62
324.482	955.62
324.71	1906.62
324.939	2577.62
325.168	955.62
325.397	284.62
325.626	174.62
325.855	144.62
326.084	152.62
326.313	161.62
326.542	156.62
326.77	254.62
326.999	491.62
327.228	936.62
327.457	1699.62
327.686	1465.62
327.914	722.62
328.143	968.62
328.372	1391.62
328.6	712.62
328.829	281.62
329.058	229.62
329.287	257.62
329.515	265.62
329.744	454.62
329.972	972.62
330.201	2227.62
330.43	3247.62
330.658	1286.62
330.887	448.62
331.115	260.62
331.344	164.62
331.572	148.62
331.801	154.62
332.03	166.62
332.258	117.62
332.486	121.62
332.715	133.62
332.943	133.62
333.172	150.62
333.4	164.62
333.629	238.62
333.857	382.62
334.085	832.62
334.314	1945.62
334.542	3962.62
334.771	3589.62
334.999	840.62
335.227	299.62
335.455	177.62
335.684	144.62
335.912	137.62
336.14	135.62
336.369	117.62
336.597	126.62
336.825	132.62
337.053	99.62
337.281	100.62
337.51	111.62
337.738	115.62
337.966	116.62
338.194	117.62
338.422	116.62
338.65	112.62
338.878	97.62
339.106	94.62
339.334	106.62
339.562	99.62
339.79	104.62
340.018	116.62
340.246	120.62
340.474	104.62
340.702	119.62
340.93	114.62
341.158	110.62
341.386	117.62
341.614	113.62
341.842	97.62
342.07	90.62
342.298	100.62
342.526	97.62
342.754	86.62
342.981	94.62
343.209	103.62
343.437	96.62
343.665	84.62
343.893	95.62
344.12	112.62
344.348	111.62
344.576	105.62
344.804	117.62
345.031	96.62
345.259	110.62
345.487	99.62
345.714	123.62
345.942	87.62
346.17	97.62
346.397	109.62
346.625	100.62
346.853	92.62
347.08	91.62
347.308	99.62
347.535	111.62
347.763	113.62
347.99	103.62
348.218	113.62
348.445	130.62
348.673	98.62
348.9	92.62
349.128	104.62
349.355	95.62
349.583	101.62
349.81	108.62
350.037	111.62
350.265	109.62
350.492	104.62
350.72	98.62
350.947	103.62
351.174	124.62
351.402	132.62
351.629	97.62
351.856	114.62
352.083	110.62
352.311	119.62
352.538	132.62
352.765	128.62
352.992	116.62
353.22	123.62
353.447	116.62
353.674	114.62
353.901	107.62
354.128	99.62
354.355	103.62
354.583	98.62
354.81	90.62
355.037	98.62
355.264	101.62
355.491	106.62
355.718	100.62
355.945	82.62
356.172	95.62
356.399	111.62
356.626	96.62
356.853	88.62
357.08	105.62
357.307	109.62
357.534	92.62
357.761	100.62
357.988	92.62
358.215	98.62
358.441	77.62
358.668	90.62
358.895	88.62
359.122	85.62
359.349	98.62
359.576	100.62
359.802	108.62
360.029	151.62
360.256	128.62
360.483	123.62
360.709	99.62
360.936	93.62
361.163	94.62
361.39	116.62
361.616	98.62
361.843	79.62
362.07	101.62
362.296	114.62
362.523	103.62
362.749	96.62
362.976	86.62
363.203	90.62
363.429	107.62
363.656	104.62
363.882	102.62
364.109	116.62
364.335	102.62
364.562	98.62
364.788	82.62
365.015	106.62
365.241	105.62
365.468	123.62
365.694	118.62
365.92	101.62
366.147	118.62
366.373	101.62
366.599	94.62
366.826	79.62
367.052	85.62
367.278	103.62
367.505	88.62
367.731	105.62
367.957	101.62
368.184	121.62
368.41	101.62
368.636	123.62
368.862	145.62
369.089	108.62
369.315	110.62
369.541	113.62
369.767	115.62
369.993	101.62
370.219	114.62
370.445	100.62
370.672	107.62
370.898	82.62
371.124	98.62
371.35	99.62
371.576	76.62
371.802	106.62
372.028	103.62
372.254	104.62
372.48	103.62
372.706	91.62
372.932	99.62
373.158	96.62
373.384	96.62
373.61	87.62
373.835	87.62
374.061	97.62
374.287	114.62
374.513	100.62
374.739	100.62
374.965	113.62
375.191	103.62
375.416	92.62
375.642	91.62
375.868	109.62
376.094	98.62
376.319	94.62
376.545	101.62
376.771	96.62
376.997	93.62
377.222	101.62
377.448	103.62
377.674	82.62
377.899	85.62
378.125	100.62
378.35	101.62
378.576	91.62
378.802	89.62
379.027	91.62
379.253	102.62
379.478	107.62
379.704	100.62
379.929	94.62
380.155	98.62
380.38	98.62
380.606	115.62
380.831	96.62
381.057	95.62
381.282	81.62
381.507	107.62
381.733	106.62
381.958	95.62
382.184	94.62
382.409	91.62
382.634	107.62
382.86	120.62
383.085	114.62
383.31	99.62
383.535	97.62
383.761	103.62
383.986	113.62
384.211	106.62
384.436	107.62
384.662	101.62
384.887	108.62
385.112	123.62
385.337	121.62
385.562	106.62
385.787	122.62
386.013	113.62
386.238	119.62
386.463	108.62
386.688	114.62
386.913	102.62
387.138	106.62
387.363	124.62
387.588	102.62
387.813	84.62
388.038	103.62
388.263	126.62
388.488	112.62
388.713	106.62
388.938	100.62
389.163	94.62
389.387	102.62
389.612	87.62
389.837	90.62
390.062	103.62
390.287	97.62
390.512	97.62
390.736	74.62
390.961	84.62
391.186	90.62
391.411	98.62
391.636	89.62
391.86	84.62
392.085	94.62
392.31	85.62
392.534	103.62
392.759	97.62
392.984	87.62
393.208	83.62
393.433	112.62
393.658	94.62
393.882	102.62
394.107	84.62
394.331	92.62
394.556	88.62
394.78	86.62
395.005	101.62
395.229	79.62
395.454	95.62
395.678	105.62
395.903	96.62
396.127	76.62
396.352	92.62
396.576	103.62
396.801	89.62
397.025	91.62
397.249	106.62
397.474	97.62
397.698	81.62
397.922	98.62
398.147	78.62
398.371	100.62
398.595	90.62
398.82	83.62
399.044	97.62
399.268	92.62
399.492	94.62
399.717	78.62
399.941	93.62
400.165	81.62
400.389	89.62
400.613	100.62
400.837	91.62
401.062	94.62
401.286	102.62
401.51	108.62
401.734	100.62
401.958	137.62
402.182	170.62
402.406	200.62
402.63	155.62
402.854	127.62
403.078	101.62
403.302	100.62
403.526	100.62
403.75	73.62
403.974	81.62
404.198	86.62
404.422	81.62
404.645	107.62
404.869	113.62
405.093	129.62
405.317	159.62
405.541	152.62
405.765	135.62
405.988	139.62
406.212	229.62
406.436	318.62
406.66	214.62
406.883	114.62
407.107	101.62
407.331	117.62
407.555	118.62
407.778	121.62
408.002	94.62
408.226	105.62
408.449	96.62
408.673	94.62
408.896	101.62
409.12	113.62
409.344	107.62
409.567	93.62
409.791	106.62
410.014	102.62
410.238	88.62
410.461	88.62
410.685	88.62
410.908	95.62
411.132	103.62
411.355	112.62
411.578	90.62
411.802	102.62
412.025	87.62
412.249	120.62
412.472	140.62
412.695	164.62
412.919	124.62
413.142	104.62
413.365	99.62
413.589	102.62
413.812	89.62
414.035	89.62
414.258	100.62
414.482	90.62
414.705	95.62
414.928	108.62
415.151	100.62
415.374	103.62
415.597	101.62
415.821	106.62
416.044	91.62
416.267	95.62
416.49	97.62
416.713	86.62
416.936	107.62
417.159	107.62
417.382	119.62
417.605	134.62
417.828	135.62
418.051	111.62
418.274	97.62
418.497	97.62
418.72	88.62
418.943	96.62
419.166	101.62
419.389	100.62
419.611	87.62
419.834	90.62
420.057	97.62
420.28	115.62
420.503	112.62
420.726	112.62
420.948	114.62
421.171	116.62
421.394	100.62
421.617	89.62
421.839	76.62
422.062	82.62
422.285	87.62
422.507	104.62
422.73	124.62
422.953	111.62
423.175	106.62
423.398	83.62
423.621	76.62
423.843	86.62
424.066	96.62
424.288	90.62
424.511	105.62
424.733	112.62
424.956	131.62
425.178	108.62
425.401	113.62
425.623	117.62
425.846	106.62
426.068	95.62
426.291	106.62
426.513	102.62
426.735	102.62
426.958	115.62
427.18	132.62
427.402	185.62
427.625	278.62
427.847	281.62
428.069	248.62
428.292	154.62
428.514	104.62
428.736	82.62
428.958	101.62
429.181	93.62
429.403	107.62
429.625	88.62
429.847	96.62
430.069	114.62
430.292	103.62
430.514	103.62
430.736	92.62
430.958	91.62
431.18	96.62
431.402	88.62
431.624	94.62
431.846	102.62
432.068	80.62
432.29	84.62
432.512	88.62
432.734	98.62
432.956	84.62
433.178	92.62
433.4	94.62
433.622	114.62
433.844	101.62
434.066	98.62
434.287	104.62
434.509	103.62
434.731	100.62
434.953	96.62
435.175	99.62
435.397	102.62
435.618	87.62
435.84	117.62
436.062	144.62
436.284	118.62
436.505	104.62
436.727	88.62
436.949	95.62
437.17	81.62
437.392	102.62
437.614	108.62
437.835	141.62
438.057	166.62
438.278	138.62
438.5	124.62
438.721	130.62
438.943	126.62
439.165	95.62
439.386	90.62
439.608	100.62
439.829	115.62
440.05	166.62
440.272	191.62
440.493	110.62
440.715	97.62
440.936	82.62
441.158	103.62
441.379	91.62
441.6	105.62
441.822	103.62
442.043	123.62
442.264	123.62
442.486	124.62
442.707	120.62
442.928	115.62
443.149	195.62
443.371	195.62
443.592	147.62
443.813	143.62
444.034	124.62
444.255	93.62
444.476	103.62
444.698	102.62
444.919	98.62
445.14	140.62
445.361	131.62
445.582	140.62
445.803	205.62
446.024	198.62
446.245	165.62
446.466	131.62
446.687	99.62
446.908	100.62
447.129	98.62
447.35	90.62
447.571	109.62
447.792	98.62
448.013	119.62
448.234	135.62
448.455	118.62
448.675	135.62
448.896	137.62
449.117	106.62
449.338	119.62
449.559	144.62
449.779	175.62
450	120.62
450.221	104.62
450.442	105.62
450.662	106.62
450.883	129.62
451.104	123.62
451.324	108.62
451.545	92.62
451.766	103.62
451.986	96.62
452.207	102.62
452.428	102.62
452.648	106.62
452.869	118.62
453.089	154.62
453.31	155.62
453.53	111.62
453.751	113.62
453.971	135.62
454.192	148.62
454.412	107.62
454.633	102.62
454.853	82.62
455.073	97.62
455.294	97.62
455.514	112.62
455.734	112.62
455.955	86.62
456.175	97.62
456.395	99.62
456.616	99.62
456.836	81.62
457.056	88.62
457.276	98.62
457.497	87.62
457.717	100.62
457.937	95.62
458.157	102.62
458.377	112.62
458.598	136.62
458.818	219.62
459.038	236.62
459.258	146.62
459.478	110.62
459.698	81.62
459.918	97.62
460.138	87.62
460.358	75.62
460.578	99.62
460.798	80.62
461.018	98.62
461.238	91.62
461.458	81.62
461.678	86.62
461.898	106.62
462.118	98.62
462.338	100.62
462.558	94.62
462.777	94.62
462.997	114.62
463.217	138.62
463.437	124.62
463.657	98.62
463.876	102.62
464.096	98.62
464.316	100.62
464.536	132.62
464.755	98.62
464.975	129.62
465.195	261.62
465.414	259.62
465.634	122.62
465.854	103.62
466.073	92.62
466.293	91.62
466.512	98.62
466.732	112.62
466.951	113.62
467.171	107.62
467.391	145.62
467.61	208.62
467.829	376.62
468.049	1293.62
468.268	1998.62
468.488	394.62
468.707	158.62
468.927	125.62
469.146	110.62
469.365	117.62
469.585	108.62
469.804	128.62
470.023	120.62
470.243	118.62
470.462	135.62
470.681	170.62
470.901	139.62
471.12	136.62
471.339	136.62
471.558	175.62
471.777	249.62
471.997	589.62
472.216	2411.62
472.435	5737.62
472.654	1170.62
472.873	269.62
473.092	141.62
473.311	120.62
473.53	116.62
473.749	103.62
473.968	120.62
474.187	145.62
474.406	126.62
474.625	105.62
474.844	108.62
475.063	103.62
475.282	110.62
475.501	90.62
475.72	84.62
475.939	107.62
476.158	111.62
476.377	100.62
476.596	104.62
476.814	111.62
477.033	129.62
477.252	110.62
477.471	105.62
477.69	96.62
477.908	106.62
478.127	106.62
478.346	105.62
478.564	102.62
478.783	116.62
479.002	114.62
479.22	132.62
479.439	153.62
479.658	154.62
479.876	154.62
480.095	140.62
480.313	187.62
480.532	263.62
480.751	519.62
480.969	2105.62
481.188	9215.62
481.406	5104.62
481.624	651.62
481.843	208.62
482.061	156.62
482.28	119.62
482.498	112.62
482.717	119.62
482.935	112.62
483.153	104.62
483.372	104.62
483.59	98.62
483.808	98.62
484.027	88.62
484.245	122.62
484.463	102.62
484.681	104.62
484.9	107.62
485.118	95.62
485.336	104.62
485.554	103.62
485.772	94.62
485.99	116.62
486.209	119.62
486.427	123.62
486.645	146.62
486.863	146.62
487.081	124.62
487.299	106.62
487.517	91.62
487.735	101.62
487.953	103.62
488.171	104.62
488.389	95.62
488.607	113.62
488.825	99.62
489.043	89.62
489.261	86.62
489.479	82.62
489.696	106.62
489.914	72.62
490.132	90.62
490.35	102.62
490.568	97.62
490.786	92.62
491.003	103.62
491.221	106.62
491.439	118.62
491.657	101.62
491.874	100.62
492.092	103.62
492.31	109.62
492.527	123.62
492.745	114.62
492.963	102.62
493.18	93.62
493.398	95.62
493.615	96.62
493.833	92.62
494.05	99.62
494.268	102.62
494.485	115.62
494.703	92.62
494.92	104.62
495.138	91.62
495.355	78.62
495.573	99.62
495.79	94.62
496.008	100.62
496.225	98.62
496.442	90.62
496.66	114.62
496.877	82.62
497.094	104.62
497.312	96.62
497.529	93.62
497.746	104.62
497.963	99.62
498.181	95.62
498.398	114.62
498.615	123.62
498.832	118.62
499.049	90.62
499.267	102.62
499.484	107.62
499.701	98.62
499.918	99.62
500.135	94.62
500.352	90.62
500.569	109.62
500.786	97.62
501.003	106.62
501.22	101.62
501.437	87.62
501.654	93.62
501.871	124.62
502.088	111.62
502.305	97.62
502.522	91.62
502.739	98.62
502.956	86.62
503.172	110.62
503.389	129.62
503.606	135.62
503.823	111.62
504.04	107.62
504.256	109.62
504.473	91.62
504.69	96.62
504.907	99.62
505.123	103.62
505.34	103.62
505.557	105.62
505.773	101.62
505.99	95.62
506.207	97.62
506.423	104.62
506.64	92.62
506.856	96.62
507.073	90.62
507.289	104.62
507.506	102.62
507.722	163.62
507.939	133.62
508.155	130.62
508.372	104.62
508.588	98.62
508.805	104.62
509.021	114.62
509.238	108.62
509.454	101.62
509.67	113.62
509.887	115.62
