Data from Circ_1988_H10_HRD10591_00035.txt Node
Date: Wed Jan 03 12:05:41 EST 2024
User: Yrep
Spectrometer: HR+D1059
Trigger mode: 1
Integration Time (sec): 1.000000E-1
Scans to average: 1
Electric dark correction enabled: true
Nonlinearity correction enabled: false
Boxcar width: 0
XAxis mode: Wavelengths
Number of Pixels in Spectrum: 2048
>>>>>Begin Spectral Data<<<<<
223.165	-12.88
223.4	-12.88
223.635	-12.88
223.869	-5.88
224.104	-21.88
224.338	-10.88
224.573	-10.88
224.808	-21.88
225.042	-16.88
225.277	-10.88
225.511	7.12
225.746	-0.88
225.98	4.12
226.215	19.12
226.449	2.12
226.683	17.12
226.918	41.12
227.152	22.12
227.387	27.12
227.621	40.12
227.856	40.12
228.09	39.12
228.324	43.12
228.559	78.12
228.793	49.12
229.027	57.12
229.262	63.12
229.496	81.12
229.73	109.12
229.964	96.12
230.199	80.12
230.433	70.12
230.667	77.12
230.901	95.12
231.136	82.12
231.37	79.12
231.604	71.12
231.838	81.12
232.072	73.12
232.306	77.12
232.541	80.12
232.775	82.12
233.009	69.12
233.243	81.12
233.477	83.12
233.711	83.12
233.945	78.12
234.179	77.12
234.413	94.12
234.647	83.12
234.881	79.12
235.115	78.12
235.349	88.12
235.583	81.12
235.817	90.12
236.051	85.12
236.285	59.12
236.519	77.12
236.753	78.12
236.987	84.12
237.221	93.12
237.455	94.12
237.689	77.12
237.922	61.12
238.156	61.12
238.39	66.12
238.624	81.12
238.858	73.12
239.091	81.12
239.325	79.12
239.559	98.12
239.793	79.12
240.027	89.12
240.26	80.12
240.494	75.12
240.728	69.12
240.961	70.12
241.195	96.12
241.429	84.12
241.662	92.12
241.896	77.12
242.13	85.12
242.363	74.12
242.597	76.12
242.83	81.12
243.064	85.12
243.298	67.12
243.531	80.12
243.765	89.12
243.998	87.12
244.232	89.12
244.465	87.12
244.699	83.12
244.932	87.12
245.166	79.12
245.399	90.12
245.633	83.12
245.866	86.12
246.099	88.12
246.333	83.12
246.566	80.12
246.8	75.12
247.033	84.12
247.266	79.12
247.5	89.12
247.733	85.12
247.966	84.12
248.2	79.12
248.433	78.12
248.666	72.12
248.899	85.12
249.133	90.12
249.366	121.12
249.599	119.12
249.832	99.12
250.066	102.12
250.299	102.12
250.532	116.12
250.765	79.12
250.998	86.12
251.231	98.12
251.465	103.12
251.698	94.12
251.931	107.12
252.164	90.12
252.397	84.12
252.63	92.12
252.863	83.12
253.096	74.12
253.329	84.12
253.562	87.12
253.795	77.12
254.028	89.12
254.261	90.12
254.494	80.12
254.727	75.12
254.96	87.12
255.193	91.12
255.426	99.12
255.659	84.12
255.892	103.12
256.124	121.12
256.357	97.12
256.59	87.12
256.823	90.12
257.056	97.12
257.289	99.12
257.521	106.12
257.754	94.12
257.987	92.12
258.22	118.12
258.452	131.12
258.685	131.12
258.918	83.12
259.151	91.12
259.383	77.12
259.616	94.12
259.849	73.12
260.081	94.12
260.314	98.12
260.547	95.12
260.779	130.12
261.012	164.12
261.244	173.12
261.477	125.12
261.71	111.12
261.942	153.12
262.175	158.12
262.407	105.12
262.64	95.12
262.872	99.12
263.105	77.12
263.337	88.12
263.57	87.12
263.802	79.12
264.035	79.12
264.267	92.12
264.499	76.12
264.732	77.12
264.964	82.12
265.197	78.12
265.429	74.12
265.661	75.12
265.894	79.12
266.126	80.12
266.358	88.12
266.591	102.12
266.823	85.12
267.055	82.12
267.287	82.12
267.52	81.12
267.752	73.12
267.984	70.12
268.216	80.12
268.448	82.12
268.681	90.12
268.913	91.12
269.145	105.12
269.377	88.12
269.609	92.12
269.841	94.12
270.073	73.12
270.306	89.12
270.538	91.12
270.77	88.12
271.002	82.12
271.234	101.12
271.466	101.12
271.698	98.12
271.93	94.12
272.162	93.12
272.394	90.12
272.626	101.12
272.858	91.12
273.09	88.12
273.322	82.12
273.553	98.12
273.785	88.12
274.017	93.12
274.249	87.12
274.481	90.12
274.713	85.12
274.945	82.12
275.176	99.12
275.408	129.12
275.64	173.12
275.872	203.12
276.104	142.12
276.335	110.12
276.567	144.12
276.799	216.12
277.031	296.12
277.262	412.12
277.494	293.12
277.726	163.12
277.957	111.12
278.189	110.12
278.421	97.12
278.652	93.12
278.884	94.12
279.115	107.12
279.347	111.12
279.579	145.12
279.81	221.12
280.042	429.12
280.273	649.12
280.505	399.12
280.736	161.12
280.968	105.12
281.199	101.12
281.431	104.12
281.662	95.12
281.894	97.12
282.125	102.12
282.356	133.12
282.588	173.12
282.819	131.12
283.051	97.12
283.282	95.12
283.513	108.12
283.745	105.12
283.976	86.12
284.207	91.12
284.439	82.12
284.67	89.12
284.901	95.12
285.132	86.12
285.364	88.12
285.595	83.12
285.826	91.12
286.057	84.12
286.288	97.12
286.52	94.12
286.751	82.12
286.982	93.12
287.213	95.12
287.444	92.12
287.675	95.12
287.906	94.12
288.138	85.12
288.369	89.12
288.6	87.12
288.831	87.12
289.062	90.12
289.293	101.12
289.524	86.12
289.755	74.12
289.986	93.12
290.217	95.12
290.448	86.12
290.679	86.12
290.91	106.12
291.141	95.12
291.371	79.12
291.602	92.12
291.833	94.12
292.064	90.12
292.295	93.12
292.526	95.12
292.757	88.12
292.987	88.12
293.218	78.12
293.449	86.12
293.68	99.12
293.91	70.12
294.141	85.12
294.372	104.12
294.603	92.12
294.833	96.12
295.064	98.12
295.295	86.12
295.525	98.12
295.756	109.12
295.987	131.12
296.217	163.12
296.448	160.12
296.679	103.12
296.909	83.12
297.14	101.12
297.37	97.12
297.601	85.12
297.831	88.12
298.062	97.12
298.292	93.12
298.523	92.12
298.753	88.12
298.984	102.12
299.214	84.12
299.445	72.12
299.675	102.12
299.905	90.12
300.136	97.12
300.366	98.12
300.597	94.12
300.827	110.12
301.057	109.12
301.288	118.12
301.518	93.12
301.748	109.12
301.979	116.12
302.209	117.12
302.439	110.12
302.669	94.12
302.9	101.12
303.13	110.12
303.36	147.12
303.59	196.12
303.82	213.12
304.051	138.12
304.281	82.12
304.511	91.12
304.741	97.12
304.971	96.12
305.201	83.12
305.431	82.12
305.661	100.12
305.891	91.12
306.121	109.12
306.352	127.12
306.582	131.12
306.812	127.12
307.042	173.12
307.272	292.12
307.502	345.12
307.731	265.12
307.961	170.12
308.191	111.12
308.421	106.12
308.651	91.12
308.881	105.12
309.111	94.12
309.341	121.12
309.571	100.12
309.8	93.12
310.03	98.12
310.26	93.12
310.49	101.12
310.72	94.12
310.949	130.12
311.179	118.12
311.409	99.12
311.639	88.12
311.868	103.12
312.098	112.12
312.328	113.12
312.557	112.12
312.787	133.12
313.017	127.12
313.246	120.12
313.476	88.12
313.706	103.12
313.935	122.12
314.165	119.12
314.394	106.12
314.624	115.12
314.853	116.12
315.083	99.12
315.312	100.12
315.542	100.12
315.771	95.12
316.001	105.12
316.23	95.12
316.46	89.12
316.689	85.12
316.919	99.12
317.148	104.12
317.377	94.12
317.607	93.12
317.836	86.12
318.065	89.12
318.295	97.12
318.524	92.12
318.753	99.12
318.983	97.12
319.212	124.12
319.441	122.12
319.67	110.12
319.9	104.12
320.129	90.12
320.358	92.12
320.587	101.12
320.816	105.12
321.046	103.12
321.275	97.12
321.504	108.12
321.733	96.12
321.962	105.12
322.191	105.12
322.42	118.12
322.649	108.12
322.878	127.12
323.108	138.12
323.337	148.12
323.566	139.12
323.795	165.12
324.024	240.12
324.253	456.12
324.482	995.12
324.71	2026.12
324.939	2767.12
325.168	1025.12
325.397	301.12
325.626	177.12
325.855	137.12
326.084	149.12
326.313	153.12
326.542	176.12
326.77	257.12
326.999	486.12
327.228	1031.12
327.457	1847.12
327.686	1597.12
327.914	748.12
328.143	1117.12
328.372	1561.12
328.6	777.12
328.829	290.12
329.058	264.12
329.287	271.12
329.515	277.12
329.744	469.12
329.972	1099.12
330.201	2492.12
330.43	3662.12
330.658	1426.12
330.887	468.12
331.115	254.12
331.344	161.12
331.572	134.12
331.801	135.12
332.03	150.12
332.258	143.12
332.486	108.12
332.715	137.12
332.943	138.12
333.172	157.12
333.4	164.12
333.629	224.12
333.857	388.12
334.085	913.12
334.314	2170.12
334.542	4411.12
334.771	4092.12
334.999	913.12
335.227	301.12
335.455	182.12
335.684	151.12
335.912	112.12
336.14	114.12
336.369	134.12
336.597	119.12
336.825	118.12
337.053	113.12
337.281	100.12
337.51	105.12
337.738	111.12
337.966	109.12
338.194	112.12
338.422	102.12
338.65	110.12
338.878	90.12
339.106	98.12
339.334	93.12
339.562	106.12
339.79	89.12
340.018	95.12
340.246	95.12
340.474	93.12
340.702	104.12
340.93	104.12
341.158	103.12
341.386	97.12
341.614	99.12
341.842	93.12
342.07	91.12
342.298	92.12
342.526	90.12
342.754	79.12
342.981	85.12
343.209	91.12
343.437	89.12
343.665	75.12
343.893	98.12
344.12	92.12
344.348	80.12
344.576	97.12
344.804	96.12
345.031	102.12
345.259	108.12
345.487	96.12
345.714	109.12
345.942	88.12
346.17	92.12
346.397	90.12
346.625	90.12
346.853	100.12
347.08	97.12
347.308	103.12
347.535	111.12
347.763	107.12
347.99	106.12
348.218	111.12
348.445	122.12
348.673	101.12
348.9	101.12
349.128	101.12
349.355	97.12
349.583	107.12
349.81	89.12
350.037	95.12
350.265	87.12
350.492	95.12
350.72	104.12
350.947	106.12
351.174	109.12
351.402	100.12
351.629	117.12
351.856	108.12
352.083	122.12
352.311	120.12
352.538	121.12
352.765	133.12
352.992	124.12
353.22	118.12
353.447	111.12
353.674	107.12
353.901	86.12
354.128	87.12
354.355	102.12
354.583	102.12
354.81	92.12
355.037	71.12
355.264	97.12
355.491	106.12
355.718	91.12
355.945	82.12
356.172	95.12
356.399	93.12
356.626	82.12
356.853	79.12
357.08	85.12
357.307	87.12
357.534	87.12
357.761	89.12
357.988	84.12
358.215	98.12
358.441	100.12
358.668	99.12
358.895	96.12
359.122	99.12
359.349	91.12
359.576	96.12
359.802	122.12
360.029	137.12
360.256	130.12
360.483	115.12
360.709	92.12
360.936	99.12
361.163	107.12
361.39	109.12
361.616	95.12
361.843	107.12
362.07	90.12
362.296	114.12
362.523	110.12
362.749	99.12
362.976	103.12
363.203	89.12
363.429	94.12
363.656	92.12
363.882	93.12
364.109	102.12
364.335	112.12
364.562	108.12
364.788	101.12
365.015	101.12
365.241	110.12
365.468	120.12
365.694	128.12
365.92	110.12
366.147	105.12
366.373	92.12
366.599	111.12
366.826	98.12
367.052	94.12
367.278	92.12
367.505	93.12
367.731	92.12
367.957	96.12
368.184	92.12
368.41	111.12
368.636	120.12
368.862	124.12
369.089	127.12
369.315	97.12
369.541	101.12
369.767	90.12
369.993	92.12
370.219	94.12
370.445	95.12
370.672	92.12
370.898	86.12
371.124	82.12
371.35	112.12
371.576	89.12
371.802	86.12
372.028	91.12
372.254	101.12
372.48	93.12
372.706	86.12
372.932	78.12
373.158	68.12
373.384	104.12
373.61	97.12
373.835	86.12
374.061	93.12
374.287	73.12
374.513	89.12
374.739	98.12
374.965	81.12
375.191	83.12
375.416	100.12
375.642	97.12
375.868	79.12
376.094	91.12
376.319	93.12
376.545	93.12
376.771	99.12
376.997	95.12
377.222	97.12
377.448	106.12
377.674	91.12
377.899	89.12
378.125	88.12
378.35	100.12
378.576	99.12
378.802	94.12
379.027	96.12
379.253	92.12
379.478	94.12
379.704	90.12
379.929	80.12
380.155	107.12
380.38	110.12
380.606	87.12
380.831	113.12
381.057	116.12
381.282	106.12
381.507	102.12
381.733	101.12
381.958	107.12
382.184	110.12
382.409	117.12
382.634	102.12
382.86	99.12
383.085	105.12
383.31	106.12
383.535	107.12
383.761	106.12
383.986	114.12
384.211	98.12
384.436	97.12
384.662	116.12
384.887	132.12
385.112	119.12
385.337	119.12
385.562	108.12
385.787	110.12
386.013	115.12
386.238	142.12
386.463	129.12
386.688	132.12
386.913	122.12
387.138	138.12
387.363	101.12
387.588	116.12
387.813	112.12
388.038	119.12
388.263	133.12
388.488	129.12
388.713	94.12
388.938	97.12
389.163	87.12
389.387	86.12
389.612	87.12
389.837	94.12
390.062	85.12
390.287	88.12
390.512	80.12
390.736	77.12
390.961	80.12
391.186	90.12
391.411	87.12
391.636	101.12
391.86	82.12
392.085	93.12
392.31	85.12
392.534	107.12
392.759	96.12
392.984	98.12
393.208	102.12
393.433	86.12
393.658	83.12
393.882	89.12
394.107	75.12
394.331	75.12
394.556	91.12
394.78	88.12
395.005	91.12
395.229	83.12
395.454	80.12
395.678	86.12
395.903	82.12
396.127	90.12
396.352	85.12
396.576	77.12
396.801	96.12
397.025	99.12
397.249	83.12
397.474	97.12
397.698	84.12
397.922	87.12
398.147	86.12
398.371	83.12
398.595	84.12
398.82	86.12
399.044	90.12
399.268	85.12
399.492	78.12
399.717	78.12
399.941	78.12
400.165	98.12
400.389	89.12
400.613	79.12
400.837	89.12
401.062	99.12
401.286	89.12
401.51	92.12
401.734	100.12
401.958	105.12
402.182	140.12
402.406	214.12
402.63	156.12
402.854	122.12
403.078	98.12
403.302	101.12
403.526	87.12
403.75	86.12
403.974	87.12
404.198	83.12
404.422	89.12
404.645	78.12
404.869	106.12
405.093	130.12
405.317	161.12
405.541	171.12
405.765	123.12
405.988	137.12
406.212	215.12
406.436	310.12
406.66	201.12
406.883	122.12
407.107	91.12
407.331	97.12
407.555	100.12
407.778	103.12
408.002	103.12
408.226	99.12
408.449	92.12
408.673	91.12
408.896	97.12
409.12	94.12
409.344	95.12
409.567	98.12
409.791	95.12
410.014	94.12
410.238	97.12
410.461	98.12
410.685	93.12
410.908	107.12
411.132	96.12
411.355	97.12
411.578	90.12
411.802	91.12
412.025	91.12
412.249	101.12
412.472	135.12
412.695	174.12
412.919	115.12
413.142	99.12
413.365	87.12
413.589	80.12
413.812	115.12
414.035	107.12
414.258	102.12
414.482	90.12
414.705	101.12
414.928	92.12
415.151	91.12
415.374	75.12
415.597	84.12
415.821	99.12
416.044	92.12
416.267	93.12
416.49	102.12
416.713	90.12
416.936	85.12
417.159	98.12
417.382	117.12
417.605	135.12
417.828	135.12
418.051	122.12
418.274	97.12
418.497	81.12
418.72	87.12
418.943	85.12
419.166	91.12
419.389	94.12
419.611	102.12
419.834	91.12
420.057	98.12
420.28	96.12
420.503	80.12
420.726	84.12
420.948	102.12
421.171	109.12
421.394	89.12
421.617	96.12
421.839	76.12
422.062	89.12
422.285	98.12
422.507	100.12
422.73	106.12
422.953	108.12
423.175	77.12
423.398	81.12
423.621	90.12
423.843	92.12
424.066	88.12
424.288	98.12
424.511	109.12
424.733	99.12
424.956	109.12
425.178	107.12
425.401	112.12
425.623	121.12
425.846	106.12
426.068	94.12
426.291	111.12
426.513	89.12
426.735	105.12
426.958	101.12
427.18	122.12
427.402	176.12
427.625	269.12
427.847	302.12
428.069	273.12
428.292	150.12
428.514	115.12
428.736	107.12
428.958	94.12
429.181	85.12
429.403	89.12
429.625	81.12
429.847	91.12
430.069	125.12
430.292	107.12
430.514	91.12
430.736	99.12
430.958	81.12
431.18	92.12
431.402	90.12
431.624	93.12
431.846	84.12
432.068	72.12
432.29	96.12
432.512	85.12
432.734	84.12
432.956	95.12
433.178	81.12
433.4	94.12
433.622	91.12
433.844	85.12
434.066	83.12
434.287	99.12
434.509	100.12
434.731	81.12
434.953	75.12
435.175	101.12
435.397	83.12
435.618	91.12
435.84	101.12
436.062	119.12
436.284	128.12
436.505	104.12
436.727	105.12
436.949	88.12
437.17	96.12
437.392	94.12
437.614	94.12
437.835	139.12
438.057	151.12
438.278	130.12
438.5	112.12
438.721	123.12
438.943	88.12
439.165	87.12
439.386	94.12
439.608	99.12
439.829	130.12
440.05	155.12
440.272	202.12
440.493	110.12
440.715	98.12
440.936	98.12
441.158	93.12
441.379	85.12
441.6	97.12
441.822	96.12
442.043	97.12
442.264	104.12
442.486	95.12
442.707	102.12
442.928	124.12
443.149	192.12
443.371	186.12
443.592	140.12
443.813	132.12
444.034	121.12
444.255	101.12
444.476	93.12
444.698	85.12
444.919	88.12
445.14	141.12
445.361	136.12
445.582	149.12
445.803	191.12
446.024	183.12
446.245	164.12
446.466	111.12
446.687	84.12
446.908	79.12
447.129	96.12
447.35	101.12
447.571	83.12
447.792	106.12
448.013	103.12
448.234	125.12
448.455	128.12
448.675	129.12
448.896	139.12
449.117	110.12
449.338	108.12
449.559	130.12
449.779	152.12
450	102.12
450.221	103.12
450.442	99.12
450.662	103.12
450.883	128.12
451.104	146.12
451.324	102.12
451.545	83.12
451.766	93.12
451.986	101.12
452.207	89.12
452.428	97.12
452.648	106.12
452.869	129.12
453.089	139.12
453.31	139.12
453.53	100.12
453.751	105.12
453.971	115.12
454.192	134.12
454.412	96.12
454.633	89.12
454.853	83.12
455.073	89.12
455.294	102.12
455.514	110.12
455.734	107.12
455.955	96.12
456.175	84.12
456.395	88.12
456.616	99.12
456.836	86.12
457.056	86.12
457.276	89.12
457.497	84.12
457.717	99.12
457.937	85.12
458.157	90.12
458.377	97.12
458.598	121.12
458.818	197.12
459.038	227.12
459.258	155.12
459.478	100.12
459.698	95.12
459.918	88.12
460.138	80.12
460.358	78.12
460.578	86.12
460.798	99.12
461.018	107.12
461.238	88.12
461.458	85.12
461.678	101.12
461.898	69.12
462.118	102.12
462.338	91.12
462.558	110.12
462.777	100.12
462.997	121.12
463.217	149.12
463.437	129.12
463.657	89.12
463.876	88.12
464.096	108.12
464.316	108.12
464.536	106.12
464.755	111.12
464.975	124.12
465.195	253.12
465.414	247.12
465.634	130.12
465.854	102.12
466.073	111.12
466.293	96.12
466.512	97.12
466.732	99.12
466.951	114.12
467.171	114.12
467.391	141.12
467.61	202.12
467.829	385.12
468.049	1457.12
468.268	2249.12
468.488	443.12
468.707	163.12
468.927	117.12
469.146	110.12
469.365	112.12
469.585	94.12
469.804	115.12
470.023	129.12
470.243	115.12
470.462	127.12
470.681	159.12
470.901	119.12
471.12	119.12
471.339	136.12
471.558	163.12
471.777	237.12
471.997	609.12
472.216	2651.12
472.435	6372.12
472.654	1295.12
472.873	281.12
473.092	161.12
473.311	115.12
473.53	107.12
473.749	91.12
473.968	122.12
474.187	141.12
474.406	107.12
474.625	94.12
474.844	93.12
475.063	86.12
475.282	83.12
475.501	106.12
475.72	93.12
475.939	93.12
476.158	100.12
476.377	93.12
476.596	97.12
476.814	107.12
477.033	99.12
477.252	91.12
477.471	97.12
477.69	110.12
477.908	104.12
478.127	94.12
478.346	100.12
478.564	98.12
478.783	113.12
479.002	132.12
479.22	120.12
479.439	141.12
479.658	155.12
479.876	156.12
480.095	160.12
480.313	190.12
480.532	256.12
480.751	545.12
480.969	2233.12
481.188	10064.12
481.406	5659.12
481.624	703.12
481.843	219.12
482.061	155.12
482.28	142.12
482.498	110.12
482.717	109.12
482.935	105.12
483.153	108.12
483.372	81.12
483.59	93.12
483.808	90.12
484.027	102.12
484.245	101.12
484.463	95.12
484.681	107.12
484.9	98.12
485.118	94.12
485.336	102.12
485.554	100.12
485.772	101.12
485.99	115.12
486.209	121.12
486.427	116.12
486.645	123.12
486.863	133.12
487.081	126.12
487.299	108.12
487.517	103.12
487.735	101.12
487.953	95.12
488.171	93.12
488.389	115.12
488.607	101.12
488.825	97.12
489.043	88.12
489.261	109.12
489.479	85.12
489.696	102.12
489.914	83.12
490.132	101.12
490.35	86.12
490.568	79.12
490.786	86.12
491.003	84.12
491.221	114.12
491.439	114.12
491.657	100.12
491.874	106.12
492.092	104.12
492.31	100.12
492.527	114.12
492.745	107.12
492.963	88.12
493.18	101.12
493.398	100.12
493.615	108.12
493.833	98.12
494.05	91.12
494.268	94.12
494.485	103.12
494.703	88.12
494.92	81.12
495.138	97.12
495.355	88.12
495.573	80.12
495.79	89.12
496.008	93.12
496.225	111.12
496.442	77.12
496.66	109.12
496.877	81.12
497.094	87.12
497.312	91.12
497.529	89.12
497.746	94.12
497.963	100.12
498.181	87.12
498.398	100.12
498.615	129.12
498.832	118.12
499.049	99.12
499.267	84.12
499.484	93.12
499.701	94.12
499.918	107.12
500.135	89.12
500.352	95.12
500.569	117.12
500.786	119.12
501.003	89.12
501.22	92.12
501.437	100.12
501.654	120.12
501.871	142.12
502.088	95.12
502.305	103.12
502.522	98.12
502.739	95.12
502.956	98.12
503.172	107.12
503.389	124.12
503.606	123.12
503.823	104.12
504.04	100.12
504.256	98.12
504.473	101.12
504.69	106.12
504.907	108.12
505.123	106.12
505.34	102.12
505.557	90.12
505.773	93.12
505.99	86.12
506.207	78.12
506.423	100.12
506.64	87.12
506.856	100.12
507.073	89.12
507.289	111.12
507.506	113.12
507.722	141.12
507.939	126.12
508.155	100.12
508.372	101.12
508.588	86.12
508.805	107.12
509.021	95.12
509.238	114.12
509.454	108.12
509.67	103.12
509.887	124.12
510.103	128.12
510.319	257.12
510.536	1004.12
510.752	3557.12
510.968	971.12
511.184	189.12
511.401	145.12
