Data from Circ_1988_H10_HRD10591_00099.txt Node
Date: Wed Jan 03 12:05:54 EST 2024
User: Yrep
Spectrometer: HR+D1059
Trigger mode: 1
Integration Time (sec): 1.000000E-1
Scans to average: 1
Electric dark correction enabled: true
Nonlinearity correction enabled: false
Boxcar width: 0
XAxis mode: Wavelengths
Number of Pixels in Spectrum: 2048
>>>>>Begin Spectral Data<<<<<
223.165	-15.5
223.4	-15.5
223.635	-15.5
223.869	-21.5
224.104	-23.5
224.338	-22.5
224.573	-16.5
224.808	-17.5
225.042	-2.5
225.277	-1.5
225.511	-5.5
225.746	22.5
225.98	-2.5
226.215	9.5
226.449	13.5
226.683	21.5
226.918	30.5
227.152	31.5
227.387	47.5
227.621	55.5
227.856	62.5
228.09	50.5
228.324	62.5
228.559	57.5
228.793	57.5
229.027	78.5
229.262	71.5
229.496	72.5
229.73	93.5
229.964	96.5
230.199	79.5
230.433	84.5
230.667	83.5
230.901	81.5
231.136	98.5
231.37	81.5
231.604	88.5
231.838	95.5
232.072	82.5
232.306	79.5
232.541	102.5
232.775	85.5
233.009	89.5
233.243	81.5
233.477	98.5
233.711	84.5
233.945	71.5
234.179	87.5
234.413	71.5
234.647	82.5
234.881	83.5
235.115	85.5
235.349	94.5
235.583	95.5
235.817	90.5
236.051	89.5
236.285	86.5
236.519	86.5
236.753	86.5
236.987	85.5
237.221	84.5
237.455	79.5
237.689	66.5
237.922	86.5
238.156	82.5
238.39	78.5
238.624	66.5
238.858	79.5
239.091	77.5
239.325	98.5
239.559	91.5
239.793	92.5
240.027	85.5
240.26	88.5
240.494	77.5
240.728	77.5
240.961	77.5
241.195	74.5
241.429	80.5
241.662	82.5
241.896	64.5
242.13	89.5
242.363	72.5
242.597	71.5
242.83	90.5
243.064	74.5
243.298	82.5
243.531	93.5
243.765	88.5
243.998	97.5
244.232	95.5
244.465	96.5
244.699	72.5
244.932	60.5
245.166	75.5
245.399	76.5
245.633	78.5
245.866	78.5
246.099	83.5
246.333	78.5
246.566	90.5
246.8	85.5
247.033	72.5
247.266	75.5
247.5	82.5
247.733	91.5
247.966	75.5
248.2	87.5
248.433	78.5
248.666	98.5
248.899	90.5
249.133	97.5
249.366	100.5
249.599	89.5
249.832	85.5
250.066	98.5
250.299	89.5
250.532	83.5
250.765	82.5
250.998	86.5
251.231	89.5
251.465	100.5
251.698	91.5
251.931	99.5
252.164	106.5
252.397	91.5
252.63	73.5
252.863	93.5
253.096	77.5
253.329	59.5
253.562	83.5
253.795	95.5
254.028	71.5
254.261	95.5
254.494	95.5
254.727	74.5
254.96	103.5
255.193	87.5
255.426	76.5
255.659	83.5
255.892	102.5
256.124	109.5
256.357	93.5
256.59	95.5
256.823	94.5
257.056	89.5
257.289	106.5
257.521	91.5
257.754	81.5
257.987	101.5
258.22	106.5
258.452	118.5
258.685	118.5
258.918	102.5
259.151	85.5
259.383	100.5
259.616	99.5
259.849	77.5
260.081	91.5
260.314	103.5
260.547	87.5
260.779	105.5
261.012	141.5
261.244	147.5
261.477	111.5
261.71	105.5
261.942	122.5
262.175	169.5
262.407	113.5
262.64	96.5
262.872	87.5
263.105	93.5
263.337	86.5
263.57	115.5
263.802	85.5
264.035	88.5
264.267	81.5
264.499	89.5
264.732	89.5
264.964	88.5
265.197	97.5
265.429	83.5
265.661	82.5
265.894	85.5
266.126	72.5
266.358	90.5
266.591	85.5
266.823	82.5
267.055	87.5
267.287	98.5
267.52	78.5
267.752	88.5
267.984	85.5
268.216	83.5
268.448	97.5
268.681	89.5
268.913	91.5
269.145	86.5
269.377	93.5
269.609	83.5
269.841	99.5
270.073	85.5
270.306	90.5
270.538	69.5
270.77	87.5
271.002	85.5
271.234	98.5
271.466	99.5
271.698	100.5
271.93	81.5
272.162	92.5
272.394	105.5
272.626	95.5
272.858	89.5
273.09	91.5
273.322	89.5
273.553	90.5
273.785	78.5
274.017	89.5
274.249	105.5
274.481	89.5
274.713	90.5
274.945	101.5
275.176	103.5
275.408	124.5
275.64	143.5
275.872	160.5
276.104	114.5
276.335	115.5
276.567	131.5
276.799	201.5
277.031	245.5
277.262	315.5
277.494	237.5
277.726	131.5
277.957	111.5
278.189	92.5
278.421	90.5
278.652	90.5
278.884	91.5
279.115	90.5
279.347	119.5
279.579	117.5
279.81	183.5
280.042	340.5
280.273	509.5
280.505	312.5
280.736	141.5
280.968	124.5
281.199	89.5
281.431	96.5
281.662	109.5
281.894	105.5
282.125	105.5
282.356	154.5
282.588	176.5
282.819	135.5
283.051	100.5
283.282	91.5
283.513	93.5
283.745	87.5
283.976	89.5
284.207	97.5
284.439	94.5
284.67	88.5
284.901	100.5
285.132	80.5
285.364	101.5
285.595	97.5
285.826	84.5
286.057	93.5
286.288	96.5
286.52	99.5
286.751	109.5
286.982	93.5
287.213	97.5
287.444	97.5
287.675	82.5
287.906	93.5
288.138	97.5
288.369	101.5
288.6	97.5
288.831	88.5
289.062	97.5
289.293	86.5
289.524	82.5
289.755	85.5
289.986	83.5
290.217	96.5
290.448	93.5
290.679	104.5
290.91	95.5
291.141	89.5
291.371	84.5
291.602	76.5
291.833	88.5
292.064	76.5
292.295	97.5
292.526	93.5
292.757	93.5
292.987	87.5
293.218	90.5
293.449	83.5
293.68	97.5
293.91	82.5
294.141	87.5
294.372	99.5
294.603	102.5
294.833	102.5
295.064	91.5
295.295	80.5
295.525	94.5
295.756	113.5
295.987	133.5
296.217	170.5
296.448	139.5
296.679	110.5
296.909	86.5
297.14	87.5
297.37	88.5
297.601	91.5
297.831	91.5
298.062	99.5
298.292	93.5
298.523	86.5
298.753	94.5
298.984	107.5
299.214	93.5
299.445	81.5
299.675	104.5
299.905	103.5
300.136	96.5
300.366	96.5
300.597	89.5
300.827	94.5
301.057	120.5
301.288	124.5
301.518	95.5
301.748	96.5
301.979	120.5
302.209	117.5
302.439	94.5
302.669	101.5
302.9	96.5
303.13	110.5
303.36	119.5
303.59	180.5
303.82	178.5
304.051	123.5
304.281	107.5
304.511	93.5
304.741	95.5
304.971	88.5
305.201	103.5
305.431	95.5
305.661	110.5
305.891	100.5
306.121	107.5
306.352	122.5
306.582	130.5
306.812	116.5
307.042	159.5
307.272	254.5
307.502	285.5
307.731	252.5
307.961	173.5
308.191	106.5
308.421	105.5
308.651	97.5
308.881	98.5
309.111	106.5
309.341	95.5
309.571	102.5
309.8	107.5
310.03	111.5
310.26	123.5
310.49	103.5
310.72	106.5
310.949	122.5
311.179	118.5
311.409	104.5
311.639	90.5
311.868	98.5
312.098	88.5
312.328	101.5
312.557	116.5
312.787	126.5
313.017	125.5
313.246	88.5
313.476	80.5
313.706	87.5
313.935	94.5
314.165	128.5
314.394	113.5
314.624	97.5
314.853	119.5
315.083	107.5
315.312	91.5
315.542	98.5
315.771	85.5
316.001	87.5
316.23	97.5
316.46	99.5
316.689	87.5
316.919	115.5
317.148	91.5
317.377	109.5
317.607	98.5
317.836	93.5
318.065	97.5
318.295	98.5
318.524	97.5
318.753	90.5
318.983	103.5
319.212	120.5
319.441	133.5
319.67	133.5
319.9	102.5
320.129	95.5
320.358	97.5
320.587	105.5
320.816	97.5
321.046	100.5
321.275	101.5
321.504	87.5
321.733	95.5
321.962	108.5
322.191	102.5
322.42	116.5
322.649	117.5
322.878	120.5
323.108	126.5
323.337	140.5
323.566	135.5
323.795	170.5
324.024	218.5
324.253	406.5
324.482	822.5
324.71	1635.5
324.939	2201.5
325.168	863.5
325.397	264.5
325.626	160.5
325.855	144.5
326.084	158.5
326.313	129.5
326.542	165.5
326.77	246.5
326.999	428.5
327.228	835.5
327.457	1489.5
327.686	1271.5
327.914	619.5
328.143	819.5
328.372	1171.5
328.6	621.5
328.829	239.5
329.058	216.5
329.287	201.5
329.515	233.5
329.744	398.5
329.972	843.5
330.201	1851.5
330.43	2789.5
330.658	1155.5
330.887	379.5
331.115	233.5
331.344	140.5
331.572	131.5
331.801	139.5
332.03	132.5
332.258	148.5
332.486	122.5
332.715	117.5
332.943	139.5
333.172	145.5
333.4	159.5
333.629	233.5
333.857	335.5
334.085	688.5
334.314	1538.5
334.542	3287.5
334.771	3176.5
334.999	741.5
335.227	243.5
335.455	147.5
335.684	145.5
335.912	130.5
336.14	119.5
336.369	116.5
336.597	115.5
336.825	112.5
337.053	101.5
337.281	95.5
337.51	100.5
337.738	100.5
337.966	109.5
338.194	118.5
338.422	113.5
338.65	111.5
338.878	114.5
339.106	103.5
339.334	106.5
339.562	103.5
339.79	120.5
340.018	101.5
340.246	104.5
340.474	91.5
340.702	98.5
340.93	98.5
341.158	105.5
341.386	106.5
341.614	93.5
341.842	90.5
342.07	91.5
342.298	109.5
342.526	80.5
342.754	97.5
342.981	95.5
343.209	105.5
343.437	103.5
343.665	105.5
343.893	102.5
344.12	86.5
344.348	92.5
344.576	81.5
344.804	102.5
345.031	96.5
345.259	100.5
345.487	114.5
345.714	104.5
345.942	96.5
346.17	89.5
346.397	94.5
346.625	85.5
346.853	100.5
347.08	78.5
347.308	99.5
347.535	97.5
347.763	112.5
347.99	114.5
348.218	115.5
348.445	120.5
348.673	108.5
348.9	102.5
349.128	89.5
349.355	84.5
349.583	110.5
349.81	93.5
350.037	109.5
350.265	96.5
350.492	89.5
350.72	90.5
350.947	107.5
351.174	114.5
351.402	116.5
351.629	116.5
351.856	114.5
352.083	113.5
352.311	103.5
352.538	114.5
352.765	121.5
352.992	115.5
353.22	111.5
353.447	101.5
353.674	112.5
353.901	99.5
354.128	86.5
354.355	99.5
354.583	95.5
354.81	96.5
355.037	96.5
355.264	100.5
355.491	103.5
355.718	96.5
355.945	101.5
356.172	94.5
356.399	94.5
356.626	104.5
356.853	93.5
357.08	92.5
357.307	103.5
357.534	106.5
357.761	93.5
357.988	92.5
358.215	99.5
358.441	93.5
358.668	88.5
358.895	86.5
359.122	99.5
359.349	100.5
359.576	90.5
359.802	125.5
360.029	140.5
360.256	134.5
360.483	122.5
360.709	102.5
360.936	100.5
361.163	99.5
361.39	105.5
361.616	99.5
361.843	105.5
362.07	97.5
362.296	99.5
362.523	115.5
362.749	86.5
362.976	77.5
363.203	98.5
363.429	97.5
363.656	94.5
363.882	99.5
364.109	99.5
364.335	99.5
364.562	94.5
364.788	104.5
365.015	122.5
365.241	117.5
365.468	116.5
365.694	124.5
365.92	110.5
366.147	103.5
366.373	89.5
366.599	104.5
366.826	89.5
367.052	103.5
367.278	89.5
367.505	94.5
367.731	101.5
367.957	104.5
368.184	97.5
368.41	115.5
368.636	132.5
368.862	117.5
369.089	116.5
369.315	90.5
369.541	95.5
369.767	86.5
369.993	113.5
370.219	90.5
370.445	97.5
370.672	93.5
370.898	93.5
371.124	89.5
371.35	86.5
371.576	91.5
371.802	82.5
372.028	96.5
372.254	95.5
372.48	88.5
372.706	102.5
372.932	78.5
373.158	86.5
373.384	88.5
373.61	83.5
373.835	82.5
374.061	98.5
374.287	107.5
374.513	88.5
374.739	100.5
374.965	78.5
375.191	86.5
375.416	94.5
375.642	93.5
375.868	91.5
376.094	98.5
376.319	82.5
376.545	81.5
376.771	93.5
376.997	84.5
377.222	89.5
377.448	101.5
377.674	106.5
377.899	109.5
378.125	77.5
378.35	91.5
378.576	88.5
378.802	88.5
379.027	110.5
379.253	89.5
379.478	85.5
379.704	88.5
379.929	88.5
380.155	106.5
380.38	85.5
380.606	91.5
380.831	97.5
381.057	109.5
381.282	101.5
381.507	95.5
381.733	106.5
381.958	101.5
382.184	104.5
382.409	112.5
382.634	116.5
382.86	95.5
383.085	101.5
383.31	105.5
383.535	95.5
383.761	99.5
383.986	104.5
384.211	92.5
384.436	90.5
384.662	107.5
384.887	106.5
385.112	98.5
385.337	104.5
385.562	103.5
385.787	113.5
386.013	126.5
386.238	121.5
386.463	114.5
386.688	111.5
386.913	113.5
387.138	95.5
387.363	99.5
387.588	102.5
387.813	109.5
388.038	115.5
388.263	127.5
388.488	112.5
388.713	86.5
388.938	102.5
389.163	89.5
389.387	90.5
389.612	79.5
389.837	87.5
390.062	87.5
390.287	103.5
390.512	90.5
390.736	91.5
390.961	102.5
391.186	97.5
391.411	91.5
391.636	96.5
391.86	94.5
392.085	94.5
392.31	100.5
392.534	86.5
392.759	98.5
392.984	88.5
393.208	84.5
393.433	92.5
393.658	86.5
393.882	93.5
394.107	86.5
394.331	93.5
394.556	99.5
394.78	92.5
395.005	90.5
395.229	79.5
395.454	94.5
395.678	93.5
395.903	110.5
396.127	100.5
396.352	79.5
396.576	105.5
396.801	105.5
397.025	89.5
397.249	84.5
397.474	102.5
397.698	88.5
397.922	83.5
398.147	84.5
398.371	91.5
398.595	87.5
398.82	101.5
399.044	89.5
399.268	89.5
399.492	96.5
399.717	113.5
399.941	93.5
400.165	92.5
400.389	102.5
400.613	89.5
400.837	96.5
401.062	99.5
401.286	97.5
401.51	101.5
401.734	102.5
401.958	98.5
402.182	153.5
402.406	187.5
402.63	133.5
402.854	107.5
403.078	85.5
403.302	88.5
403.526	93.5
403.75	83.5
403.974	79.5
404.198	97.5
404.422	103.5
404.645	95.5
404.869	99.5
405.093	123.5
405.317	149.5
405.541	162.5
405.765	130.5
405.988	137.5
406.212	201.5
406.436	325.5
406.66	207.5
406.883	112.5
407.107	102.5
407.331	109.5
407.555	93.5
407.778	104.5
408.002	96.5
408.226	89.5
408.449	93.5
408.673	95.5
408.896	84.5
409.12	115.5
409.344	103.5
409.567	82.5
409.791	99.5
410.014	89.5
410.238	95.5
410.461	101.5
410.685	96.5
410.908	93.5
411.132	106.5
411.355	102.5
411.578	96.5
411.802	88.5
412.025	90.5
412.249	99.5
412.472	137.5
412.695	150.5
412.919	112.5
413.142	98.5
413.365	81.5
413.589	94.5
413.812	96.5
414.035	86.5
414.258	103.5
414.482	102.5
414.705	80.5
414.928	87.5
415.151	104.5
415.374	95.5
415.597	84.5
415.821	93.5
416.044	95.5
416.267	96.5
416.49	95.5
416.713	95.5
416.936	98.5
417.159	100.5
417.382	109.5
417.605	114.5
417.828	137.5
418.051	120.5
418.274	98.5
418.497	92.5
418.72	94.5
418.943	99.5
419.166	88.5
419.389	89.5
419.611	65.5
419.834	98.5
420.057	118.5
420.28	96.5
420.503	94.5
420.726	103.5
420.948	89.5
421.171	107.5
421.394	98.5
421.617	115.5
421.839	90.5
422.062	94.5
422.285	86.5
422.507	103.5
422.73	125.5
422.953	91.5
423.175	101.5
423.398	82.5
423.621	105.5
423.843	77.5
424.066	86.5
424.288	85.5
424.511	117.5
424.733	103.5
424.956	117.5
425.178	113.5
425.401	120.5
425.623	112.5
425.846	90.5
426.068	110.5
426.291	112.5
426.513	102.5
426.735	103.5
426.958	106.5
427.18	103.5
427.402	177.5
427.625	234.5
427.847	249.5
428.069	224.5
428.292	159.5
428.514	115.5
428.736	105.5
428.958	99.5
429.181	87.5
429.403	99.5
429.625	89.5
429.847	103.5
430.069	103.5
430.292	105.5
430.514	101.5
430.736	86.5
430.958	77.5
431.18	78.5
431.402	91.5
431.624	99.5
431.846	96.5
432.068	94.5
432.29	93.5
432.512	107.5
432.734	90.5
432.956	95.5
433.178	102.5
433.4	99.5
433.622	104.5
433.844	98.5
434.066	91.5
434.287	88.5
434.509	88.5
434.731	103.5
434.953	91.5
435.175	97.5
435.397	100.5
435.618	90.5
435.84	107.5
436.062	115.5
436.284	121.5
436.505	89.5
436.727	106.5
436.949	106.5
437.17	99.5
437.392	100.5
437.614	99.5
437.835	118.5
438.057	142.5
438.278	127.5
438.5	109.5
438.721	139.5
438.943	100.5
439.165	86.5
439.386	96.5
439.608	93.5
439.829	119.5
440.05	143.5
440.272	181.5
440.493	103.5
440.715	87.5
440.936	84.5
441.158	71.5
441.379	103.5
441.6	105.5
441.822	98.5
442.043	103.5
442.264	131.5
442.486	110.5
442.707	81.5
442.928	103.5
443.149	171.5
443.371	169.5
443.592	131.5
443.813	136.5
444.034	129.5
444.255	101.5
444.476	98.5
444.698	85.5
444.919	99.5
445.14	137.5
445.361	128.5
445.582	125.5
445.803	178.5
446.024	168.5
446.245	138.5
446.466	123.5
446.687	99.5
446.908	95.5
447.129	94.5
447.35	71.5
447.571	101.5
447.792	96.5
448.013	107.5
448.234	113.5
448.455	111.5
448.675	121.5
448.896	145.5
449.117	100.5
449.338	109.5
449.559	133.5
449.779	169.5
450	93.5
450.221	98.5
450.442	102.5
450.662	96.5
450.883	121.5
451.104	121.5
451.324	102.5
451.545	97.5
451.766	96.5
451.986	96.5
452.207	103.5
452.428	110.5
452.648	115.5
452.869	136.5
453.089	129.5
453.31	135.5
453.53	99.5
453.751	101.5
453.971	108.5
454.192	145.5
454.412	111.5
454.633	83.5
454.853	78.5
455.073	91.5
455.294	102.5
455.514	102.5
455.734	100.5
455.955	90.5
456.175	95.5
456.395	83.5
456.616	92.5
456.836	90.5
457.056	85.5
457.276	97.5
457.497	92.5
457.717	96.5
457.937	96.5
458.157	94.5
458.377	90.5
458.598	89.5
458.818	203.5
459.038	223.5
459.258	141.5
459.478	107.5
459.698	97.5
459.918	93.5
460.138	103.5
460.358	99.5
460.578	85.5
460.798	102.5
461.018	101.5
461.238	97.5
461.458	86.5
461.678	88.5
461.898	83.5
462.118	88.5
462.338	95.5
462.558	97.5
462.777	102.5
462.997	122.5
463.217	145.5
463.437	115.5
463.657	104.5
463.876	99.5
464.096	103.5
464.316	102.5
464.536	117.5
464.755	112.5
464.975	137.5
465.195	229.5
465.414	241.5
465.634	111.5
465.854	99.5
466.073	107.5
466.293	113.5
466.512	93.5
466.732	91.5
466.951	112.5
467.171	125.5
467.391	142.5
467.61	191.5
467.829	339.5
468.049	1219.5
468.268	1969.5
468.488	409.5
468.707	141.5
468.927	113.5
469.146	104.5
469.365	111.5
469.585	111.5
469.804	128.5
470.023	119.5
470.243	105.5
470.462	117.5
470.681	146.5
470.901	134.5
471.12	131.5
471.339	150.5
471.558	144.5
471.777	213.5
471.997	513.5
472.216	2231.5
472.435	5323.5
472.654	1090.5
472.873	262.5
473.092	143.5
473.311	104.5
473.53	116.5
473.749	96.5
473.968	117.5
474.187	133.5
474.406	132.5
474.625	107.5
474.844	95.5
475.063	104.5
475.282	104.5
475.501	105.5
475.72	95.5
475.939	104.5
476.158	91.5
476.377	78.5
476.596	105.5
476.814	112.5
477.033	118.5
477.252	107.5
477.471	90.5
477.69	108.5
477.908	94.5
478.127	112.5
478.346	101.5
478.564	106.5
478.783	105.5
479.002	98.5
479.22	119.5
479.439	142.5
479.658	165.5
479.876	146.5
480.095	155.5
480.313	171.5
480.532	221.5
480.751	467.5
480.969	1821.5
481.188	8533.5
481.406	4852.5
481.624	621.5
481.843	189.5
482.061	133.5
482.28	130.5
482.498	121.5
482.717	107.5
482.935	116.5
483.153	111.5
483.372	98.5
483.59	113.5
483.808	90.5
484.027	95.5
484.245	96.5
484.463	103.5
484.681	118.5
484.9	99.5
485.118	107.5
485.336	102.5
485.554	111.5
485.772	122.5
485.99	118.5
486.209	116.5
486.427	128.5
486.645	128.5
486.863	132.5
487.081	112.5
487.299	95.5
487.517	105.5
487.735	103.5
487.953	99.5
488.171	92.5
488.389	99.5
488.607	113.5
488.825	98.5
489.043	94.5
489.261	102.5
489.479	100.5
489.696	108.5
489.914	97.5
490.132	91.5
490.35	91.5
490.568	115.5
490.786	89.5
491.003	102.5
491.221	113.5
491.439	116.5
491.657	97.5
491.874	105.5
492.092	104.5
492.31	103.5
492.527	99.5
492.745	111.5
492.963	99.5
493.18	113.5
493.398	102.5
493.615	100.5
493.833	86.5
494.05	103.5
494.268	95.5
494.485	96.5
494.703	86.5
494.92	110.5
495.138	100.5
495.355	103.5
495.573	103.5
495.79	98.5
496.008	111.5
496.225	96.5
496.442	93.5
496.66	82.5
496.877	98.5
497.094	101.5
497.312	86.5
497.529	93.5
497.746	94.5
497.963	93.5
498.181	99.5
498.398	96.5
498.615	109.5
498.832	112.5
499.049	96.5
499.267	102.5
499.484	98.5
499.701	97.5
499.918	99.5
500.135	99.5
500.352	100.5
500.569	104.5
500.786	117.5
501.003	81.5
501.22	92.5
501.437	92.5
501.654	105.5
501.871	132.5
502.088	105.5
502.305	91.5
502.522	99.5
502.739	101.5
502.956	87.5
503.172	99.5
503.389	118.5
503.606	128.5
503.823	112.5
504.04	97.5
504.256	119.5
504.473	102.5
504.69	92.5
504.907	92.5
505.123	101.5
505.34	104.5
505.557	89.5
505.773	96.5
505.99	95.5
506.207	83.5
506.423	95.5
506.64	101.5
506.856	101.5
507.073	106.5
507.289	104.5
507.506	104.5
507.722	131.5
507.939	145.5
508.155	101.5
508.372	95.5
508.588	111.5
508.805	112.5
509.021	113.5
509.238	113.5
509.454	98.5
509.67	104.5
509.887	136.5
510.103	148.5
510.319	259.5
510.536	1021.5
510.752	3650.5
510.968	962.5
511.184	215.5
511.401	140.5
511.617	134.5
511.833	122.5
512.049	103.5
512.265	78.5
512.481	117.5
512.698	93.5
512.914	90.5
513.13	109.5
513.346	110.5
513.562	94.5
513.778	103.5
513.994	107.5
514.21	126.5
514.426	149.5
514.642	183.5
514.858	171.5
515.074	228.5
515.29	713.5
515.506	2636.5
515.721	894.5
515.937	226.5
516.153	130.5
516.369	106.5
516.585	112.5
516.801	129.5
517.016	105.5
517.232	99.5
517.448	88.5
517.664	96.5
517.879	108.5
518.095	107.5
518.311	115.5
518.527	143.5
518.742	96.5
518.958	98.5
519.173	104.5
519.389	105.5
519.605	107.5
519.82	115.5
520.036	110.5
520.251	156.5
520.467	137.5
520.682	113.5
520.898	129.5
521.113	147.5
521.329	179.5
521.544	306.5
521.76	925.5
521.975	4399.5
522.19	2548.5
522.406	496.5
522.621	151.5
522.836	122.5
523.052	115.5
523.267	96.5
523.482	100.5
523.698	118.5
523.913	150.5
524.128	115.5
524.343	111.5
524.559	95.5
524.774	109.5
524.989	116.5
525.204	126.5
525.419	129.5
525.634	103.5
525.849	95.5
526.064	103.5
526.28	114.5
526.495	101.5
526.71	88.5
526.925	85.5
527.14	89.5
527.355	85.5
527.57	92.5
527.785	100.5
527.999	76.5
528.214	93.5
528.429	98.5
528.644	82.5
528.859	107.5
529.074	102.5
529.289	174.5
529.503	285.5
529.718	124.5
