Data from Circ_1988_H10_HRD10591_00058.txt Node
Date: Wed Jan 03 12:05:46 EST 2024
User: Yrep
Spectrometer: HR+D1059
Trigger mode: 1
Integration Time (sec): 1.000000E-1
Scans to average: 1
Electric dark correction enabled: true
Nonlinearity correction enabled: false
Boxcar width: 0
XAxis mode: Wavelengths
Number of Pixels in Spectrum: 2048
>>>>>Begin Spectral Data<<<<<
223.165	-8
223.4	-8
223.635	-8
223.869	-23
224.104	-23
224.338	-12
224.573	-17
224.808	-17
225.042	-14
225.277	0
225.511	-1
225.746	11
225.98	2
226.215	21
226.449	11
226.683	17
226.918	20
227.152	33
227.387	22
227.621	34
227.856	47
228.09	46
228.324	57
228.559	68
228.793	52
229.027	55
229.262	64
229.496	82
229.73	101
229.964	95
230.199	80
230.433	67
230.667	76
230.901	81
231.136	86
231.37	80
231.604	77
231.838	69
232.072	66
232.306	68
232.541	73
232.775	68
233.009	88
233.243	87
233.477	75
233.711	79
233.945	82
234.179	92
234.413	78
234.647	78
234.881	79
235.115	80
235.349	71
235.583	79
235.817	73
236.051	73
236.285	79
236.519	81
236.753	69
236.987	73
237.221	94
237.455	87
237.689	84
237.922	86
238.156	73
238.39	87
238.624	78
238.858	63
239.091	90
239.325	72
239.559	88
239.793	91
240.027	77
240.26	76
240.494	73
240.728	83
240.961	85
241.195	86
241.429	72
241.662	71
241.896	88
242.13	81
242.363	80
242.597	76
242.83	80
243.064	91
243.298	89
243.531	83
243.765	101
243.998	79
244.232	87
244.465	93
244.699	81
244.932	76
245.166	72
245.399	75
245.633	83
245.866	97
246.099	89
246.333	81
246.566	88
246.8	93
247.033	86
247.266	83
247.5	81
247.733	86
247.966	81
248.2	97
248.433	88
248.666	75
248.899	89
249.133	82
249.366	104
249.599	106
249.832	84
250.066	99
250.299	95
250.532	91
250.765	91
250.998	79
251.231	81
251.465	105
251.698	81
251.931	99
252.164	84
252.397	82
252.63	94
252.863	100
253.096	83
253.329	78
253.562	81
253.795	84
254.028	83
254.261	87
254.494	83
254.727	95
254.96	62
255.193	69
255.426	88
255.659	97
255.892	108
256.124	135
256.357	100
256.59	95
256.823	84
257.056	87
257.289	104
257.521	97
257.754	84
257.987	95
258.22	103
258.452	113
258.685	116
258.918	94
259.151	79
259.383	93
259.616	88
259.849	100
260.081	97
260.314	112
260.547	107
260.779	109
261.012	144
261.244	160
261.477	115
261.71	112
261.942	144
262.175	160
262.407	96
262.64	94
262.872	92
263.105	91
263.337	85
263.57	82
263.802	80
264.035	94
264.267	89
264.499	82
264.732	82
264.964	100
265.197	90
265.429	99
265.661	81
265.894	82
266.126	92
266.358	69
266.591	102
266.823	92
267.055	96
267.287	99
267.52	90
267.752	76
267.984	83
268.216	93
268.448	113
268.681	97
268.913	79
269.145	86
269.377	93
269.609	94
269.841	83
270.073	88
270.306	86
270.538	73
270.77	73
271.002	82
271.234	109
271.466	130
271.698	111
271.93	98
272.162	88
272.394	79
272.626	86
272.858	101
273.09	99
273.322	94
273.553	93
273.785	91
274.017	101
274.249	89
274.481	98
274.713	84
274.945	102
275.176	99
275.408	131
275.64	157
275.872	212
276.104	156
276.335	132
276.567	149
276.799	191
277.031	303
277.262	383
277.494	274
277.726	125
277.957	121
278.189	111
278.421	104
278.652	103
278.884	83
279.115	111
279.347	97
279.579	146
279.81	220
280.042	397
280.273	595
280.505	364
280.736	155
280.968	122
281.199	104
281.431	100
281.662	91
281.894	95
282.125	94
282.356	156
282.588	189
282.819	132
283.051	95
283.282	97
283.513	101
283.745	92
283.976	86
284.207	102
284.439	89
284.67	99
284.901	96
285.132	77
285.364	93
285.595	81
285.826	96
286.057	86
286.288	90
286.52	93
286.751	91
286.982	86
287.213	89
287.444	98
287.675	92
287.906	90
288.138	92
288.369	93
288.6	101
288.831	68
289.062	79
289.293	87
289.524	102
289.755	80
289.986	89
290.217	82
290.448	95
290.679	89
290.91	81
291.141	91
291.371	91
291.602	99
291.833	101
292.064	91
292.295	93
292.526	94
292.757	102
292.987	92
293.218	78
293.449	84
293.68	108
293.91	98
294.141	93
294.372	97
294.603	95
294.833	84
295.064	94
295.295	99
295.525	93
295.756	103
295.987	135
296.217	187
296.448	161
296.679	91
296.909	98
297.14	86
297.37	108
297.601	89
297.831	97
298.062	100
298.292	98
298.523	94
298.753	87
298.984	92
299.214	91
299.445	96
299.675	114
299.905	109
300.136	100
300.366	88
300.597	101
300.827	109
301.057	125
301.288	118
301.518	116
301.748	111
301.979	137
302.209	114
302.439	98
302.669	105
302.9	106
303.13	103
303.36	143
303.59	175
303.82	203
304.051	136
304.281	105
304.511	99
304.741	88
304.971	96
305.201	94
305.431	101
305.661	83
305.891	86
306.121	112
306.352	128
306.582	130
306.812	120
307.042	183
307.272	301
307.502	309
307.731	264
307.961	159
308.191	106
308.421	95
308.651	116
308.881	109
309.111	95
309.341	102
309.571	111
309.8	121
310.03	114
310.26	117
310.49	126
310.72	123
310.949	118
311.179	117
311.409	96
311.639	106
311.868	108
312.098	113
312.328	107
312.557	109
312.787	117
313.017	116
313.246	111
313.476	99
313.706	96
313.935	98
314.165	101
314.394	113
314.624	108
314.853	98
315.083	112
315.312	95
315.542	103
315.771	96
316.001	101
316.23	95
316.46	101
316.689	101
316.919	99
317.148	105
317.377	104
317.607	117
317.836	101
318.065	93
318.295	91
318.524	93
318.753	95
318.983	92
319.212	119
319.441	130
319.67	139
319.9	110
320.129	101
320.358	96
320.587	99
320.816	110
321.046	118
321.275	107
321.504	109
321.733	96
321.962	103
322.191	117
322.42	118
322.649	125
322.878	132
323.108	131
323.337	123
323.566	147
323.795	187
324.024	246
324.253	432
324.482	963
324.71	1903
324.939	2559
325.168	984
325.397	289
325.626	184
325.855	142
326.084	136
326.313	161
326.542	165
326.77	269
326.999	477
327.228	985
327.457	1737
327.686	1535
327.914	719
328.143	1030
328.372	1500
328.6	733
328.829	275
329.058	241
329.287	263
329.515	272
329.744	451
329.972	1006
330.201	2243
330.43	3323
330.658	1345
330.887	456
331.115	248
331.344	184
331.572	150
331.801	149
332.03	156
332.258	147
332.486	134
332.715	135
332.943	140
333.172	164
333.4	187
333.629	224
333.857	364
334.085	837
334.314	1944
334.542	4043
334.771	3734
334.999	885
335.227	293
335.455	180
335.684	148
335.912	136
336.14	131
336.369	115
336.597	136
336.825	136
337.053	112
337.281	108
337.51	90
337.738	99
337.966	104
338.194	126
338.422	107
338.65	89
338.878	102
339.106	85
339.334	88
339.562	102
339.79	102
340.018	101
340.246	118
340.474	115
340.702	104
340.93	95
341.158	108
341.386	102
341.614	94
341.842	104
342.07	112
342.298	111
342.526	104
342.754	94
342.981	101
343.209	92
343.437	97
343.665	92
343.893	92
344.12	83
344.348	86
344.576	91
344.804	80
345.031	107
345.259	120
345.487	96
345.714	105
345.942	95
346.17	102
346.397	115
346.625	109
346.853	104
347.08	91
347.308	99
347.535	104
347.763	112
347.99	98
348.218	104
348.445	131
348.673	105
348.9	93
349.128	112
349.355	97
349.583	102
349.81	96
350.037	93
350.265	101
350.492	97
350.72	103
350.947	108
351.174	118
351.402	123
351.629	113
351.856	105
352.083	108
352.311	128
352.538	134
352.765	128
352.992	123
353.22	117
353.447	94
353.674	113
353.901	94
354.128	85
354.355	79
354.583	87
354.81	88
355.037	103
355.264	93
355.491	93
355.718	91
355.945	93
356.172	100
356.399	94
356.626	92
356.853	100
357.08	93
357.307	105
357.534	80
357.761	92
357.988	94
358.215	101
358.441	97
358.668	88
358.895	93
359.122	105
359.349	99
359.576	103
359.802	120
360.029	159
360.256	150
360.483	130
360.709	109
360.936	88
361.163	99
361.39	103
361.616	99
361.843	101
362.07	112
362.296	110
362.523	102
362.749	116
362.976	107
363.203	87
363.429	76
363.656	95
363.882	104
364.109	89
364.335	87
364.562	99
364.788	88
365.015	106
365.241	97
365.468	119
365.694	117
365.92	104
366.147	95
366.373	90
366.599	92
366.826	100
367.052	94
367.278	96
367.505	98
367.731	86
367.957	108
368.184	92
368.41	108
368.636	133
368.862	127
369.089	117
369.315	105
369.541	109
369.767	83
369.993	105
370.219	110
370.445	102
370.672	95
370.898	80
371.124	111
371.35	87
371.576	78
371.802	90
372.028	80
372.254	86
372.48	88
372.706	88
372.932	84
373.158	87
373.384	95
373.61	91
373.835	87
374.061	85
374.287	87
374.513	95
374.739	91
374.965	105
375.191	83
375.416	97
375.642	86
375.868	89
376.094	100
376.319	92
376.545	104
376.771	102
376.997	100
377.222	87
377.448	93
377.674	86
377.899	110
378.125	102
378.35	101
378.576	93
378.802	91
379.027	87
379.253	101
379.478	88
379.704	100
379.929	104
380.155	101
380.38	79
380.606	101
380.831	104
381.057	95
381.282	91
381.507	108
381.733	117
381.958	117
382.184	100
382.409	96
382.634	103
382.86	95
383.085	110
383.31	103
383.535	96
383.761	95
383.986	94
384.211	97
384.436	103
384.662	110
384.887	112
385.112	109
385.337	105
385.562	115
385.787	113
386.013	136
386.238	137
386.463	111
386.688	126
386.913	98
387.138	98
387.363	108
387.588	103
387.813	115
388.038	101
388.263	115
388.488	112
388.713	105
388.938	80
389.163	89
389.387	85
389.612	94
389.837	83
390.062	92
390.287	93
390.512	87
390.736	87
390.961	88
391.186	79
391.411	89
391.636	84
391.86	85
392.085	87
392.31	72
392.534	97
392.759	76
392.984	84
393.208	88
393.433	92
393.658	84
393.882	79
394.107	85
394.331	110
394.556	82
394.78	87
395.005	79
395.229	86
395.454	87
395.678	100
395.903	77
396.127	97
396.352	93
396.576	87
396.801	77
397.025	88
397.249	98
397.474	94
397.698	107
397.922	90
398.147	79
398.371	92
398.595	97
398.82	92
399.044	84
399.268	79
399.492	86
399.717	99
399.941	93
400.165	100
400.389	88
400.613	81
400.837	65
401.062	90
401.286	87
401.51	93
401.734	112
401.958	120
402.182	174
402.406	215
402.63	161
402.854	117
403.078	95
403.302	85
403.526	88
403.75	104
403.974	98
404.198	109
404.422	87
404.645	104
404.869	115
405.093	126
405.317	167
405.541	157
405.765	141
405.988	158
406.212	214
406.436	334
406.66	227
406.883	111
407.107	105
407.331	119
407.555	139
407.778	110
408.002	100
408.226	91
408.449	92
408.673	100
408.896	104
409.12	107
409.344	87
409.567	89
409.791	91
410.014	107
410.238	102
410.461	92
410.685	89
410.908	100
411.132	102
411.355	103
411.578	97
411.802	94
412.025	94
412.249	106
412.472	128
412.695	158
412.919	125
413.142	101
413.365	104
413.589	79
413.812	102
414.035	105
414.258	100
414.482	87
414.705	104
414.928	94
415.151	81
415.374	100
415.597	89
415.821	93
416.044	101
416.267	87
416.49	100
416.713	103
416.936	85
417.159	105
417.382	118
417.605	133
417.828	149
418.051	105
418.274	90
418.497	87
418.72	101
418.943	89
419.166	95
419.389	96
419.611	100
419.834	92
420.057	94
420.28	123
420.503	96
420.726	92
420.948	106
421.171	109
421.394	99
421.617	88
421.839	101
422.062	72
422.285	88
422.507	109
422.73	123
422.953	95
423.175	80
423.398	91
423.621	100
423.843	101
424.066	83
424.288	111
424.511	104
424.733	124
424.956	117
425.178	101
425.401	114
425.623	115
425.846	88
426.068	109
426.291	93
426.513	81
426.735	89
426.958	100
427.18	127
427.402	176
427.625	295
427.847	281
428.069	234
428.292	153
428.514	115
428.736	93
428.958	105
429.181	89
429.403	96
429.625	93
429.847	108
430.069	106
430.292	101
430.514	99
430.736	88
430.958	96
431.18	89
431.402	106
431.624	93
431.846	76
432.068	83
432.29	89
432.512	89
432.734	100
432.956	92
433.178	107
433.4	90
433.622	83
433.844	96
434.066	94
434.287	83
434.509	98
434.731	91
434.953	88
435.175	96
435.397	93
435.618	89
435.84	110
436.062	130
436.284	128
436.505	107
436.727	113
436.949	81
437.17	72
437.392	85
437.614	103
437.835	126
438.057	160
438.278	124
438.5	123
438.721	132
438.943	98
439.165	96
439.386	92
439.608	91
439.829	104
440.05	139
440.272	182
440.493	115
440.715	90
440.936	65
441.158	85
441.379	82
441.6	97
441.822	105
442.043	105
442.264	118
442.486	111
442.707	94
442.928	117
443.149	196
443.371	196
443.592	125
443.813	136
444.034	116
444.255	95
444.476	86
444.698	98
444.919	102
445.14	128
445.361	130
445.582	134
445.803	181
446.024	177
446.245	169
446.466	142
446.687	95
446.908	87
447.129	103
447.35	102
447.571	104
447.792	102
448.013	112
448.234	126
448.455	110
448.675	141
448.896	144
449.117	109
449.338	109
449.559	146
449.779	131
450	93
450.221	83
450.442	92
450.662	104
450.883	150
451.104	161
451.324	102
451.545	85
451.766	92
451.986	92
452.207	94
452.428	105
452.648	103
452.869	144
453.089	148
453.31	157
453.53	110
453.751	105
453.971	123
454.192	136
454.412	105
454.633	96
454.853	101
455.073	95
455.294	102
455.514	93
455.734	100
455.955	96
456.175	84
456.395	88
456.616	85
456.836	103
457.056	92
457.276	89
457.497	89
457.717	90
457.937	104
458.157	99
458.377	105
458.598	134
458.818	226
459.038	260
459.258	166
459.478	90
459.698	97
459.918	91
460.138	95
460.358	81
460.578	92
460.798	99
461.018	105
461.238	85
461.458	87
461.678	72
461.898	83
462.118	93
462.338	105
462.558	89
462.777	89
462.997	111
463.217	162
463.437	105
463.657	103
463.876	101
464.096	105
464.316	99
464.536	131
464.755	118
464.975	145
465.195	277
465.414	272
465.634	126
465.854	102
466.073	112
466.293	91
466.512	96
466.732	100
466.951	101
467.171	127
467.391	147
467.61	208
467.829	397
468.049	1369
468.268	2168
468.488	448
468.707	160
468.927	112
469.146	98
469.365	113
469.585	101
469.804	129
470.023	123
470.243	104
470.462	130
470.681	167
470.901	121
471.12	120
471.339	142
471.558	157
471.777	241
471.997	597
472.216	2495
472.435	5897
472.654	1200
472.873	283
473.092	153
473.311	124
473.53	109
473.749	105
473.968	116
474.187	136
474.406	101
474.625	114
474.844	86
475.063	86
475.282	94
475.501	92
475.72	104
475.939	107
476.158	100
476.377	112
476.596	101
476.814	112
477.033	114
477.252	98
477.471	97
477.69	108
477.908	98
478.127	105
478.346	95
478.564	106
478.783	123
479.002	113
479.22	129
479.439	146
479.658	167
479.876	163
480.095	172
480.313	177
480.532	260
480.751	515
480.969	2112
481.188	9421
481.406	5321
481.624	674
481.843	221
482.061	142
482.28	126
482.498	122
482.717	106
482.935	112
483.153	101
483.372	103
483.59	107
483.808	108
484.027	100
484.245	111
484.463	103
484.681	94
484.9	99
485.118	98
485.336	87
485.554	93
485.772	111
485.99	128
486.209	106
486.427	112
486.645	144
486.863	140
487.081	130
487.299	125
487.517	116
487.735	96
487.953	96
488.171	111
488.389	101
488.607	114
488.825	108
489.043	105
489.261	113
489.479	87
489.696	102
489.914	104
490.132	91
490.35	97
490.568	94
490.786	87
491.003	99
491.221	102
491.439	119
491.657	104
491.874	104
492.092	79
492.31	87
492.527	119
492.745	105
492.963	94
493.18	97
493.398	107
493.615	87
493.833	88
494.05	103
494.268	89
494.485	96
494.703	87
494.92	86
495.138	102
495.355	93
495.573	93
495.79	78
496.008	97
496.225	99
496.442	103
496.66	87
496.877	88
497.094	100
497.312	96
497.529	98
497.746	88
497.963	96
498.181	104
498.398	110
498.615	144
498.832	125
499.049	93
499.267	88
499.484	88
499.701	89
499.918	87
500.135	102
500.352	104
500.569	120
500.786	116
501.003	100
501.22	101
501.437	99
501.654	112
501.871	141
502.088	99
502.305	93
502.522	92
502.739	84
502.956	102
503.172	96
503.389	117
503.606	126
503.823	123
504.04	103
504.256	95
504.473	88
504.69	95
504.907	95
505.123	89
505.34	83
505.557	84
505.773	101
505.99	88
506.207	86
506.423	92
506.64	101
506.856	79
507.073	82
507.289	100
507.506	120
507.722	145
507.939	152
508.155	126
508.372	100
508.588	95
508.805	94
509.021	104
509.238	107
509.454	110
509.67	114
509.887	112
510.103	147
510.319	274
510.536	1043
510.752	3777
510.968	998
511.184	191
511.401	161
511.617	120
511.833	134
512.049	104
512.265	88
512.481	97
512.698	100
512.914	87
513.13	87
513.346	99
513.562	108
513.778	118
513.994	125
514.21	126
514.426	161
514.642	216
514.858	161
515.074	251
515.29	802
515.506	2906
515.721	1012
515.937	231
516.153	150
516.369	121
516.585	118
516.801	120
517.016	122
517.232	106
517.448	92
517.664	105
517.879	97
518.095	102
518.311	121
518.527	146
518.742	100
518.958	109
519.173	101
519.389	114
519.605	104
519.82	103
520.036	126
520.251	161
520.467	147
520.682	120
520.898	140
521.113	144
521.329	196
521.544	347
521.76	1117
521.975	5034
522.19	2847
522.406	577
522.621	183
522.836	126
523.052	112
523.267	108
523.482	104
523.698	120
523.913	175
524.128	129
524.343	108
524.559	111
524.774	98
524.989	105
525.204	112
525.419	119
525.634	90
525.849	116
526.064	102
526.28	81
526.495	82
526.71	90
526.925	79
527.14	103
527.355	95
527.57	90
527.785	88
527.999	97
528.214	85
528.429	80
528.644	116
528.859	100
529.074	100
529.289	161
529.503	295
529.718	139
529.933	114
530.148	85
530.363	86
530.577	101
530.792	86
531.007	97
531.221	103
531.436	97
531.651	92
531.865	93
532.08	96
532.295	103
532.509	92
532.724	92
532.938	102
533.153	97
533.367	102
533.582	109
533.796	103
534.011	98
534.225	91
534.44	78
534.654	90
534.868	95
535.083	96
535.297	98
535.511	113
535.726	120
535.94	113
536.154	98
536.369	109
536.583	96
536.797	100
537.011	100
537.225	105
537.44	94
537.654	90
537.868	85
538.082	92
538.296	87
538.51	85
538.724	83
538.938	95
539.153	98
539.367	124
539.581	106
539.795	97
540.009	88
540.222	98
540.436	94
540.65	78
540.864	93
541.078	102
541.292	89
541.506	92
541.72	94
541.934	95
542.147	93
542.361	96
542.575	92
542.789	94
543.002	86
543.216	83
543.43	111
543.644	106
543.857	109
544.071	86
544.285	95
544.498	88
544.712	98
544.925	87
545.139	71
545.352	95
545.566	93
545.779	89
545.993	97
546.206	101
546.42	83
546.633	115
546.847	94
547.06	72
547.274	93
547.487	95
547.7	96
547.914	73
548.127	99
548.34	86
548.554	84
548.767	87
548.98	79
549.193	98
549.407	90
549.62	96
549.833	101
550.046	97
550.259	92
550.473	83
550.686	95
550.899	97
551.112	103
551.325	108
551.538	122
551.751	108
551.964	96
552.177	98
552.39	97
552.603	97
552.816	93
553.029	94
553.242	86
553.455	108
553.667	113
553.88	123
554.093	108
554.306	153
554.519	177
554.732	119
554.944	104
555.157	99
555.37	86
555.583	107
555.795	109
556.008	97
556.221	91
556.433	87
556.646	102
556.859	81
557.071	71
557.284	85
557.496	84
557.709	86
557.921	88
558.134	84
558.346	94
558.559	88
558.771	99
558.984	103
559.196	94
559.409	80
559.621	96
559.833	97
560.046	113
560.258	157
560.47	226
560.683	144
560.895	107
561.107	97
561.32	99
561.532	75
561.744	89
561.956	91
562.168	88
562.381	88
562.593	94
562.805	100
563.017	86
563.229	107
563.441	87
563.653	77
563.865	77
564.077	79
564.289	100
564.501	110
564.713	70
564.925	100
565.137	119
565.349	87
565.561	93
565.773	95
565.985	89
566.197	95
566.408	88
566.62	89
566.832	103
567.044	94
567.255	95
567.467	108
567.679	95
567.891	85
568.102	77
568.314	83
568.526	92
568.737	81
568.949	92
569.161	81
569.372	100
569.584	92
569.795	95
570.007	126
570.218	316
570.43	170
570.641	96
570.853	98
571.064	87
571.276	96
571.487	85
571.698	96
571.91	108
572.121	87
572.333	91
572.544	92
572.755	71
572.966	88
573.178	81
573.389	79
573.6	94
573.811	87
574.023	87
574.234	93
574.445	95
574.656	93
574.867	88
575.078	98
575.289	105
575.501	92
575.712	99
575.923	95
576.134	102
576.345	96
576.556	83
576.767	86
576.978	87
