Data from Circ_1988_H10_HRD10591_00032.txt Node
Date: Wed Jan 03 12:05:41 EST 2024
User: Yrep
Spectrometer: HR+D1059
Trigger mode: 1
Integration Time (sec): 1.000000E-1
Scans to average: 1
Electric dark correction enabled: true
Nonlinearity correction enabled: false
Boxcar width: 0
XAxis mode: Wavelengths
Number of Pixels in Spectrum: 2048
>>>>>Begin Spectral Data<<<<<
223.165	-12.81
223.4	-12.81
223.635	-12.81
223.869	-15.81
224.104	-23.81
224.338	-16.81
224.573	-13.81
224.808	-7.81
225.042	-1.81
225.277	-17.81
225.511	-9.81
225.746	15.19
225.98	12.19
226.215	4.19
226.449	21.19
226.683	11.19
226.918	18.19
227.152	38.19
227.387	44.19
227.621	35.19
227.856	47.19
228.09	53.19
228.324	35.19
228.559	43.19
228.793	51.19
229.027	63.19
229.262	63.19
229.496	78.19
229.73	94.19
229.964	104.19
230.199	70.19
230.433	67.19
230.667	63.19
230.901	84.19
231.136	69.19
231.37	69.19
231.604	89.19
231.838	81.19
232.072	86.19
232.306	79.19
232.541	75.19
232.775	85.19
233.009	76.19
233.243	86.19
233.477	81.19
233.711	79.19
233.945	93.19
234.179	85.19
234.413	90.19
234.647	77.19
234.881	76.19
235.115	84.19
235.349	68.19
235.583	84.19
235.817	98.19
236.051	76.19
236.285	82.19
236.519	84.19
236.753	81.19
236.987	78.19
237.221	85.19
237.455	95.19
237.689	77.19
237.922	81.19
238.156	87.19
238.39	77.19
238.624	67.19
238.858	71.19
239.091	80.19
239.325	87.19
239.559	89.19
239.793	80.19
240.027	86.19
240.26	73.19
240.494	75.19
240.728	75.19
240.961	71.19
241.195	79.19
241.429	86.19
241.662	87.19
241.896	78.19
242.13	89.19
242.363	70.19
242.597	79.19
242.83	81.19
243.064	65.19
243.298	81.19
243.531	88.19
243.765	80.19
243.998	80.19
244.232	84.19
244.465	92.19
244.699	89.19
244.932	97.19
245.166	75.19
245.399	84.19
245.633	84.19
245.866	84.19
246.099	79.19
246.333	77.19
246.566	81.19
246.8	79.19
247.033	76.19
247.266	78.19
247.5	76.19
247.733	91.19
247.966	81.19
248.2	79.19
248.433	83.19
248.666	86.19
248.899	97.19
249.133	94.19
249.366	109.19
249.599	108.19
249.832	97.19
250.066	84.19
250.299	92.19
250.532	103.19
250.765	96.19
250.998	71.19
251.231	75.19
251.465	84.19
251.698	87.19
251.931	109.19
252.164	105.19
252.397	71.19
252.63	67.19
252.863	72.19
253.096	87.19
253.329	84.19
253.562	72.19
253.795	95.19
254.028	83.19
254.261	75.19
254.494	96.19
254.727	77.19
254.96	88.19
255.193	71.19
255.426	77.19
255.659	81.19
255.892	126.19
256.124	131.19
256.357	108.19
256.59	85.19
256.823	91.19
257.056	99.19
257.289	100.19
257.521	94.19
257.754	97.19
257.987	96.19
258.22	105.19
258.452	130.19
258.685	112.19
258.918	85.19
259.151	98.19
259.383	75.19
259.616	106.19
259.849	88.19
260.081	99.19
260.314	102.19
260.547	103.19
260.779	120.19
261.012	161.19
261.244	153.19
261.477	114.19
261.71	120.19
261.942	144.19
262.175	164.19
262.407	111.19
262.64	85.19
262.872	81.19
263.105	93.19
263.337	88.19
263.57	83.19
263.802	85.19
264.035	85.19
264.267	79.19
264.499	79.19
264.732	80.19
264.964	76.19
265.197	84.19
265.429	86.19
265.661	92.19
265.894	81.19
266.126	88.19
266.358	86.19
266.591	82.19
266.823	92.19
267.055	79.19
267.287	89.19
267.52	98.19
267.752	91.19
267.984	84.19
268.216	106.19
268.448	94.19
268.681	95.19
268.913	97.19
269.145	93.19
269.377	84.19
269.609	94.19
269.841	84.19
270.073	88.19
270.306	92.19
270.538	85.19
270.77	82.19
271.002	88.19
271.234	96.19
271.466	98.19
271.698	91.19
271.93	79.19
272.162	103.19
272.394	82.19
272.626	71.19
272.858	81.19
273.09	81.19
273.322	94.19
273.553	82.19
273.785	90.19
274.017	80.19
274.249	90.19
274.481	88.19
274.713	107.19
274.945	99.19
275.176	96.19
275.408	120.19
275.64	155.19
275.872	201.19
276.104	147.19
276.335	128.19
276.567	135.19
276.799	208.19
277.031	300.19
277.262	409.19
277.494	271.19
277.726	128.19
277.957	120.19
278.189	93.19
278.421	93.19
278.652	101.19
278.884	84.19
279.115	83.19
279.347	100.19
279.579	155.19
279.81	221.19
280.042	398.19
280.273	614.19
280.505	376.19
280.736	163.19
280.968	119.19
281.199	92.19
281.431	96.19
281.662	98.19
281.894	96.19
282.125	105.19
282.356	139.19
282.588	189.19
282.819	153.19
283.051	106.19
283.282	89.19
283.513	90.19
283.745	83.19
283.976	75.19
284.207	92.19
284.439	110.19
284.67	73.19
284.901	91.19
285.132	79.19
285.364	103.19
285.595	95.19
285.826	98.19
286.057	82.19
286.288	100.19
286.52	93.19
286.751	87.19
286.982	83.19
287.213	89.19
287.444	95.19
287.675	86.19
287.906	97.19
288.138	88.19
288.369	98.19
288.6	107.19
288.831	102.19
289.062	91.19
289.293	90.19
289.524	90.19
289.755	87.19
289.986	94.19
290.217	86.19
290.448	91.19
290.679	96.19
290.91	93.19
291.141	84.19
291.371	89.19
291.602	94.19
291.833	91.19
292.064	102.19
292.295	92.19
292.526	91.19
292.757	92.19
292.987	86.19
293.218	89.19
293.449	82.19
293.68	95.19
293.91	94.19
294.141	107.19
294.372	92.19
294.603	92.19
294.833	92.19
295.064	89.19
295.295	108.19
295.525	98.19
295.756	115.19
295.987	134.19
296.217	173.19
296.448	163.19
296.679	103.19
296.909	86.19
297.14	103.19
297.37	97.19
297.601	86.19
297.831	81.19
298.062	100.19
298.292	101.19
298.523	98.19
298.753	95.19
298.984	75.19
299.214	86.19
299.445	94.19
299.675	103.19
299.905	105.19
300.136	98.19
300.366	88.19
300.597	91.19
300.827	112.19
301.057	130.19
301.288	102.19
301.518	112.19
301.748	124.19
301.979	150.19
302.209	116.19
302.439	103.19
302.669	103.19
302.9	91.19
303.13	102.19
303.36	137.19
303.59	194.19
303.82	212.19
304.051	118.19
304.281	105.19
304.511	99.19
304.741	107.19
304.971	77.19
305.201	86.19
305.431	105.19
305.661	104.19
305.891	83.19
306.121	101.19
306.352	114.19
306.582	135.19
306.812	142.19
307.042	173.19
307.272	281.19
307.502	329.19
307.731	281.19
307.961	193.19
308.191	111.19
308.421	101.19
308.651	92.19
308.881	109.19
309.111	99.19
309.341	100.19
309.571	112.19
309.8	85.19
310.03	115.19
310.26	99.19
310.49	100.19
310.72	115.19
310.949	125.19
311.179	115.19
311.409	99.19
311.639	100.19
311.868	109.19
312.098	102.19
312.328	97.19
312.557	114.19
312.787	128.19
313.017	119.19
313.246	103.19
313.476	93.19
313.706	95.19
313.935	97.19
314.165	114.19
314.394	116.19
314.624	96.19
314.853	114.19
315.083	103.19
315.312	100.19
315.542	98.19
315.771	99.19
316.001	91.19
316.23	92.19
316.46	93.19
316.689	101.19
316.919	98.19
317.148	101.19
317.377	111.19
317.607	92.19
317.836	87.19
318.065	91.19
318.295	112.19
318.524	92.19
318.753	107.19
318.983	96.19
319.212	109.19
319.441	125.19
319.67	130.19
319.9	96.19
320.129	100.19
320.358	73.19
320.587	100.19
320.816	104.19
321.046	119.19
321.275	98.19
321.504	106.19
321.733	107.19
321.962	100.19
322.191	116.19
322.42	115.19
322.649	114.19
322.878	122.19
323.108	135.19
323.337	153.19
323.566	160.19
323.795	185.19
324.024	238.19
324.253	451.19
324.482	943.19
324.71	1939.19
324.939	2572.19
325.168	989.19
325.397	307.19
325.626	174.19
325.855	149.19
326.084	146.19
326.313	158.19
326.542	169.19
326.77	253.19
326.999	470.19
327.228	941.19
327.457	1726.19
327.686	1485.19
327.914	743.19
328.143	1013.19
328.372	1470.19
328.6	715.19
328.829	285.19
329.058	251.19
329.287	253.19
329.515	273.19
329.744	453.19
329.972	988.19
330.201	2313.19
330.43	3367.19
330.658	1313.19
330.887	435.19
331.115	255.19
331.344	164.19
331.572	153.19
331.801	155.19
332.03	142.19
332.258	120.19
332.486	127.19
332.715	133.19
332.943	129.19
333.172	160.19
333.4	171.19
333.629	228.19
333.857	372.19
334.085	804.19
334.314	1906.19
334.542	3936.19
334.771	3695.19
334.999	852.19
335.227	283.19
335.455	159.19
335.684	142.19
335.912	126.19
336.14	136.19
336.369	126.19
336.597	121.19
336.825	119.19
337.053	94.19
337.281	86.19
337.51	94.19
337.738	92.19
337.966	112.19
338.194	122.19
338.422	105.19
338.65	112.19
338.878	97.19
339.106	101.19
339.334	92.19
339.562	101.19
339.79	95.19
340.018	89.19
340.246	95.19
340.474	92.19
340.702	91.19
340.93	99.19
341.158	88.19
341.386	100.19
341.614	112.19
341.842	109.19
342.07	104.19
342.298	103.19
342.526	101.19
342.754	89.19
342.981	91.19
343.209	83.19
343.437	97.19
343.665	88.19
343.893	105.19
344.12	100.19
344.348	88.19
344.576	87.19
344.804	92.19
345.031	99.19
345.259	105.19
345.487	94.19
345.714	93.19
345.942	97.19
346.17	82.19
346.397	101.19
346.625	95.19
346.853	91.19
347.08	108.19
347.308	116.19
347.535	105.19
347.763	116.19
347.99	106.19
348.218	119.19
348.445	119.19
348.673	104.19
348.9	99.19
349.128	100.19
349.355	91.19
349.583	92.19
349.81	95.19
350.037	100.19
350.265	99.19
350.492	110.19
350.72	107.19
350.947	115.19
351.174	132.19
351.402	119.19
351.629	118.19
351.856	102.19
352.083	109.19
352.311	103.19
352.538	123.19
352.765	120.19
352.992	125.19
353.22	116.19
353.447	119.19
353.674	101.19
353.901	102.19
354.128	92.19
354.355	96.19
354.583	97.19
354.81	91.19
355.037	103.19
355.264	91.19
355.491	95.19
355.718	100.19
355.945	99.19
356.172	95.19
356.399	103.19
356.626	96.19
356.853	97.19
357.08	96.19
357.307	89.19
357.534	97.19
357.761	99.19
357.988	103.19
358.215	93.19
358.441	95.19
358.668	97.19
358.895	92.19
359.122	108.19
359.349	93.19
359.576	104.19
359.802	99.19
360.029	142.19
360.256	134.19
360.483	115.19
360.709	92.19
360.936	102.19
361.163	103.19
361.39	102.19
361.616	107.19
361.843	95.19
362.07	101.19
362.296	124.19
362.523	106.19
362.749	93.19
362.976	118.19
363.203	102.19
363.429	95.19
363.656	88.19
363.882	83.19
364.109	93.19
364.335	111.19
364.562	100.19
364.788	91.19
365.015	104.19
365.241	109.19
365.468	122.19
365.694	115.19
365.92	117.19
366.147	107.19
366.373	98.19
366.599	92.19
366.826	91.19
367.052	96.19
367.278	100.19
367.505	100.19
367.731	111.19
367.957	96.19
368.184	94.19
368.41	109.19
368.636	106.19
368.862	124.19
369.089	126.19
369.315	97.19
369.541	99.19
369.767	86.19
369.993	103.19
370.219	83.19
370.445	95.19
370.672	102.19
370.898	93.19
371.124	99.19
371.35	96.19
371.576	84.19
371.802	88.19
372.028	94.19
372.254	92.19
372.48	95.19
372.706	92.19
372.932	89.19
373.158	92.19
373.384	103.19
373.61	98.19
373.835	92.19
374.061	71.19
374.287	76.19
374.513	94.19
374.739	92.19
374.965	94.19
375.191	78.19
375.416	88.19
375.642	101.19
375.868	86.19
376.094	93.19
376.319	105.19
376.545	106.19
376.771	81.19
376.997	89.19
377.222	103.19
377.448	94.19
377.674	92.19
377.899	84.19
378.125	89.19
378.35	98.19
378.576	87.19
378.802	108.19
379.027	109.19
379.253	80.19
379.478	96.19
379.704	97.19
379.929	106.19
380.155	115.19
380.38	107.19
380.606	104.19
380.831	103.19
381.057	108.19
381.282	111.19
381.507	97.19
381.733	106.19
381.958	96.19
382.184	121.19
382.409	103.19
382.634	119.19
382.86	113.19
383.085	127.19
383.31	117.19
383.535	122.19
383.761	115.19
383.986	108.19
384.211	108.19
384.436	114.19
384.662	118.19
384.887	127.19
385.112	117.19
385.337	118.19
385.562	120.19
385.787	125.19
386.013	136.19
386.238	133.19
386.463	125.19
386.688	113.19
386.913	131.19
387.138	129.19
387.363	132.19
387.588	104.19
387.813	102.19
388.038	126.19
388.263	140.19
388.488	126.19
388.713	94.19
388.938	109.19
389.163	109.19
389.387	94.19
389.612	101.19
389.837	104.19
390.062	93.19
390.287	90.19
390.512	89.19
390.736	109.19
390.961	100.19
391.186	95.19
391.411	86.19
391.636	96.19
391.86	83.19
392.085	90.19
392.31	85.19
392.534	86.19
392.759	95.19
392.984	101.19
393.208	93.19
393.433	100.19
393.658	98.19
393.882	91.19
394.107	93.19
394.331	90.19
394.556	81.19
394.78	92.19
395.005	88.19
395.229	77.19
395.454	80.19
395.678	89.19
395.903	96.19
396.127	88.19
396.352	84.19
396.576	98.19
396.801	99.19
397.025	100.19
397.249	101.19
397.474	84.19
397.698	79.19
397.922	101.19
398.147	89.19
398.371	83.19
398.595	84.19
398.82	92.19
399.044	95.19
399.268	98.19
399.492	81.19
399.717	82.19
399.941	81.19
400.165	93.19
400.389	102.19
400.613	87.19
400.837	80.19
401.062	88.19
401.286	84.19
401.51	95.19
401.734	81.19
401.958	119.19
402.182	144.19
402.406	203.19
402.63	169.19
402.854	97.19
403.078	94.19
403.302	87.19
403.526	104.19
403.75	99.19
403.974	92.19
404.198	86.19
404.422	97.19
404.645	87.19
404.869	110.19
405.093	128.19
405.317	163.19
405.541	160.19
405.765	120.19
405.988	150.19
406.212	229.19
406.436	320.19
406.66	222.19
406.883	119.19
407.107	109.19
407.331	100.19
407.555	110.19
407.778	101.19
408.002	86.19
408.226	98.19
408.449	79.19
408.673	96.19
408.896	96.19
409.12	100.19
409.344	105.19
409.567	108.19
409.791	89.19
410.014	99.19
410.238	97.19
410.461	98.19
410.685	94.19
410.908	86.19
411.132	108.19
411.355	107.19
411.578	100.19
411.802	91.19
412.025	91.19
412.249	104.19
412.472	123.19
412.695	167.19
412.919	142.19
413.142	103.19
413.365	96.19
413.589	96.19
413.812	97.19
414.035	104.19
414.258	115.19
414.482	112.19
414.705	86.19
414.928	92.19
415.151	102.19
415.374	78.19
415.597	97.19
415.821	91.19
416.044	91.19
416.267	97.19
416.49	95.19
416.713	104.19
416.936	111.19
417.159	101.19
417.382	107.19
417.605	137.19
417.828	138.19
418.051	115.19
418.274	105.19
418.497	95.19
418.72	88.19
418.943	95.19
419.166	93.19
419.389	86.19
419.611	104.19
419.834	96.19
420.057	89.19
420.28	103.19
420.503	80.19
420.726	97.19
420.948	101.19
421.171	111.19
421.394	100.19
421.617	98.19
421.839	91.19
422.062	100.19
422.285	99.19
422.507	107.19
422.73	104.19
422.953	102.19
423.175	101.19
423.398	94.19
423.621	94.19
423.843	87.19
424.066	104.19
424.288	86.19
424.511	101.19
424.733	111.19
424.956	116.19
425.178	107.19
425.401	101.19
425.623	108.19
425.846	91.19
426.068	111.19
426.291	112.19
426.513	85.19
426.735	105.19
426.958	92.19
427.18	125.19
427.402	168.19
427.625	290.19
427.847	267.19
428.069	235.19
428.292	149.19
428.514	117.19
428.736	94.19
428.958	102.19
429.181	94.19
429.403	79.19
429.625	98.19
429.847	113.19
430.069	114.19
430.292	89.19
430.514	98.19
430.736	75.19
430.958	87.19
431.18	93.19
431.402	81.19
431.624	80.19
431.846	91.19
432.068	93.19
432.29	97.19
432.512	96.19
432.734	84.19
432.956	99.19
433.178	93.19
433.4	95.19
433.622	107.19
433.844	94.19
434.066	92.19
434.287	94.19
434.509	96.19
434.731	90.19
434.953	83.19
435.175	104.19
435.397	88.19
435.618	101.19
435.84	104.19
436.062	132.19
436.284	120.19
436.505	113.19
436.727	94.19
436.949	90.19
437.17	79.19
437.392	102.19
437.614	104.19
437.835	128.19
438.057	147.19
438.278	135.19
438.5	108.19
438.721	148.19
438.943	113.19
439.165	96.19
439.386	89.19
439.608	97.19
439.829	119.19
440.05	167.19
440.272	173.19
440.493	112.19
440.715	94.19
440.936	91.19
441.158	100.19
441.379	89.19
441.6	107.19
441.822	104.19
442.043	115.19
442.264	108.19
442.486	117.19
442.707	106.19
442.928	110.19
443.149	190.19
443.371	188.19
443.592	137.19
443.813	131.19
444.034	132.19
444.255	105.19
444.476	93.19
444.698	92.19
444.919	86.19
445.14	130.19
445.361	131.19
445.582	146.19
445.803	190.19
446.024	178.19
446.245	160.19
446.466	127.19
446.687	93.19
446.908	83.19
447.129	96.19
447.35	97.19
447.571	101.19
447.792	106.19
448.013	120.19
448.234	135.19
448.455	124.19
448.675	125.19
448.896	126.19
449.117	108.19
449.338	107.19
449.559	145.19
449.779	153.19
450	109.19
450.221	91.19
450.442	91.19
450.662	100.19
450.883	124.19
451.104	149.19
451.324	106.19
451.545	105.19
451.766	88.19
451.986	95.19
452.207	89.19
452.428	94.19
452.648	103.19
452.869	130.19
453.089	134.19
453.31	149.19
453.53	111.19
453.751	95.19
453.971	105.19
454.192	135.19
454.412	101.19
454.633	92.19
454.853	95.19
455.073	84.19
455.294	100.19
455.514	108.19
455.734	114.19
455.955	88.19
456.175	89.19
456.395	86.19
456.616	84.19
456.836	79.19
457.056	88.19
457.276	85.19
457.497	77.19
457.717	80.19
457.937	107.19
458.157	94.19
458.377	94.19
458.598	140.19
458.818	216.19
459.038	243.19
459.258	167.19
459.478	109.19
459.698	96.19
459.918	101.19
460.138	87.19
460.358	87.19
460.578	90.19
460.798	89.19
461.018	94.19
461.238	83.19
461.458	82.19
461.678	70.19
461.898	102.19
462.118	97.19
462.338	93.19
462.558	106.19
462.777	97.19
462.997	127.19
463.217	169.19
463.437	126.19
463.657	105.19
463.876	99.19
464.096	90.19
464.316	93.19
464.536	110.19
464.755	115.19
464.975	127.19
465.195	256.19
465.414	248.19
465.634	119.19
465.854	105.19
466.073	107.19
466.293	86.19
466.512	77.19
466.732	108.19
466.951	108.19
467.171	104.19
467.391	137.19
467.61	208.19
467.829	391.19
468.049	1423.19
468.268	2271.19
468.488	445.19
468.707	155.19
468.927	98.19
469.146	92.19
469.365	102.19
469.585	122.19
469.804	117.19
470.023	128.19
470.243	118.19
470.462	134.19
470.681	162.19
470.901	132.19
471.12	123.19
471.339	123.19
471.558	160.19
471.777	254.19
471.997	582.19
472.216	2541.19
472.435	6051.19
472.654	1239.19
472.873	270.19
473.092	157.19
473.311	109.19
473.53	104.19
473.749	115.19
473.968	120.19
474.187	127.19
474.406	107.19
474.625	102.19
474.844	95.19
475.063	87.19
475.282	91.19
475.501	95.19
475.72	99.19
475.939	102.19
476.158	89.19
476.377	100.19
476.596	100.19
476.814	96.19
477.033	97.19
477.252	88.19
477.471	98.19
477.69	91.19
477.908	102.19
478.127	93.19
478.346	110.19
478.564	110.19
478.783	109.19
479.002	139.19
479.22	127.19
479.439	157.19
479.658	165.19
479.876	161.19
480.095	165.19
480.313	182.19
480.532	263.19
480.751	518.19
480.969	2109.19
481.188	9613.19
481.406	5383.19
481.624	667.19
481.843	210.19
482.061	153.19
482.28	134.19
482.498	102.19
482.717	99.19
482.935	111.19
483.153	99.19
483.372	101.19
483.59	94.19
483.808	102.19
484.027	99.19
484.245	106.19
484.463	105.19
484.681	105.19
484.9	89.19
485.118	100.19
485.336	99.19
485.554	93.19
485.772	100.19
485.99	108.19
486.209	103.19
486.427	121.19
486.645	132.19
486.863	143.19
487.081	128.19
487.299	116.19
487.517	99.19
487.735	89.19
487.953	123.19
488.171	99.19
488.389	101.19
488.607	105.19
488.825	110.19
489.043	98.19
489.261	105.19
489.479	87.19
489.696	87.19
489.914	91.19
490.132	93.19
490.35	99.19
490.568	98.19
490.786	92.19
491.003	104.19
491.221	104.19
491.439	101.19
491.657	97.19
491.874	101.19
492.092	103.19
492.31	96.19
492.527	117.19
492.745	108.19
492.963	104.19
493.18	91.19
493.398	93.19
493.615	104.19
493.833	101.19
494.05	103.19
494.268	97.19
494.485	100.19
494.703	92.19
494.92	91.19
495.138	93.19
495.355	95.19
495.573	95.19
495.79	85.19
496.008	93.19
496.225	83.19
496.442	100.19
496.66	101.19
496.877	92.19
497.094	102.19
497.312	80.19
497.529	93.19
497.746	100.19
497.963	91.19
498.181	102.19
498.398	94.19
498.615	118.19
498.832	115.19
499.049	88.19
499.267	96.19
499.484	91.19
499.701	95.19
499.918	89.19
500.135	86.19
500.352	105.19
500.569	96.19
500.786	105.19
501.003	107.19
501.22	88.19
501.437	103.19
501.654	104.19
501.871	143.19
502.088	99.19
502.305	98.19
502.522	85.19
502.739	77.19
502.956	92.19
503.172	93.19
503.389	124.19
503.606	127.19
503.823	122.19
504.04	97.19
504.256	96.19
504.473	85.19
504.69	98.19
504.907	92.19
505.123	96.19
505.34	89.19
505.557	105.19
505.773	101.19
505.99	87.19
506.207	88.19
506.423	101.19
506.64	115.19
506.856	85.19
507.073	102.19
507.289	114.19
507.506	103.19
507.722	135.19
507.939	144.19
508.155	112.19
508.372	91.19
508.588	93.19
508.805	101.19
509.021	107.19
509.238	112.19
509.454	100.19
509.67	104.19
509.887	128.19
510.103	144.19
510.319	261.19
510.536	996.19
510.752	3589.19
510.968	934.19
