Data from Circ_1988_H10_HRD10591_00082.txt Node
Date: Wed Jan 03 12:05:51 EST 2024
User: Yrep
Spectrometer: HR+D1059
Trigger mode: 1
Integration Time (sec): 1.000000E-1
Scans to average: 1
Electric dark correction enabled: true
Nonlinearity correction enabled: false
Boxcar width: 0
XAxis mode: Wavelengths
Number of Pixels in Spectrum: 2048
>>>>>Begin Spectral Data<<<<<
223.165	-14.25
223.4	-14.25
223.635	-14.25
223.869	-19.25
224.104	-15.25
224.338	-14.25
224.573	-5.25
224.808	-15.25
225.042	-17.25
225.277	-5.25
225.511	8.75
225.746	5.75
225.98	8.75
226.215	5.75
226.449	14.75
226.683	16.75
226.918	20.75
227.152	24.75
227.387	31.75
227.621	42.75
227.856	46.75
228.09	46.75
228.324	41.75
228.559	57.75
228.793	52.75
229.027	54.75
229.262	68.75
229.496	77.75
229.73	88.75
229.964	96.75
230.199	74.75
230.433	73.75
230.667	71.75
230.901	85.75
231.136	76.75
231.37	92.75
231.604	87.75
231.838	78.75
232.072	77.75
232.306	80.75
232.541	84.75
232.775	73.75
233.009	89.75
233.243	81.75
233.477	79.75
233.711	77.75
233.945	87.75
234.179	77.75
234.413	82.75
234.647	92.75
234.881	84.75
235.115	74.75
235.349	83.75
235.583	80.75
235.817	69.75
236.051	89.75
236.285	80.75
236.519	80.75
236.753	69.75
236.987	71.75
237.221	98.75
237.455	110.75
237.689	76.75
237.922	58.75
238.156	85.75
238.39	78.75
238.624	73.75
238.858	88.75
239.091	86.75
239.325	100.75
239.559	84.75
239.793	96.75
240.027	93.75
240.26	92.75
240.494	81.75
240.728	77.75
240.961	85.75
241.195	82.75
241.429	82.75
241.662	76.75
241.896	76.75
242.13	82.75
242.363	72.75
242.597	73.75
242.83	71.75
243.064	83.75
243.298	74.75
243.531	84.75
243.765	76.75
243.998	92.75
244.232	84.75
244.465	99.75
244.699	78.75
244.932	81.75
245.166	84.75
245.399	84.75
245.633	95.75
245.866	82.75
246.099	88.75
246.333	86.75
246.566	77.75
246.8	82.75
247.033	77.75
247.266	79.75
247.5	81.75
247.733	74.75
247.966	74.75
248.2	92.75
248.433	90.75
248.666	92.75
248.899	96.75
249.133	89.75
249.366	98.75
249.599	92.75
249.832	82.75
250.066	94.75
250.299	91.75
250.532	90.75
250.765	79.75
250.998	86.75
251.231	93.75
251.465	76.75
251.698	98.75
251.931	93.75
252.164	81.75
252.397	98.75
252.63	82.75
252.863	84.75
253.096	85.75
253.329	88.75
253.562	93.75
253.795	78.75
254.028	86.75
254.261	86.75
254.494	86.75
254.727	84.75
254.96	79.75
255.193	98.75
255.426	80.75
255.659	84.75
255.892	103.75
256.124	104.75
256.357	80.75
256.59	89.75
256.823	94.75
257.056	95.75
257.289	96.75
257.521	98.75
257.754	87.75
257.987	100.75
258.22	98.75
258.452	111.75
258.685	110.75
258.918	99.75
259.151	90.75
259.383	79.75
259.616	89.75
259.849	88.75
260.081	85.75
260.314	87.75
260.547	88.75
260.779	129.75
261.012	146.75
261.244	141.75
261.477	105.75
261.71	111.75
261.942	134.75
262.175	148.75
262.407	103.75
262.64	96.75
262.872	93.75
263.105	103.75
263.337	72.75
263.57	96.75
263.802	92.75
264.035	93.75
264.267	97.75
264.499	87.75
264.732	97.75
264.964	84.75
265.197	86.75
265.429	80.75
265.661	71.75
265.894	99.75
266.126	91.75
266.358	80.75
266.591	100.75
266.823	87.75
267.055	89.75
267.287	90.75
267.52	90.75
267.752	74.75
267.984	86.75
268.216	87.75
268.448	100.75
268.681	86.75
268.913	94.75
269.145	82.75
269.377	91.75
269.609	90.75
269.841	98.75
270.073	95.75
270.306	88.75
270.538	81.75
270.77	72.75
271.002	88.75
271.234	99.75
271.466	90.75
271.698	100.75
271.93	88.75
272.162	96.75
272.394	84.75
272.626	84.75
272.858	94.75
273.09	82.75
273.322	88.75
273.553	93.75
273.785	98.75
274.017	86.75
274.249	103.75
274.481	106.75
274.713	90.75
274.945	86.75
275.176	99.75
275.408	115.75
275.64	153.75
275.872	175.75
276.104	148.75
276.335	113.75
276.567	129.75
276.799	184.75
277.031	243.75
277.262	337.75
277.494	237.75
277.726	112.75
277.957	98.75
278.189	97.75
278.421	90.75
278.652	114.75
278.884	97.75
279.115	99.75
279.347	109.75
279.579	121.75
279.81	198.75
280.042	318.75
280.273	495.75
280.505	315.75
280.736	145.75
280.968	92.75
281.199	91.75
281.431	101.75
281.662	100.75
281.894	96.75
282.125	108.75
282.356	141.75
282.588	188.75
282.819	141.75
283.051	98.75
283.282	93.75
283.513	96.75
283.745	78.75
283.976	85.75
284.207	106.75
284.439	92.75
284.67	92.75
284.901	105.75
285.132	89.75
285.364	78.75
285.595	89.75
285.826	97.75
286.057	98.75
286.288	97.75
286.52	92.75
286.751	88.75
286.982	95.75
287.213	78.75
287.444	88.75
287.675	84.75
287.906	87.75
288.138	95.75
288.369	105.75
288.6	102.75
288.831	90.75
289.062	82.75
289.293	82.75
289.524	90.75
289.755	81.75
289.986	90.75
290.217	82.75
290.448	90.75
290.679	86.75
290.91	88.75
291.141	80.75
291.371	95.75
291.602	80.75
291.833	90.75
292.064	68.75
292.295	104.75
292.526	101.75
292.757	83.75
292.987	85.75
293.218	95.75
293.449	86.75
293.68	94.75
293.91	93.75
294.141	104.75
294.372	87.75
294.603	101.75
294.833	93.75
295.064	89.75
295.295	74.75
295.525	101.75
295.756	96.75
295.987	135.75
296.217	171.75
296.448	159.75
296.679	91.75
296.909	87.75
297.14	97.75
297.37	94.75
297.601	87.75
297.831	102.75
298.062	90.75
298.292	106.75
298.523	93.75
298.753	84.75
298.984	93.75
299.214	92.75
299.445	86.75
299.675	82.75
299.905	96.75
300.136	92.75
300.366	86.75
300.597	88.75
300.827	87.75
301.057	105.75
301.288	128.75
301.518	99.75
301.748	96.75
301.979	134.75
302.209	96.75
302.439	100.75
302.669	88.75
302.9	88.75
303.13	117.75
303.36	122.75
303.59	168.75
303.82	202.75
304.051	118.75
304.281	103.75
304.511	95.75
304.741	88.75
304.971	85.75
305.201	81.75
305.431	93.75
305.661	98.75
305.891	95.75
306.121	92.75
306.352	126.75
306.582	127.75
306.812	124.75
307.042	152.75
307.272	257.75
307.502	270.75
307.731	259.75
307.961	147.75
308.191	115.75
308.421	98.75
308.651	93.75
308.881	101.75
309.111	97.75
309.341	97.75
309.571	117.75
309.8	91.75
310.03	93.75
310.26	100.75
310.49	107.75
310.72	112.75
310.949	114.75
311.179	124.75
311.409	111.75
311.639	87.75
311.868	107.75
312.098	104.75
312.328	111.75
312.557	108.75
312.787	113.75
313.017	124.75
313.246	100.75
313.476	94.75
313.706	111.75
313.935	101.75
314.165	123.75
314.394	113.75
314.624	95.75
314.853	103.75
315.083	108.75
315.312	98.75
315.542	93.75
315.771	110.75
316.001	94.75
316.23	102.75
316.46	103.75
316.689	91.75
316.919	100.75
317.148	99.75
317.377	113.75
317.607	92.75
317.836	97.75
318.065	90.75
318.295	99.75
318.524	109.75
318.753	105.75
318.983	104.75
319.212	88.75
319.441	120.75
319.67	123.75
319.9	98.75
320.129	100.75
320.358	104.75
320.587	102.75
320.816	106.75
321.046	106.75
321.275	93.75
321.504	99.75
321.733	104.75
321.962	95.75
322.191	114.75
322.42	133.75
322.649	111.75
322.878	122.75
323.108	128.75
323.337	145.75
323.566	150.75
323.795	169.75
324.024	204.75
324.253	406.75
324.482	814.75
324.71	1600.75
324.939	2140.75
325.168	848.75
325.397	255.75
325.626	172.75
325.855	132.75
326.084	144.75
326.313	144.75
326.542	162.75
326.77	225.75
326.999	405.75
327.228	824.75
327.457	1440.75
327.686	1301.75
327.914	647.75
328.143	838.75
328.372	1238.75
328.6	622.75
328.829	251.75
329.058	206.75
329.287	228.75
329.515	243.75
329.744	380.75
329.972	814.75
330.201	1847.75
330.43	2787.75
330.658	1128.75
330.887	382.75
331.115	224.75
331.344	146.75
331.572	119.75
331.801	128.75
332.03	134.75
332.258	117.75
332.486	112.75
332.715	115.75
332.943	136.75
333.172	143.75
333.4	162.75
333.629	204.75
333.857	309.75
334.085	658.75
334.314	1520.75
334.542	3232.75
334.771	3093.75
334.999	713.75
335.227	246.75
335.455	162.75
335.684	131.75
335.912	150.75
336.14	119.75
336.369	132.75
336.597	125.75
336.825	105.75
337.053	110.75
337.281	104.75
337.51	104.75
337.738	94.75
337.966	100.75
338.194	114.75
338.422	96.75
338.65	92.75
338.878	99.75
339.106	83.75
339.334	95.75
339.562	100.75
339.79	90.75
340.018	97.75
340.246	104.75
340.474	103.75
340.702	99.75
340.93	103.75
341.158	89.75
341.386	103.75
341.614	111.75
341.842	109.75
342.07	93.75
342.298	99.75
342.526	98.75
342.754	97.75
342.981	100.75
343.209	107.75
343.437	103.75
343.665	80.75
343.893	91.75
344.12	89.75
344.348	89.75
344.576	99.75
344.804	95.75
345.031	95.75
345.259	131.75
345.487	109.75
345.714	101.75
345.942	92.75
346.17	92.75
346.397	96.75
346.625	99.75
346.853	96.75
347.08	101.75
347.308	106.75
347.535	105.75
347.763	116.75
347.99	99.75
348.218	112.75
348.445	120.75
348.673	115.75
348.9	104.75
349.128	102.75
349.355	109.75
349.583	100.75
349.81	90.75
350.037	86.75
350.265	100.75
350.492	83.75
350.72	98.75
350.947	111.75
351.174	109.75
351.402	129.75
351.629	101.75
351.856	97.75
352.083	103.75
352.311	104.75
352.538	128.75
352.765	117.75
352.992	110.75
353.22	127.75
353.447	102.75
353.674	114.75
353.901	99.75
354.128	78.75
354.355	91.75
354.583	96.75
354.81	112.75
355.037	92.75
355.264	95.75
355.491	93.75
355.718	82.75
355.945	115.75
356.172	84.75
356.399	100.75
356.626	88.75
356.853	93.75
357.08	96.75
357.307	101.75
357.534	80.75
357.761	101.75
357.988	93.75
358.215	105.75
358.441	106.75
358.668	95.75
358.895	76.75
359.122	84.75
359.349	101.75
359.576	86.75
359.802	116.75
360.029	131.75
360.256	133.75
360.483	112.75
360.709	108.75
360.936	88.75
361.163	103.75
361.39	119.75
361.616	97.75
361.843	91.75
362.07	119.75
362.296	106.75
362.523	104.75
362.749	95.75
362.976	98.75
363.203	111.75
363.429	98.75
363.656	92.75
363.882	100.75
364.109	85.75
364.335	95.75
364.562	76.75
364.788	96.75
365.015	94.75
365.241	112.75
365.468	120.75
365.694	118.75
365.92	101.75
366.147	96.75
366.373	88.75
366.599	100.75
366.826	103.75
367.052	108.75
367.278	108.75
367.505	92.75
367.731	110.75
367.957	103.75
368.184	87.75
368.41	110.75
368.636	130.75
368.862	144.75
369.089	119.75
369.315	110.75
369.541	89.75
369.767	105.75
369.993	93.75
370.219	95.75
370.445	90.75
370.672	97.75
370.898	89.75
371.124	89.75
371.35	88.75
371.576	93.75
371.802	92.75
372.028	87.75
372.254	78.75
372.48	77.75
372.706	100.75
372.932	88.75
373.158	105.75
373.384	82.75
373.61	84.75
373.835	102.75
374.061	113.75
374.287	83.75
374.513	95.75
374.739	95.75
374.965	93.75
375.191	88.75
375.416	89.75
375.642	80.75
375.868	96.75
376.094	89.75
376.319	96.75
376.545	81.75
376.771	95.75
376.997	100.75
377.222	96.75
377.448	90.75
377.674	82.75
377.899	92.75
378.125	84.75
378.35	95.75
378.576	95.75
378.802	97.75
379.027	77.75
379.253	89.75
379.478	86.75
379.704	97.75
379.929	99.75
380.155	89.75
380.38	90.75
380.606	92.75
380.831	104.75
381.057	111.75
381.282	87.75
381.507	88.75
381.733	94.75
381.958	101.75
382.184	101.75
382.409	103.75
382.634	118.75
382.86	117.75
383.085	96.75
383.31	92.75
383.535	100.75
383.761	102.75
383.986	100.75
384.211	106.75
384.436	102.75
384.662	109.75
384.887	122.75
385.112	99.75
385.337	106.75
385.562	114.75
385.787	105.75
386.013	119.75
386.238	125.75
386.463	124.75
386.688	105.75
386.913	116.75
387.138	114.75
387.363	103.75
387.588	103.75
387.813	106.75
388.038	117.75
388.263	105.75
388.488	106.75
388.713	87.75
388.938	84.75
389.163	93.75
389.387	94.75
389.612	95.75
389.837	85.75
390.062	98.75
390.287	87.75
390.512	92.75
390.736	93.75
390.961	97.75
391.186	83.75
391.411	81.75
391.636	102.75
391.86	88.75
392.085	80.75
392.31	89.75
392.534	87.75
392.759	92.75
392.984	94.75
393.208	88.75
393.433	92.75
393.658	85.75
393.882	87.75
394.107	83.75
394.331	99.75
394.556	90.75
394.78	87.75
395.005	89.75
395.229	82.75
395.454	80.75
395.678	93.75
395.903	84.75
396.127	92.75
396.352	84.75
396.576	110.75
396.801	92.75
397.025	86.75
397.249	102.75
397.474	94.75
397.698	92.75
397.922	93.75
398.147	79.75
398.371	82.75
398.595	86.75
398.82	73.75
399.044	78.75
399.268	80.75
399.492	70.75
399.717	88.75
399.941	100.75
400.165	97.75
400.389	103.75
400.613	94.75
400.837	97.75
401.062	90.75
401.286	98.75
401.51	100.75
401.734	106.75
401.958	109.75
402.182	148.75
402.406	213.75
402.63	156.75
402.854	96.75
403.078	92.75
403.302	89.75
403.526	90.75
403.75	84.75
403.974	85.75
404.198	91.75
404.422	86.75
404.645	86.75
404.869	102.75
405.093	125.75
405.317	157.75
405.541	146.75
405.765	121.75
405.988	136.75
406.212	211.75
406.436	311.75
406.66	193.75
406.883	118.75
407.107	103.75
407.331	110.75
407.555	105.75
407.778	92.75
408.002	97.75
408.226	98.75
408.449	100.75
408.673	101.75
408.896	95.75
409.12	101.75
409.344	90.75
409.567	97.75
409.791	110.75
410.014	81.75
410.238	92.75
410.461	94.75
410.685	74.75
410.908	92.75
411.132	111.75
411.355	112.75
411.578	94.75
411.802	90.75
412.025	87.75
412.249	117.75
412.472	128.75
412.695	161.75
412.919	124.75
413.142	119.75
413.365	89.75
413.589	87.75
413.812	92.75
414.035	95.75
414.258	95.75
414.482	99.75
414.705	104.75
414.928	94.75
415.151	105.75
415.374	98.75
415.597	90.75
415.821	98.75
416.044	98.75
416.267	103.75
416.49	82.75
416.713	110.75
416.936	84.75
417.159	92.75
417.382	113.75
417.605	107.75
417.828	128.75
418.051	112.75
418.274	97.75
418.497	84.75
418.72	90.75
418.943	106.75
419.166	100.75
419.389	109.75
419.611	108.75
419.834	105.75
420.057	104.75
420.28	98.75
420.503	91.75
420.726	98.75
420.948	85.75
421.171	118.75
421.394	97.75
421.617	96.75
421.839	91.75
422.062	87.75
422.285	103.75
422.507	97.75
422.73	105.75
422.953	89.75
423.175	87.75
423.398	72.75
423.621	76.75
423.843	83.75
424.066	87.75
424.288	96.75
424.511	88.75
424.733	113.75
424.956	111.75
425.178	108.75
425.401	115.75
425.623	103.75
425.846	101.75
426.068	105.75
426.291	112.75
426.513	94.75
426.735	117.75
426.958	94.75
427.18	109.75
427.402	184.75
427.625	262.75
427.847	236.75
428.069	222.75
428.292	150.75
428.514	119.75
428.736	94.75
428.958	81.75
429.181	88.75
429.403	88.75
429.625	97.75
429.847	94.75
430.069	109.75
430.292	95.75
430.514	97.75
430.736	90.75
430.958	86.75
431.18	95.75
431.402	95.75
431.624	72.75
431.846	73.75
432.068	85.75
432.29	88.75
432.512	88.75
432.734	78.75
432.956	89.75
433.178	89.75
433.4	93.75
433.622	100.75
433.844	88.75
434.066	95.75
434.287	93.75
434.509	100.75
434.731	98.75
434.953	93.75
435.175	78.75
435.397	111.75
435.618	115.75
435.84	115.75
436.062	129.75
436.284	132.75
436.505	102.75
436.727	93.75
436.949	109.75
437.17	95.75
437.392	95.75
437.614	106.75
437.835	126.75
438.057	160.75
438.278	128.75
438.5	112.75
438.721	130.75
438.943	104.75
439.165	87.75
439.386	88.75
439.608	93.75
439.829	100.75
440.05	132.75
440.272	175.75
440.493	114.75
440.715	87.75
440.936	86.75
441.158	85.75
441.379	106.75
441.6	110.75
441.822	117.75
442.043	93.75
442.264	128.75
442.486	112.75
442.707	84.75
442.928	116.75
443.149	170.75
443.371	176.75
443.592	133.75
443.813	116.75
444.034	123.75
444.255	95.75
444.476	96.75
444.698	90.75
444.919	93.75
445.14	144.75
445.361	104.75
445.582	118.75
445.803	176.75
446.024	173.75
446.245	142.75
446.466	121.75
446.687	97.75
446.908	100.75
447.129	92.75
447.35	95.75
447.571	108.75
447.792	91.75
448.013	112.75
448.234	110.75
448.455	104.75
448.675	124.75
448.896	132.75
449.117	113.75
449.338	113.75
449.559	136.75
449.779	140.75
450	102.75
450.221	96.75
450.442	81.75
450.662	104.75
450.883	118.75
451.104	140.75
451.324	107.75
451.545	106.75
451.766	90.75
451.986	93.75
452.207	96.75
452.428	112.75
452.648	105.75
452.869	141.75
453.089	140.75
453.31	136.75
453.53	109.75
453.751	93.75
453.971	119.75
454.192	143.75
454.412	98.75
454.633	93.75
454.853	100.75
455.073	94.75
455.294	105.75
455.514	124.75
455.734	98.75
455.955	81.75
456.175	87.75
456.395	80.75
456.616	105.75
456.836	91.75
457.056	88.75
457.276	90.75
457.497	94.75
457.717	103.75
457.937	98.75
458.157	98.75
458.377	93.75
458.598	138.75
458.818	209.75
459.038	233.75
459.258	155.75
459.478	122.75
459.698	97.75
459.918	93.75
460.138	85.75
460.358	97.75
460.578	85.75
460.798	100.75
461.018	85.75
461.238	83.75
461.458	96.75
461.678	93.75
461.898	83.75
462.118	81.75
462.338	78.75
462.558	84.75
462.777	89.75
462.997	122.75
463.217	140.75
463.437	116.75
463.657	105.75
463.876	97.75
464.096	83.75
464.316	116.75
464.536	106.75
464.755	113.75
464.975	142.75
465.195	241.75
465.414	253.75
465.634	110.75
465.854	87.75
466.073	92.75
466.293	99.75
466.512	101.75
466.732	113.75
466.951	103.75
467.171	115.75
467.391	121.75
467.61	182.75
467.829	342.75
468.049	1211.75
468.268	1881.75
468.488	430.75
468.707	145.75
468.927	116.75
469.146	93.75
469.365	80.75
469.585	106.75
469.804	109.75
470.023	115.75
470.243	113.75
470.462	126.75
470.681	157.75
470.901	114.75
471.12	137.75
471.339	131.75
471.558	154.75
471.777	224.75
471.997	505.75
472.216	2112.75
472.435	5212.75
472.654	1079.75
472.873	244.75
473.092	130.75
473.311	104.75
473.53	95.75
473.749	97.75
473.968	96.75
474.187	132.75
474.406	112.75
474.625	103.75
474.844	92.75
475.063	113.75
475.282	88.75
475.501	89.75
475.72	96.75
475.939	89.75
476.158	94.75
476.377	86.75
476.596	103.75
476.814	105.75
477.033	117.75
477.252	109.75
477.471	100.75
477.69	109.75
477.908	112.75
478.127	102.75
478.346	112.75
478.564	111.75
478.783	121.75
479.002	120.75
479.22	122.75
479.439	142.75
479.658	154.75
479.876	146.75
480.095	139.75
480.313	160.75
480.532	236.75
480.751	464.75
480.969	1795.75
481.188	8372.75
481.406	4621.75
481.624	580.75
481.843	177.75
482.061	134.75
482.28	130.75
482.498	119.75
482.717	106.75
482.935	95.75
483.153	93.75
483.372	96.75
483.59	106.75
483.808	92.75
484.027	86.75
484.245	102.75
484.463	114.75
484.681	106.75
484.9	91.75
485.118	104.75
485.336	97.75
485.554	111.75
485.772	117.75
485.99	118.75
486.209	114.75
486.427	120.75
486.645	125.75
486.863	136.75
487.081	122.75
487.299	114.75
487.517	92.75
487.735	92.75
487.953	109.75
488.171	98.75
488.389	99.75
488.607	108.75
488.825	104.75
489.043	99.75
489.261	106.75
489.479	90.75
489.696	93.75
489.914	101.75
490.132	100.75
490.35	96.75
490.568	95.75
490.786	95.75
491.003	98.75
491.221	106.75
491.439	116.75
491.657	95.75
491.874	104.75
492.092	89.75
492.31	90.75
492.527	86.75
492.745	105.75
492.963	86.75
493.18	108.75
493.398	86.75
493.615	98.75
493.833	112.75
494.05	79.75
494.268	94.75
494.485	83.75
494.703	75.75
494.92	92.75
495.138	85.75
495.355	92.75
495.573	92.75
495.79	85.75
496.008	96.75
496.225	81.75
496.442	91.75
496.66	87.75
496.877	103.75
497.094	89.75
497.312	96.75
497.529	81.75
497.746	97.75
497.963	107.75
498.181	103.75
498.398	116.75
498.615	106.75
498.832	113.75
499.049	90.75
499.267	102.75
499.484	90.75
499.701	87.75
499.918	81.75
500.135	99.75
500.352	103.75
500.569	105.75
500.786	95.75
501.003	93.75
501.22	78.75
501.437	92.75
501.654	101.75
501.871	138.75
502.088	98.75
502.305	90.75
502.522	101.75
502.739	81.75
502.956	89.75
503.172	96.75
503.389	106.75
503.606	142.75
503.823	103.75
504.04	92.75
504.256	94.75
504.473	101.75
504.69	84.75
504.907	93.75
505.123	117.75
505.34	98.75
505.557	101.75
505.773	96.75
505.99	94.75
506.207	97.75
506.423	93.75
506.64	95.75
506.856	86.75
507.073	89.75
507.289	98.75
507.506	109.75
507.722	133.75
507.939	137.75
508.155	105.75
508.372	110.75
508.588	101.75
508.805	109.75
509.021	105.75
509.238	104.75
509.454	110.75
509.67	108.75
509.887	117.75
510.103	148.75
510.319	256.75
510.536	1012.75
510.752	3702.75
510.968	952.75
511.184	197.75
511.401	126.75
511.617	114.75
