Data from Circ_1988_H10_HRD10591_00091.txt Node
Date: Wed Jan 03 12:05:53 EST 2024
User: Yrep
Spectrometer: HR+D1059
Trigger mode: 1
Integration Time (sec): 1.000000E-1
Scans to average: 1
Electric dark correction enabled: true
Nonlinearity correction enabled: false
Boxcar width: 0
XAxis mode: Wavelengths
Number of Pixels in Spectrum: 2048
>>>>>Begin Spectral Data<<<<<
223.165	-32.38
223.4	-32.38
223.635	-32.38
223.869	-6.38
224.104	-20.38
224.338	-17.38
224.573	-24.38
224.808	-23.38
225.042	-1.38
225.277	4.62
225.511	-12.38
225.746	0.62
225.98	2.62
226.215	16.62
226.449	12.62
226.683	31.62
226.918	30.62
227.152	38.62
227.387	37.62
227.621	40.62
227.856	47.62
228.09	51.62
228.324	50.62
228.559	48.62
228.793	65.62
229.027	68.62
229.262	74.62
229.496	73.62
229.73	91.62
229.964	103.62
230.199	75.62
230.433	76.62
230.667	70.62
230.901	75.62
231.136	77.62
231.37	80.62
231.604	68.62
231.838	71.62
232.072	90.62
232.306	81.62
232.541	83.62
232.775	84.62
233.009	83.62
233.243	78.62
233.477	76.62
233.711	82.62
233.945	78.62
234.179	81.62
234.413	79.62
234.647	64.62
234.881	81.62
235.115	93.62
235.349	86.62
235.583	87.62
235.817	78.62
236.051	80.62
236.285	74.62
236.519	85.62
236.753	75.62
236.987	80.62
237.221	78.62
237.455	86.62
237.689	93.62
237.922	101.62
238.156	84.62
238.39	70.62
238.624	68.62
238.858	79.62
239.091	83.62
239.325	84.62
239.559	79.62
239.793	87.62
240.027	89.62
240.26	80.62
240.494	75.62
240.728	84.62
240.961	81.62
241.195	60.62
241.429	81.62
241.662	84.62
241.896	65.62
242.13	79.62
242.363	88.62
242.597	70.62
242.83	81.62
243.064	75.62
243.298	98.62
243.531	81.62
243.765	90.62
243.998	80.62
244.232	86.62
244.465	81.62
244.699	84.62
244.932	90.62
245.166	75.62
245.399	79.62
245.633	78.62
245.866	89.62
246.099	75.62
246.333	70.62
246.566	85.62
246.8	91.62
247.033	85.62
247.266	89.62
247.5	66.62
247.733	87.62
247.966	75.62
248.2	83.62
248.433	74.62
248.666	85.62
248.899	94.62
249.133	86.62
249.366	104.62
249.599	102.62
249.832	80.62
250.066	76.62
250.299	80.62
250.532	113.62
250.765	87.62
250.998	90.62
251.231	84.62
251.465	78.62
251.698	92.62
251.931	91.62
252.164	104.62
252.397	85.62
252.63	77.62
252.863	75.62
253.096	79.62
253.329	90.62
253.562	82.62
253.795	81.62
254.028	76.62
254.261	80.62
254.494	86.62
254.727	85.62
254.96	94.62
255.193	89.62
255.426	70.62
255.659	83.62
255.892	109.62
256.124	123.62
256.357	99.62
256.59	84.62
256.823	80.62
257.056	102.62
257.289	97.62
257.521	91.62
257.754	105.62
257.987	105.62
258.22	92.62
258.452	131.62
258.685	102.62
258.918	90.62
259.151	93.62
259.383	86.62
259.616	88.62
259.849	86.62
260.081	89.62
260.314	82.62
260.547	95.62
260.779	103.62
261.012	150.62
261.244	141.62
261.477	108.62
261.71	122.62
261.942	125.62
262.175	157.62
262.407	108.62
262.64	98.62
262.872	84.62
263.105	93.62
263.337	94.62
263.57	94.62
263.802	93.62
264.035	87.62
264.267	77.62
264.499	87.62
264.732	87.62
264.964	101.62
265.197	79.62
265.429	78.62
265.661	84.62
265.894	97.62
266.126	91.62
266.358	86.62
266.591	81.62
266.823	63.62
267.055	89.62
267.287	87.62
267.52	86.62
267.752	78.62
267.984	95.62
268.216	85.62
268.448	94.62
268.681	86.62
268.913	73.62
269.145	86.62
269.377	89.62
269.609	83.62
269.841	87.62
270.073	87.62
270.306	79.62
270.538	77.62
270.77	97.62
271.002	90.62
271.234	103.62
271.466	99.62
271.698	84.62
271.93	88.62
272.162	85.62
272.394	81.62
272.626	100.62
272.858	91.62
273.09	76.62
273.322	85.62
273.553	83.62
273.785	97.62
274.017	80.62
274.249	79.62
274.481	89.62
274.713	88.62
274.945	89.62
275.176	89.62
275.408	111.62
275.64	153.62
275.872	181.62
276.104	129.62
276.335	108.62
276.567	120.62
276.799	174.62
277.031	259.62
277.262	342.62
277.494	235.62
277.726	117.62
277.957	101.62
278.189	91.62
278.421	101.62
278.652	85.62
278.884	90.62
279.115	94.62
279.347	116.62
279.579	109.62
279.81	186.62
280.042	352.62
280.273	505.62
280.505	313.62
280.736	155.62
280.968	100.62
281.199	97.62
281.431	99.62
281.662	84.62
281.894	101.62
282.125	111.62
282.356	141.62
282.588	181.62
282.819	142.62
283.051	90.62
283.282	96.62
283.513	90.62
283.745	82.62
283.976	88.62
284.207	103.62
284.439	101.62
284.67	85.62
284.901	84.62
285.132	89.62
285.364	90.62
285.595	73.62
285.826	99.62
286.057	86.62
286.288	83.62
286.52	91.62
286.751	87.62
286.982	78.62
287.213	85.62
287.444	87.62
287.675	88.62
287.906	87.62
288.138	97.62
288.369	81.62
288.6	94.62
288.831	88.62
289.062	95.62
289.293	89.62
289.524	95.62
289.755	99.62
289.986	97.62
290.217	79.62
290.448	80.62
290.679	77.62
290.91	77.62
291.141	95.62
291.371	76.62
291.602	84.62
291.833	95.62
292.064	91.62
292.295	91.62
292.526	112.62
292.757	89.62
292.987	86.62
293.218	89.62
293.449	75.62
293.68	98.62
293.91	94.62
294.141	96.62
294.372	85.62
294.603	88.62
294.833	99.62
295.064	89.62
295.295	87.62
295.525	95.62
295.756	115.62
295.987	128.62
296.217	160.62
296.448	166.62
296.679	118.62
296.909	99.62
297.14	100.62
297.37	103.62
297.601	89.62
297.831	89.62
298.062	95.62
298.292	110.62
298.523	85.62
298.753	82.62
298.984	84.62
299.214	80.62
299.445	92.62
299.675	89.62
299.905	92.62
300.136	101.62
300.366	105.62
300.597	87.62
300.827	102.62
301.057	102.62
301.288	109.62
301.518	112.62
301.748	109.62
301.979	129.62
302.209	106.62
302.439	96.62
302.669	89.62
302.9	96.62
303.13	96.62
303.36	136.62
303.59	167.62
303.82	183.62
304.051	115.62
304.281	86.62
304.511	98.62
304.741	84.62
304.971	78.62
305.201	78.62
305.431	87.62
305.661	104.62
305.891	96.62
306.121	102.62
306.352	125.62
306.582	129.62
306.812	118.62
307.042	165.62
307.272	261.62
307.502	301.62
307.731	254.62
307.961	171.62
308.191	102.62
308.421	89.62
308.651	98.62
308.881	90.62
309.111	100.62
309.341	102.62
309.571	115.62
309.8	121.62
310.03	115.62
310.26	102.62
310.49	93.62
310.72	118.62
310.949	122.62
311.179	116.62
311.409	103.62
311.639	91.62
311.868	92.62
312.098	103.62
312.328	103.62
312.557	115.62
312.787	112.62
313.017	111.62
313.246	107.62
313.476	94.62
313.706	85.62
313.935	91.62
314.165	100.62
314.394	123.62
314.624	95.62
314.853	101.62
315.083	100.62
315.312	93.62
315.542	98.62
315.771	75.62
316.001	101.62
316.23	92.62
316.46	94.62
316.689	93.62
316.919	90.62
317.148	102.62
317.377	85.62
317.607	107.62
317.836	93.62
318.065	93.62
318.295	109.62
318.524	91.62
318.753	84.62
318.983	92.62
319.212	111.62
319.441	111.62
319.67	124.62
319.9	91.62
320.129	94.62
320.358	102.62
320.587	97.62
320.816	97.62
321.046	102.62
321.275	99.62
321.504	100.62
321.733	104.62
321.962	100.62
322.191	94.62
322.42	115.62
322.649	120.62
322.878	110.62
323.108	125.62
323.337	133.62
323.566	153.62
323.795	165.62
324.024	235.62
324.253	416.62
324.482	837.62
324.71	1679.62
324.939	2228.62
325.168	862.62
325.397	285.62
325.626	171.62
325.855	138.62
326.084	137.62
326.313	152.62
326.542	166.62
326.77	246.62
326.999	415.62
327.228	848.62
327.457	1563.62
327.686	1311.62
327.914	667.62
328.143	860.62
328.372	1291.62
328.6	674.62
328.829	247.62
329.058	217.62
329.287	241.62
329.515	231.62
329.744	395.62
329.972	837.62
330.201	1877.62
330.43	2940.62
330.658	1181.62
330.887	421.62
331.115	229.62
331.344	165.62
331.572	148.62
331.801	134.62
332.03	134.62
332.258	138.62
332.486	121.62
332.715	121.62
332.943	140.62
333.172	137.62
333.4	157.62
333.629	209.62
333.857	317.62
334.085	712.62
334.314	1620.62
334.542	3433.62
334.771	3266.62
334.999	767.62
335.227	249.62
335.455	162.62
335.684	145.62
335.912	118.62
336.14	97.62
336.369	126.62
336.597	117.62
336.825	102.62
337.053	94.62
337.281	105.62
337.51	94.62
337.738	113.62
337.966	107.62
338.194	103.62
338.422	98.62
338.65	96.62
338.878	95.62
339.106	94.62
339.334	94.62
339.562	89.62
339.79	84.62
340.018	90.62
340.246	85.62
340.474	95.62
340.702	94.62
340.93	104.62
341.158	95.62
341.386	99.62
341.614	99.62
341.842	99.62
342.07	85.62
342.298	102.62
342.526	88.62
342.754	96.62
342.981	80.62
343.209	84.62
343.437	102.62
343.665	99.62
343.893	91.62
344.12	99.62
344.348	88.62
344.576	99.62
344.804	99.62
345.031	109.62
345.259	112.62
345.487	103.62
345.714	112.62
345.942	94.62
346.17	91.62
346.397	90.62
346.625	114.62
346.853	102.62
347.08	81.62
347.308	87.62
347.535	91.62
347.763	94.62
347.99	98.62
348.218	96.62
348.445	117.62
348.673	120.62
348.9	96.62
349.128	102.62
349.355	101.62
349.583	89.62
349.81	90.62
350.037	91.62
350.265	98.62
350.492	83.62
350.72	89.62
350.947	111.62
351.174	117.62
351.402	127.62
351.629	98.62
351.856	97.62
352.083	108.62
352.311	110.62
352.538	115.62
352.765	115.62
352.992	116.62
353.22	132.62
353.447	98.62
353.674	97.62
353.901	101.62
354.128	104.62
354.355	98.62
354.583	85.62
354.81	93.62
355.037	89.62
355.264	107.62
355.491	100.62
355.718	101.62
355.945	89.62
356.172	91.62
356.399	97.62
356.626	102.62
356.853	96.62
357.08	90.62
357.307	93.62
357.534	78.62
357.761	89.62
357.988	93.62
358.215	81.62
358.441	78.62
358.668	86.62
358.895	88.62
359.122	100.62
359.349	98.62
359.576	92.62
359.802	114.62
360.029	123.62
360.256	138.62
360.483	110.62
360.709	99.62
360.936	95.62
361.163	105.62
361.39	91.62
361.616	110.62
361.843	90.62
362.07	106.62
362.296	103.62
362.523	84.62
362.749	98.62
362.976	95.62
363.203	93.62
363.429	94.62
363.656	90.62
363.882	84.62
364.109	96.62
364.335	93.62
364.562	101.62
364.788	102.62
365.015	101.62
365.241	102.62
365.468	120.62
365.694	116.62
365.92	103.62
366.147	92.62
366.373	90.62
366.599	86.62
366.826	95.62
367.052	94.62
367.278	98.62
367.505	90.62
367.731	92.62
367.957	91.62
368.184	90.62
368.41	97.62
368.636	130.62
368.862	130.62
369.089	127.62
369.315	98.62
369.541	105.62
369.767	97.62
369.993	89.62
370.219	91.62
370.445	81.62
370.672	74.62
370.898	99.62
371.124	96.62
371.35	80.62
371.576	85.62
371.802	92.62
372.028	93.62
372.254	98.62
372.48	89.62
372.706	96.62
372.932	78.62
373.158	94.62
373.384	83.62
373.61	78.62
373.835	83.62
374.061	95.62
374.287	91.62
374.513	94.62
374.739	89.62
374.965	85.62
375.191	96.62
375.416	85.62
375.642	79.62
375.868	91.62
376.094	85.62
376.319	87.62
376.545	82.62
376.771	85.62
376.997	91.62
377.222	81.62
377.448	88.62
377.674	88.62
377.899	97.62
378.125	81.62
378.35	82.62
378.576	101.62
378.802	87.62
379.027	85.62
379.253	90.62
379.478	76.62
379.704	93.62
379.929	84.62
380.155	77.62
380.38	83.62
380.606	93.62
380.831	88.62
381.057	95.62
381.282	101.62
381.507	90.62
381.733	87.62
381.958	95.62
382.184	94.62
382.409	118.62
382.634	100.62
382.86	92.62
383.085	95.62
383.31	107.62
383.535	78.62
383.761	92.62
383.986	94.62
384.211	101.62
384.436	103.62
384.662	102.62
384.887	100.62
385.112	103.62
385.337	98.62
385.562	96.62
385.787	95.62
386.013	131.62
386.238	109.62
386.463	121.62
386.688	121.62
386.913	110.62
387.138	114.62
387.363	105.62
387.588	98.62
387.813	103.62
388.038	98.62
388.263	119.62
388.488	102.62
388.713	98.62
388.938	78.62
389.163	90.62
389.387	79.62
389.612	98.62
389.837	92.62
390.062	81.62
390.287	93.62
390.512	93.62
390.736	80.62
390.961	69.62
391.186	87.62
391.411	89.62
391.636	83.62
391.86	103.62
392.085	60.62
392.31	82.62
392.534	87.62
392.759	88.62
392.984	77.62
393.208	84.62
393.433	97.62
393.658	82.62
393.882	84.62
394.107	82.62
394.331	75.62
394.556	79.62
394.78	83.62
395.005	91.62
395.229	90.62
395.454	80.62
395.678	85.62
395.903	85.62
396.127	79.62
396.352	87.62
396.576	93.62
396.801	88.62
397.025	94.62
397.249	91.62
397.474	93.62
397.698	77.62
397.922	96.62
398.147	97.62
398.371	78.62
398.595	77.62
398.82	89.62
399.044	85.62
399.268	75.62
399.492	75.62
399.717	84.62
399.941	84.62
400.165	101.62
400.389	98.62
400.613	97.62
400.837	85.62
401.062	82.62
401.286	92.62
401.51	92.62
401.734	103.62
401.958	105.62
402.182	153.62
402.406	219.62
402.63	157.62
402.854	106.62
403.078	93.62
403.302	97.62
403.526	93.62
403.75	92.62
403.974	82.62
404.198	102.62
404.422	89.62
404.645	93.62
404.869	93.62
405.093	126.62
405.317	146.62
405.541	148.62
405.765	122.62
405.988	136.62
406.212	207.62
406.436	311.62
406.66	211.62
406.883	124.62
407.107	99.62
407.331	101.62
407.555	104.62
407.778	98.62
408.002	93.62
408.226	98.62
408.449	98.62
408.673	95.62
408.896	102.62
409.12	100.62
409.344	86.62
409.567	89.62
409.791	83.62
410.014	96.62
410.238	108.62
410.461	96.62
410.685	89.62
410.908	95.62
411.132	102.62
411.355	95.62
411.578	95.62
411.802	89.62
412.025	95.62
412.249	100.62
412.472	127.62
412.695	155.62
412.919	115.62
413.142	96.62
413.365	77.62
413.589	86.62
413.812	89.62
414.035	83.62
414.258	103.62
414.482	90.62
414.705	91.62
414.928	94.62
415.151	109.62
415.374	84.62
415.597	83.62
415.821	86.62
416.044	105.62
416.267	84.62
416.49	94.62
416.713	96.62
416.936	87.62
417.159	93.62
417.382	103.62
417.605	132.62
417.828	108.62
418.051	85.62
418.274	84.62
418.497	86.62
418.72	74.62
418.943	82.62
419.166	93.62
419.389	94.62
419.611	93.62
419.834	101.62
420.057	77.62
420.28	94.62
420.503	95.62
420.726	97.62
420.948	101.62
421.171	103.62
421.394	117.62
421.617	83.62
421.839	89.62
422.062	98.62
422.285	92.62
422.507	104.62
422.73	110.62
422.953	102.62
423.175	74.62
423.398	73.62
423.621	95.62
423.843	86.62
424.066	81.62
424.288	77.62
424.511	107.62
424.733	103.62
424.956	113.62
425.178	117.62
425.401	111.62
425.623	103.62
425.846	93.62
426.068	98.62
426.291	112.62
426.513	102.62
426.735	97.62
426.958	83.62
427.18	118.62
427.402	175.62
427.625	262.62
427.847	237.62
428.069	215.62
428.292	137.62
428.514	103.62
428.736	99.62
428.958	82.62
429.181	97.62
429.403	101.62
429.625	100.62
429.847	109.62
430.069	123.62
430.292	96.62
430.514	78.62
430.736	85.62
430.958	93.62
431.18	85.62
431.402	76.62
431.624	85.62
431.846	88.62
432.068	73.62
432.29	89.62
432.512	98.62
432.734	102.62
432.956	82.62
433.178	90.62
433.4	94.62
433.622	101.62
433.844	98.62
434.066	92.62
434.287	93.62
434.509	86.62
434.731	97.62
434.953	97.62
435.175	106.62
435.397	94.62
435.618	94.62
435.84	105.62
436.062	125.62
436.284	120.62
436.505	107.62
436.727	95.62
436.949	90.62
437.17	93.62
437.392	92.62
437.614	108.62
437.835	120.62
438.057	162.62
438.278	139.62
438.5	123.62
438.721	138.62
438.943	113.62
439.165	93.62
439.386	95.62
439.608	97.62
439.829	110.62
440.05	149.62
440.272	176.62
440.493	101.62
440.715	101.62
440.936	91.62
441.158	86.62
441.379	83.62
441.6	109.62
441.822	104.62
442.043	107.62
442.264	100.62
442.486	101.62
442.707	107.62
442.928	115.62
443.149	159.62
443.371	169.62
443.592	130.62
443.813	137.62
444.034	113.62
444.255	102.62
444.476	86.62
444.698	84.62
444.919	95.62
445.14	138.62
445.361	131.62
445.582	118.62
445.803	171.62
446.024	180.62
446.245	160.62
446.466	134.62
446.687	86.62
446.908	93.62
447.129	81.62
447.35	98.62
447.571	87.62
447.792	101.62
448.013	102.62
448.234	124.62
448.455	110.62
448.675	145.62
448.896	135.62
449.117	111.62
449.338	106.62
449.559	155.62
449.779	134.62
450	101.62
450.221	105.62
450.442	85.62
450.662	115.62
450.883	128.62
451.104	137.62
451.324	114.62
451.545	91.62
451.766	82.62
451.986	96.62
452.207	83.62
452.428	98.62
452.648	107.62
452.869	131.62
453.089	134.62
453.31	139.62
453.53	112.62
453.751	103.62
453.971	121.62
454.192	140.62
454.412	97.62
454.633	84.62
454.853	87.62
455.073	84.62
455.294	91.62
455.514	97.62
455.734	95.62
455.955	91.62
456.175	94.62
456.395	76.62
456.616	90.62
456.836	91.62
457.056	93.62
457.276	94.62
457.497	87.62
457.717	94.62
457.937	77.62
458.157	84.62
458.377	93.62
458.598	126.62
458.818	234.62
459.038	240.62
459.258	144.62
459.478	99.62
459.698	100.62
459.918	83.62
460.138	87.62
460.358	91.62
460.578	91.62
460.798	98.62
461.018	94.62
461.238	87.62
461.458	89.62
461.678	77.62
461.898	92.62
462.118	85.62
462.338	95.62
462.558	93.62
462.777	98.62
462.997	119.62
463.217	143.62
463.437	126.62
463.657	89.62
463.876	99.62
464.096	107.62
464.316	97.62
464.536	113.62
464.755	92.62
464.975	128.62
465.195	239.62
465.414	260.62
465.634	115.62
465.854	75.62
466.073	84.62
466.293	107.62
466.512	76.62
466.732	104.62
466.951	100.62
467.171	96.62
467.391	135.62
467.61	189.62
467.829	358.62
468.049	1258.62
468.268	2002.62
468.488	415.62
468.707	157.62
468.927	116.62
469.146	109.62
469.365	112.62
469.585	102.62
469.804	103.62
470.023	115.62
470.243	106.62
470.462	137.62
470.681	161.62
470.901	122.62
471.12	116.62
471.339	137.62
471.558	155.62
471.777	224.62
471.997	545.62
472.216	2263.62
472.435	5435.62
472.654	1127.62
472.873	266.62
473.092	139.62
473.311	115.62
473.53	86.62
473.749	96.62
473.968	118.62
474.187	113.62
474.406	113.62
474.625	89.62
474.844	94.62
475.063	89.62
475.282	90.62
475.501	89.62
475.72	105.62
475.939	94.62
476.158	104.62
476.377	106.62
476.596	89.62
476.814	93.62
477.033	108.62
477.252	98.62
477.471	97.62
477.69	108.62
477.908	95.62
478.127	111.62
478.346	100.62
478.564	117.62
478.783	127.62
479.002	125.62
479.22	112.62
479.439	139.62
479.658	171.62
479.876	142.62
480.095	153.62
480.313	195.62
480.532	227.62
480.751	477.62
480.969	1922.62
481.188	8893.62
481.406	4889.62
481.624	604.62
481.843	185.62
482.061	147.62
482.28	127.62
482.498	99.62
482.717	103.62
482.935	101.62
483.153	116.62
483.372	91.62
483.59	91.62
483.808	102.62
484.027	101.62
484.245	101.62
484.463	91.62
484.681	112.62
484.9	95.62
485.118	101.62
485.336	105.62
485.554	92.62
485.772	102.62
485.99	112.62
486.209	119.62
486.427	129.62
486.645	137.62
486.863	138.62
487.081	107.62
487.299	108.62
487.517	102.62
487.735	99.62
487.953	97.62
488.171	119.62
488.389	99.62
488.607	122.62
488.825	94.62
489.043	96.62
489.261	106.62
489.479	96.62
489.696	84.62
489.914	88.62
490.132	77.62
490.35	84.62
490.568	87.62
490.786	89.62
491.003	101.62
491.221	102.62
491.439	103.62
491.657	85.62
491.874	90.62
492.092	90.62
492.31	104.62
492.527	99.62
492.745	118.62
492.963	98.62
493.18	97.62
493.398	102.62
493.615	99.62
493.833	82.62
494.05	92.62
494.268	85.62
494.485	85.62
494.703	90.62
494.92	82.62
495.138	84.62
495.355	115.62
495.573	85.62
495.79	91.62
496.008	107.62
496.225	91.62
496.442	101.62
496.66	107.62
496.877	95.62
497.094	85.62
497.312	100.62
497.529	98.62
497.746	87.62
497.963	87.62
498.181	108.62
498.398	116.62
498.615	113.62
498.832	111.62
499.049	93.62
499.267	97.62
499.484	94.62
499.701	79.62
499.918	91.62
500.135	99.62
500.352	103.62
500.569	87.62
500.786	91.62
501.003	85.62
501.22	89.62
501.437	103.62
501.654	87.62
501.871	118.62
502.088	91.62
502.305	85.62
502.522	97.62
502.739	108.62
502.956	102.62
503.172	110.62
503.389	108.62
503.606	117.62
503.823	111.62
504.04	103.62
504.256	88.62
504.473	89.62
504.69	87.62
504.907	111.62
505.123	92.62
505.34	86.62
505.557	84.62
505.773	96.62
505.99	85.62
506.207	98.62
506.423	89.62
506.64	96.62
506.856	87.62
507.073	99.62
507.289	111.62
507.506	104.62
507.722	132.62
507.939	135.62
508.155	99.62
508.372	89.62
508.588	97.62
508.805	96.62
509.021	99.62
509.238	96.62
509.454	108.62
509.67	111.62
509.887	121.62
510.103	138.62
510.319	273.62
510.536	1033.62
510.752	3878.62
510.968	992.62
511.184	207.62
511.401	142.62
511.617	109.62
511.833	107.62
512.049	104.62
512.265	98.62
512.481	88.62
