Data from Circ_1988_H10_HRD10591_00017.txt Node
Date: Wed Jan 03 12:05:38 EST 2024
User: Yrep
Spectrometer: HR+D1059
Trigger mode: 1
Integration Time (sec): 1.000000E-1
Scans to average: 1
Electric dark correction enabled: true
Nonlinearity correction enabled: false
Boxcar width: 0
XAxis mode: Wavelengths
Number of Pixels in Spectrum: 2048
>>>>>Begin Spectral Data<<<<<
223.165	-13.25
223.4	-13.25
223.635	-13.25
223.869	-22.25
224.104	-20.25
224.338	-21.25
224.573	-14.25
224.808	-13.25
225.042	-0.25
225.277	-10.25
225.511	2.75
225.746	5.75
225.98	-0.25
226.215	3.75
226.449	17.75
226.683	20.75
226.918	30.75
227.152	33.75
227.387	39.75
227.621	53.75
227.856	43.75
228.09	46.75
228.324	50.75
228.559	51.75
228.793	51.75
229.027	69.75
229.262	68.75
229.496	69.75
229.73	104.75
229.964	101.75
230.199	69.75
230.433	80.75
230.667	75.75
230.901	84.75
231.136	84.75
231.37	78.75
231.604	81.75
231.838	88.75
232.072	77.75
232.306	92.75
232.541	91.75
232.775	85.75
233.009	60.75
233.243	77.75
233.477	91.75
233.711	89.75
233.945	90.75
234.179	86.75
234.413	90.75
234.647	83.75
234.881	89.75
235.115	91.75
235.349	92.75
235.583	87.75
235.817	87.75
236.051	71.75
236.285	80.75
236.519	78.75
236.753	80.75
236.987	77.75
237.221	81.75
237.455	97.75
237.689	81.75
237.922	81.75
238.156	79.75
238.39	69.75
238.624	66.75
238.858	78.75
239.091	84.75
239.325	88.75
239.559	91.75
239.793	80.75
240.027	83.75
240.26	85.75
240.494	88.75
240.728	63.75
240.961	82.75
241.195	94.75
241.429	81.75
241.662	82.75
241.896	87.75
242.13	83.75
242.363	83.75
242.597	67.75
242.83	77.75
243.064	88.75
243.298	94.75
243.531	90.75
243.765	88.75
243.998	106.75
244.232	89.75
244.465	91.75
244.699	81.75
244.932	75.75
245.166	85.75
245.399	71.75
245.633	91.75
245.866	91.75
246.099	74.75
246.333	77.75
246.566	81.75
246.8	88.75
247.033	86.75
247.266	95.75
247.5	86.75
247.733	98.75
247.966	101.75
248.2	99.75
248.433	102.75
248.666	89.75
248.899	82.75
249.133	109.75
249.366	119.75
249.599	129.75
249.832	89.75
250.066	86.75
250.299	88.75
250.532	93.75
250.765	91.75
250.998	106.75
251.231	97.75
251.465	88.75
251.698	123.75
251.931	111.75
252.164	95.75
252.397	88.75
252.63	89.75
252.863	106.75
253.096	83.75
253.329	84.75
253.562	78.75
253.795	86.75
254.028	89.75
254.261	89.75
254.494	94.75
254.727	94.75
254.96	84.75
255.193	87.75
255.426	81.75
255.659	95.75
255.892	123.75
256.124	125.75
256.357	82.75
256.59	95.75
256.823	99.75
257.056	95.75
257.289	99.75
257.521	116.75
257.754	102.75
257.987	95.75
258.22	107.75
258.452	133.75
258.685	134.75
258.918	112.75
259.151	86.75
259.383	82.75
259.616	87.75
259.849	79.75
260.081	88.75
260.314	117.75
260.547	110.75
260.779	131.75
261.012	165.75
261.244	155.75
261.477	128.75
261.71	106.75
261.942	155.75
262.175	148.75
262.407	102.75
262.64	90.75
262.872	93.75
263.105	98.75
263.337	85.75
263.57	68.75
263.802	103.75
264.035	98.75
264.267	89.75
264.499	75.75
264.732	84.75
264.964	89.75
265.197	87.75
265.429	87.75
265.661	91.75
265.894	79.75
266.126	80.75
266.358	68.75
266.591	79.75
266.823	79.75
267.055	78.75
267.287	94.75
267.52	90.75
267.752	98.75
267.984	79.75
268.216	83.75
268.448	96.75
268.681	107.75
268.913	82.75
269.145	98.75
269.377	90.75
269.609	78.75
269.841	73.75
270.073	96.75
270.306	86.75
270.538	77.75
270.77	85.75
271.002	97.75
271.234	106.75
271.466	123.75
271.698	110.75
271.93	98.75
272.162	86.75
272.394	93.75
272.626	107.75
272.858	96.75
273.09	87.75
273.322	95.75
273.553	84.75
273.785	71.75
274.017	87.75
274.249	92.75
274.481	92.75
274.713	102.75
274.945	110.75
275.176	115.75
275.408	131.75
275.64	180.75
275.872	215.75
276.104	155.75
276.335	114.75
276.567	152.75
276.799	211.75
277.031	341.75
277.262	439.75
277.494	292.75
277.726	136.75
277.957	127.75
278.189	105.75
278.421	115.75
278.652	124.75
278.884	104.75
279.115	110.75
279.347	112.75
279.579	150.75
279.81	254.75
280.042	451.75
280.273	676.75
280.505	401.75
280.736	177.75
280.968	118.75
281.199	83.75
281.431	98.75
281.662	86.75
281.894	103.75
282.125	111.75
282.356	148.75
282.588	182.75
282.819	147.75
283.051	100.75
283.282	83.75
283.513	103.75
283.745	70.75
283.976	89.75
284.207	92.75
284.439	90.75
284.67	97.75
284.901	110.75
285.132	89.75
285.364	100.75
285.595	98.75
285.826	93.75
286.057	108.75
286.288	81.75
286.52	82.75
286.751	83.75
286.982	102.75
287.213	93.75
287.444	87.75
287.675	98.75
287.906	95.75
288.138	95.75
288.369	90.75
288.6	106.75
288.831	90.75
289.062	89.75
289.293	107.75
289.524	89.75
289.755	99.75
289.986	89.75
290.217	93.75
290.448	94.75
290.679	87.75
290.91	82.75
291.141	92.75
291.371	87.75
291.602	74.75
291.833	93.75
292.064	97.75
292.295	103.75
292.526	104.75
292.757	93.75
292.987	92.75
293.218	106.75
293.449	102.75
293.68	93.75
293.91	95.75
294.141	96.75
294.372	83.75
294.603	96.75
294.833	92.75
295.064	97.75
295.295	89.75
295.525	94.75
295.756	93.75
295.987	124.75
296.217	171.75
296.448	169.75
296.679	110.75
296.909	91.75
297.14	107.75
297.37	99.75
297.601	101.75
297.831	105.75
298.062	101.75
298.292	69.75
298.523	92.75
298.753	93.75
298.984	94.75
299.214	91.75
299.445	85.75
299.675	106.75
299.905	100.75
300.136	95.75
300.366	86.75
300.597	93.75
300.827	96.75
301.057	116.75
301.288	111.75
301.518	111.75
301.748	112.75
301.979	132.75
302.209	121.75
302.439	101.75
302.669	98.75
302.9	87.75
303.13	111.75
303.36	127.75
303.59	208.75
303.82	235.75
304.051	129.75
304.281	100.75
304.511	100.75
304.741	99.75
304.971	99.75
305.201	97.75
305.431	103.75
305.661	74.75
305.891	97.75
306.121	109.75
306.352	126.75
306.582	129.75
306.812	141.75
307.042	197.75
307.272	318.75
307.502	359.75
307.731	307.75
307.961	207.75
308.191	126.75
308.421	91.75
308.651	106.75
308.881	103.75
309.111	103.75
309.341	95.75
309.571	101.75
309.8	100.75
310.03	113.75
310.26	112.75
310.49	100.75
310.72	122.75
310.949	126.75
311.179	110.75
311.409	101.75
311.639	102.75
311.868	101.75
312.098	124.75
312.328	115.75
312.557	119.75
312.787	131.75
313.017	121.75
313.246	95.75
313.476	108.75
313.706	82.75
313.935	107.75
314.165	113.75
314.394	114.75
314.624	101.75
314.853	111.75
315.083	104.75
315.312	121.75
315.542	88.75
315.771	94.75
316.001	95.75
316.23	99.75
316.46	109.75
316.689	88.75
316.919	99.75
317.148	101.75
317.377	105.75
317.607	95.75
317.836	101.75
318.065	81.75
318.295	98.75
318.524	85.75
318.753	107.75
318.983	105.75
319.212	105.75
319.441	136.75
319.67	104.75
319.9	100.75
320.129	88.75
320.358	96.75
320.587	108.75
320.816	98.75
321.046	119.75
321.275	105.75
321.504	117.75
321.733	99.75
321.962	103.75
322.191	105.75
322.42	102.75
322.649	136.75
322.878	131.75
323.108	143.75
323.337	162.75
323.566	162.75
323.795	185.75
324.024	265.75
324.253	525.75
324.482	1074.75
324.71	2258.75
324.939	3051.75
325.168	1077.75
325.397	312.75
325.626	194.75
325.855	153.75
326.084	157.75
326.313	152.75
326.542	193.75
326.77	279.75
326.999	541.75
327.228	1122.75
327.457	2092.75
327.686	1788.75
327.914	846.75
328.143	1199.75
328.372	1665.75
328.6	826.75
328.829	294.75
329.058	264.75
329.287	277.75
329.515	293.75
329.744	516.75
329.972	1192.75
330.201	2666.75
330.43	3969.75
330.658	1517.75
330.887	478.75
331.115	248.75
331.344	167.75
331.572	139.75
331.801	160.75
332.03	142.75
332.258	139.75
332.486	117.75
332.715	135.75
332.943	153.75
333.172	165.75
333.4	187.75
333.629	247.75
333.857	427.75
334.085	977.75
334.314	2319.75
334.542	4762.75
334.771	4370.75
334.999	983.75
335.227	321.75
335.455	185.75
335.684	144.75
335.912	141.75
336.14	132.75
336.369	122.75
336.597	129.75
336.825	135.75
337.053	107.75
337.281	110.75
337.51	94.75
337.738	116.75
337.966	105.75
338.194	114.75
338.422	117.75
338.65	119.75
338.878	111.75
339.106	100.75
339.334	79.75
339.562	89.75
339.79	101.75
340.018	103.75
340.246	102.75
340.474	123.75
340.702	105.75
340.93	89.75
341.158	108.75
341.386	111.75
341.614	95.75
341.842	89.75
342.07	95.75
342.298	97.75
342.526	89.75
342.754	87.75
342.981	88.75
343.209	94.75
343.437	97.75
343.665	105.75
343.893	86.75
344.12	105.75
344.348	105.75
344.576	85.75
344.804	95.75
345.031	114.75
345.259	114.75
345.487	105.75
345.714	105.75
345.942	92.75
346.17	104.75
346.397	88.75
346.625	116.75
346.853	102.75
347.08	102.75
347.308	108.75
347.535	102.75
347.763	107.75
347.99	118.75
348.218	93.75
348.445	113.75
348.673	117.75
348.9	86.75
349.128	89.75
349.355	102.75
349.583	114.75
349.81	90.75
350.037	95.75
350.265	91.75
350.492	101.75
350.72	77.75
350.947	111.75
351.174	124.75
351.402	126.75
351.629	102.75
351.856	103.75
352.083	116.75
352.311	117.75
352.538	117.75
352.765	129.75
352.992	123.75
353.22	119.75
353.447	112.75
353.674	105.75
353.901	110.75
354.128	105.75
354.355	118.75
354.583	117.75
354.81	105.75
355.037	94.75
355.264	97.75
355.491	107.75
355.718	105.75
355.945	105.75
356.172	93.75
356.399	103.75
356.626	100.75
356.853	99.75
357.08	97.75
357.307	102.75
357.534	106.75
357.761	99.75
357.988	115.75
358.215	81.75
358.441	104.75
358.668	118.75
358.895	118.75
359.122	101.75
359.349	105.75
359.576	103.75
359.802	119.75
360.029	145.75
360.256	145.75
360.483	121.75
360.709	94.75
360.936	107.75
361.163	111.75
361.39	110.75
361.616	111.75
361.843	110.75
362.07	112.75
362.296	102.75
362.523	94.75
362.749	109.75
362.976	89.75
363.203	83.75
363.429	81.75
363.656	78.75
363.882	96.75
364.109	87.75
364.335	98.75
364.562	94.75
364.788	101.75
365.015	100.75
365.241	111.75
365.468	123.75
365.694	124.75
365.92	109.75
366.147	101.75
366.373	90.75
366.599	86.75
366.826	92.75
367.052	115.75
367.278	102.75
367.505	90.75
367.731	111.75
367.957	82.75
368.184	117.75
368.41	111.75
368.636	139.75
368.862	135.75
369.089	134.75
369.315	114.75
369.541	109.75
369.767	97.75
369.993	113.75
370.219	95.75
370.445	100.75
370.672	101.75
370.898	91.75
371.124	87.75
371.35	94.75
371.576	86.75
371.802	90.75
372.028	84.75
372.254	91.75
372.48	94.75
372.706	90.75
372.932	84.75
373.158	97.75
373.384	83.75
373.61	113.75
373.835	94.75
374.061	90.75
374.287	97.75
374.513	98.75
374.739	101.75
374.965	88.75
375.191	94.75
375.416	105.75
375.642	93.75
375.868	106.75
376.094	90.75
376.319	97.75
376.545	99.75
376.771	97.75
376.997	90.75
377.222	110.75
377.448	91.75
377.674	96.75
377.899	92.75
378.125	98.75
378.35	85.75
378.576	98.75
378.802	104.75
379.027	101.75
379.253	101.75
379.478	104.75
379.704	103.75
379.929	106.75
380.155	128.75
380.38	114.75
380.606	112.75
380.831	118.75
381.057	128.75
381.282	105.75
381.507	110.75
381.733	104.75
381.958	125.75
382.184	109.75
382.409	118.75
382.634	126.75
382.86	119.75
383.085	128.75
383.31	140.75
383.535	117.75
383.761	113.75
383.986	127.75
384.211	129.75
384.436	114.75
384.662	145.75
384.887	133.75
385.112	163.75
385.337	164.75
385.562	132.75
385.787	141.75
386.013	155.75
386.238	169.75
386.463	163.75
386.688	157.75
386.913	146.75
387.138	157.75
387.363	130.75
387.588	116.75
387.813	134.75
388.038	154.75
388.263	166.75
388.488	176.75
388.713	107.75
388.938	97.75
389.163	98.75
389.387	86.75
389.612	99.75
389.837	76.75
390.062	93.75
390.287	80.75
390.512	92.75
390.736	88.75
390.961	84.75
391.186	80.75
391.411	89.75
391.636	85.75
391.86	78.75
392.085	94.75
392.31	86.75
392.534	86.75
392.759	82.75
392.984	92.75
393.208	107.75
393.433	113.75
393.658	107.75
393.882	83.75
394.107	99.75
394.331	88.75
394.556	93.75
394.78	100.75
395.005	104.75
395.229	87.75
395.454	89.75
395.678	84.75
395.903	93.75
396.127	87.75
396.352	90.75
396.576	77.75
396.801	107.75
397.025	109.75
397.249	95.75
397.474	90.75
397.698	88.75
397.922	95.75
398.147	88.75
398.371	83.75
398.595	87.75
398.82	85.75
399.044	97.75
399.268	82.75
399.492	78.75
399.717	95.75
399.941	102.75
400.165	115.75
400.389	111.75
400.613	105.75
400.837	93.75
401.062	96.75
401.286	97.75
401.51	84.75
401.734	93.75
401.958	109.75
402.182	140.75
402.406	211.75
402.63	171.75
402.854	110.75
403.078	93.75
403.302	97.75
403.526	73.75
403.75	98.75
403.974	98.75
404.198	95.75
404.422	106.75
404.645	99.75
404.869	101.75
405.093	128.75
405.317	168.75
405.541	168.75
405.765	127.75
405.988	171.75
406.212	220.75
406.436	330.75
406.66	230.75
406.883	134.75
407.107	132.75
407.331	112.75
407.555	118.75
407.778	123.75
408.002	101.75
408.226	94.75
408.449	83.75
408.673	100.75
408.896	100.75
409.12	107.75
409.344	91.75
409.567	86.75
409.791	94.75
410.014	105.75
410.238	95.75
410.461	100.75
410.685	104.75
410.908	90.75
411.132	107.75
411.355	112.75
411.578	99.75
411.802	87.75
412.025	107.75
412.249	114.75
412.472	146.75
412.695	184.75
412.919	134.75
413.142	120.75
413.365	99.75
413.589	105.75
413.812	99.75
414.035	96.75
414.258	113.75
414.482	107.75
414.705	86.75
414.928	97.75
415.151	109.75
415.374	106.75
415.597	96.75
415.821	112.75
416.044	120.75
416.267	90.75
416.49	95.75
416.713	95.75
416.936	86.75
417.159	113.75
417.382	111.75
417.605	142.75
417.828	151.75
418.051	116.75
418.274	97.75
418.497	97.75
418.72	97.75
418.943	97.75
419.166	105.75
419.389	96.75
419.611	94.75
419.834	91.75
420.057	111.75
420.28	114.75
420.503	103.75
420.726	91.75
420.948	101.75
421.171	113.75
421.394	112.75
421.617	103.75
421.839	102.75
422.062	91.75
422.285	102.75
422.507	107.75
422.73	132.75
422.953	107.75
423.175	97.75
423.398	86.75
423.621	98.75
423.843	86.75
424.066	98.75
424.288	85.75
424.511	109.75
424.733	114.75
424.956	130.75
425.178	99.75
425.401	106.75
425.623	103.75
425.846	97.75
426.068	113.75
426.291	104.75
426.513	99.75
426.735	109.75
426.958	106.75
427.18	129.75
427.402	198.75
427.625	302.75
427.847	315.75
428.069	291.75
428.292	172.75
428.514	128.75
428.736	104.75
428.958	92.75
429.181	102.75
429.403	107.75
429.625	91.75
429.847	103.75
430.069	116.75
430.292	111.75
430.514	92.75
430.736	95.75
430.958	107.75
431.18	101.75
431.402	91.75
431.624	90.75
431.846	101.75
432.068	85.75
432.29	100.75
432.512	94.75
432.734	102.75
432.956	108.75
433.178	121.75
433.4	103.75
433.622	85.75
433.844	100.75
434.066	101.75
434.287	93.75
434.509	103.75
434.731	90.75
434.953	100.75
435.175	83.75
435.397	105.75
435.618	112.75
435.84	129.75
436.062	127.75
436.284	138.75
436.505	103.75
436.727	105.75
436.949	98.75
437.17	101.75
437.392	92.75
437.614	115.75
437.835	135.75
438.057	160.75
438.278	133.75
438.5	113.75
438.721	126.75
438.943	117.75
439.165	92.75
439.386	98.75
439.608	99.75
439.829	123.75
440.05	165.75
440.272	202.75
440.493	117.75
440.715	84.75
440.936	83.75
441.158	82.75
441.379	81.75
441.6	97.75
441.822	104.75
442.043	111.75
442.264	131.75
442.486	129.75
442.707	112.75
442.928	125.75
443.149	194.75
443.371	200.75
443.592	145.75
443.813	147.75
444.034	131.75
444.255	98.75
444.476	88.75
444.698	97.75
444.919	106.75
445.14	157.75
445.361	144.75
445.582	170.75
445.803	196.75
446.024	194.75
446.245	192.75
446.466	135.75
446.687	96.75
446.908	102.75
447.129	86.75
447.35	103.75
447.571	101.75
447.792	86.75
448.013	94.75
448.234	122.75
448.455	111.75
448.675	124.75
448.896	148.75
449.117	113.75
449.338	104.75
449.559	155.75
449.779	158.75
450	108.75
450.221	100.75
450.442	104.75
450.662	104.75
450.883	135.75
451.104	153.75
451.324	112.75
451.545	87.75
451.766	101.75
451.986	98.75
452.207	85.75
452.428	101.75
452.648	111.75
452.869	134.75
453.089	127.75
453.31	150.75
453.53	103.75
453.751	106.75
453.971	124.75
454.192	151.75
454.412	110.75
454.633	90.75
454.853	86.75
455.073	99.75
455.294	99.75
455.514	117.75
455.734	91.75
455.955	95.75
456.175	80.75
456.395	92.75
456.616	77.75
456.836	95.75
457.056	84.75
457.276	96.75
457.497	88.75
457.717	109.75
457.937	92.75
458.157	75.75
458.377	115.75
458.598	129.75
458.818	242.75
459.038	273.75
459.258	167.75
459.478	102.75
459.698	94.75
459.918	117.75
460.138	75.75
460.358	83.75
460.578	93.75
460.798	100.75
461.018	91.75
461.238	90.75
461.458	95.75
461.678	86.75
461.898	85.75
462.118	102.75
462.338	93.75
462.558	104.75
462.777	95.75
462.997	133.75
463.217	170.75
463.437	121.75
463.657	109.75
463.876	104.75
464.096	91.75
464.316	105.75
464.536	98.75
464.755	109.75
464.975	133.75
465.195	255.75
465.414	255.75
465.634	128.75
465.854	97.75
466.073	100.75
466.293	85.75
466.512	109.75
466.732	103.75
466.951	100.75
467.171	137.75
467.391	145.75
467.61	222.75
467.829	432.75
468.049	1585.75
468.268	2529.75
468.488	499.75
468.707	184.75
468.927	114.75
469.146	113.75
469.365	110.75
469.585	104.75
469.804	107.75
470.023	132.75
470.243	135.75
470.462	135.75
470.681	172.75
470.901	132.75
471.12	136.75
471.339	149.75
471.558	155.75
471.777	284.75
471.997	673.75
472.216	2905.75
472.435	6882.75
472.654	1388.75
472.873	313.75
473.092	157.75
473.311	111.75
473.53	110.75
473.749	116.75
473.968	113.75
474.187	143.75
474.406	123.75
474.625	97.75
474.844	98.75
475.063	92.75
475.282	100.75
475.501	98.75
475.72	97.75
475.939	95.75
476.158	91.75
476.377	105.75
476.596	103.75
476.814	89.75
477.033	113.75
477.252	109.75
477.471	107.75
477.69	108.75
477.908	104.75
478.127	101.75
478.346	109.75
478.564	120.75
478.783	119.75
479.002	134.75
479.22	127.75
479.439	151.75
479.658	171.75
479.876	162.75
480.095	154.75
480.313	201.75
480.532	276.75
480.751	594.75
480.969	2462.75
481.188	10978.75
481.406	6129.75
481.624	770.75
481.843	229.75
482.061	153.75
482.28	145.75
482.498	115.75
482.717	118.75
482.935	110.75
483.153	116.75
483.372	107.75
483.59	94.75
483.808	102.75
484.027	113.75
484.245	102.75
484.463	104.75
484.681	108.75
484.9	91.75
485.118	105.75
485.336	94.75
485.554	117.75
485.772	110.75
485.99	103.75
486.209	115.75
486.427	126.75
486.645	122.75
486.863	157.75
487.081	133.75
487.299	101.75
487.517	116.75
487.735	99.75
487.953	103.75
488.171	105.75
488.389	117.75
488.607	110.75
488.825	93.75
489.043	109.75
489.261	97.75
489.479	99.75
489.696	102.75
489.914	98.75
490.132	101.75
490.35	106.75
490.568	99.75
490.786	92.75
491.003	107.75
491.221	116.75
491.439	117.75
491.657	101.75
491.874	119.75
492.092	98.75
492.31	105.75
492.527	128.75
492.745	117.75
492.963	107.75
493.18	100.75
493.398	99.75
493.615	108.75
493.833	103.75
494.05	109.75
494.268	97.75
494.485	89.75
494.703	94.75
494.92	106.75
495.138	90.75
495.355	104.75
495.573	93.75
495.79	99.75
496.008	106.75
496.225	104.75
496.442	103.75
496.66	108.75
496.877	85.75
497.094	97.75
497.312	96.75
497.529	102.75
497.746	83.75
497.963	94.75
498.181	104.75
498.398	108.75
498.615	117.75
498.832	126.75
499.049	100.75
499.267	106.75
499.484	102.75
499.701	89.75
499.918	97.75
500.135	91.75
500.352	98.75
500.569	125.75
500.786	125.75
501.003	114.75
501.22	100.75
501.437	96.75
501.654	106.75
501.871	128.75
502.088	107.75
502.305	98.75
502.522	101.75
502.739	97.75
502.956	99.75
503.172	107.75
503.389	116.75
503.606	137.75
503.823	120.75
504.04	112.75
504.256	103.75
504.473	103.75
504.69	93.75
504.907	97.75
505.123	90.75
505.34	92.75
505.557	97.75
505.773	93.75
505.99	103.75
506.207	105.75
506.423	86.75
506.64	93.75
506.856	99.75
507.073	95.75
507.289	107.75
507.506	102.75
507.722	139.75
507.939	138.75
508.155	114.75
508.372	101.75
508.588	97.75
508.805	96.75
509.021	104.75
509.238	103.75
509.454	109.75
