Data from Circ_1988_H10_HRD10591_00093.txt Node
Date: Wed Jan 03 12:05:53 EST 2024
User: Yrep
Spectrometer: HR+D1059
Trigger mode: 1
Integration Time (sec): 1.000000E-1
Scans to average: 1
Electric dark correction enabled: true
Nonlinearity correction enabled: false
Boxcar width: 0
XAxis mode: Wavelengths
Number of Pixels in Spectrum: 2048
>>>>>Begin Spectral Data<<<<<
223.165	-12.06
223.4	-12.06
223.635	-12.06
223.869	-32.06
224.104	-22.06
224.338	-19.06
224.573	-7.06
224.808	-17.06
225.042	-5.06
225.277	-15.06
225.511	-10.06
225.746	6.94
225.98	14.94
226.215	21.94
226.449	11.94
226.683	26.94
226.918	22.94
227.152	33.94
227.387	35.94
227.621	23.94
227.856	36.94
228.09	55.94
228.324	47.94
228.559	45.94
228.793	55.94
229.027	48.94
229.262	78.94
229.496	85.94
229.73	100.94
229.964	86.94
230.199	88.94
230.433	85.94
230.667	67.94
230.901	66.94
231.136	67.94
231.37	76.94
231.604	69.94
231.838	79.94
232.072	77.94
232.306	73.94
232.541	77.94
232.775	70.94
233.009	69.94
233.243	63.94
233.477	93.94
233.711	79.94
233.945	91.94
234.179	83.94
234.413	73.94
234.647	86.94
234.881	70.94
235.115	79.94
235.349	72.94
235.583	78.94
235.817	88.94
236.051	79.94
236.285	73.94
236.519	86.94
236.753	75.94
236.987	67.94
237.221	79.94
237.455	90.94
237.689	95.94
237.922	81.94
238.156	83.94
238.39	81.94
238.624	74.94
238.858	79.94
239.091	75.94
239.325	74.94
239.559	85.94
239.793	73.94
240.027	83.94
240.26	81.94
240.494	77.94
240.728	85.94
240.961	77.94
241.195	68.94
241.429	77.94
241.662	73.94
241.896	70.94
242.13	71.94
242.363	83.94
242.597	73.94
242.83	65.94
243.064	75.94
243.298	76.94
243.531	85.94
243.765	80.94
243.998	86.94
244.232	91.94
244.465	90.94
244.699	83.94
244.932	82.94
245.166	92.94
245.399	94.94
245.633	75.94
245.866	77.94
246.099	76.94
246.333	97.94
246.566	84.94
246.8	87.94
247.033	70.94
247.266	81.94
247.5	82.94
247.733	75.94
247.966	75.94
248.2	82.94
248.433	91.94
248.666	85.94
248.899	86.94
249.133	89.94
249.366	99.94
249.599	116.94
249.832	88.94
250.066	99.94
250.299	97.94
250.532	81.94
250.765	96.94
250.998	92.94
251.231	85.94
251.465	83.94
251.698	91.94
251.931	94.94
252.164	93.94
252.397	85.94
252.63	95.94
252.863	91.94
253.096	76.94
253.329	73.94
253.562	89.94
253.795	74.94
254.028	74.94
254.261	77.94
254.494	79.94
254.727	83.94
254.96	82.94
255.193	86.94
255.426	90.94
255.659	96.94
255.892	113.94
256.124	129.94
256.357	89.94
256.59	85.94
256.823	77.94
257.056	99.94
257.289	104.94
257.521	92.94
257.754	96.94
257.987	96.94
258.22	99.94
258.452	116.94
258.685	119.94
258.918	103.94
259.151	80.94
259.383	77.94
259.616	78.94
259.849	81.94
260.081	101.94
260.314	91.94
260.547	95.94
260.779	103.94
261.012	160.94
261.244	157.94
261.477	99.94
261.71	107.94
261.942	128.94
262.175	151.94
262.407	96.94
262.64	96.94
262.872	90.94
263.105	90.94
263.337	96.94
263.57	80.94
263.802	79.94
264.035	97.94
264.267	85.94
264.499	87.94
264.732	83.94
264.964	90.94
265.197	76.94
265.429	81.94
265.661	97.94
265.894	85.94
266.126	89.94
266.358	68.94
266.591	81.94
266.823	101.94
267.055	92.94
267.287	92.94
267.52	83.94
267.752	85.94
267.984	92.94
268.216	97.94
268.448	96.94
268.681	92.94
268.913	91.94
269.145	86.94
269.377	80.94
269.609	94.94
269.841	94.94
270.073	81.94
270.306	86.94
270.538	97.94
270.77	95.94
271.002	94.94
271.234	102.94
271.466	104.94
271.698	92.94
271.93	81.94
272.162	91.94
272.394	77.94
272.626	92.94
272.858	90.94
273.09	85.94
273.322	91.94
273.553	97.94
273.785	78.94
274.017	78.94
274.249	77.94
274.481	82.94
274.713	92.94
274.945	104.94
275.176	101.94
275.408	114.94
275.64	167.94
275.872	179.94
276.104	141.94
276.335	116.94
276.567	138.94
276.799	203.94
277.031	263.94
277.262	354.94
277.494	246.94
277.726	133.94
277.957	98.94
278.189	99.94
278.421	98.94
278.652	106.94
278.884	94.94
279.115	94.94
279.347	102.94
279.579	122.94
279.81	188.94
280.042	330.94
280.273	548.94
280.505	324.94
280.736	156.94
280.968	96.94
281.199	97.94
281.431	91.94
281.662	84.94
281.894	93.94
282.125	92.94
282.356	145.94
282.588	182.94
282.819	153.94
283.051	100.94
283.282	87.94
283.513	108.94
283.745	97.94
283.976	105.94
284.207	74.94
284.439	90.94
284.67	95.94
284.901	95.94
285.132	91.94
285.364	81.94
285.595	95.94
285.826	93.94
286.057	75.94
286.288	75.94
286.52	76.94
286.751	80.94
286.982	90.94
287.213	77.94
287.444	89.94
287.675	79.94
287.906	97.94
288.138	81.94
288.369	100.94
288.6	100.94
288.831	75.94
289.062	94.94
289.293	82.94
289.524	83.94
289.755	86.94
289.986	84.94
290.217	83.94
290.448	82.94
290.679	84.94
290.91	91.94
291.141	86.94
291.371	85.94
291.602	92.94
291.833	95.94
292.064	103.94
292.295	91.94
292.526	91.94
292.757	86.94
292.987	91.94
293.218	94.94
293.449	77.94
293.68	88.94
293.91	94.94
294.141	99.94
294.372	101.94
294.603	86.94
294.833	87.94
295.064	92.94
295.295	85.94
295.525	104.94
295.756	101.94
295.987	141.94
296.217	171.94
296.448	159.94
296.679	92.94
296.909	79.94
297.14	81.94
297.37	108.94
297.601	84.94
297.831	78.94
298.062	96.94
298.292	104.94
298.523	103.94
298.753	74.94
298.984	84.94
299.214	92.94
299.445	89.94
299.675	101.94
299.905	93.94
300.136	95.94
300.366	75.94
300.597	94.94
300.827	81.94
301.057	107.94
301.288	120.94
301.518	118.94
301.748	113.94
301.979	122.94
302.209	125.94
302.439	104.94
302.669	91.94
302.9	85.94
303.13	113.94
303.36	121.94
303.59	173.94
303.82	199.94
304.051	126.94
304.281	106.94
304.511	95.94
304.741	95.94
304.971	101.94
305.201	93.94
305.431	83.94
305.661	92.94
305.891	105.94
306.121	94.94
306.352	116.94
306.582	115.94
306.812	138.94
307.042	180.94
307.272	239.94
307.502	313.94
307.731	290.94
307.961	206.94
308.191	117.94
308.421	93.94
308.651	100.94
308.881	92.94
309.111	94.94
309.341	106.94
309.571	109.94
309.8	115.94
310.03	111.94
310.26	100.94
310.49	93.94
310.72	98.94
310.949	123.94
311.179	115.94
311.409	102.94
311.639	86.94
311.868	116.94
312.098	106.94
312.328	93.94
312.557	111.94
312.787	117.94
313.017	121.94
313.246	97.94
313.476	103.94
313.706	103.94
313.935	97.94
314.165	98.94
314.394	111.94
314.624	104.94
314.853	115.94
315.083	99.94
315.312	91.94
315.542	91.94
315.771	108.94
316.001	90.94
316.23	96.94
316.46	84.94
316.689	91.94
316.919	95.94
317.148	100.94
317.377	99.94
317.607	108.94
317.836	91.94
318.065	99.94
318.295	101.94
318.524	94.94
318.753	99.94
318.983	89.94
319.212	103.94
319.441	124.94
319.67	125.94
319.9	115.94
320.129	82.94
320.358	91.94
320.587	98.94
320.816	107.94
321.046	110.94
321.275	89.94
321.504	108.94
321.733	86.94
321.962	110.94
322.191	93.94
322.42	109.94
322.649	122.94
322.878	121.94
323.108	132.94
323.337	143.94
323.566	153.94
323.795	155.94
324.024	231.94
324.253	419.94
324.482	857.94
324.71	1721.94
324.939	2356.94
325.168	900.94
325.397	269.94
325.626	161.94
325.855	146.94
326.084	129.94
326.313	148.94
326.542	159.94
326.77	239.94
326.999	430.94
327.228	837.94
327.457	1607.94
327.686	1391.94
327.914	667.94
328.143	899.94
328.372	1282.94
328.6	667.94
328.829	253.94
329.058	213.94
329.287	241.94
329.515	242.94
329.744	386.94
329.972	878.94
330.201	1955.94
330.43	3095.94
330.658	1235.94
330.887	401.94
331.115	227.94
331.344	165.94
331.572	152.94
331.801	138.94
332.03	134.94
332.258	122.94
332.486	119.94
332.715	132.94
332.943	128.94
333.172	128.94
333.4	165.94
333.629	213.94
333.857	346.94
334.085	737.94
334.314	1680.94
334.542	3595.94
334.771	3423.94
334.999	801.94
335.227	258.94
335.455	163.94
335.684	134.94
335.912	133.94
336.14	119.94
336.369	128.94
336.597	129.94
336.825	105.94
337.053	95.94
337.281	103.94
337.51	93.94
337.738	100.94
337.966	119.94
338.194	94.94
338.422	101.94
338.65	87.94
338.878	87.94
339.106	85.94
339.334	95.94
339.562	94.94
339.79	90.94
340.018	93.94
340.246	101.94
340.474	116.94
340.702	93.94
340.93	89.94
341.158	89.94
341.386	110.94
341.614	94.94
341.842	101.94
342.07	88.94
342.298	94.94
342.526	94.94
342.754	87.94
342.981	95.94
343.209	84.94
343.437	81.94
343.665	96.94
343.893	92.94
344.12	102.94
344.348	102.94
344.576	100.94
344.804	99.94
345.031	106.94
345.259	110.94
345.487	103.94
345.714	79.94
345.942	77.94
346.17	87.94
346.397	101.94
346.625	85.94
346.853	87.94
347.08	82.94
347.308	96.94
347.535	97.94
347.763	99.94
347.99	107.94
348.218	108.94
348.445	111.94
348.673	105.94
348.9	89.94
349.128	88.94
349.355	79.94
349.583	86.94
349.81	94.94
350.037	104.94
350.265	100.94
350.492	94.94
350.72	93.94
350.947	98.94
351.174	122.94
351.402	103.94
351.629	108.94
351.856	109.94
352.083	105.94
352.311	113.94
352.538	108.94
352.765	120.94
352.992	122.94
353.22	126.94
353.447	115.94
353.674	103.94
353.901	97.94
354.128	90.94
354.355	97.94
354.583	89.94
354.81	105.94
355.037	90.94
355.264	94.94
355.491	84.94
355.718	92.94
355.945	80.94
356.172	90.94
356.399	89.94
356.626	98.94
356.853	105.94
357.08	98.94
357.307	93.94
357.534	93.94
357.761	99.94
357.988	97.94
358.215	84.94
358.441	92.94
358.668	78.94
358.895	93.94
359.122	95.94
359.349	90.94
359.576	93.94
359.802	118.94
360.029	134.94
360.256	159.94
360.483	133.94
360.709	94.94
360.936	101.94
361.163	98.94
361.39	106.94
361.616	89.94
361.843	90.94
362.07	115.94
362.296	101.94
362.523	97.94
362.749	98.94
362.976	98.94
363.203	86.94
363.429	108.94
363.656	94.94
363.882	77.94
364.109	81.94
364.335	99.94
364.562	101.94
364.788	103.94
365.015	97.94
365.241	91.94
365.468	117.94
365.694	110.94
365.92	113.94
366.147	103.94
366.373	92.94
366.599	89.94
366.826	101.94
367.052	91.94
367.278	97.94
367.505	91.94
367.731	87.94
367.957	86.94
368.184	100.94
368.41	100.94
368.636	114.94
368.862	130.94
369.089	133.94
369.315	110.94
369.541	105.94
369.767	92.94
369.993	97.94
370.219	93.94
370.445	95.94
370.672	83.94
370.898	73.94
371.124	73.94
371.35	81.94
371.576	80.94
371.802	87.94
372.028	84.94
372.254	82.94
372.48	80.94
372.706	87.94
372.932	92.94
373.158	70.94
373.384	93.94
373.61	84.94
373.835	84.94
374.061	99.94
374.287	93.94
374.513	100.94
374.739	90.94
374.965	85.94
375.191	90.94
375.416	91.94
375.642	92.94
375.868	87.94
376.094	97.94
376.319	99.94
376.545	90.94
376.771	96.94
376.997	89.94
377.222	87.94
377.448	91.94
377.674	85.94
377.899	79.94
378.125	98.94
378.35	77.94
378.576	82.94
378.802	94.94
379.027	89.94
379.253	87.94
379.478	91.94
379.704	96.94
379.929	81.94
380.155	97.94
380.38	93.94
380.606	69.94
380.831	95.94
381.057	102.94
381.282	94.94
381.507	98.94
381.733	97.94
381.958	101.94
382.184	103.94
382.409	98.94
382.634	94.94
382.86	75.94
383.085	94.94
383.31	104.94
383.535	96.94
383.761	102.94
383.986	95.94
384.211	95.94
384.436	98.94
384.662	106.94
384.887	108.94
385.112	117.94
385.337	107.94
385.562	115.94
385.787	106.94
386.013	98.94
386.238	103.94
386.463	128.94
386.688	96.94
386.913	100.94
387.138	100.94
387.363	109.94
387.588	98.94
387.813	102.94
388.038	105.94
388.263	103.94
388.488	110.94
388.713	89.94
388.938	96.94
389.163	82.94
389.387	89.94
389.612	84.94
389.837	88.94
390.062	95.94
390.287	83.94
390.512	83.94
390.736	79.94
390.961	79.94
391.186	94.94
391.411	92.94
391.636	89.94
391.86	81.94
392.085	85.94
392.31	96.94
392.534	90.94
392.759	89.94
392.984	74.94
393.208	95.94
393.433	90.94
393.658	98.94
393.882	79.94
394.107	94.94
394.331	75.94
394.556	95.94
394.78	67.94
395.005	83.94
395.229	97.94
395.454	87.94
395.678	85.94
395.903	95.94
396.127	67.94
396.352	94.94
396.576	95.94
396.801	98.94
397.025	93.94
397.249	90.94
397.474	98.94
397.698	87.94
397.922	81.94
398.147	83.94
398.371	76.94
398.595	78.94
398.82	82.94
399.044	85.94
399.268	90.94
399.492	85.94
399.717	91.94
399.941	85.94
400.165	100.94
400.389	89.94
400.613	88.94
400.837	98.94
401.062	79.94
401.286	94.94
401.51	106.94
401.734	99.94
401.958	107.94
402.182	143.94
402.406	200.94
402.63	158.94
402.854	114.94
403.078	87.94
403.302	89.94
403.526	98.94
403.75	91.94
403.974	85.94
404.198	92.94
404.422	91.94
404.645	96.94
404.869	113.94
405.093	130.94
405.317	159.94
405.541	153.94
405.765	134.94
405.988	145.94
406.212	209.94
406.436	315.94
406.66	209.94
406.883	134.94
407.107	110.94
407.331	107.94
407.555	125.94
407.778	100.94
408.002	78.94
408.226	86.94
408.449	80.94
408.673	81.94
408.896	98.94
409.12	88.94
409.344	81.94
409.567	98.94
409.791	97.94
410.014	95.94
410.238	93.94
410.461	94.94
410.685	95.94
410.908	97.94
411.132	98.94
411.355	97.94
411.578	88.94
411.802	81.94
412.025	93.94
412.249	117.94
412.472	125.94
412.695	162.94
412.919	118.94
413.142	109.94
413.365	85.94
413.589	85.94
413.812	90.94
414.035	94.94
414.258	107.94
414.482	90.94
414.705	78.94
414.928	93.94
415.151	97.94
415.374	102.94
415.597	93.94
415.821	89.94
416.044	95.94
416.267	99.94
416.49	90.94
416.713	85.94
416.936	89.94
417.159	94.94
417.382	92.94
417.605	111.94
417.828	135.94
418.051	103.94
418.274	102.94
418.497	92.94
418.72	82.94
418.943	103.94
419.166	101.94
419.389	106.94
419.611	91.94
419.834	88.94
420.057	93.94
420.28	99.94
420.503	93.94
420.726	97.94
420.948	90.94
421.171	112.94
421.394	98.94
421.617	96.94
421.839	79.94
422.062	93.94
422.285	94.94
422.507	105.94
422.73	110.94
422.953	94.94
423.175	98.94
423.398	92.94
423.621	96.94
423.843	90.94
424.066	100.94
424.288	91.94
424.511	88.94
424.733	103.94
424.956	122.94
425.178	99.94
425.401	106.94
425.623	98.94
425.846	89.94
426.068	99.94
426.291	95.94
426.513	96.94
426.735	97.94
426.958	95.94
427.18	130.94
427.402	178.94
427.625	253.94
427.847	254.94
428.069	209.94
428.292	129.94
428.514	110.94
428.736	91.94
428.958	89.94
429.181	93.94
429.403	79.94
429.625	96.94
429.847	98.94
430.069	99.94
430.292	84.94
430.514	83.94
430.736	91.94
430.958	91.94
431.18	89.94
431.402	98.94
431.624	78.94
431.846	83.94
432.068	91.94
432.29	81.94
432.512	89.94
432.734	82.94
432.956	104.94
433.178	98.94
433.4	101.94
433.622	95.94
433.844	89.94
434.066	85.94
434.287	91.94
434.509	107.94
434.731	82.94
434.953	83.94
435.175	93.94
435.397	89.94
435.618	93.94
435.84	114.94
436.062	142.94
436.284	107.94
436.505	93.94
436.727	100.94
436.949	92.94
437.17	102.94
437.392	99.94
437.614	94.94
437.835	123.94
438.057	158.94
438.278	132.94
438.5	129.94
438.721	131.94
438.943	108.94
439.165	86.94
439.386	97.94
439.608	91.94
439.829	105.94
440.05	141.94
440.272	160.94
440.493	114.94
440.715	88.94
440.936	86.94
441.158	85.94
441.379	102.94
441.6	100.94
441.822	117.94
442.043	92.94
442.264	120.94
442.486	108.94
442.707	97.94
442.928	124.94
443.149	175.94
443.371	177.94
443.592	143.94
443.813	125.94
444.034	121.94
444.255	94.94
444.476	89.94
444.698	82.94
444.919	83.94
445.14	138.94
445.361	122.94
445.582	119.94
445.803	161.94
446.024	180.94
446.245	147.94
446.466	124.94
446.687	92.94
446.908	96.94
447.129	83.94
447.35	87.94
447.571	89.94
447.792	92.94
448.013	97.94
448.234	142.94
448.455	99.94
448.675	125.94
448.896	139.94
449.117	107.94
449.338	121.94
449.559	142.94
449.779	150.94
450	101.94
450.221	90.94
450.442	104.94
450.662	109.94
450.883	126.94
451.104	122.94
451.324	99.94
451.545	98.94
451.766	81.94
451.986	98.94
452.207	87.94
452.428	89.94
452.648	92.94
452.869	118.94
453.089	137.94
453.31	157.94
453.53	91.94
453.751	84.94
453.971	122.94
454.192	125.94
454.412	98.94
454.633	99.94
454.853	78.94
455.073	75.94
455.294	101.94
455.514	123.94
455.734	93.94
455.955	96.94
456.175	96.94
456.395	80.94
456.616	91.94
456.836	98.94
457.056	78.94
457.276	82.94
457.497	89.94
457.717	88.94
457.937	100.94
458.157	111.94
458.377	101.94
458.598	109.94
458.818	220.94
459.038	220.94
459.258	140.94
459.478	85.94
459.698	80.94
459.918	85.94
460.138	94.94
460.358	75.94
460.578	86.94
460.798	85.94
461.018	94.94
461.238	85.94
461.458	96.94
461.678	103.94
461.898	95.94
462.118	84.94
462.338	97.94
462.558	92.94
462.777	105.94
462.997	114.94
463.217	155.94
463.437	113.94
463.657	93.94
463.876	102.94
464.096	91.94
464.316	104.94
464.536	90.94
464.755	100.94
464.975	114.94
465.195	259.94
465.414	242.94
465.634	97.94
465.854	83.94
466.073	93.94
466.293	84.94
466.512	103.94
466.732	93.94
466.951	101.94
467.171	131.94
467.391	127.94
467.61	185.94
467.829	359.94
468.049	1254.94
468.268	2069.94
468.488	418.94
468.707	149.94
468.927	99.94
469.146	102.94
469.365	101.94
469.585	115.94
469.804	110.94
470.023	108.94
470.243	113.94
470.462	121.94
470.681	163.94
470.901	117.94
471.12	115.94
471.339	138.94
471.558	152.94
471.777	222.94
471.997	550.94
472.216	2377.94
472.435	5728.94
472.654	1191.94
472.873	257.94
473.092	156.94
473.311	114.94
473.53	103.94
473.749	95.94
473.968	111.94
474.187	138.94
474.406	99.94
474.625	92.94
474.844	109.94
475.063	88.94
475.282	92.94
475.501	88.94
475.72	111.94
475.939	92.94
476.158	99.94
476.377	80.94
476.596	106.94
476.814	98.94
477.033	107.94
477.252	95.94
477.471	109.94
477.69	102.94
477.908	113.94
478.127	102.94
478.346	95.94
478.564	108.94
478.783	111.94
479.002	109.94
479.22	123.94
479.439	137.94
479.658	161.94
479.876	144.94
480.095	150.94
480.313	161.94
480.532	224.94
480.751	485.94
480.969	1960.94
481.188	9173.94
481.406	5226.94
481.624	645.94
481.843	186.94
482.061	131.94
482.28	109.94
482.498	109.94
482.717	90.94
482.935	95.94
483.153	102.94
483.372	94.94
483.59	100.94
483.808	103.94
484.027	92.94
484.245	98.94
484.463	114.94
484.681	110.94
484.9	86.94
485.118	102.94
485.336	114.94
485.554	102.94
485.772	107.94
485.99	120.94
486.209	134.94
486.427	101.94
486.645	133.94
486.863	143.94
487.081	111.94
487.299	102.94
487.517	114.94
487.735	101.94
487.953	93.94
488.171	92.94
488.389	90.94
488.607	124.94
488.825	92.94
489.043	82.94
489.261	91.94
489.479	85.94
489.696	96.94
489.914	87.94
490.132	90.94
490.35	97.94
490.568	83.94
490.786	90.94
491.003	97.94
491.221	93.94
491.439	109.94
491.657	91.94
491.874	93.94
492.092	103.94
492.31	106.94
492.527	101.94
492.745	108.94
492.963	105.94
493.18	95.94
493.398	104.94
493.615	106.94
493.833	93.94
494.05	85.94
494.268	99.94
494.485	77.94
494.703	85.94
494.92	90.94
495.138	91.94
495.355	85.94
495.573	99.94
495.79	84.94
496.008	85.94
496.225	83.94
496.442	99.94
496.66	95.94
496.877	114.94
497.094	88.94
497.312	81.94
497.529	92.94
497.746	90.94
497.963	83.94
498.181	99.94
498.398	98.94
498.615	117.94
498.832	106.94
499.049	102.94
499.267	91.94
499.484	90.94
499.701	100.94
499.918	89.94
500.135	97.94
500.352	97.94
500.569	119.94
500.786	87.94
501.003	93.94
501.22	93.94
501.437	99.94
501.654	101.94
501.871	122.94
502.088	103.94
502.305	106.94
502.522	110.94
502.739	77.94
502.956	94.94
503.172	82.94
503.389	95.94
503.606	132.94
503.823	106.94
504.04	95.94
504.256	75.94
504.473	96.94
504.69	106.94
504.907	97.94
505.123	96.94
505.34	97.94
505.557	94.94
505.773	89.94
505.99	85.94
506.207	87.94
506.423	111.94
506.64	90.94
506.856	89.94
507.073	90.94
507.289	80.94
507.506	95.94
507.722	130.94
507.939	132.94
508.155	110.94
508.372	100.94
508.588	91.94
508.805	113.94
509.021	109.94
509.238	98.94
509.454	101.94
509.67	98.94
509.887	117.94
510.103	138.94
510.319	259.94
510.536	1049.94
510.752	3790.94
510.968	996.94
511.184	196.94
511.401	144.94
511.617	114.94
511.833	119.94
512.049	90.94
512.265	93.94
512.481	108.94
512.698	98.94
