Data from Circ_1988_H10_HRD10591_00001.txt Node
Date: Wed Jan 03 12:05:35 EST 2024
User: Yrep
Spectrometer: HR+D1059
Trigger mode: 1
Integration Time (sec): 1.000000E-1
Scans to average: 1
Electric dark correction enabled: true
Nonlinearity correction enabled: false
Boxcar width: 0
XAxis mode: Wavelengths
Number of Pixels in Spectrum: 2048
>>>>>Begin Spectral Data<<<<<
223.165	-16.19
223.4	-16.19
223.635	-16.19
223.869	-11.19
224.104	-22.19
224.338	-6.19
224.573	-12.19
224.808	-10.19
225.042	-3.19
225.277	-6.19
225.511	-4.19
225.746	1.81
225.98	5.81
226.215	-2.19
226.449	11.81
226.683	19.81
226.918	30.81
227.152	23.81
227.387	33.81
227.621	49.81
227.856	34.81
228.09	38.81
228.324	52.81
228.559	54.81
228.793	61.81
229.027	64.81
229.262	72.81
229.496	76.81
229.73	98.81
229.964	83.81
230.199	78.81
230.433	72.81
230.667	70.81
230.901	92.81
231.136	85.81
231.37	91.81
231.604	72.81
231.838	70.81
232.072	80.81
232.306	83.81
232.541	87.81
232.775	70.81
233.009	80.81
233.243	93.81
233.477	78.81
233.711	72.81
233.945	79.81
234.179	61.81
234.413	84.81
234.647	81.81
234.881	80.81
235.115	77.81
235.349	77.81
235.583	79.81
235.817	79.81
236.051	67.81
236.285	73.81
236.519	65.81
236.753	86.81
236.987	92.81
237.221	73.81
237.455	101.81
237.689	67.81
237.922	79.81
238.156	75.81
238.39	87.81
238.624	76.81
238.858	91.81
239.091	66.81
239.325	81.81
239.559	91.81
239.793	81.81
240.027	70.81
240.26	69.81
240.494	73.81
240.728	69.81
240.961	77.81
241.195	87.81
241.429	78.81
241.662	84.81
241.896	85.81
242.13	75.81
242.363	73.81
242.597	80.81
242.83	74.81
243.064	85.81
243.298	93.81
243.531	71.81
243.765	83.81
243.998	79.81
244.232	83.81
244.465	92.81
244.699	72.81
244.932	75.81
245.166	88.81
245.399	81.81
245.633	84.81
245.866	85.81
246.099	70.81
246.333	77.81
246.566	89.81
246.8	93.81
247.033	79.81
247.266	94.81
247.5	74.81
247.733	86.81
247.966	84.81
248.2	98.81
248.433	98.81
248.666	73.81
248.899	83.81
249.133	84.81
249.366	119.81
249.599	99.81
249.832	79.81
250.066	94.81
250.299	102.81
250.532	90.81
250.765	79.81
250.998	76.81
251.231	93.81
251.465	84.81
251.698	87.81
251.931	87.81
252.164	88.81
252.397	87.81
252.63	83.81
252.863	84.81
253.096	82.81
253.329	78.81
253.562	81.81
253.795	85.81
254.028	87.81
254.261	84.81
254.494	86.81
254.727	85.81
254.96	78.81
255.193	90.81
255.426	84.81
255.659	82.81
255.892	92.81
256.124	93.81
256.357	75.81
256.59	59.81
256.823	91.81
257.056	101.81
257.289	92.81
257.521	98.81
257.754	95.81
257.987	97.81
258.22	96.81
258.452	109.81
258.685	112.81
258.918	90.81
259.151	98.81
259.383	96.81
259.616	91.81
259.849	79.81
260.081	83.81
260.314	95.81
260.547	84.81
260.779	103.81
261.012	140.81
261.244	136.81
261.477	116.81
261.71	99.81
261.942	140.81
262.175	142.81
262.407	108.81
262.64	93.81
262.872	84.81
263.105	88.81
263.337	76.81
263.57	86.81
263.802	75.81
264.035	74.81
264.267	81.81
264.499	79.81
264.732	86.81
264.964	94.81
265.197	88.81
265.429	89.81
265.661	85.81
265.894	83.81
266.126	85.81
266.358	84.81
266.591	76.81
266.823	84.81
267.055	91.81
267.287	94.81
267.52	95.81
267.752	88.81
267.984	95.81
268.216	89.81
268.448	104.81
268.681	91.81
268.913	92.81
269.145	84.81
269.377	86.81
269.609	95.81
269.841	79.81
270.073	82.81
270.306	92.81
270.538	86.81
270.77	81.81
271.002	75.81
271.234	88.81
271.466	94.81
271.698	72.81
271.93	90.81
272.162	70.81
272.394	81.81
272.626	75.81
272.858	70.81
273.09	100.81
273.322	85.81
273.553	113.81
273.785	90.81
274.017	89.81
274.249	81.81
274.481	85.81
274.713	101.81
274.945	102.81
275.176	100.81
275.408	126.81
275.64	129.81
275.872	185.81
276.104	136.81
276.335	112.81
276.567	134.81
276.799	181.81
277.031	263.81
277.262	352.81
277.494	265.81
277.726	134.81
277.957	107.81
278.189	83.81
278.421	101.81
278.652	76.81
278.884	100.81
279.115	94.81
279.347	106.81
279.579	123.81
279.81	200.81
280.042	339.81
280.273	511.81
280.505	321.81
280.736	152.81
280.968	109.81
281.199	113.81
281.431	78.81
281.662	80.81
281.894	107.81
282.125	124.81
282.356	140.81
282.588	182.81
282.819	134.81
283.051	89.81
283.282	100.81
283.513	101.81
283.745	85.81
283.976	85.81
284.207	97.81
284.439	89.81
284.67	80.81
284.901	75.81
285.132	92.81
285.364	82.81
285.595	83.81
285.826	83.81
286.057	96.81
286.288	89.81
286.52	88.81
286.751	95.81
286.982	82.81
287.213	96.81
287.444	78.81
287.675	83.81
287.906	94.81
288.138	92.81
288.369	98.81
288.6	95.81
288.831	93.81
289.062	96.81
289.293	88.81
289.524	91.81
289.755	91.81
289.986	84.81
290.217	99.81
290.448	80.81
290.679	87.81
290.91	81.81
291.141	98.81
291.371	87.81
291.602	88.81
291.833	87.81
292.064	92.81
292.295	86.81
292.526	101.81
292.757	96.81
292.987	91.81
293.218	92.81
293.449	80.81
293.68	101.81
293.91	83.81
294.141	89.81
294.372	87.81
294.603	86.81
294.833	81.81
295.064	84.81
295.295	94.81
295.525	87.81
295.756	109.81
295.987	119.81
296.217	166.81
296.448	128.81
296.679	86.81
296.909	84.81
297.14	79.81
297.37	79.81
297.601	96.81
297.831	101.81
298.062	93.81
298.292	112.81
298.523	94.81
298.753	76.81
298.984	86.81
299.214	88.81
299.445	99.81
299.675	98.81
299.905	96.81
300.136	99.81
300.366	100.81
300.597	91.81
300.827	115.81
301.057	99.81
301.288	120.81
301.518	102.81
301.748	100.81
301.979	146.81
302.209	115.81
302.439	97.81
302.669	89.81
302.9	94.81
303.13	88.81
303.36	119.81
303.59	178.81
303.82	208.81
304.051	126.81
304.281	104.81
304.511	94.81
304.741	89.81
304.971	84.81
305.201	82.81
305.431	91.81
305.661	100.81
305.891	107.81
306.121	113.81
306.352	116.81
306.582	114.81
306.812	128.81
307.042	157.81
307.272	258.81
307.502	289.81
307.731	246.81
307.961	161.81
308.191	113.81
308.421	90.81
308.651	96.81
308.881	110.81
309.111	95.81
309.341	103.81
309.571	108.81
309.8	103.81
310.03	106.81
310.26	108.81
310.49	118.81
310.72	104.81
310.949	112.81
311.179	99.81
311.409	103.81
311.639	105.81
311.868	100.81
312.098	110.81
312.328	106.81
312.557	113.81
312.787	126.81
313.017	108.81
313.246	96.81
313.476	96.81
313.706	86.81
313.935	100.81
314.165	104.81
314.394	121.81
314.624	106.81
314.853	110.81
315.083	98.81
315.312	96.81
315.542	101.81
315.771	91.81
316.001	98.81
316.23	83.81
316.46	101.81
316.689	95.81
316.919	93.81
317.148	112.81
317.377	94.81
317.607	98.81
317.836	92.81
318.065	99.81
318.295	90.81
318.524	101.81
318.753	99.81
318.983	92.81
319.212	109.81
319.441	124.81
319.67	123.81
319.9	95.81
320.129	102.81
320.358	82.81
320.587	100.81
320.816	104.81
321.046	115.81
321.275	96.81
321.504	104.81
321.733	87.81
321.962	87.81
322.191	104.81
322.42	109.81
322.649	117.81
322.878	127.81
323.108	130.81
323.337	128.81
323.566	137.81
323.795	164.81
324.024	222.81
324.253	462.81
324.482	894.81
324.71	1869.81
324.939	2533.81
325.168	981.81
325.397	296.81
325.626	152.81
325.855	144.81
326.084	149.81
326.313	159.81
326.542	189.81
326.77	251.81
326.999	470.81
327.228	944.81
327.457	1679.81
327.686	1459.81
327.914	681.81
328.143	905.81
328.372	1325.81
328.6	663.81
328.829	255.81
329.058	201.81
329.287	225.81
329.515	241.81
329.744	400.81
329.972	884.81
330.201	1967.81
330.43	2903.81
330.658	1165.81
330.887	397.81
331.115	232.81
331.344	153.81
331.572	142.81
331.801	135.81
332.03	142.81
332.258	121.81
332.486	118.81
332.715	124.81
332.943	135.81
333.172	131.81
333.4	176.81
333.629	215.81
333.857	357.81
334.085	727.81
334.314	1718.81
334.542	3521.81
334.771	3272.81
334.999	772.81
335.227	241.81
335.455	168.81
335.684	133.81
335.912	142.81
336.14	119.81
336.369	137.81
336.597	108.81
336.825	114.81
337.053	108.81
337.281	108.81
337.51	103.81
337.738	98.81
337.966	99.81
338.194	123.81
338.422	109.81
338.65	94.81
338.878	91.81
339.106	107.81
339.334	90.81
339.562	91.81
339.79	90.81
340.018	104.81
340.246	96.81
340.474	111.81
340.702	79.81
340.93	96.81
341.158	98.81
341.386	88.81
341.614	114.81
341.842	108.81
342.07	88.81
342.298	103.81
342.526	92.81
342.754	86.81
342.981	104.81
343.209	85.81
343.437	90.81
343.665	92.81
343.893	87.81
344.12	86.81
344.348	92.81
344.576	111.81
344.804	88.81
345.031	95.81
345.259	113.81
345.487	116.81
345.714	96.81
345.942	103.81
346.17	96.81
346.397	93.81
346.625	90.81
346.853	98.81
347.08	97.81
347.308	96.81
347.535	94.81
347.763	110.81
347.99	107.81
348.218	107.81
348.445	120.81
348.673	119.81
348.9	95.81
349.128	105.81
349.355	82.81
349.583	91.81
349.81	104.81
350.037	96.81
350.265	109.81
350.492	102.81
350.72	106.81
350.947	102.81
351.174	115.81
351.402	122.81
351.629	99.81
351.856	111.81
352.083	114.81
352.311	117.81
352.538	119.81
352.765	112.81
352.992	119.81
353.22	133.81
353.447	106.81
353.674	102.81
353.901	101.81
354.128	111.81
354.355	112.81
354.583	106.81
354.81	111.81
355.037	91.81
355.264	83.81
355.491	95.81
355.718	98.81
355.945	93.81
356.172	108.81
356.399	99.81
356.626	111.81
356.853	93.81
357.08	98.81
357.307	101.81
357.534	91.81
357.761	101.81
357.988	99.81
358.215	111.81
358.441	117.81
358.668	113.81
358.895	94.81
359.122	107.81
359.349	106.81
359.576	115.81
359.802	102.81
360.029	141.81
360.256	121.81
360.483	118.81
360.709	93.81
360.936	102.81
361.163	105.81
361.39	110.81
361.616	99.81
361.843	107.81
362.07	100.81
362.296	102.81
362.523	82.81
362.749	92.81
362.976	78.81
363.203	99.81
363.429	77.81
363.656	91.81
363.882	87.81
364.109	95.81
364.335	110.81
364.562	102.81
364.788	104.81
365.015	95.81
365.241	109.81
365.468	112.81
365.694	117.81
365.92	118.81
366.147	101.81
366.373	88.81
366.599	87.81
366.826	85.81
367.052	85.81
367.278	94.81
367.505	94.81
367.731	89.81
367.957	88.81
368.184	108.81
368.41	110.81
368.636	126.81
368.862	114.81
369.089	126.81
369.315	105.81
369.541	89.81
369.767	84.81
369.993	88.81
370.219	95.81
370.445	93.81
370.672	96.81
370.898	95.81
371.124	100.81
371.35	102.81
371.576	85.81
371.802	95.81
372.028	96.81
372.254	83.81
372.48	85.81
372.706	88.81
372.932	92.81
373.158	92.81
373.384	96.81
373.61	97.81
373.835	101.81
374.061	92.81
374.287	111.81
374.513	97.81
374.739	93.81
374.965	86.81
375.191	83.81
375.416	105.81
375.642	103.81
375.868	102.81
376.094	97.81
376.319	96.81
376.545	103.81
376.771	90.81
376.997	110.81
377.222	92.81
377.448	100.81
377.674	95.81
377.899	88.81
378.125	103.81
378.35	97.81
378.576	119.81
378.802	97.81
379.027	96.81
379.253	118.81
379.478	116.81
379.704	120.81
379.929	117.81
380.155	125.81
380.38	116.81
380.606	123.81
380.831	120.81
381.057	114.81
381.282	106.81
381.507	120.81
381.733	122.81
381.958	115.81
382.184	133.81
382.409	135.81
382.634	122.81
382.86	129.81
383.085	135.81
383.31	134.81
383.535	132.81
383.761	133.81
383.986	131.81
384.211	141.81
384.436	147.81
384.662	148.81
384.887	172.81
385.112	182.81
385.337	173.81
385.562	179.81
385.787	188.81
386.013	187.81
386.238	218.81
386.463	171.81
386.688	170.81
386.913	177.81
387.138	194.81
387.363	168.81
387.588	133.81
387.813	145.81
388.038	166.81
388.263	207.81
388.488	197.81
388.713	125.81
388.938	83.81
389.163	95.81
389.387	98.81
389.612	104.81
389.837	93.81
390.062	96.81
390.287	86.81
390.512	82.81
390.736	77.81
390.961	100.81
391.186	89.81
391.411	84.81
391.636	84.81
391.86	73.81
392.085	89.81
392.31	81.81
392.534	94.81
392.759	99.81
392.984	96.81
393.208	109.81
393.433	126.81
393.658	116.81
393.882	93.81
394.107	105.81
394.331	76.81
394.556	86.81
394.78	87.81
395.005	89.81
395.229	85.81
395.454	103.81
395.678	85.81
395.903	96.81
396.127	88.81
396.352	86.81
396.576	92.81
396.801	112.81
397.025	115.81
397.249	88.81
397.474	72.81
397.698	92.81
397.922	87.81
398.147	92.81
398.371	94.81
398.595	92.81
398.82	88.81
399.044	90.81
399.268	84.81
399.492	94.81
399.717	96.81
399.941	86.81
400.165	104.81
400.389	94.81
400.613	98.81
400.837	99.81
401.062	84.81
401.286	88.81
401.51	90.81
401.734	104.81
401.958	110.81
402.182	141.81
402.406	200.81
402.63	148.81
402.854	104.81
403.078	98.81
403.302	86.81
403.526	89.81
403.75	97.81
403.974	108.81
404.198	78.81
404.422	97.81
404.645	98.81
404.869	111.81
405.093	125.81
405.317	160.81
405.541	158.81
405.765	121.81
405.988	134.81
406.212	209.81
406.436	331.81
406.66	211.81
406.883	138.81
407.107	101.81
407.331	91.81
407.555	121.81
407.778	93.81
408.002	92.81
408.226	84.81
408.449	95.81
408.673	94.81
408.896	89.81
409.12	88.81
409.344	96.81
409.567	103.81
409.791	87.81
410.014	79.81
410.238	96.81
410.461	86.81
410.685	97.81
410.908	90.81
411.132	94.81
411.355	115.81
411.578	108.81
411.802	85.81
412.025	101.81
412.249	92.81
412.472	127.81
412.695	144.81
412.919	125.81
413.142	97.81
413.365	103.81
413.589	96.81
413.812	98.81
414.035	105.81
414.258	107.81
414.482	91.81
414.705	99.81
414.928	101.81
415.151	100.81
415.374	88.81
415.597	97.81
415.821	83.81
416.044	109.81
416.267	80.81
416.49	111.81
416.713	95.81
416.936	96.81
417.159	101.81
417.382	119.81
417.605	138.81
417.828	145.81
418.051	116.81
418.274	96.81
418.497	95.81
418.72	98.81
418.943	83.81
419.166	99.81
419.389	115.81
419.611	99.81
419.834	103.81
420.057	96.81
420.28	102.81
420.503	94.81
420.726	85.81
420.948	101.81
421.171	96.81
421.394	111.81
421.617	88.81
421.839	109.81
422.062	89.81
422.285	76.81
422.507	99.81
422.73	141.81
422.953	126.81
423.175	107.81
423.398	87.81
423.621	97.81
423.843	92.81
424.066	88.81
424.288	93.81
424.511	116.81
424.733	113.81
424.956	124.81
425.178	104.81
425.401	116.81
425.623	114.81
425.846	79.81
426.068	107.81
426.291	88.81
426.513	83.81
426.735	101.81
426.958	102.81
427.18	120.81
427.402	173.81
427.625	265.81
427.847	245.81
428.069	222.81
428.292	143.81
428.514	118.81
428.736	98.81
428.958	88.81
429.181	92.81
429.403	98.81
429.625	95.81
429.847	103.81
430.069	121.81
430.292	79.81
430.514	97.81
430.736	98.81
430.958	102.81
431.18	92.81
431.402	86.81
431.624	97.81
431.846	73.81
432.068	111.81
432.29	86.81
432.512	93.81
432.734	85.81
432.956	88.81
433.178	94.81
433.4	101.81
433.622	97.81
433.844	83.81
434.066	90.81
434.287	93.81
434.509	96.81
434.731	80.81
434.953	93.81
435.175	90.81
435.397	88.81
435.618	76.81
435.84	109.81
436.062	154.81
436.284	115.81
436.505	93.81
436.727	99.81
436.949	95.81
437.17	90.81
437.392	84.81
437.614	89.81
437.835	116.81
438.057	152.81
438.278	127.81
438.5	101.81
438.721	127.81
438.943	105.81
439.165	85.81
439.386	97.81
439.608	84.81
439.829	104.81
440.05	150.81
440.272	161.81
440.493	117.81
440.715	79.81
440.936	88.81
441.158	80.81
441.379	80.81
441.6	97.81
441.822	104.81
442.043	97.81
442.264	102.81
442.486	109.81
442.707	111.81
442.928	129.81
443.149	172.81
443.371	182.81
443.592	126.81
443.813	129.81
444.034	125.81
444.255	86.81
444.476	92.81
444.698	90.81
444.919	105.81
445.14	123.81
445.361	139.81
445.582	124.81
445.803	182.81
446.024	166.81
446.245	152.81
446.466	111.81
446.687	106.81
446.908	96.81
447.129	98.81
447.35	104.81
447.571	95.81
447.792	99.81
448.013	107.81
448.234	113.81
448.455	119.81
448.675	123.81
448.896	135.81
449.117	95.81
449.338	102.81
449.559	123.81
449.779	141.81
450	100.81
450.221	99.81
450.442	89.81
450.662	101.81
450.883	139.81
451.104	142.81
451.324	105.81
451.545	96.81
451.766	87.81
451.986	96.81
452.207	81.81
452.428	94.81
452.648	119.81
452.869	139.81
453.089	139.81
453.31	143.81
453.53	127.81
453.751	100.81
453.971	112.81
454.192	133.81
454.412	98.81
454.633	79.81
454.853	86.81
455.073	86.81
455.294	85.81
455.514	106.81
455.734	85.81
455.955	85.81
456.175	83.81
456.395	84.81
456.616	87.81
456.836	85.81
457.056	87.81
457.276	99.81
457.497	94.81
457.717	95.81
457.937	96.81
458.157	67.81
458.377	100.81
458.598	128.81
458.818	196.81
459.038	237.81
459.258	155.81
459.478	114.81
459.698	86.81
459.918	93.81
460.138	77.81
460.358	86.81
460.578	87.81
460.798	100.81
461.018	84.81
461.238	90.81
461.458	89.81
461.678	85.81
461.898	79.81
462.118	96.81
462.338	83.81
462.558	101.81
462.777	101.81
462.997	122.81
463.217	132.81
463.437	110.81
463.657	107.81
463.876	95.81
464.096	110.81
464.316	110.81
464.536	103.81
464.755	107.81
464.975	138.81
465.195	241.81
465.414	225.81
465.634	110.81
465.854	105.81
466.073	103.81
466.293	102.81
466.512	97.81
466.732	67.81
466.951	87.81
467.171	116.81
467.391	129.81
467.61	196.81
467.829	355.81
468.049	1233.81
468.268	1925.81
468.488	408.81
468.707	135.81
468.927	118.81
469.146	81.81
469.365	92.81
469.585	125.81
469.804	117.81
470.023	120.81
470.243	98.81
470.462	128.81
470.681	144.81
470.901	122.81
471.12	114.81
471.339	116.81
471.558	166.81
471.777	231.81
471.997	531.81
472.216	2232.81
472.435	5345.81
472.654	1111.81
472.873	252.81
473.092	117.81
473.311	107.81
473.53	103.81
473.749	109.81
473.968	101.81
474.187	116.81
474.406	99.81
474.625	79.81
474.844	84.81
475.063	98.81
475.282	107.81
475.501	103.81
475.72	89.81
475.939	93.81
476.158	104.81
476.377	107.81
476.596	102.81
476.814	103.81
477.033	107.81
477.252	102.81
477.471	102.81
477.69	99.81
477.908	103.81
478.127	102.81
478.346	85.81
478.564	97.81
478.783	118.81
479.002	125.81
479.22	132.81
479.439	153.81
479.658	147.81
479.876	140.81
480.095	160.81
480.313	172.81
480.532	221.81
480.751	484.81
480.969	1900.81
481.188	8716.81
481.406	4854.81
481.624	638.81
481.843	208.81
482.061	147.81
482.28	133.81
482.498	115.81
482.717	106.81
482.935	102.81
483.153	85.81
483.372	92.81
483.59	108.81
483.808	99.81
484.027	111.81
484.245	89.81
484.463	100.81
484.681	88.81
484.9	104.81
485.118	97.81
485.336	110.81
485.554	104.81
485.772	115.81
485.99	136.81
486.209	104.81
486.427	122.81
486.645	134.81
486.863	137.81
487.081	109.81
487.299	86.81
487.517	95.81
487.735	96.81
487.953	86.81
488.171	104.81
488.389	97.81
488.607	103.81
488.825	104.81
489.043	99.81
489.261	85.81
489.479	91.81
489.696	86.81
489.914	72.81
490.132	111.81
490.35	89.81
490.568	92.81
490.786	102.81
491.003	92.81
491.221	99.81
491.439	105.81
491.657	90.81
491.874	87.81
492.092	100.81
492.31	104.81
492.527	104.81
492.745	102.81
492.963	104.81
493.18	106.81
493.398	106.81
493.615	115.81
493.833	93.81
494.05	89.81
494.268	85.81
494.485	80.81
494.703	96.81
494.92	80.81
495.138	97.81
495.355	85.81
495.573	96.81
495.79	91.81
496.008	112.81
496.225	87.81
496.442	91.81
496.66	86.81
496.877	82.81
497.094	90.81
497.312	103.81
497.529	94.81
497.746	98.81
497.963	97.81
498.181	95.81
498.398	112.81
498.615	131.81
498.832	112.81
499.049	120.81
499.267	102.81
499.484	97.81
499.701	89.81
499.918	101.81
500.135	88.81
500.352	100.81
500.569	93.81
500.786	111.81
501.003	97.81
501.22	96.81
501.437	103.81
501.654	108.81
501.871	111.81
502.088	98.81
502.305	102.81
502.522	102.81
502.739	104.81
502.956	103.81
503.172	99.81
503.389	105.81
503.606	117.81
503.823	99.81
504.04	96.81
504.256	101.81
504.473	96.81
504.69	96.81
504.907	103.81
505.123	94.81
505.34	92.81
505.557	78.81
505.773	96.81
505.99	89.81
506.207	101.81
506.423	94.81
506.64	88.81
506.856	101.81
507.073	97.81
507.289	92.81
507.506	112.81
507.722	120.81
507.939	131.81
508.155	107.81
508.372	93.81
508.588	100.81
508.805	112.81
509.021	109.81
509.238	119.81
509.454	113.81
509.67	101.81
509.887	107.81
510.103	131.81
510.319	246.81
510.536	991.81
510.752	3648.81
510.968	939.81
511.184	189.81
