Data from Circ_1988_H10_HRD10591_00052.txt Node
Date: Wed Jan 03 12:05:45 EST 2024
User: Yrep
Spectrometer: HR+D1059
Trigger mode: 1
Integration Time (sec): 1.000000E-1
Scans to average: 1
Electric dark correction enabled: true
Nonlinearity correction enabled: false
Boxcar width: 0
XAxis mode: Wavelengths
Number of Pixels in Spectrum: 2048
>>>>>Begin Spectral Data<<<<<
223.165	-12.25
223.4	-12.25
223.635	-12.25
223.869	-21.25
224.104	-18.25
224.338	-18.25
224.573	-22.25
224.808	-12.25
225.042	-5.25
225.277	-1.25
225.511	-6.25
225.746	3.75
225.98	7.75
226.215	16.75
226.449	13.75
226.683	17.75
226.918	28.75
227.152	28.75
227.387	32.75
227.621	27.75
227.856	50.75
228.09	45.75
228.324	38.75
228.559	51.75
228.793	65.75
229.027	61.75
229.262	70.75
229.496	64.75
229.73	87.75
229.964	106.75
230.199	83.75
230.433	81.75
230.667	78.75
230.901	82.75
231.136	70.75
231.37	74.75
231.604	79.75
231.838	75.75
232.072	101.75
232.306	90.75
232.541	85.75
232.775	88.75
233.009	98.75
233.243	82.75
233.477	89.75
233.711	86.75
233.945	94.75
234.179	70.75
234.413	81.75
234.647	77.75
234.881	89.75
235.115	89.75
235.349	86.75
235.583	93.75
235.817	73.75
236.051	89.75
236.285	80.75
236.519	96.75
236.753	78.75
236.987	94.75
237.221	87.75
237.455	93.75
237.689	94.75
237.922	75.75
238.156	73.75
238.39	74.75
238.624	74.75
238.858	89.75
239.091	81.75
239.325	86.75
239.559	83.75
239.793	77.75
240.027	76.75
240.26	84.75
240.494	74.75
240.728	67.75
240.961	87.75
241.195	95.75
241.429	69.75
241.662	71.75
241.896	83.75
242.13	85.75
242.363	74.75
242.597	88.75
242.83	93.75
243.064	80.75
243.298	94.75
243.531	91.75
243.765	79.75
243.998	84.75
244.232	70.75
244.465	84.75
244.699	83.75
244.932	74.75
245.166	86.75
245.399	78.75
245.633	71.75
245.866	83.75
246.099	83.75
246.333	89.75
246.566	82.75
246.8	87.75
247.033	74.75
247.266	82.75
247.5	83.75
247.733	87.75
247.966	86.75
248.2	80.75
248.433	82.75
248.666	77.75
248.899	80.75
249.133	92.75
249.366	107.75
249.599	103.75
249.832	88.75
250.066	72.75
250.299	94.75
250.532	104.75
250.765	97.75
250.998	82.75
251.231	73.75
251.465	85.75
251.698	83.75
251.931	102.75
252.164	86.75
252.397	79.75
252.63	89.75
252.863	80.75
253.096	94.75
253.329	91.75
253.562	88.75
253.795	89.75
254.028	79.75
254.261	85.75
254.494	86.75
254.727	103.75
254.96	67.75
255.193	84.75
255.426	95.75
255.659	81.75
255.892	114.75
256.124	109.75
256.357	95.75
256.59	90.75
256.823	102.75
257.056	83.75
257.289	93.75
257.521	91.75
257.754	89.75
257.987	91.75
258.22	108.75
258.452	122.75
258.685	112.75
258.918	101.75
259.151	95.75
259.383	113.75
259.616	101.75
259.849	95.75
260.081	87.75
260.314	94.75
260.547	104.75
260.779	115.75
261.012	138.75
261.244	148.75
261.477	116.75
261.71	102.75
261.942	137.75
262.175	137.75
262.407	104.75
262.64	88.75
262.872	79.75
263.105	91.75
263.337	95.75
263.57	97.75
263.802	101.75
264.035	73.75
264.267	82.75
264.499	79.75
264.732	97.75
264.964	89.75
265.197	79.75
265.429	95.75
265.661	86.75
265.894	81.75
266.126	83.75
266.358	84.75
266.591	80.75
266.823	77.75
267.055	83.75
267.287	93.75
267.52	76.75
267.752	89.75
267.984	79.75
268.216	72.75
268.448	90.75
268.681	97.75
268.913	93.75
269.145	105.75
269.377	92.75
269.609	80.75
269.841	94.75
270.073	89.75
270.306	90.75
270.538	87.75
270.77	97.75
271.002	86.75
271.234	108.75
271.466	105.75
271.698	88.75
271.93	97.75
272.162	95.75
272.394	88.75
272.626	90.75
272.858	95.75
273.09	80.75
273.322	96.75
273.553	86.75
273.785	97.75
274.017	78.75
274.249	96.75
274.481	95.75
274.713	89.75
274.945	98.75
275.176	98.75
275.408	124.75
275.64	159.75
275.872	161.75
276.104	132.75
276.335	138.75
276.567	133.75
276.799	175.75
277.031	272.75
277.262	341.75
277.494	255.75
277.726	123.75
277.957	99.75
278.189	99.75
278.421	105.75
278.652	98.75
278.884	111.75
279.115	101.75
279.347	108.75
279.579	114.75
279.81	207.75
280.042	370.75
280.273	530.75
280.505	328.75
280.736	146.75
280.968	117.75
281.199	109.75
281.431	95.75
281.662	96.75
281.894	98.75
282.125	104.75
282.356	139.75
282.588	184.75
282.819	142.75
283.051	84.75
283.282	100.75
283.513	97.75
283.745	100.75
283.976	98.75
284.207	90.75
284.439	79.75
284.67	95.75
284.901	90.75
285.132	79.75
285.364	81.75
285.595	94.75
285.826	89.75
286.057	86.75
286.288	94.75
286.52	90.75
286.751	79.75
286.982	89.75
287.213	87.75
287.444	98.75
287.675	91.75
287.906	91.75
288.138	80.75
288.369	101.75
288.6	92.75
288.831	95.75
289.062	108.75
289.293	87.75
289.524	97.75
289.755	82.75
289.986	72.75
290.217	97.75
290.448	86.75
290.679	77.75
290.91	93.75
291.141	83.75
291.371	86.75
291.602	100.75
291.833	90.75
292.064	98.75
292.295	74.75
292.526	94.75
292.757	90.75
292.987	92.75
293.218	82.75
293.449	94.75
293.68	97.75
293.91	95.75
294.141	89.75
294.372	88.75
294.603	98.75
294.833	95.75
295.064	83.75
295.295	81.75
295.525	84.75
295.756	110.75
295.987	127.75
296.217	174.75
296.448	142.75
296.679	86.75
296.909	91.75
297.14	97.75
297.37	86.75
297.601	84.75
297.831	87.75
298.062	103.75
298.292	101.75
298.523	101.75
298.753	105.75
298.984	93.75
299.214	95.75
299.445	97.75
299.675	106.75
299.905	103.75
300.136	100.75
300.366	98.75
300.597	97.75
300.827	109.75
301.057	104.75
301.288	122.75
301.518	107.75
301.748	102.75
301.979	123.75
302.209	95.75
302.439	96.75
302.669	97.75
302.9	96.75
303.13	112.75
303.36	122.75
303.59	170.75
303.82	203.75
304.051	118.75
304.281	84.75
304.511	99.75
304.741	102.75
304.971	90.75
305.201	95.75
305.431	93.75
305.661	105.75
305.891	101.75
306.121	102.75
306.352	120.75
306.582	118.75
306.812	131.75
307.042	179.75
307.272	257.75
307.502	277.75
307.731	257.75
307.961	163.75
308.191	115.75
308.421	102.75
308.651	106.75
308.881	96.75
309.111	80.75
309.341	113.75
309.571	101.75
309.8	106.75
310.03	104.75
310.26	114.75
310.49	91.75
310.72	110.75
310.949	121.75
311.179	107.75
311.409	94.75
311.639	99.75
311.868	104.75
312.098	101.75
312.328	103.75
312.557	112.75
312.787	119.75
313.017	114.75
313.246	89.75
313.476	96.75
313.706	89.75
313.935	111.75
314.165	106.75
314.394	130.75
314.624	116.75
314.853	114.75
315.083	84.75
315.312	93.75
315.542	94.75
315.771	112.75
316.001	112.75
316.23	110.75
316.46	99.75
316.689	95.75
316.919	89.75
317.148	101.75
317.377	111.75
317.607	117.75
317.836	107.75
318.065	101.75
318.295	95.75
318.524	89.75
318.753	95.75
318.983	100.75
319.212	118.75
319.441	124.75
319.67	117.75
319.9	87.75
320.129	91.75
320.358	113.75
320.587	111.75
320.816	103.75
321.046	110.75
321.275	106.75
321.504	113.75
321.733	103.75
321.962	106.75
322.191	107.75
322.42	111.75
322.649	114.75
322.878	115.75
323.108	135.75
323.337	134.75
323.566	147.75
323.795	157.75
324.024	223.75
324.253	367.75
324.482	840.75
324.71	1637.75
324.939	2201.75
325.168	855.75
325.397	275.75
325.626	159.75
325.855	141.75
326.084	138.75
326.313	135.75
326.542	174.75
326.77	247.75
326.999	422.75
327.228	853.75
327.457	1519.75
327.686	1319.75
327.914	654.75
328.143	913.75
328.372	1302.75
328.6	653.75
328.829	249.75
329.058	234.75
329.287	229.75
329.515	241.75
329.744	427.75
329.972	867.75
330.201	1983.75
330.43	2947.75
330.658	1178.75
330.887	402.75
331.115	232.75
331.344	151.75
331.572	132.75
331.801	142.75
332.03	140.75
332.258	136.75
332.486	126.75
332.715	125.75
332.943	130.75
333.172	137.75
333.4	155.75
333.629	203.75
333.857	352.75
334.085	749.75
334.314	1701.75
334.542	3487.75
334.771	3320.75
334.999	785.75
335.227	262.75
335.455	173.75
335.684	134.75
335.912	122.75
336.14	135.75
336.369	125.75
336.597	133.75
336.825	118.75
337.053	99.75
337.281	115.75
337.51	98.75
337.738	109.75
337.966	100.75
338.194	101.75
338.422	104.75
338.65	101.75
338.878	99.75
339.106	94.75
339.334	107.75
339.562	96.75
339.79	94.75
340.018	106.75
340.246	96.75
340.474	92.75
340.702	101.75
340.93	115.75
341.158	100.75
341.386	106.75
341.614	112.75
341.842	95.75
342.07	102.75
342.298	89.75
342.526	97.75
342.754	95.75
342.981	88.75
343.209	101.75
343.437	111.75
343.665	87.75
343.893	106.75
344.12	86.75
344.348	85.75
344.576	105.75
344.804	100.75
345.031	122.75
345.259	96.75
345.487	102.75
345.714	103.75
345.942	101.75
346.17	110.75
346.397	88.75
346.625	97.75
346.853	114.75
347.08	97.75
347.308	88.75
347.535	100.75
347.763	105.75
347.99	90.75
348.218	100.75
348.445	116.75
348.673	108.75
348.9	93.75
349.128	93.75
349.355	101.75
349.583	92.75
349.81	99.75
350.037	104.75
350.265	91.75
350.492	94.75
350.72	93.75
350.947	104.75
351.174	115.75
351.402	127.75
351.629	106.75
351.856	105.75
352.083	117.75
352.311	113.75
352.538	108.75
352.765	127.75
352.992	121.75
353.22	107.75
353.447	106.75
353.674	100.75
353.901	91.75
354.128	93.75
354.355	94.75
354.583	120.75
354.81	95.75
355.037	91.75
355.264	93.75
355.491	92.75
355.718	96.75
355.945	91.75
356.172	83.75
356.399	107.75
356.626	94.75
356.853	83.75
357.08	98.75
357.307	101.75
357.534	90.75
357.761	91.75
357.988	94.75
358.215	102.75
358.441	102.75
358.668	93.75
358.895	91.75
359.122	105.75
359.349	98.75
359.576	106.75
359.802	115.75
360.029	134.75
360.256	125.75
360.483	116.75
360.709	86.75
360.936	91.75
361.163	96.75
361.39	115.75
361.616	104.75
361.843	99.75
362.07	108.75
362.296	98.75
362.523	103.75
362.749	99.75
362.976	95.75
363.203	111.75
363.429	98.75
363.656	90.75
363.882	79.75
364.109	101.75
364.335	96.75
364.562	98.75
364.788	99.75
365.015	105.75
365.241	115.75
365.468	105.75
365.694	111.75
365.92	114.75
366.147	114.75
366.373	89.75
366.599	91.75
366.826	99.75
367.052	91.75
367.278	92.75
367.505	101.75
367.731	97.75
367.957	93.75
368.184	99.75
368.41	115.75
368.636	120.75
368.862	136.75
369.089	120.75
369.315	103.75
369.541	93.75
369.767	79.75
369.993	90.75
370.219	98.75
370.445	79.75
370.672	89.75
370.898	97.75
371.124	85.75
371.35	86.75
371.576	89.75
371.802	102.75
372.028	82.75
372.254	94.75
372.48	96.75
372.706	91.75
372.932	90.75
373.158	93.75
373.384	105.75
373.61	82.75
373.835	93.75
374.061	98.75
374.287	96.75
374.513	92.75
374.739	86.75
374.965	82.75
375.191	93.75
375.416	85.75
375.642	86.75
375.868	87.75
376.094	102.75
376.319	96.75
376.545	102.75
376.771	91.75
376.997	101.75
377.222	105.75
377.448	101.75
377.674	102.75
377.899	86.75
378.125	89.75
378.35	97.75
378.576	109.75
378.802	104.75
379.027	109.75
379.253	104.75
379.478	97.75
379.704	89.75
379.929	81.75
380.155	81.75
380.38	108.75
380.606	104.75
380.831	105.75
381.057	105.75
381.282	107.75
381.507	101.75
381.733	106.75
381.958	115.75
382.184	87.75
382.409	93.75
382.634	120.75
382.86	106.75
383.085	103.75
383.31	113.75
383.535	110.75
383.761	99.75
383.986	102.75
384.211	110.75
384.436	106.75
384.662	111.75
384.887	122.75
385.112	116.75
385.337	119.75
385.562	116.75
385.787	107.75
386.013	111.75
386.238	134.75
386.463	108.75
386.688	134.75
386.913	126.75
387.138	116.75
387.363	117.75
387.588	113.75
387.813	96.75
388.038	118.75
388.263	128.75
388.488	127.75
388.713	104.75
388.938	88.75
389.163	113.75
389.387	93.75
389.612	95.75
389.837	93.75
390.062	99.75
390.287	95.75
390.512	85.75
390.736	94.75
390.961	93.75
391.186	97.75
391.411	79.75
391.636	84.75
391.86	74.75
392.085	93.75
392.31	76.75
392.534	84.75
392.759	92.75
392.984	90.75
393.208	92.75
393.433	102.75
393.658	86.75
393.882	83.75
394.107	97.75
394.331	90.75
394.556	73.75
394.78	102.75
395.005	94.75
395.229	79.75
395.454	87.75
395.678	98.75
395.903	86.75
396.127	88.75
396.352	88.75
396.576	102.75
396.801	98.75
397.025	97.75
397.249	83.75
397.474	91.75
397.698	91.75
397.922	78.75
398.147	86.75
398.371	95.75
398.595	99.75
398.82	93.75
399.044	87.75
399.268	79.75
399.492	88.75
399.717	81.75
399.941	100.75
400.165	101.75
400.389	86.75
400.613	94.75
400.837	74.75
401.062	105.75
401.286	97.75
401.51	89.75
401.734	97.75
401.958	112.75
402.182	144.75
402.406	187.75
402.63	138.75
402.854	112.75
403.078	98.75
403.302	98.75
403.526	96.75
403.75	82.75
403.974	85.75
404.198	97.75
404.422	97.75
404.645	94.75
404.869	105.75
405.093	134.75
405.317	157.75
405.541	141.75
405.765	125.75
405.988	132.75
406.212	187.75
406.436	274.75
406.66	205.75
406.883	125.75
407.107	114.75
407.331	103.75
407.555	119.75
407.778	110.75
408.002	93.75
408.226	94.75
408.449	110.75
408.673	92.75
408.896	90.75
409.12	96.75
409.344	96.75
409.567	82.75
409.791	82.75
410.014	83.75
410.238	87.75
410.461	94.75
410.685	99.75
410.908	97.75
411.132	110.75
411.355	106.75
411.578	96.75
411.802	96.75
412.025	112.75
412.249	112.75
412.472	142.75
412.695	159.75
412.919	122.75
413.142	113.75
413.365	99.75
413.589	78.75
413.812	96.75
414.035	98.75
414.258	91.75
414.482	96.75
414.705	99.75
414.928	88.75
415.151	101.75
415.374	108.75
415.597	90.75
415.821	101.75
416.044	90.75
416.267	96.75
416.49	96.75
416.713	95.75
416.936	100.75
417.159	109.75
417.382	104.75
417.605	137.75
417.828	120.75
418.051	110.75
418.274	120.75
418.497	92.75
418.72	114.75
418.943	87.75
419.166	98.75
419.389	90.75
419.611	97.75
419.834	77.75
420.057	113.75
420.28	100.75
420.503	97.75
420.726	99.75
420.948	106.75
421.171	107.75
421.394	110.75
421.617	103.75
421.839	96.75
422.062	110.75
422.285	104.75
422.507	107.75
422.73	112.75
422.953	84.75
423.175	89.75
423.398	94.75
423.621	94.75
423.843	84.75
424.066	90.75
424.288	99.75
424.511	109.75
424.733	104.75
424.956	122.75
425.178	93.75
425.401	106.75
425.623	113.75
425.846	100.75
426.068	120.75
426.291	102.75
426.513	94.75
426.735	107.75
426.958	106.75
427.18	135.75
427.402	160.75
427.625	257.75
427.847	260.75
428.069	235.75
428.292	136.75
428.514	91.75
428.736	91.75
428.958	83.75
429.181	81.75
429.403	102.75
429.625	97.75
429.847	99.75
430.069	130.75
430.292	104.75
430.514	95.75
430.736	105.75
430.958	96.75
431.18	70.75
431.402	87.75
431.624	97.75
431.846	84.75
432.068	95.75
432.29	104.75
432.512	90.75
432.734	85.75
432.956	87.75
433.178	100.75
433.4	101.75
433.622	98.75
433.844	90.75
434.066	94.75
434.287	100.75
434.509	97.75
434.731	95.75
434.953	94.75
435.175	85.75
435.397	109.75
435.618	95.75
435.84	99.75
436.062	117.75
436.284	127.75
436.505	97.75
436.727	93.75
436.949	85.75
437.17	89.75
437.392	94.75
437.614	97.75
437.835	117.75
438.057	137.75
438.278	136.75
438.5	110.75
438.721	144.75
438.943	112.75
439.165	95.75
439.386	93.75
439.608	85.75
439.829	98.75
440.05	153.75
440.272	169.75
440.493	114.75
440.715	100.75
440.936	85.75
441.158	81.75
441.379	85.75
441.6	101.75
441.822	101.75
442.043	105.75
442.264	129.75
442.486	98.75
442.707	102.75
442.928	110.75
443.149	182.75
443.371	181.75
443.592	128.75
443.813	133.75
444.034	112.75
444.255	105.75
444.476	90.75
444.698	82.75
444.919	89.75
445.14	138.75
445.361	122.75
445.582	134.75
445.803	180.75
446.024	169.75
446.245	155.75
446.466	119.75
446.687	104.75
446.908	91.75
447.129	93.75
447.35	94.75
447.571	92.75
447.792	112.75
448.013	119.75
448.234	131.75
448.455	119.75
448.675	116.75
448.896	133.75
449.117	105.75
449.338	111.75
449.559	149.75
449.779	136.75
450	101.75
450.221	91.75
450.442	97.75
450.662	85.75
450.883	130.75
451.104	159.75
451.324	111.75
451.545	104.75
451.766	103.75
451.986	89.75
452.207	95.75
452.428	99.75
452.648	101.75
452.869	124.75
453.089	127.75
453.31	147.75
453.53	122.75
453.751	109.75
453.971	118.75
454.192	146.75
454.412	107.75
454.633	89.75
454.853	85.75
455.073	93.75
455.294	90.75
455.514	107.75
455.734	118.75
455.955	93.75
456.175	82.75
456.395	89.75
456.616	85.75
456.836	83.75
457.056	90.75
457.276	96.75
457.497	96.75
457.717	103.75
457.937	94.75
458.157	90.75
458.377	115.75
458.598	127.75
458.818	210.75
459.038	225.75
459.258	153.75
459.478	98.75
459.698	84.75
459.918	88.75
460.138	96.75
460.358	82.75
460.578	89.75
460.798	93.75
461.018	92.75
461.238	85.75
461.458	94.75
461.678	86.75
461.898	93.75
462.118	89.75
462.338	86.75
462.558	95.75
462.777	103.75
462.997	120.75
463.217	157.75
463.437	122.75
463.657	91.75
463.876	97.75
464.096	106.75
464.316	110.75
464.536	93.75
464.755	99.75
464.975	128.75
465.195	246.75
465.414	248.75
465.634	116.75
465.854	95.75
466.073	94.75
466.293	99.75
466.512	94.75
466.732	88.75
466.951	107.75
467.171	114.75
467.391	134.75
467.61	192.75
467.829	359.75
468.049	1218.75
468.268	1941.75
468.488	405.75
468.707	140.75
468.927	107.75
469.146	104.75
469.365	94.75
469.585	88.75
469.804	124.75
470.023	98.75
470.243	114.75
470.462	123.75
470.681	162.75
470.901	127.75
471.12	125.75
471.339	120.75
471.558	141.75
471.777	222.75
471.997	531.75
472.216	2201.75
472.435	5302.75
472.654	1090.75
472.873	251.75
473.092	157.75
473.311	117.75
473.53	99.75
473.749	103.75
473.968	121.75
474.187	123.75
474.406	102.75
474.625	86.75
474.844	102.75
475.063	129.75
475.282	101.75
475.501	98.75
475.72	99.75
475.939	99.75
476.158	95.75
476.377	94.75
476.596	88.75
476.814	94.75
477.033	107.75
477.252	101.75
477.471	101.75
477.69	110.75
477.908	87.75
478.127	96.75
478.346	93.75
478.564	88.75
478.783	123.75
479.002	114.75
479.22	111.75
479.439	144.75
479.658	159.75
479.876	147.75
480.095	152.75
480.313	168.75
480.532	228.75
480.751	472.75
480.969	1857.75
481.188	8493.75
481.406	4748.75
481.624	619.75
481.843	203.75
482.061	152.75
482.28	118.75
482.498	107.75
482.717	112.75
482.935	100.75
483.153	102.75
483.372	100.75
483.59	96.75
483.808	80.75
484.027	101.75
484.245	87.75
484.463	104.75
484.681	102.75
484.9	105.75
485.118	105.75
485.336	96.75
485.554	101.75
485.772	115.75
485.99	111.75
486.209	119.75
486.427	119.75
486.645	121.75
486.863	134.75
487.081	121.75
487.299	79.75
487.517	111.75
487.735	97.75
487.953	93.75
488.171	97.75
488.389	109.75
488.607	96.75
488.825	88.75
489.043	97.75
489.261	79.75
489.479	104.75
489.696	103.75
489.914	93.75
490.132	84.75
490.35	102.75
490.568	97.75
490.786	97.75
491.003	95.75
491.221	92.75
491.439	112.75
491.657	109.75
491.874	94.75
492.092	90.75
492.31	95.75
492.527	103.75
492.745	104.75
492.963	110.75
493.18	93.75
493.398	102.75
493.615	115.75
493.833	94.75
494.05	79.75
494.268	85.75
494.485	88.75
494.703	89.75
494.92	93.75
495.138	101.75
495.355	102.75
495.573	111.75
495.79	91.75
496.008	85.75
496.225	100.75
496.442	87.75
496.66	90.75
496.877	105.75
497.094	108.75
497.312	91.75
497.529	111.75
497.746	89.75
497.963	107.75
498.181	101.75
498.398	108.75
498.615	123.75
498.832	112.75
499.049	100.75
499.267	93.75
499.484	78.75
499.701	108.75
499.918	108.75
500.135	105.75
500.352	80.75
500.569	107.75
500.786	110.75
501.003	86.75
501.22	99.75
501.437	95.75
501.654	91.75
501.871	119.75
502.088	118.75
502.305	95.75
502.522	84.75
502.739	96.75
502.956	104.75
503.172	93.75
503.389	111.75
503.606	128.75
503.823	117.75
504.04	88.75
504.256	89.75
504.473	83.75
504.69	93.75
504.907	106.75
505.123	97.75
505.34	87.75
505.557	91.75
505.773	100.75
505.99	99.75
506.207	101.75
506.423	84.75
506.64	94.75
506.856	102.75
507.073	87.75
507.289	89.75
507.506	119.75
507.722	140.75
507.939	141.75
508.155	95.75
508.372	86.75
508.588	87.75
508.805	104.75
509.021	100.75
509.238	98.75
509.454	105.75
509.67	100.75
509.887	121.75
510.103	138.75
510.319	258.75
510.536	931.75
510.752	3284.75
510.968	853.75
511.184	188.75
