Data from Circ_1988_H10_HRD10591_00092.txt Node
Date: Wed Jan 03 12:05:53 EST 2024
User: Yrep
Spectrometer: HR+D1059
Trigger mode: 1
Integration Time (sec): 1.000000E-1
Scans to average: 1
Electric dark correction enabled: true
Nonlinearity correction enabled: false
Boxcar width: 0
XAxis mode: Wavelengths
Number of Pixels in Spectrum: 2048
>>>>>Begin Spectral Data<<<<<
223.165	-13.94
223.4	-13.94
223.635	-13.94
223.869	-14.94
224.104	-18.94
224.338	-18.94
224.573	-15.94
224.808	-17.94
225.042	-10.94
225.277	3.06
225.511	7.06
225.746	11.06
225.98	17.06
226.215	3.06
226.449	15.06
226.683	19.06
226.918	12.06
227.152	24.06
227.387	48.06
227.621	53.06
227.856	42.06
228.09	45.06
228.324	49.06
228.559	68.06
228.793	55.06
229.027	50.06
229.262	66.06
229.496	80.06
229.73	82.06
229.964	80.06
230.199	86.06
230.433	83.06
230.667	85.06
230.901	79.06
231.136	75.06
231.37	76.06
231.604	87.06
231.838	76.06
232.072	81.06
232.306	67.06
232.541	75.06
232.775	96.06
233.009	81.06
233.243	88.06
233.477	64.06
233.711	89.06
233.945	82.06
234.179	65.06
234.413	73.06
234.647	69.06
234.881	67.06
235.115	86.06
235.349	85.06
235.583	92.06
235.817	88.06
236.051	75.06
236.285	58.06
236.519	66.06
236.753	79.06
236.987	70.06
237.221	105.06
237.455	96.06
237.689	75.06
237.922	79.06
238.156	75.06
238.39	84.06
238.624	67.06
238.858	70.06
239.091	74.06
239.325	93.06
239.559	73.06
239.793	85.06
240.027	68.06
240.26	83.06
240.494	63.06
240.728	87.06
240.961	69.06
241.195	89.06
241.429	81.06
241.662	72.06
241.896	79.06
242.13	66.06
242.363	81.06
242.597	68.06
242.83	79.06
243.064	83.06
243.298	87.06
243.531	81.06
243.765	70.06
243.998	66.06
244.232	89.06
244.465	94.06
244.699	91.06
244.932	77.06
245.166	79.06
245.399	87.06
245.633	87.06
245.866	80.06
246.099	79.06
246.333	86.06
246.566	85.06
246.8	78.06
247.033	74.06
247.266	78.06
247.5	83.06
247.733	79.06
247.966	79.06
248.2	92.06
248.433	79.06
248.666	98.06
248.899	85.06
249.133	95.06
249.366	102.06
249.599	117.06
249.832	68.06
250.066	99.06
250.299	87.06
250.532	86.06
250.765	92.06
250.998	91.06
251.231	79.06
251.465	81.06
251.698	96.06
251.931	100.06
252.164	95.06
252.397	82.06
252.63	70.06
252.863	85.06
253.096	89.06
253.329	77.06
253.562	90.06
253.795	55.06
254.028	84.06
254.261	83.06
254.494	93.06
254.727	76.06
254.96	84.06
255.193	77.06
255.426	85.06
255.659	100.06
255.892	101.06
256.124	130.06
256.357	97.06
256.59	94.06
256.823	99.06
257.056	106.06
257.289	115.06
257.521	83.06
257.754	78.06
257.987	89.06
258.22	97.06
258.452	119.06
258.685	102.06
258.918	80.06
259.151	99.06
259.383	87.06
259.616	80.06
259.849	85.06
260.081	69.06
260.314	83.06
260.547	92.06
260.779	102.06
261.012	131.06
261.244	136.06
261.477	119.06
261.71	106.06
261.942	120.06
262.175	139.06
262.407	93.06
262.64	94.06
262.872	85.06
263.105	95.06
263.337	70.06
263.57	80.06
263.802	93.06
264.035	87.06
264.267	77.06
264.499	91.06
264.732	93.06
264.964	95.06
265.197	76.06
265.429	75.06
265.661	93.06
265.894	79.06
266.126	107.06
266.358	64.06
266.591	83.06
266.823	99.06
267.055	87.06
267.287	73.06
267.52	91.06
267.752	69.06
267.984	85.06
268.216	92.06
268.448	96.06
268.681	81.06
268.913	94.06
269.145	80.06
269.377	95.06
269.609	79.06
269.841	80.06
270.073	90.06
270.306	76.06
270.538	83.06
270.77	84.06
271.002	87.06
271.234	115.06
271.466	96.06
271.698	98.06
271.93	90.06
272.162	100.06
272.394	103.06
272.626	103.06
272.858	87.06
273.09	76.06
273.322	88.06
273.553	94.06
273.785	81.06
274.017	93.06
274.249	102.06
274.481	97.06
274.713	91.06
274.945	91.06
275.176	93.06
275.408	116.06
275.64	151.06
275.872	179.06
276.104	135.06
276.335	107.06
276.567	129.06
276.799	175.06
277.031	238.06
277.262	303.06
277.494	233.06
277.726	123.06
277.957	92.06
278.189	105.06
278.421	104.06
278.652	94.06
278.884	105.06
279.115	80.06
279.347	103.06
279.579	115.06
279.81	187.06
280.042	313.06
280.273	475.06
280.505	310.06
280.736	127.06
280.968	91.06
281.199	91.06
281.431	92.06
281.662	93.06
281.894	83.06
282.125	108.06
282.356	134.06
282.588	171.06
282.819	126.06
283.051	91.06
283.282	86.06
283.513	93.06
283.745	99.06
283.976	99.06
284.207	85.06
284.439	105.06
284.67	88.06
284.901	95.06
285.132	83.06
285.364	87.06
285.595	85.06
285.826	93.06
286.057	93.06
286.288	99.06
286.52	83.06
286.751	102.06
286.982	95.06
287.213	88.06
287.444	92.06
287.675	84.06
287.906	87.06
288.138	83.06
288.369	97.06
288.6	85.06
288.831	82.06
289.062	88.06
289.293	95.06
289.524	85.06
289.755	92.06
289.986	92.06
290.217	93.06
290.448	89.06
290.679	83.06
290.91	95.06
291.141	83.06
291.371	82.06
291.602	86.06
291.833	88.06
292.064	94.06
292.295	108.06
292.526	79.06
292.757	75.06
292.987	90.06
293.218	101.06
293.449	87.06
293.68	92.06
293.91	93.06
294.141	98.06
294.372	99.06
294.603	87.06
294.833	88.06
295.064	97.06
295.295	81.06
295.525	87.06
295.756	115.06
295.987	120.06
296.217	177.06
296.448	142.06
296.679	103.06
296.909	87.06
297.14	88.06
297.37	98.06
297.601	96.06
297.831	89.06
298.062	94.06
298.292	91.06
298.523	97.06
298.753	98.06
298.984	92.06
299.214	92.06
299.445	87.06
299.675	109.06
299.905	107.06
300.136	105.06
300.366	91.06
300.597	90.06
300.827	109.06
301.057	103.06
301.288	115.06
301.518	111.06
301.748	104.06
301.979	126.06
302.209	113.06
302.439	83.06
302.669	116.06
302.9	98.06
303.13	105.06
303.36	124.06
303.59	171.06
303.82	195.06
304.051	107.06
304.281	93.06
304.511	96.06
304.741	91.06
304.971	88.06
305.201	98.06
305.431	95.06
305.661	82.06
305.891	95.06
306.121	104.06
306.352	112.06
306.582	127.06
306.812	125.06
307.042	155.06
307.272	239.06
307.502	276.06
307.731	243.06
307.961	159.06
308.191	97.06
308.421	110.06
308.651	104.06
308.881	101.06
309.111	87.06
309.341	86.06
309.571	90.06
309.8	103.06
310.03	96.06
310.26	97.06
310.49	94.06
310.72	106.06
310.949	105.06
311.179	105.06
311.409	108.06
311.639	93.06
311.868	111.06
312.098	116.06
312.328	102.06
312.557	121.06
312.787	127.06
313.017	120.06
313.246	105.06
313.476	88.06
313.706	92.06
313.935	93.06
314.165	104.06
314.394	102.06
314.624	99.06
314.853	99.06
315.083	95.06
315.312	109.06
315.542	92.06
315.771	87.06
316.001	101.06
316.23	80.06
316.46	98.06
316.689	96.06
316.919	93.06
317.148	110.06
317.377	102.06
317.607	98.06
317.836	95.06
318.065	95.06
318.295	89.06
318.524	83.06
318.753	86.06
318.983	100.06
319.212	111.06
319.441	122.06
319.67	133.06
319.9	115.06
320.129	97.06
320.358	99.06
320.587	111.06
320.816	114.06
321.046	106.06
321.275	108.06
321.504	105.06
321.733	94.06
321.962	105.06
322.191	102.06
322.42	126.06
322.649	116.06
322.878	117.06
323.108	118.06
323.337	118.06
323.566	141.06
323.795	155.06
324.024	197.06
324.253	358.06
324.482	756.06
324.71	1464.06
324.939	2002.06
325.168	799.06
325.397	245.06
325.626	155.06
325.855	142.06
326.084	132.06
326.313	133.06
326.542	165.06
326.77	214.06
326.999	377.06
327.228	754.06
327.457	1382.06
327.686	1175.06
327.914	599.06
328.143	816.06
328.372	1213.06
328.6	610.06
328.829	248.06
329.058	203.06
329.287	217.06
329.515	240.06
329.744	383.06
329.972	799.06
330.201	1822.06
330.43	2776.06
330.658	1136.06
330.887	377.06
331.115	240.06
331.344	147.06
331.572	128.06
331.801	130.06
332.03	142.06
332.258	114.06
332.486	129.06
332.715	122.06
332.943	129.06
333.172	116.06
333.4	147.06
333.629	207.06
333.857	321.06
334.085	687.06
334.314	1549.06
334.542	3251.06
334.771	3087.06
334.999	722.06
335.227	249.06
335.455	157.06
335.684	124.06
335.912	106.06
336.14	118.06
336.369	114.06
336.597	111.06
336.825	120.06
337.053	110.06
337.281	88.06
337.51	103.06
337.738	95.06
337.966	102.06
338.194	110.06
338.422	109.06
338.65	99.06
338.878	112.06
339.106	91.06
339.334	102.06
339.562	99.06
339.79	97.06
340.018	102.06
340.246	97.06
340.474	108.06
340.702	102.06
340.93	98.06
341.158	95.06
341.386	100.06
341.614	102.06
341.842	100.06
342.07	87.06
342.298	98.06
342.526	67.06
342.754	89.06
342.981	87.06
343.209	88.06
343.437	100.06
343.665	96.06
343.893	83.06
344.12	99.06
344.348	82.06
344.576	93.06
344.804	91.06
345.031	107.06
345.259	105.06
345.487	99.06
345.714	83.06
345.942	84.06
346.17	88.06
346.397	93.06
346.625	91.06
346.853	88.06
347.08	102.06
347.308	94.06
347.535	108.06
347.763	99.06
347.99	110.06
348.218	102.06
348.445	105.06
348.673	104.06
348.9	103.06
349.128	80.06
349.355	95.06
349.583	96.06
349.81	88.06
350.037	108.06
350.265	107.06
350.492	103.06
350.72	101.06
350.947	98.06
351.174	115.06
351.402	123.06
351.629	109.06
351.856	109.06
352.083	113.06
352.311	111.06
352.538	136.06
352.765	133.06
352.992	120.06
353.22	114.06
353.447	113.06
353.674	95.06
353.901	94.06
354.128	100.06
354.355	101.06
354.583	109.06
354.81	103.06
355.037	86.06
355.264	73.06
355.491	85.06
355.718	96.06
355.945	83.06
356.172	78.06
356.399	103.06
356.626	106.06
356.853	98.06
357.08	89.06
357.307	93.06
357.534	96.06
357.761	99.06
357.988	73.06
358.215	96.06
358.441	97.06
358.668	87.06
358.895	97.06
359.122	99.06
359.349	89.06
359.576	85.06
359.802	120.06
360.029	124.06
360.256	135.06
360.483	123.06
360.709	86.06
360.936	105.06
361.163	99.06
361.39	100.06
361.616	118.06
361.843	88.06
362.07	88.06
362.296	109.06
362.523	95.06
362.749	99.06
362.976	108.06
363.203	95.06
363.429	97.06
363.656	91.06
363.882	88.06
364.109	112.06
364.335	99.06
364.562	96.06
364.788	90.06
365.015	88.06
365.241	104.06
365.468	106.06
365.694	128.06
365.92	100.06
366.147	84.06
366.373	83.06
366.599	95.06
366.826	86.06
367.052	98.06
367.278	100.06
367.505	93.06
367.731	72.06
367.957	96.06
368.184	94.06
368.41	105.06
368.636	111.06
368.862	119.06
369.089	110.06
369.315	87.06
369.541	93.06
369.767	91.06
369.993	95.06
370.219	98.06
370.445	100.06
370.672	92.06
370.898	83.06
371.124	97.06
371.35	84.06
371.576	92.06
371.802	85.06
372.028	82.06
372.254	88.06
372.48	92.06
372.706	79.06
372.932	92.06
373.158	96.06
373.384	94.06
373.61	98.06
373.835	77.06
374.061	81.06
374.287	98.06
374.513	90.06
374.739	98.06
374.965	102.06
375.191	100.06
375.416	96.06
375.642	80.06
375.868	85.06
376.094	91.06
376.319	84.06
376.545	91.06
376.771	82.06
376.997	88.06
377.222	87.06
377.448	86.06
377.674	99.06
377.899	88.06
378.125	93.06
378.35	100.06
378.576	87.06
378.802	87.06
379.027	89.06
379.253	95.06
379.478	95.06
379.704	86.06
379.929	82.06
380.155	90.06
380.38	89.06
380.606	102.06
380.831	103.06
381.057	93.06
381.282	77.06
381.507	100.06
381.733	95.06
381.958	99.06
382.184	88.06
382.409	88.06
382.634	96.06
382.86	85.06
383.085	102.06
383.31	87.06
383.535	101.06
383.761	112.06
383.986	93.06
384.211	87.06
384.436	101.06
384.662	104.06
384.887	114.06
385.112	115.06
385.337	99.06
385.562	84.06
385.787	103.06
386.013	116.06
386.238	131.06
386.463	114.06
386.688	111.06
386.913	91.06
387.138	103.06
387.363	96.06
387.588	99.06
387.813	89.06
388.038	116.06
388.263	93.06
388.488	102.06
388.713	89.06
388.938	103.06
389.163	89.06
389.387	102.06
389.612	87.06
389.837	89.06
390.062	83.06
390.287	81.06
390.512	88.06
390.736	92.06
390.961	99.06
391.186	86.06
391.411	90.06
391.636	84.06
391.86	98.06
392.085	81.06
392.31	81.06
392.534	91.06
392.759	91.06
392.984	85.06
393.208	96.06
393.433	109.06
393.658	91.06
393.882	88.06
394.107	83.06
394.331	89.06
394.556	97.06
394.78	84.06
395.005	81.06
395.229	91.06
395.454	86.06
395.678	77.06
395.903	88.06
396.127	104.06
396.352	94.06
396.576	91.06
396.801	80.06
397.025	100.06
397.249	83.06
397.474	85.06
397.698	94.06
397.922	79.06
398.147	95.06
398.371	97.06
398.595	85.06
398.82	89.06
399.044	86.06
399.268	90.06
399.492	81.06
399.717	80.06
399.941	89.06
400.165	87.06
400.389	80.06
400.613	93.06
400.837	77.06
401.062	92.06
401.286	90.06
401.51	88.06
401.734	80.06
401.958	119.06
402.182	139.06
402.406	195.06
402.63	141.06
402.854	104.06
403.078	86.06
403.302	93.06
403.526	96.06
403.75	85.06
403.974	87.06
404.198	101.06
404.422	88.06
404.645	81.06
404.869	107.06
405.093	125.06
405.317	155.06
405.541	166.06
405.765	137.06
405.988	126.06
406.212	207.06
406.436	301.06
406.66	211.06
406.883	107.06
407.107	107.06
407.331	100.06
407.555	113.06
407.778	103.06
408.002	88.06
408.226	89.06
408.449	91.06
408.673	97.06
408.896	101.06
409.12	103.06
409.344	101.06
409.567	85.06
409.791	97.06
410.014	91.06
410.238	84.06
410.461	96.06
410.685	88.06
410.908	92.06
411.132	107.06
411.355	99.06
411.578	85.06
411.802	98.06
412.025	101.06
412.249	111.06
412.472	132.06
412.695	163.06
412.919	128.06
413.142	97.06
413.365	100.06
413.589	107.06
413.812	91.06
414.035	103.06
414.258	84.06
414.482	91.06
414.705	81.06
414.928	83.06
415.151	91.06
415.374	79.06
415.597	91.06
415.821	89.06
416.044	102.06
416.267	85.06
416.49	92.06
416.713	103.06
416.936	101.06
417.159	90.06
417.382	119.06
417.605	132.06
417.828	130.06
418.051	108.06
418.274	99.06
418.497	93.06
418.72	100.06
418.943	69.06
419.166	77.06
419.389	97.06
419.611	97.06
419.834	85.06
420.057	96.06
420.28	109.06
420.503	92.06
420.726	93.06
420.948	90.06
421.171	111.06
421.394	100.06
421.617	89.06
421.839	102.06
422.062	93.06
422.285	89.06
422.507	91.06
422.73	111.06
422.953	102.06
423.175	89.06
423.398	87.06
423.621	96.06
423.843	81.06
424.066	90.06
424.288	102.06
424.511	84.06
424.733	99.06
424.956	99.06
425.178	119.06
425.401	108.06
425.623	117.06
425.846	104.06
426.068	113.06
426.291	105.06
426.513	100.06
426.735	96.06
426.958	101.06
427.18	128.06
427.402	192.06
427.625	253.06
427.847	223.06
428.069	199.06
428.292	140.06
428.514	105.06
428.736	102.06
428.958	80.06
429.181	81.06
429.403	89.06
429.625	96.06
429.847	83.06
430.069	112.06
430.292	102.06
430.514	90.06
430.736	98.06
430.958	91.06
431.18	91.06
431.402	86.06
431.624	94.06
431.846	84.06
432.068	81.06
432.29	91.06
432.512	107.06
432.734	82.06
432.956	97.06
433.178	107.06
433.4	88.06
433.622	87.06
433.844	90.06
434.066	95.06
434.287	87.06
434.509	96.06
434.731	97.06
434.953	92.06
435.175	98.06
435.397	109.06
435.618	85.06
435.84	103.06
436.062	118.06
436.284	133.06
436.505	94.06
436.727	100.06
436.949	88.06
437.17	81.06
437.392	83.06
437.614	100.06
437.835	120.06
438.057	124.06
438.278	111.06
438.5	114.06
438.721	143.06
438.943	112.06
439.165	94.06
439.386	93.06
439.608	96.06
439.829	108.06
440.05	132.06
440.272	170.06
440.493	99.06
440.715	99.06
440.936	88.06
441.158	99.06
441.379	95.06
441.6	96.06
441.822	98.06
442.043	109.06
442.264	120.06
442.486	102.06
442.707	89.06
442.928	111.06
443.149	160.06
443.371	173.06
443.592	122.06
443.813	137.06
444.034	123.06
444.255	112.06
444.476	100.06
444.698	84.06
444.919	84.06
445.14	132.06
445.361	115.06
445.582	129.06
445.803	167.06
446.024	163.06
446.245	164.06
446.466	136.06
446.687	87.06
446.908	102.06
447.129	105.06
447.35	85.06
447.571	95.06
447.792	99.06
448.013	94.06
448.234	115.06
448.455	104.06
448.675	115.06
448.896	126.06
449.117	87.06
449.338	116.06
449.559	139.06
449.779	136.06
450	114.06
450.221	91.06
450.442	77.06
450.662	98.06
450.883	122.06
451.104	132.06
451.324	98.06
451.545	97.06
451.766	96.06
451.986	93.06
452.207	98.06
452.428	104.06
452.648	112.06
452.869	118.06
453.089	131.06
453.31	127.06
453.53	99.06
453.751	94.06
453.971	119.06
454.192	140.06
454.412	90.06
454.633	91.06
454.853	89.06
455.073	82.06
455.294	96.06
455.514	108.06
455.734	96.06
455.955	90.06
456.175	81.06
456.395	91.06
456.616	79.06
456.836	92.06
457.056	83.06
457.276	94.06
457.497	93.06
457.717	85.06
457.937	78.06
458.157	91.06
458.377	115.06
458.598	123.06
458.818	185.06
459.038	223.06
459.258	153.06
459.478	96.06
459.698	95.06
459.918	84.06
460.138	80.06
460.358	88.06
460.578	91.06
460.798	91.06
461.018	100.06
461.238	91.06
461.458	91.06
461.678	90.06
461.898	90.06
462.118	88.06
462.338	95.06
462.558	91.06
462.777	95.06
462.997	102.06
463.217	133.06
463.437	100.06
463.657	92.06
463.876	84.06
464.096	110.06
464.316	101.06
464.536	113.06
464.755	108.06
464.975	126.06
465.195	230.06
465.414	220.06
465.634	111.06
465.854	89.06
466.073	114.06
466.293	99.06
466.512	91.06
466.732	97.06
466.951	99.06
467.171	102.06
467.391	134.06
467.61	176.06
467.829	306.06
468.049	1131.06
468.268	1817.06
468.488	387.06
468.707	136.06
468.927	109.06
469.146	109.06
469.365	111.06
469.585	106.06
469.804	124.06
470.023	119.06
470.243	98.06
470.462	105.06
470.681	148.06
470.901	136.06
471.12	111.06
471.339	129.06
471.558	157.06
471.777	227.06
471.997	505.06
472.216	2133.06
472.435	5152.06
472.654	1071.06
472.873	253.06
473.092	140.06
473.311	113.06
473.53	104.06
473.749	96.06
473.968	119.06
474.187	131.06
474.406	111.06
474.625	104.06
474.844	97.06
475.063	88.06
475.282	90.06
475.501	99.06
475.72	75.06
475.939	103.06
476.158	91.06
476.377	82.06
476.596	104.06
476.814	117.06
477.033	100.06
477.252	103.06
477.471	86.06
477.69	95.06
477.908	105.06
478.127	95.06
478.346	105.06
478.564	90.06
478.783	117.06
479.002	109.06
479.22	129.06
479.439	134.06
479.658	149.06
479.876	138.06
480.095	157.06
480.313	185.06
480.532	236.06
480.751	467.06
480.969	1794.06
481.188	8195.06
481.406	4672.06
481.624	574.06
481.843	183.06
482.061	124.06
482.28	116.06
482.498	108.06
482.717	112.06
482.935	103.06
483.153	88.06
483.372	106.06
483.59	103.06
483.808	92.06
484.027	115.06
484.245	89.06
484.463	106.06
484.681	108.06
484.9	102.06
485.118	111.06
485.336	114.06
485.554	114.06
485.772	100.06
485.99	112.06
486.209	120.06
486.427	122.06
486.645	144.06
486.863	131.06
487.081	109.06
487.299	90.06
487.517	102.06
487.735	95.06
487.953	115.06
488.171	98.06
488.389	109.06
488.607	118.06
488.825	100.06
489.043	95.06
489.261	113.06
489.479	104.06
489.696	85.06
489.914	88.06
490.132	102.06
490.35	95.06
490.568	100.06
490.786	89.06
491.003	99.06
491.221	95.06
491.439	123.06
491.657	103.06
491.874	104.06
492.092	89.06
492.31	105.06
492.527	94.06
492.745	107.06
492.963	99.06
493.18	93.06
493.398	94.06
493.615	92.06
493.833	103.06
494.05	95.06
494.268	87.06
494.485	73.06
494.703	85.06
494.92	99.06
495.138	101.06
495.355	98.06
495.573	96.06
495.79	84.06
496.008	100.06
496.225	93.06
496.442	100.06
496.66	95.06
496.877	81.06
497.094	85.06
497.312	102.06
497.529	95.06
497.746	99.06
497.963	105.06
498.181	97.06
498.398	104.06
498.615	112.06
498.832	111.06
499.049	71.06
499.267	103.06
499.484	83.06
499.701	92.06
499.918	102.06
500.135	98.06
500.352	91.06
500.569	107.06
500.786	92.06
501.003	91.06
501.22	105.06
501.437	93.06
501.654	110.06
501.871	120.06
502.088	98.06
502.305	89.06
502.522	80.06
502.739	79.06
502.956	94.06
503.172	87.06
503.389	107.06
503.606	125.06
503.823	110.06
504.04	99.06
504.256	77.06
504.473	95.06
504.69	90.06
504.907	87.06
505.123	86.06
505.34	97.06
505.557	94.06
505.773	96.06
505.99	80.06
506.207	92.06
506.423	101.06
506.64	85.06
506.856	82.06
507.073	102.06
507.289	96.06
507.506	87.06
507.722	136.06
507.939	113.06
508.155	104.06
508.372	83.06
508.588	88.06
508.805	89.06
509.021	96.06
509.238	103.06
509.454	103.06
509.67	114.06
509.887	119.06
510.103	143.06
510.319	248.06
510.536	901.06
510.752	3314.06
510.968	863.06
511.184	189.06
511.401	147.06
511.617	121.06
511.833	123.06
512.049	118.06
512.265	94.06
