Data from Circ_1988_H10_HRD10591_00044.txt Node
Date: Wed Jan 03 12:05:43 EST 2024
User: Yrep
Spectrometer: HR+D1059
Trigger mode: 1
Integration Time (sec): 1.000000E-1
Scans to average: 1
Electric dark correction enabled: true
Nonlinearity correction enabled: false
Boxcar width: 0
XAxis mode: Wavelengths
Number of Pixels in Spectrum: 2048
>>>>>Begin Spectral Data<<<<<
223.165	-11.5
223.4	-11.5
223.635	-11.5
223.869	-23.5
224.104	-22.5
224.338	-17.5
224.573	-12.5
224.808	-1.5
225.042	-3.5
225.277	-9.5
225.511	-5.5
225.746	10.5
225.98	16.5
226.215	5.5
226.449	13.5
226.683	21.5
226.918	24.5
227.152	15.5
227.387	21.5
227.621	37.5
227.856	32.5
228.09	37.5
228.324	47.5
228.559	60.5
228.793	64.5
229.027	47.5
229.262	70.5
229.496	79.5
229.73	102.5
229.964	87.5
230.199	78.5
230.433	68.5
230.667	76.5
230.901	79.5
231.136	85.5
231.37	78.5
231.604	82.5
231.838	75.5
232.072	72.5
232.306	75.5
232.541	82.5
232.775	92.5
233.009	93.5
233.243	78.5
233.477	80.5
233.711	83.5
233.945	87.5
234.179	76.5
234.413	74.5
234.647	86.5
234.881	67.5
235.115	80.5
235.349	82.5
235.583	83.5
235.817	76.5
236.051	71.5
236.285	83.5
236.519	66.5
236.753	78.5
236.987	77.5
237.221	91.5
237.455	79.5
237.689	88.5
237.922	82.5
238.156	70.5
238.39	80.5
238.624	93.5
238.858	77.5
239.091	84.5
239.325	95.5
239.559	101.5
239.793	81.5
240.027	86.5
240.26	82.5
240.494	83.5
240.728	68.5
240.961	83.5
241.195	86.5
241.429	86.5
241.662	75.5
241.896	88.5
242.13	86.5
242.363	77.5
242.597	65.5
242.83	78.5
243.064	91.5
243.298	76.5
243.531	82.5
243.765	75.5
243.998	67.5
244.232	78.5
244.465	91.5
244.699	84.5
244.932	85.5
245.166	79.5
245.399	85.5
245.633	84.5
245.866	79.5
246.099	70.5
246.333	83.5
246.566	96.5
246.8	96.5
247.033	85.5
247.266	86.5
247.5	81.5
247.733	87.5
247.966	88.5
248.2	90.5
248.433	88.5
248.666	73.5
248.899	87.5
249.133	95.5
249.366	112.5
249.599	105.5
249.832	103.5
250.066	89.5
250.299	96.5
250.532	103.5
250.765	80.5
250.998	92.5
251.231	67.5
251.465	100.5
251.698	98.5
251.931	90.5
252.164	93.5
252.397	83.5
252.63	78.5
252.863	84.5
253.096	90.5
253.329	95.5
253.562	81.5
253.795	84.5
254.028	75.5
254.261	71.5
254.494	73.5
254.727	84.5
254.96	92.5
255.193	72.5
255.426	81.5
255.659	100.5
255.892	111.5
256.124	117.5
256.357	94.5
256.59	89.5
256.823	85.5
257.056	93.5
257.289	103.5
257.521	89.5
257.754	94.5
257.987	101.5
258.22	97.5
258.452	114.5
258.685	115.5
258.918	89.5
259.151	93.5
259.383	91.5
259.616	81.5
259.849	90.5
260.081	93.5
260.314	87.5
260.547	97.5
260.779	108.5
261.012	155.5
261.244	143.5
261.477	108.5
261.71	108.5
261.942	132.5
262.175	151.5
262.407	107.5
262.64	94.5
262.872	88.5
263.105	88.5
263.337	77.5
263.57	90.5
263.802	96.5
264.035	81.5
264.267	78.5
264.499	78.5
264.732	89.5
264.964	89.5
265.197	100.5
265.429	88.5
265.661	90.5
265.894	75.5
266.126	89.5
266.358	75.5
266.591	82.5
266.823	93.5
267.055	75.5
267.287	86.5
267.52	99.5
267.752	95.5
267.984	76.5
268.216	86.5
268.448	101.5
268.681	93.5
268.913	95.5
269.145	83.5
269.377	86.5
269.609	80.5
269.841	105.5
270.073	83.5
270.306	91.5
270.538	87.5
270.77	81.5
271.002	105.5
271.234	88.5
271.466	98.5
271.698	94.5
271.93	88.5
272.162	84.5
272.394	89.5
272.626	78.5
272.858	91.5
273.09	86.5
273.322	75.5
273.553	100.5
273.785	79.5
274.017	95.5
274.249	86.5
274.481	93.5
274.713	93.5
274.945	100.5
275.176	96.5
275.408	130.5
275.64	153.5
275.872	184.5
276.104	142.5
276.335	114.5
276.567	146.5
276.799	174.5
277.031	277.5
277.262	384.5
277.494	256.5
277.726	130.5
277.957	118.5
278.189	106.5
278.421	95.5
278.652	111.5
278.884	99.5
279.115	93.5
279.347	108.5
279.579	140.5
279.81	204.5
280.042	388.5
280.273	564.5
280.505	348.5
280.736	150.5
280.968	119.5
281.199	99.5
281.431	93.5
281.662	91.5
281.894	92.5
282.125	100.5
282.356	130.5
282.588	176.5
282.819	134.5
283.051	91.5
283.282	99.5
283.513	86.5
283.745	86.5
283.976	96.5
284.207	83.5
284.439	85.5
284.67	95.5
284.901	81.5
285.132	80.5
285.364	104.5
285.595	83.5
285.826	86.5
286.057	88.5
286.288	79.5
286.52	93.5
286.751	92.5
286.982	79.5
287.213	91.5
287.444	96.5
287.675	86.5
287.906	91.5
288.138	95.5
288.369	106.5
288.6	110.5
288.831	94.5
289.062	89.5
289.293	108.5
289.524	87.5
289.755	95.5
289.986	92.5
290.217	95.5
290.448	88.5
290.679	78.5
290.91	99.5
291.141	76.5
291.371	88.5
291.602	88.5
291.833	98.5
292.064	101.5
292.295	83.5
292.526	86.5
292.757	90.5
292.987	88.5
293.218	88.5
293.449	95.5
293.68	93.5
293.91	83.5
294.141	81.5
294.372	91.5
294.603	84.5
294.833	92.5
295.064	94.5
295.295	97.5
295.525	100.5
295.756	119.5
295.987	130.5
296.217	173.5
296.448	144.5
296.679	108.5
296.909	91.5
297.14	89.5
297.37	89.5
297.601	91.5
297.831	86.5
298.062	86.5
298.292	92.5
298.523	87.5
298.753	95.5
298.984	101.5
299.214	96.5
299.445	93.5
299.675	98.5
299.905	106.5
300.136	94.5
300.366	97.5
300.597	98.5
300.827	92.5
301.057	97.5
301.288	103.5
301.518	86.5
301.748	119.5
301.979	137.5
302.209	101.5
302.439	95.5
302.669	92.5
302.9	119.5
303.13	98.5
303.36	135.5
303.59	182.5
303.82	215.5
304.051	128.5
304.281	100.5
304.511	102.5
304.741	93.5
304.971	94.5
305.201	77.5
305.431	85.5
305.661	98.5
305.891	91.5
306.121	115.5
306.352	108.5
306.582	118.5
306.812	135.5
307.042	177.5
307.272	271.5
307.502	298.5
307.731	255.5
307.961	169.5
308.191	110.5
308.421	96.5
308.651	102.5
308.881	105.5
309.111	95.5
309.341	79.5
309.571	99.5
309.8	120.5
310.03	103.5
310.26	99.5
310.49	98.5
310.72	110.5
310.949	114.5
311.179	119.5
311.409	100.5
311.639	102.5
311.868	110.5
312.098	108.5
312.328	105.5
312.557	113.5
312.787	99.5
313.017	118.5
313.246	113.5
313.476	94.5
313.706	98.5
313.935	99.5
314.165	101.5
314.394	115.5
314.624	116.5
314.853	103.5
315.083	97.5
315.312	100.5
315.542	90.5
315.771	96.5
316.001	89.5
316.23	80.5
316.46	99.5
316.689	104.5
316.919	95.5
317.148	97.5
317.377	109.5
317.607	95.5
317.836	100.5
318.065	114.5
318.295	97.5
318.524	103.5
318.753	89.5
318.983	97.5
319.212	108.5
319.441	126.5
319.67	104.5
319.9	106.5
320.129	101.5
320.358	96.5
320.587	100.5
320.816	105.5
321.046	113.5
321.275	117.5
321.504	99.5
321.733	108.5
321.962	111.5
322.191	113.5
322.42	125.5
322.649	121.5
322.878	113.5
323.108	114.5
323.337	139.5
323.566	173.5
323.795	172.5
324.024	236.5
324.253	425.5
324.482	925.5
324.71	1821.5
324.939	2420.5
325.168	896.5
325.397	279.5
325.626	182.5
325.855	150.5
326.084	126.5
326.313	136.5
326.542	170.5
326.77	247.5
326.999	454.5
327.228	931.5
327.457	1709.5
327.686	1472.5
327.914	711.5
328.143	968.5
328.372	1427.5
328.6	719.5
328.829	264.5
329.058	231.5
329.287	229.5
329.515	268.5
329.744	426.5
329.972	1004.5
330.201	2173.5
330.43	3189.5
330.658	1231.5
330.887	416.5
331.115	238.5
331.344	136.5
331.572	136.5
331.801	140.5
332.03	135.5
332.258	134.5
332.486	132.5
332.715	136.5
332.943	139.5
333.172	157.5
333.4	164.5
333.629	221.5
333.857	364.5
334.085	817.5
334.314	1907.5
334.542	3882.5
334.771	3491.5
334.999	845.5
335.227	278.5
335.455	183.5
335.684	137.5
335.912	128.5
336.14	123.5
336.369	134.5
336.597	119.5
336.825	119.5
337.053	102.5
337.281	101.5
337.51	101.5
337.738	96.5
337.966	90.5
338.194	121.5
338.422	109.5
338.65	109.5
338.878	108.5
339.106	102.5
339.334	91.5
339.562	90.5
339.79	106.5
340.018	88.5
340.246	96.5
340.474	114.5
340.702	102.5
340.93	99.5
341.158	93.5
341.386	109.5
341.614	110.5
341.842	92.5
342.07	93.5
342.298	115.5
342.526	87.5
342.754	92.5
342.981	93.5
343.209	94.5
343.437	103.5
343.665	97.5
343.893	96.5
344.12	87.5
344.348	84.5
344.576	103.5
344.804	91.5
345.031	108.5
345.259	111.5
345.487	100.5
345.714	98.5
345.942	103.5
346.17	103.5
346.397	97.5
346.625	95.5
346.853	97.5
347.08	101.5
347.308	110.5
347.535	110.5
347.763	118.5
347.99	107.5
348.218	93.5
348.445	116.5
348.673	108.5
348.9	101.5
349.128	96.5
349.355	100.5
349.583	95.5
349.81	84.5
350.037	109.5
350.265	109.5
350.492	102.5
350.72	102.5
350.947	96.5
351.174	133.5
351.402	130.5
351.629	117.5
351.856	115.5
352.083	100.5
352.311	116.5
352.538	119.5
352.765	121.5
352.992	132.5
353.22	120.5
353.447	118.5
353.674	96.5
353.901	109.5
354.128	88.5
354.355	99.5
354.583	104.5
354.81	105.5
355.037	100.5
355.264	109.5
355.491	87.5
355.718	85.5
355.945	98.5
356.172	83.5
356.399	96.5
356.626	76.5
356.853	84.5
357.08	106.5
357.307	89.5
357.534	99.5
357.761	96.5
357.988	97.5
358.215	115.5
358.441	101.5
358.668	101.5
358.895	100.5
359.122	112.5
359.349	105.5
359.576	104.5
359.802	120.5
360.029	136.5
360.256	148.5
360.483	106.5
360.709	93.5
360.936	95.5
361.163	85.5
361.39	88.5
361.616	94.5
361.843	106.5
362.07	97.5
362.296	101.5
362.523	99.5
362.749	96.5
362.976	95.5
363.203	99.5
363.429	85.5
363.656	98.5
363.882	89.5
364.109	100.5
364.335	89.5
364.562	87.5
364.788	87.5
365.015	109.5
365.241	98.5
365.468	119.5
365.694	130.5
365.92	117.5
366.147	97.5
366.373	100.5
366.599	103.5
366.826	87.5
367.052	108.5
367.278	96.5
367.505	93.5
367.731	78.5
367.957	84.5
368.184	110.5
368.41	111.5
368.636	122.5
368.862	113.5
369.089	118.5
369.315	105.5
369.541	104.5
369.767	91.5
369.993	100.5
370.219	104.5
370.445	83.5
370.672	95.5
370.898	96.5
371.124	91.5
371.35	85.5
371.576	92.5
371.802	77.5
372.028	93.5
372.254	92.5
372.48	102.5
372.706	95.5
372.932	79.5
373.158	86.5
373.384	96.5
373.61	88.5
373.835	95.5
374.061	91.5
374.287	112.5
374.513	94.5
374.739	95.5
374.965	94.5
375.191	80.5
375.416	75.5
375.642	91.5
375.868	99.5
376.094	97.5
376.319	105.5
376.545	103.5
376.771	92.5
376.997	96.5
377.222	82.5
377.448	104.5
377.674	72.5
377.899	91.5
378.125	97.5
378.35	89.5
378.576	89.5
378.802	96.5
379.027	109.5
379.253	91.5
379.478	96.5
379.704	96.5
379.929	97.5
380.155	112.5
380.38	104.5
380.606	100.5
380.831	115.5
381.057	105.5
381.282	104.5
381.507	108.5
381.733	92.5
381.958	110.5
382.184	103.5
382.409	109.5
382.634	109.5
382.86	100.5
383.085	108.5
383.31	98.5
383.535	104.5
383.761	101.5
383.986	121.5
384.211	110.5
384.436	96.5
384.662	101.5
384.887	112.5
385.112	124.5
385.337	113.5
385.562	129.5
385.787	126.5
386.013	113.5
386.238	129.5
386.463	121.5
386.688	125.5
386.913	123.5
387.138	119.5
387.363	102.5
387.588	113.5
387.813	110.5
388.038	100.5
388.263	145.5
388.488	128.5
388.713	92.5
388.938	89.5
389.163	103.5
389.387	88.5
389.612	92.5
389.837	80.5
390.062	82.5
390.287	84.5
390.512	92.5
390.736	82.5
390.961	84.5
391.186	77.5
391.411	83.5
391.636	80.5
391.86	86.5
392.085	92.5
392.31	96.5
392.534	75.5
392.759	88.5
392.984	99.5
393.208	91.5
393.433	96.5
393.658	100.5
393.882	80.5
394.107	94.5
394.331	93.5
394.556	95.5
394.78	91.5
395.005	79.5
395.229	83.5
395.454	76.5
395.678	82.5
395.903	90.5
396.127	95.5
396.352	90.5
396.576	95.5
396.801	99.5
397.025	86.5
397.249	99.5
397.474	88.5
397.698	89.5
397.922	100.5
398.147	101.5
398.371	97.5
398.595	98.5
398.82	72.5
399.044	73.5
399.268	98.5
399.492	86.5
399.717	84.5
399.941	81.5
400.165	106.5
400.389	90.5
400.613	81.5
400.837	104.5
401.062	85.5
401.286	89.5
401.51	94.5
401.734	90.5
401.958	103.5
402.182	139.5
402.406	172.5
402.63	147.5
402.854	111.5
403.078	88.5
403.302	97.5
403.526	85.5
403.75	91.5
403.974	81.5
404.198	77.5
404.422	91.5
404.645	96.5
404.869	102.5
405.093	143.5
405.317	179.5
405.541	157.5
405.765	129.5
405.988	141.5
406.212	201.5
406.436	283.5
406.66	194.5
406.883	127.5
407.107	102.5
407.331	96.5
407.555	116.5
407.778	103.5
408.002	99.5
408.226	90.5
408.449	85.5
408.673	102.5
408.896	96.5
409.12	101.5
409.344	96.5
409.567	97.5
409.791	101.5
410.014	87.5
410.238	97.5
410.461	110.5
410.685	79.5
410.908	100.5
411.132	108.5
411.355	108.5
411.578	92.5
411.802	98.5
412.025	106.5
412.249	104.5
412.472	135.5
412.695	164.5
412.919	103.5
413.142	93.5
413.365	112.5
413.589	94.5
413.812	104.5
414.035	98.5
414.258	95.5
414.482	97.5
414.705	85.5
414.928	87.5
415.151	76.5
415.374	96.5
415.597	96.5
415.821	86.5
416.044	100.5
416.267	91.5
416.49	96.5
416.713	72.5
416.936	90.5
417.159	87.5
417.382	112.5
417.605	143.5
417.828	147.5
418.051	114.5
418.274	99.5
418.497	88.5
418.72	81.5
418.943	77.5
419.166	88.5
419.389	90.5
419.611	89.5
419.834	115.5
420.057	91.5
420.28	115.5
420.503	86.5
420.726	86.5
420.948	95.5
421.171	112.5
421.394	108.5
421.617	93.5
421.839	97.5
422.062	98.5
422.285	79.5
422.507	93.5
422.73	97.5
422.953	91.5
423.175	89.5
423.398	76.5
423.621	84.5
423.843	95.5
424.066	87.5
424.288	85.5
424.511	104.5
424.733	95.5
424.956	111.5
425.178	113.5
425.401	111.5
425.623	98.5
425.846	111.5
426.068	107.5
426.291	94.5
426.513	88.5
426.735	83.5
426.958	114.5
427.18	137.5
427.402	177.5
427.625	269.5
427.847	255.5
428.069	244.5
428.292	163.5
428.514	118.5
428.736	93.5
428.958	84.5
429.181	77.5
429.403	108.5
429.625	96.5
429.847	104.5
430.069	109.5
430.292	91.5
430.514	89.5
430.736	89.5
430.958	86.5
431.18	97.5
431.402	98.5
431.624	89.5
431.846	90.5
432.068	84.5
432.29	83.5
432.512	89.5
432.734	106.5
432.956	97.5
433.178	97.5
433.4	97.5
433.622	101.5
433.844	86.5
434.066	83.5
434.287	91.5
434.509	93.5
434.731	94.5
434.953	91.5
435.175	88.5
435.397	104.5
435.618	106.5
435.84	108.5
436.062	132.5
436.284	126.5
436.505	106.5
436.727	101.5
436.949	87.5
437.17	85.5
437.392	81.5
437.614	103.5
437.835	131.5
438.057	148.5
438.278	118.5
438.5	103.5
438.721	130.5
438.943	109.5
439.165	93.5
439.386	87.5
439.608	107.5
439.829	105.5
440.05	141.5
440.272	180.5
440.493	108.5
440.715	97.5
440.936	93.5
441.158	92.5
441.379	103.5
441.6	101.5
441.822	110.5
442.043	110.5
442.264	112.5
442.486	100.5
442.707	97.5
442.928	128.5
443.149	160.5
443.371	167.5
443.592	122.5
443.813	120.5
444.034	115.5
444.255	99.5
444.476	94.5
444.698	87.5
444.919	81.5
445.14	128.5
445.361	117.5
445.582	115.5
445.803	182.5
446.024	164.5
446.245	151.5
446.466	118.5
446.687	104.5
446.908	81.5
447.129	89.5
447.35	94.5
447.571	97.5
447.792	96.5
448.013	111.5
448.234	107.5
448.455	108.5
448.675	115.5
448.896	131.5
449.117	123.5
449.338	96.5
449.559	145.5
449.779	144.5
450	98.5
450.221	92.5
450.442	88.5
450.662	95.5
450.883	113.5
451.104	142.5
451.324	102.5
451.545	82.5
451.766	93.5
451.986	92.5
452.207	92.5
452.428	102.5
452.648	105.5
452.869	135.5
453.089	120.5
453.31	150.5
453.53	104.5
453.751	91.5
453.971	117.5
454.192	123.5
454.412	96.5
454.633	82.5
454.853	84.5
455.073	83.5
455.294	101.5
455.514	101.5
455.734	95.5
455.955	75.5
456.175	76.5
456.395	90.5
456.616	86.5
456.836	83.5
457.056	101.5
457.276	85.5
457.497	92.5
457.717	88.5
457.937	101.5
458.157	88.5
458.377	87.5
458.598	130.5
458.818	220.5
459.038	208.5
459.258	145.5
459.478	95.5
459.698	86.5
459.918	74.5
460.138	93.5
460.358	94.5
460.578	92.5
460.798	79.5
461.018	95.5
461.238	98.5
461.458	88.5
461.678	93.5
461.898	92.5
462.118	85.5
462.338	83.5
462.558	99.5
462.777	95.5
462.997	130.5
463.217	157.5
463.437	129.5
463.657	101.5
463.876	97.5
464.096	104.5
464.316	92.5
464.536	104.5
464.755	109.5
464.975	125.5
465.195	232.5
465.414	243.5
465.634	118.5
465.854	79.5
466.073	97.5
466.293	100.5
466.512	98.5
466.732	89.5
466.951	118.5
467.171	111.5
467.391	128.5
467.61	201.5
467.829	376.5
468.049	1337.5
468.268	2032.5
468.488	430.5
468.707	151.5
468.927	114.5
469.146	93.5
469.365	101.5
469.585	107.5
469.804	123.5
470.023	116.5
470.243	109.5
470.462	115.5
470.681	137.5
470.901	120.5
471.12	118.5
471.339	155.5
471.558	155.5
471.777	228.5
471.997	563.5
472.216	2440.5
472.435	5654.5
472.654	1171.5
472.873	263.5
473.092	142.5
473.311	109.5
473.53	116.5
473.749	108.5
473.968	102.5
474.187	122.5
474.406	105.5
474.625	108.5
474.844	104.5
475.063	99.5
475.282	92.5
475.501	88.5
475.72	95.5
475.939	93.5
476.158	102.5
476.377	97.5
476.596	92.5
476.814	102.5
477.033	97.5
477.252	110.5
477.471	87.5
477.69	102.5
477.908	95.5
478.127	95.5
478.346	103.5
478.564	100.5
478.783	121.5
479.002	109.5
479.22	123.5
479.439	148.5
479.658	141.5
479.876	141.5
480.095	168.5
480.313	186.5
480.532	248.5
480.751	514.5
480.969	1999.5
481.188	9116.5
481.406	5026.5
481.624	628.5
481.843	199.5
482.061	132.5
482.28	115.5
482.498	118.5
482.717	103.5
482.935	111.5
483.153	111.5
483.372	89.5
483.59	93.5
483.808	87.5
484.027	91.5
484.245	107.5
484.463	80.5
484.681	105.5
484.9	79.5
485.118	83.5
485.336	100.5
485.554	113.5
485.772	107.5
485.99	112.5
486.209	101.5
486.427	104.5
486.645	118.5
486.863	133.5
487.081	108.5
487.299	113.5
487.517	100.5
487.735	93.5
487.953	89.5
488.171	90.5
488.389	98.5
488.607	100.5
488.825	103.5
489.043	102.5
489.261	95.5
489.479	85.5
489.696	83.5
489.914	86.5
490.132	90.5
490.35	92.5
490.568	74.5
490.786	96.5
491.003	94.5
491.221	94.5
491.439	108.5
491.657	98.5
491.874	82.5
492.092	103.5
492.31	106.5
492.527	105.5
492.745	111.5
492.963	105.5
493.18	95.5
493.398	98.5
493.615	90.5
493.833	92.5
494.05	104.5
494.268	85.5
494.485	88.5
494.703	90.5
494.92	90.5
495.138	91.5
495.355	102.5
495.573	89.5
495.79	99.5
496.008	104.5
496.225	93.5
496.442	90.5
496.66	83.5
496.877	90.5
497.094	90.5
497.312	88.5
497.529	105.5
497.746	95.5
497.963	87.5
498.181	79.5
498.398	99.5
498.615	113.5
498.832	103.5
499.049	95.5
499.267	111.5
499.484	91.5
499.701	92.5
499.918	94.5
500.135	85.5
500.352	92.5
500.569	101.5
500.786	113.5
501.003	93.5
501.22	90.5
501.437	94.5
501.654	105.5
501.871	131.5
502.088	93.5
502.305	83.5
502.522	92.5
502.739	102.5
502.956	101.5
503.172	83.5
503.389	97.5
503.606	120.5
503.823	104.5
504.04	85.5
504.256	107.5
504.473	88.5
504.69	98.5
504.907	89.5
505.123	92.5
505.34	78.5
505.557	84.5
505.773	96.5
505.99	80.5
506.207	98.5
506.423	89.5
506.64	103.5
506.856	84.5
507.073	96.5
507.289	97.5
507.506	102.5
507.722	133.5
507.939	126.5
508.155	107.5
508.372	100.5
508.588	105.5
508.805	110.5
509.021	101.5
509.238	103.5
509.454	99.5
509.67	124.5
509.887	123.5
510.103	147.5
510.319	232.5
510.536	931.5
510.752	3243.5
510.968	853.5
511.184	193.5
511.401	122.5
511.617	122.5
511.833	144.5
512.049	109.5
512.265	97.5
512.481	96.5
512.698	81.5
512.914	88.5
513.13	98.5
513.346	110.5
513.562	95.5
513.778	125.5
513.994	118.5
514.21	130.5
514.426	161.5
514.642	193.5
514.858	162.5
515.074	212.5
515.29	673.5
515.506	2427.5
515.721	843.5
515.937	207.5
516.153	131.5
516.369	116.5
516.585	117.5
516.801	119.5
517.016	115.5
517.232	109.5
517.448	102.5
517.664	101.5
517.879	101.5
518.095	100.5
518.311	133.5
518.527	133.5
518.742	109.5
518.958	102.5
519.173	104.5
519.389	84.5
519.605	91.5
519.82	102.5
520.036	116.5
520.251	144.5
520.467	111.5
520.682	114.5
520.898	116.5
521.113	121.5
521.329	183.5
521.544	304.5
521.76	896.5
521.975	4116.5
522.19	2426.5
522.406	491.5
522.621	162.5
522.836	113.5
523.052	110.5
523.267	99.5
523.482	100.5
523.698	111.5
523.913	153.5
524.128	119.5
524.343	93.5
524.559	108.5
524.774	113.5
524.989	98.5
525.204	124.5
525.419	116.5
525.634	95.5
525.849	85.5
526.064	95.5
526.28	100.5
526.495	95.5
526.71	99.5
526.925	97.5
527.14	93.5
527.355	85.5
527.57	99.5
527.785	84.5
527.999	98.5
528.214	96.5
528.429	86.5
528.644	95.5
528.859	76.5
529.074	98.5
529.289	160.5
529.503	260.5
529.718	109.5
529.933	83.5
530.148	100.5
530.363	92.5
