Data from Circ_1988_H10_HRD10591_00080.txt Node
Date: Wed Jan 03 12:05:50 EST 2024
User: Yrep
Spectrometer: HR+D1059
Trigger mode: 1
Integration Time (sec): 1.000000E-1
Scans to average: 1
Electric dark correction enabled: true
Nonlinearity correction enabled: false
Boxcar width: 0
XAxis mode: Wavelengths
Number of Pixels in Spectrum: 2048
>>>>>Begin Spectral Data<<<<<
223.165	-3.25
223.4	-3.25
223.635	-3.25
223.869	-22.25
224.104	-21.25
224.338	-20.25
224.573	-11.25
224.808	-6.25
225.042	-14.25
225.277	-7.25
225.511	-5.25
225.746	4.75
225.98	9.75
226.215	6.75
226.449	16.75
226.683	22.75
226.918	24.75
227.152	25.75
227.387	33.75
227.621	35.75
227.856	37.75
228.09	47.75
228.324	48.75
228.559	37.75
228.793	58.75
229.027	64.75
229.262	53.75
229.496	77.75
229.73	86.75
229.964	77.75
230.199	78.75
230.433	70.75
230.667	78.75
230.901	83.75
231.136	81.75
231.37	77.75
231.604	78.75
231.838	76.75
232.072	70.75
232.306	71.75
232.541	82.75
232.775	55.75
233.009	70.75
233.243	67.75
233.477	80.75
233.711	78.75
233.945	79.75
234.179	93.75
234.413	77.75
234.647	71.75
234.881	76.75
235.115	73.75
235.349	81.75
235.583	84.75
235.817	81.75
236.051	76.75
236.285	77.75
236.519	88.75
236.753	60.75
236.987	68.75
237.221	86.75
237.455	87.75
237.689	80.75
237.922	88.75
238.156	62.75
238.39	53.75
238.624	86.75
238.858	64.75
239.091	68.75
239.325	74.75
239.559	80.75
239.793	65.75
240.027	72.75
240.26	67.75
240.494	55.75
240.728	86.75
240.961	82.75
241.195	76.75
241.429	65.75
241.662	64.75
241.896	75.75
242.13	69.75
242.363	77.75
242.597	67.75
242.83	79.75
243.064	85.75
243.298	77.75
243.531	76.75
243.765	73.75
243.998	76.75
244.232	79.75
244.465	87.75
244.699	90.75
244.932	86.75
245.166	69.75
245.399	77.75
245.633	85.75
245.866	75.75
246.099	69.75
246.333	75.75
246.566	66.75
246.8	81.75
247.033	90.75
247.266	86.75
247.5	85.75
247.733	80.75
247.966	77.75
248.2	75.75
248.433	75.75
248.666	69.75
248.899	87.75
249.133	88.75
249.366	101.75
249.599	106.75
249.832	91.75
250.066	78.75
250.299	79.75
250.532	78.75
250.765	85.75
250.998	80.75
251.231	85.75
251.465	77.75
251.698	83.75
251.931	80.75
252.164	73.75
252.397	75.75
252.63	94.75
252.863	90.75
253.096	83.75
253.329	88.75
253.562	78.75
253.795	80.75
254.028	84.75
254.261	65.75
254.494	93.75
254.727	69.75
254.96	73.75
255.193	81.75
255.426	74.75
255.659	84.75
255.892	97.75
256.124	95.75
256.357	81.75
256.59	68.75
256.823	77.75
257.056	85.75
257.289	79.75
257.521	96.75
257.754	76.75
257.987	83.75
258.22	108.75
258.452	101.75
258.685	101.75
258.918	102.75
259.151	83.75
259.383	95.75
259.616	72.75
259.849	69.75
260.081	90.75
260.314	83.75
260.547	92.75
260.779	107.75
261.012	129.75
261.244	130.75
261.477	118.75
261.71	99.75
261.942	117.75
262.175	146.75
262.407	91.75
262.64	84.75
262.872	83.75
263.105	63.75
263.337	69.75
263.57	66.75
263.802	85.75
264.035	79.75
264.267	93.75
264.499	87.75
264.732	91.75
264.964	73.75
265.197	83.75
265.429	78.75
265.661	81.75
265.894	91.75
266.126	93.75
266.358	98.75
266.591	78.75
266.823	78.75
267.055	74.75
267.287	70.75
267.52	82.75
267.752	86.75
267.984	79.75
268.216	78.75
268.448	83.75
268.681	85.75
268.913	76.75
269.145	76.75
269.377	68.75
269.609	79.75
269.841	77.75
270.073	82.75
270.306	75.75
270.538	81.75
270.77	77.75
271.002	78.75
271.234	85.75
271.466	102.75
271.698	98.75
271.93	88.75
272.162	73.75
272.394	87.75
272.626	73.75
272.858	81.75
273.09	81.75
273.322	82.75
273.553	93.75
273.785	88.75
274.017	86.75
274.249	86.75
274.481	94.75
274.713	88.75
274.945	79.75
275.176	90.75
275.408	100.75
275.64	139.75
275.872	158.75
276.104	124.75
276.335	109.75
276.567	118.75
276.799	147.75
277.031	207.75
277.262	275.75
277.494	212.75
277.726	124.75
277.957	94.75
278.189	109.75
278.421	103.75
278.652	94.75
278.884	86.75
279.115	98.75
279.347	89.75
279.579	104.75
279.81	164.75
280.042	278.75
280.273	427.75
280.505	278.75
280.736	125.75
280.968	95.75
281.199	86.75
281.431	83.75
281.662	91.75
281.894	93.75
282.125	106.75
282.356	135.75
282.588	157.75
282.819	134.75
283.051	81.75
283.282	94.75
283.513	78.75
283.745	90.75
283.976	82.75
284.207	97.75
284.439	85.75
284.67	85.75
284.901	83.75
285.132	89.75
285.364	84.75
285.595	96.75
285.826	89.75
286.057	91.75
286.288	81.75
286.52	87.75
286.751	73.75
286.982	87.75
287.213	69.75
287.444	84.75
287.675	88.75
287.906	89.75
288.138	87.75
288.369	95.75
288.6	109.75
288.831	91.75
289.062	90.75
289.293	96.75
289.524	96.75
289.755	85.75
289.986	89.75
290.217	83.75
290.448	91.75
290.679	84.75
290.91	76.75
291.141	91.75
291.371	79.75
291.602	95.75
291.833	89.75
292.064	83.75
292.295	85.75
292.526	96.75
292.757	91.75
292.987	81.75
293.218	87.75
293.449	87.75
293.68	81.75
293.91	83.75
294.141	81.75
294.372	87.75
294.603	79.75
294.833	93.75
295.064	81.75
295.295	85.75
295.525	77.75
295.756	113.75
295.987	128.75
296.217	172.75
296.448	137.75
296.679	100.75
296.909	87.75
297.14	84.75
297.37	82.75
297.601	92.75
297.831	91.75
298.062	83.75
298.292	90.75
298.523	84.75
298.753	82.75
298.984	90.75
299.214	88.75
299.445	88.75
299.675	98.75
299.905	110.75
300.136	86.75
300.366	95.75
300.597	89.75
300.827	90.75
301.057	100.75
301.288	103.75
301.518	100.75
301.748	97.75
301.979	111.75
302.209	101.75
302.439	95.75
302.669	91.75
302.9	78.75
303.13	95.75
303.36	119.75
303.59	166.75
303.82	181.75
304.051	111.75
304.281	81.75
304.511	86.75
304.741	85.75
304.971	75.75
305.201	93.75
305.431	79.75
305.661	100.75
305.891	102.75
306.121	91.75
306.352	100.75
306.582	116.75
306.812	117.75
307.042	144.75
307.272	225.75
307.502	242.75
307.731	238.75
307.961	174.75
308.191	84.75
308.421	94.75
308.651	92.75
308.881	102.75
309.111	93.75
309.341	116.75
309.571	102.75
309.8	111.75
310.03	105.75
310.26	98.75
310.49	101.75
310.72	94.75
310.949	118.75
311.179	118.75
311.409	103.75
311.639	108.75
311.868	83.75
312.098	82.75
312.328	110.75
312.557	117.75
312.787	114.75
313.017	106.75
313.246	106.75
313.476	92.75
313.706	80.75
313.935	86.75
314.165	102.75
314.394	118.75
314.624	98.75
314.853	104.75
315.083	89.75
315.312	103.75
315.542	110.75
315.771	94.75
316.001	94.75
316.23	89.75
316.46	94.75
316.689	105.75
316.919	82.75
317.148	92.75
317.377	87.75
317.607	103.75
317.836	90.75
318.065	96.75
318.295	93.75
318.524	101.75
318.753	92.75
318.983	93.75
319.212	104.75
319.441	121.75
319.67	117.75
319.9	93.75
320.129	89.75
320.358	82.75
320.587	98.75
320.816	107.75
321.046	97.75
321.275	115.75
321.504	107.75
321.733	96.75
321.962	94.75
322.191	107.75
322.42	125.75
322.649	126.75
322.878	100.75
323.108	125.75
323.337	119.75
323.566	129.75
323.795	155.75
324.024	186.75
324.253	374.75
324.482	763.75
324.71	1549.75
324.939	2055.75
325.168	773.75
325.397	244.75
325.626	166.75
325.855	125.75
326.084	128.75
326.313	141.75
326.542	147.75
326.77	220.75
326.999	412.75
327.228	813.75
327.457	1429.75
327.686	1205.75
327.914	569.75
328.143	761.75
328.372	1048.75
328.6	547.75
328.829	216.75
329.058	201.75
329.287	207.75
329.515	207.75
329.744	329.75
329.972	741.75
330.201	1594.75
330.43	2433.75
330.658	978.75
330.887	335.75
331.115	194.75
331.344	131.75
331.572	132.75
331.801	122.75
332.03	125.75
332.258	105.75
332.486	109.75
332.715	108.75
332.943	137.75
333.172	143.75
333.4	152.75
333.629	173.75
333.857	269.75
334.085	578.75
334.314	1349.75
334.542	2857.75
334.771	2733.75
334.999	646.75
335.227	222.75
335.455	130.75
335.684	124.75
335.912	115.75
336.14	112.75
336.369	113.75
336.597	113.75
336.825	96.75
337.053	106.75
337.281	101.75
337.51	87.75
337.738	94.75
337.966	97.75
338.194	100.75
338.422	110.75
338.65	100.75
338.878	89.75
339.106	104.75
339.334	96.75
339.562	87.75
339.79	91.75
340.018	82.75
340.246	92.75
340.474	99.75
340.702	98.75
340.93	91.75
341.158	79.75
341.386	92.75
341.614	105.75
341.842	99.75
342.07	92.75
342.298	92.75
342.526	91.75
342.754	89.75
342.981	85.75
343.209	87.75
343.437	102.75
343.665	87.75
343.893	100.75
344.12	96.75
344.348	85.75
344.576	86.75
344.804	98.75
345.031	99.75
345.259	96.75
345.487	88.75
345.714	92.75
345.942	97.75
346.17	105.75
346.397	99.75
346.625	85.75
346.853	92.75
347.08	86.75
347.308	95.75
347.535	94.75
347.763	96.75
347.99	85.75
348.218	106.75
348.445	109.75
348.673	106.75
348.9	95.75
349.128	84.75
349.355	84.75
349.583	86.75
349.81	90.75
350.037	104.75
350.265	89.75
350.492	88.75
350.72	85.75
350.947	95.75
351.174	118.75
351.402	113.75
351.629	109.75
351.856	110.75
352.083	102.75
352.311	118.75
352.538	120.75
352.765	115.75
352.992	118.75
353.22	116.75
353.447	94.75
353.674	98.75
353.901	95.75
354.128	80.75
354.355	92.75
354.583	92.75
354.81	92.75
355.037	95.75
355.264	95.75
355.491	106.75
355.718	94.75
355.945	102.75
356.172	94.75
356.399	84.75
356.626	93.75
356.853	79.75
357.08	94.75
357.307	88.75
357.534	86.75
357.761	90.75
357.988	84.75
358.215	91.75
358.441	97.75
358.668	87.75
358.895	97.75
359.122	101.75
359.349	89.75
359.576	83.75
359.802	109.75
360.029	137.75
360.256	113.75
360.483	111.75
360.709	88.75
360.936	94.75
361.163	93.75
361.39	102.75
361.616	86.75
361.843	86.75
362.07	91.75
362.296	96.75
362.523	101.75
362.749	96.75
362.976	102.75
363.203	90.75
363.429	86.75
363.656	79.75
363.882	86.75
364.109	88.75
364.335	103.75
364.562	91.75
364.788	101.75
365.015	99.75
365.241	94.75
365.468	116.75
365.694	105.75
365.92	105.75
366.147	82.75
366.373	85.75
366.599	82.75
366.826	78.75
367.052	94.75
367.278	101.75
367.505	94.75
367.731	84.75
367.957	92.75
368.184	92.75
368.41	110.75
368.636	112.75
368.862	126.75
369.089	108.75
369.315	94.75
369.541	97.75
369.767	91.75
369.993	93.75
370.219	97.75
370.445	101.75
370.672	84.75
370.898	84.75
371.124	78.75
371.35	74.75
371.576	82.75
371.802	89.75
372.028	76.75
372.254	87.75
372.48	71.75
372.706	86.75
372.932	90.75
373.158	87.75
373.384	84.75
373.61	89.75
373.835	82.75
374.061	80.75
374.287	86.75
374.513	106.75
374.739	94.75
374.965	87.75
375.191	85.75
375.416	71.75
375.642	87.75
375.868	99.75
376.094	88.75
376.319	100.75
376.545	80.75
376.771	66.75
376.997	83.75
377.222	93.75
377.448	89.75
377.674	89.75
377.899	101.75
378.125	96.75
378.35	91.75
378.576	94.75
378.802	89.75
379.027	79.75
379.253	82.75
379.478	92.75
379.704	90.75
379.929	95.75
380.155	110.75
380.38	105.75
380.606	96.75
380.831	93.75
381.057	90.75
381.282	93.75
381.507	96.75
381.733	86.75
381.958	94.75
382.184	107.75
382.409	98.75
382.634	101.75
382.86	92.75
383.085	100.75
383.31	85.75
383.535	105.75
383.761	98.75
383.986	101.75
384.211	93.75
384.436	85.75
384.662	100.75
384.887	97.75
385.112	106.75
385.337	100.75
385.562	106.75
385.787	99.75
386.013	109.75
386.238	113.75
386.463	107.75
386.688	117.75
386.913	120.75
387.138	109.75
387.363	102.75
387.588	103.75
387.813	84.75
388.038	91.75
388.263	102.75
388.488	109.75
388.713	93.75
388.938	94.75
389.163	75.75
389.387	96.75
389.612	84.75
389.837	86.75
390.062	100.75
390.287	91.75
390.512	83.75
390.736	90.75
390.961	86.75
391.186	84.75
391.411	88.75
391.636	75.75
391.86	79.75
392.085	86.75
392.31	81.75
392.534	79.75
392.759	85.75
392.984	90.75
393.208	83.75
393.433	83.75
393.658	72.75
393.882	91.75
394.107	84.75
394.331	85.75
394.556	76.75
394.78	101.75
395.005	89.75
395.229	82.75
395.454	88.75
395.678	84.75
395.903	94.75
396.127	87.75
396.352	100.75
396.576	87.75
396.801	83.75
397.025	90.75
397.249	90.75
397.474	85.75
397.698	78.75
397.922	83.75
398.147	103.75
398.371	77.75
398.595	82.75
398.82	79.75
399.044	68.75
399.268	85.75
399.492	70.75
399.717	80.75
399.941	87.75
400.165	89.75
400.389	86.75
400.613	81.75
400.837	75.75
401.062	83.75
401.286	97.75
401.51	95.75
401.734	93.75
401.958	95.75
402.182	131.75
402.406	194.75
402.63	138.75
402.854	86.75
403.078	83.75
403.302	71.75
403.526	100.75
403.75	89.75
403.974	91.75
404.198	82.75
404.422	83.75
404.645	94.75
404.869	100.75
405.093	109.75
405.317	135.75
405.541	142.75
405.765	116.75
405.988	129.75
406.212	202.75
406.436	285.75
406.66	185.75
406.883	117.75
407.107	102.75
407.331	100.75
407.555	101.75
407.778	110.75
408.002	91.75
408.226	99.75
408.449	87.75
408.673	85.75
408.896	91.75
409.12	78.75
409.344	86.75
409.567	83.75
409.791	94.75
410.014	84.75
410.238	92.75
410.461	80.75
410.685	90.75
410.908	84.75
411.132	112.75
411.355	102.75
411.578	101.75
411.802	91.75
412.025	86.75
412.249	98.75
412.472	106.75
412.695	123.75
412.919	121.75
413.142	101.75
413.365	83.75
413.589	85.75
413.812	93.75
414.035	89.75
414.258	92.75
414.482	95.75
414.705	78.75
414.928	98.75
415.151	85.75
415.374	90.75
415.597	91.75
415.821	100.75
416.044	90.75
416.267	87.75
416.49	82.75
416.713	99.75
416.936	83.75
417.159	83.75
417.382	101.75
417.605	101.75
417.828	116.75
418.051	95.75
418.274	91.75
418.497	95.75
418.72	92.75
418.943	80.75
419.166	84.75
419.389	90.75
419.611	92.75
419.834	82.75
420.057	97.75
420.28	105.75
420.503	85.75
420.726	88.75
420.948	101.75
421.171	101.75
421.394	91.75
421.617	100.75
421.839	86.75
422.062	82.75
422.285	78.75
422.507	102.75
422.73	103.75
422.953	85.75
423.175	82.75
423.398	92.75
423.621	81.75
423.843	81.75
424.066	86.75
424.288	91.75
424.511	94.75
424.733	100.75
424.956	103.75
425.178	112.75
425.401	99.75
425.623	93.75
425.846	84.75
426.068	102.75
426.291	97.75
426.513	86.75
426.735	91.75
426.958	93.75
427.18	100.75
427.402	157.75
427.625	211.75
427.847	229.75
428.069	198.75
428.292	147.75
428.514	93.75
428.736	83.75
428.958	86.75
429.181	74.75
429.403	79.75
429.625	85.75
429.847	100.75
430.069	104.75
430.292	100.75
430.514	90.75
430.736	99.75
430.958	92.75
431.18	79.75
431.402	93.75
431.624	76.75
431.846	82.75
432.068	84.75
432.29	92.75
432.512	64.75
432.734	70.75
432.956	86.75
433.178	82.75
433.4	81.75
433.622	97.75
433.844	85.75
434.066	83.75
434.287	87.75
434.509	86.75
434.731	87.75
434.953	90.75
435.175	84.75
435.397	77.75
435.618	93.75
435.84	102.75
436.062	120.75
436.284	105.75
436.505	114.75
436.727	92.75
436.949	90.75
437.17	87.75
437.392	90.75
437.614	96.75
437.835	104.75
438.057	138.75
438.278	128.75
438.5	99.75
438.721	133.75
438.943	107.75
439.165	82.75
439.386	85.75
439.608	103.75
439.829	101.75
440.05	132.75
440.272	161.75
440.493	110.75
440.715	95.75
440.936	98.75
441.158	85.75
441.379	89.75
441.6	107.75
441.822	105.75
442.043	89.75
442.264	113.75
442.486	103.75
442.707	103.75
442.928	104.75
443.149	149.75
443.371	173.75
443.592	112.75
443.813	112.75
444.034	101.75
444.255	105.75
444.476	92.75
444.698	86.75
444.919	98.75
445.14	129.75
445.361	113.75
445.582	122.75
445.803	141.75
446.024	146.75
446.245	139.75
446.466	106.75
446.687	97.75
446.908	87.75
447.129	104.75
447.35	84.75
447.571	98.75
447.792	97.75
448.013	106.75
448.234	126.75
448.455	111.75
448.675	116.75
448.896	120.75
449.117	98.75
449.338	89.75
449.559	119.75
449.779	131.75
450	85.75
450.221	82.75
450.442	81.75
450.662	106.75
450.883	108.75
451.104	123.75
451.324	103.75
451.545	86.75
451.766	91.75
451.986	84.75
452.207	61.75
452.428	90.75
452.648	95.75
452.869	115.75
453.089	126.75
453.31	131.75
453.53	100.75
453.751	93.75
453.971	109.75
454.192	123.75
454.412	101.75
454.633	83.75
454.853	87.75
455.073	90.75
455.294	86.75
455.514	106.75
455.734	97.75
455.955	87.75
456.175	81.75
456.395	75.75
456.616	94.75
456.836	81.75
457.056	95.75
457.276	90.75
457.497	84.75
457.717	85.75
457.937	95.75
458.157	87.75
458.377	79.75
458.598	116.75
458.818	194.75
459.038	205.75
459.258	148.75
459.478	97.75
459.698	84.75
459.918	84.75
460.138	78.75
460.358	77.75
460.578	89.75
460.798	85.75
461.018	91.75
461.238	72.75
461.458	78.75
461.678	76.75
461.898	81.75
462.118	91.75
462.338	91.75
462.558	100.75
462.777	98.75
462.997	119.75
463.217	121.75
463.437	115.75
463.657	92.75
463.876	88.75
464.096	79.75
464.316	86.75
464.536	91.75
464.755	104.75
464.975	123.75
465.195	223.75
465.414	214.75
465.634	103.75
465.854	95.75
466.073	82.75
466.293	89.75
466.512	90.75
466.732	83.75
466.951	92.75
467.171	103.75
467.391	122.75
467.61	146.75
467.829	295.75
468.049	1044.75
468.268	1633.75
468.488	348.75
468.707	133.75
468.927	101.75
469.146	99.75
469.365	91.75
469.585	95.75
469.804	104.75
470.023	102.75
470.243	99.75
470.462	114.75
470.681	138.75
470.901	110.75
471.12	117.75
471.339	116.75
471.558	132.75
471.777	202.75
471.997	455.75
472.216	1945.75
472.435	4644.75
472.654	953.75
472.873	213.75
473.092	117.75
473.311	96.75
473.53	104.75
473.749	99.75
473.968	103.75
474.187	110.75
474.406	105.75
474.625	98.75
474.844	82.75
475.063	96.75
475.282	86.75
475.501	96.75
475.72	86.75
475.939	90.75
476.158	95.75
476.377	88.75
476.596	82.75
476.814	81.75
477.033	103.75
477.252	104.75
477.471	100.75
477.69	87.75
477.908	81.75
478.127	98.75
478.346	92.75
478.564	100.75
478.783	96.75
479.002	119.75
479.22	98.75
479.439	119.75
479.658	117.75
479.876	129.75
480.095	137.75
480.313	173.75
480.532	200.75
480.751	417.75
480.969	1625.75
481.188	7458.75
481.406	4125.75
481.624	528.75
481.843	177.75
482.061	130.75
482.28	113.75
482.498	95.75
482.717	91.75
482.935	85.75
483.153	80.75
483.372	85.75
483.59	97.75
483.808	95.75
484.027	93.75
484.245	104.75
484.463	100.75
484.681	93.75
484.9	97.75
485.118	102.75
485.336	102.75
485.554	103.75
485.772	107.75
485.99	104.75
486.209	112.75
486.427	126.75
486.645	110.75
486.863	137.75
487.081	113.75
487.299	114.75
487.517	106.75
487.735	100.75
487.953	77.75
488.171	77.75
488.389	76.75
488.607	77.75
488.825	91.75
489.043	99.75
489.261	95.75
489.479	83.75
489.696	85.75
489.914	98.75
490.132	106.75
490.35	83.75
490.568	85.75
490.786	88.75
491.003	85.75
491.221	96.75
491.439	100.75
491.657	100.75
491.874	94.75
492.092	86.75
492.31	87.75
492.527	99.75
492.745	101.75
492.963	98.75
493.18	83.75
493.398	97.75
493.615	93.75
493.833	86.75
494.05	80.75
494.268	89.75
494.485	82.75
494.703	76.75
494.92	93.75
495.138	86.75
495.355	91.75
495.573	96.75
495.79	82.75
496.008	96.75
496.225	83.75
496.442	101.75
496.66	99.75
496.877	81.75
497.094	87.75
497.312	78.75
497.529	94.75
497.746	92.75
497.963	89.75
498.181	87.75
498.398	93.75
498.615	110.75
498.832	113.75
499.049	83.75
499.267	100.75
499.484	89.75
499.701	85.75
499.918	71.75
500.135	89.75
500.352	91.75
500.569	100.75
500.786	96.75
501.003	94.75
501.22	93.75
501.437	84.75
501.654	95.75
501.871	118.75
502.088	81.75
502.305	77.75
502.522	92.75
502.739	96.75
502.956	96.75
503.172	94.75
503.389	100.75
503.606	112.75
503.823	126.75
504.04	100.75
504.256	94.75
504.473	101.75
504.69	98.75
504.907	92.75
505.123	88.75
505.34	101.75
505.557	87.75
505.773	87.75
505.99	89.75
506.207	81.75
506.423	88.75
506.64	93.75
506.856	92.75
507.073	74.75
507.289	92.75
507.506	95.75
507.722	128.75
507.939	130.75
508.155	91.75
508.372	93.75
508.588	89.75
508.805	99.75
509.021	95.75
509.238	97.75
509.454	87.75
509.67	97.75
509.887	117.75
510.103	139.75
510.319	236.75
510.536	922.75
510.752	3382.75
510.968	891.75
511.184	191.75
511.401	113.75
511.617	110.75
511.833	120.75
512.049	111.75
512.265	102.75
512.481	93.75
512.698	99.75
512.914	103.75
513.13	102.75
513.346	106.75
513.562	82.75
513.778	97.75
