Data from Circ_1988_H10_HRD10591_00026.txt Node
Date: Wed Jan 03 12:05:40 EST 2024
User: Yrep
Spectrometer: HR+D1059
Trigger mode: 1
Integration Time (sec): 1.000000E-1
Scans to average: 1
Electric dark correction enabled: true
Nonlinearity correction enabled: false
Boxcar width: 0
XAxis mode: Wavelengths
Number of Pixels in Spectrum: 2048
>>>>>Begin Spectral Data<<<<<
223.165	-3
223.4	-3
223.635	-3
223.869	-23
224.104	-24
224.338	-30
224.573	-15
224.808	-8
225.042	2
225.277	-9
225.511	-6
225.746	-3
225.98	20
226.215	12
226.449	15
226.683	16
226.918	20
227.152	36
227.387	17
227.621	24
227.856	35
228.09	40
228.324	40
228.559	54
228.793	58
229.027	56
229.262	75
229.496	72
229.73	96
229.964	95
230.199	84
230.433	74
230.667	79
230.901	76
231.136	77
231.37	80
231.604	92
231.838	89
232.072	64
232.306	77
232.541	87
232.775	75
233.009	70
233.243	86
233.477	85
233.711	82
233.945	86
234.179	76
234.413	88
234.647	83
234.881	81
235.115	87
235.349	83
235.583	77
235.817	90
236.051	70
236.285	80
236.519	82
236.753	68
236.987	91
237.221	86
237.455	79
237.689	69
237.922	69
238.156	68
238.39	69
238.624	69
238.858	86
239.091	87
239.325	77
239.559	83
239.793	84
240.027	70
240.26	79
240.494	80
240.728	80
240.961	70
241.195	78
241.429	82
241.662	81
241.896	85
242.13	83
242.363	80
242.597	88
242.83	76
243.064	83
243.298	75
243.531	82
243.765	82
243.998	75
244.232	92
244.465	98
244.699	75
244.932	76
245.166	67
245.399	78
245.633	79
245.866	78
246.099	85
246.333	79
246.566	100
246.8	84
247.033	89
247.266	69
247.5	91
247.733	93
247.966	85
248.2	92
248.433	87
248.666	91
248.899	80
249.133	86
249.366	103
249.599	105
249.832	104
250.066	96
250.299	97
250.532	102
250.765	82
250.998	102
251.231	98
251.465	83
251.698	98
251.931	95
252.164	93
252.397	90
252.63	78
252.863	82
253.096	63
253.329	84
253.562	89
253.795	86
254.028	76
254.261	87
254.494	80
254.727	103
254.96	78
255.193	77
255.426	80
255.659	91
255.892	104
256.124	119
256.357	98
256.59	88
256.823	87
257.056	86
257.289	102
257.521	96
257.754	92
257.987	87
258.22	98
258.452	124
258.685	118
258.918	103
259.151	90
259.383	74
259.616	90
259.849	82
260.081	90
260.314	95
260.547	114
260.779	119
261.012	144
261.244	146
261.477	119
261.71	99
261.942	125
262.175	143
262.407	96
262.64	95
262.872	87
263.105	76
263.337	88
263.57	75
263.802	82
264.035	82
264.267	80
264.499	88
264.732	78
264.964	87
265.197	83
265.429	78
265.661	82
265.894	76
266.126	77
266.358	83
266.591	90
266.823	92
267.055	101
267.287	100
267.52	96
267.752	86
267.984	82
268.216	82
268.448	97
268.681	90
268.913	114
269.145	81
269.377	93
269.609	76
269.841	89
270.073	93
270.306	76
270.538	105
270.77	84
271.002	93
271.234	90
271.466	110
271.698	83
271.93	83
272.162	75
272.394	97
272.626	81
272.858	80
273.09	90
273.322	94
273.553	90
273.785	83
274.017	84
274.249	81
274.481	87
274.713	88
274.945	92
275.176	101
275.408	113
275.64	151
275.872	194
276.104	128
276.335	98
276.567	130
276.799	186
277.031	280
277.262	387
277.494	272
277.726	122
277.957	109
278.189	94
278.421	99
278.652	104
278.884	94
279.115	92
279.347	102
279.579	130
279.81	205
280.042	398
280.273	588
280.505	358
280.736	138
280.968	119
281.199	103
281.431	96
281.662	91
281.894	106
282.125	92
282.356	128
282.588	165
282.819	131
283.051	102
283.282	87
283.513	95
283.745	86
283.976	94
284.207	89
284.439	94
284.67	88
284.901	88
285.132	93
285.364	74
285.595	74
285.826	97
286.057	83
286.288	77
286.52	86
286.751	82
286.982	74
287.213	103
287.444	86
287.675	94
287.906	89
288.138	105
288.369	95
288.6	92
288.831	101
289.062	89
289.293	94
289.524	91
289.755	64
289.986	90
290.217	75
290.448	80
290.679	91
290.91	91
291.141	85
291.371	90
291.602	80
291.833	86
292.064	76
292.295	94
292.526	80
292.757	90
292.987	94
293.218	98
293.449	94
293.68	84
293.91	90
294.141	109
294.372	91
294.603	86
294.833	93
295.064	100
295.295	85
295.525	92
295.756	113
295.987	114
296.217	155
296.448	144
296.679	105
296.909	74
297.14	92
297.37	96
297.601	85
297.831	85
298.062	97
298.292	86
298.523	78
298.753	96
298.984	91
299.214	85
299.445	94
299.675	90
299.905	99
300.136	95
300.366	95
300.597	98
300.827	83
301.057	110
301.288	123
301.518	94
301.748	98
301.979	118
302.209	114
302.439	83
302.669	92
302.9	92
303.13	101
303.36	122
303.59	176
303.82	197
304.051	127
304.281	87
304.511	79
304.741	91
304.971	86
305.201	95
305.431	94
305.661	76
305.891	92
306.121	101
306.352	118
306.582	118
306.812	143
307.042	176
307.272	290
307.502	323
307.731	257
307.961	166
308.191	108
308.421	103
308.651	98
308.881	95
309.111	81
309.341	87
309.571	109
309.8	118
310.03	101
310.26	105
310.49	107
310.72	98
310.949	128
311.179	115
311.409	97
311.639	101
311.868	112
312.098	100
312.328	106
312.557	116
312.787	126
313.017	112
313.246	112
313.476	85
313.706	93
313.935	107
314.165	103
314.394	101
314.624	103
314.853	113
315.083	83
315.312	104
315.542	108
315.771	108
316.001	99
316.23	104
316.46	104
316.689	86
316.919	101
317.148	110
317.377	79
317.607	99
317.836	92
318.065	112
318.295	104
318.524	98
318.753	90
318.983	87
319.212	103
319.441	111
319.67	113
319.9	105
320.129	93
320.358	78
320.587	90
320.816	110
321.046	108
321.275	100
321.504	97
321.733	110
321.962	96
322.191	113
322.42	130
322.649	111
322.878	116
323.108	138
323.337	135
323.566	158
323.795	181
324.024	224
324.253	433
324.482	970
324.71	1965
324.939	2653
325.168	984
325.397	295
325.626	170
325.855	150
326.084	129
326.313	134
326.542	176
326.77	256
326.999	488
327.228	972
327.457	1818
327.686	1598
327.914	760
328.143	1036
328.372	1490
328.6	716
328.829	262
329.058	235
329.287	236
329.515	249
329.744	476
329.972	1053
330.201	2330
330.43	3425
330.658	1336
330.887	452
331.115	218
331.344	173
331.572	143
331.801	149
332.03	146
332.258	127
332.486	111
332.715	119
332.943	135
333.172	144
333.4	178
333.629	236
333.857	391
334.085	842
334.314	2063
334.542	4180
334.771	3819
334.999	878
335.227	271
335.455	161
335.684	143
335.912	124
336.14	129
336.369	124
336.597	129
336.825	127
337.053	104
337.281	99
337.51	105
337.738	104
337.966	101
338.194	95
338.422	98
338.65	98
338.878	95
339.106	93
339.334	111
339.562	89
339.79	93
340.018	77
340.246	86
340.474	111
340.702	94
340.93	83
341.158	96
341.386	100
341.614	95
341.842	79
342.07	91
342.298	96
342.526	85
342.754	83
342.981	99
343.209	92
343.437	105
343.665	95
343.893	91
344.12	94
344.348	90
344.576	101
344.804	95
345.031	103
345.259	104
345.487	103
345.714	88
345.942	97
346.17	97
346.397	88
346.625	101
346.853	82
347.08	80
347.308	99
347.535	102
347.763	109
347.99	92
348.218	91
348.445	106
348.673	109
348.9	88
349.128	91
349.355	100
349.583	78
349.81	94
350.037	90
350.265	97
350.492	82
350.72	98
350.947	111
351.174	105
351.402	124
351.629	109
351.856	104
352.083	112
352.311	113
352.538	111
352.765	107
352.992	117
353.22	114
353.447	115
353.674	98
353.901	85
354.128	86
354.355	91
354.583	103
354.81	104
355.037	87
355.264	100
355.491	98
355.718	97
355.945	99
356.172	92
356.399	77
356.626	86
356.853	104
357.08	101
357.307	84
357.534	84
357.761	78
357.988	83
358.215	94
358.441	90
358.668	99
358.895	97
359.122	98
359.349	94
359.576	99
359.802	111
360.029	145
360.256	125
360.483	106
360.709	94
360.936	108
361.163	100
361.39	112
361.616	95
361.843	97
362.07	95
362.296	105
362.523	95
362.749	97
362.976	95
363.203	102
363.429	74
363.656	89
363.882	95
364.109	86
364.335	92
364.562	101
364.788	85
365.015	93
365.241	90
365.468	110
365.694	105
365.92	102
366.147	78
366.373	90
366.599	92
366.826	94
367.052	86
367.278	103
367.505	95
367.731	86
367.957	95
368.184	84
368.41	108
368.636	130
368.862	113
369.089	127
369.315	100
369.541	108
369.767	90
369.993	96
370.219	86
370.445	87
370.672	79
370.898	76
371.124	84
371.35	87
371.576	82
371.802	82
372.028	70
372.254	82
372.48	93
372.706	85
372.932	97
373.158	95
373.384	103
373.61	96
373.835	93
374.061	82
374.287	90
374.513	97
374.739	110
374.965	91
375.191	92
375.416	96
375.642	102
375.868	95
376.094	95
376.319	81
376.545	90
376.771	72
376.997	90
377.222	88
377.448	80
377.674	79
377.899	95
378.125	97
378.35	92
378.576	78
378.802	95
379.027	99
379.253	92
379.478	104
379.704	97
379.929	90
380.155	101
380.38	101
380.606	94
380.831	98
381.057	102
381.282	116
381.507	103
381.733	106
381.958	100
382.184	99
382.409	114
382.634	129
382.86	112
383.085	119
383.31	130
383.535	117
383.761	125
383.986	91
384.211	97
384.436	106
384.662	119
384.887	115
385.112	142
385.337	140
385.562	128
385.787	124
386.013	129
386.238	141
386.463	123
386.688	122
386.913	129
387.138	136
387.363	112
387.588	108
387.813	110
388.038	114
388.263	134
388.488	148
388.713	100
388.938	97
389.163	82
389.387	85
389.612	98
389.837	99
390.062	92
390.287	87
390.512	95
390.736	80
390.961	86
391.186	92
391.411	98
391.636	80
391.86	84
392.085	89
392.31	90
392.534	91
392.759	90
392.984	93
393.208	94
393.433	86
393.658	102
393.882	90
394.107	86
394.331	81
394.556	87
394.78	87
395.005	84
395.229	80
395.454	82
395.678	84
395.903	83
396.127	89
396.352	80
396.576	96
396.801	92
397.025	102
397.249	98
397.474	97
397.698	63
397.922	79
398.147	90
398.371	87
398.595	84
398.82	78
399.044	82
399.268	75
399.492	83
399.717	78
399.941	99
400.165	107
400.389	93
400.613	90
400.837	87
401.062	79
401.286	80
401.51	86
401.734	88
401.958	104
402.182	139
402.406	190
402.63	143
402.854	100
403.078	83
403.302	87
403.526	98
403.75	104
403.974	83
404.198	87
404.422	86
404.645	97
404.869	109
405.093	128
405.317	166
405.541	148
405.765	117
405.988	132
406.212	198
406.436	291
406.66	199
406.883	133
407.107	101
407.331	101
407.555	96
407.778	93
408.002	108
408.226	91
408.449	86
408.673	82
408.896	112
409.12	108
409.344	83
409.567	104
409.791	83
410.014	95
410.238	82
410.461	98
410.685	94
410.908	95
411.132	104
411.355	98
411.578	100
411.802	92
412.025	92
412.249	118
412.472	122
412.695	172
412.919	124
413.142	98
413.365	82
413.589	81
413.812	91
414.035	114
414.258	104
414.482	101
414.705	88
414.928	86
415.151	98
415.374	98
415.597	108
415.821	101
416.044	105
416.267	97
416.49	93
416.713	95
416.936	84
417.159	92
417.382	115
417.605	147
417.828	133
418.051	119
418.274	101
418.497	97
418.72	88
418.943	85
419.166	85
419.389	77
419.611	85
419.834	100
420.057	96
420.28	116
420.503	97
420.726	83
420.948	107
421.171	110
421.394	99
421.617	92
421.839	101
422.062	99
422.285	91
422.507	103
422.73	131
422.953	98
423.175	76
423.398	93
423.621	76
423.843	86
424.066	80
424.288	86
424.511	91
424.733	103
424.956	118
425.178	106
425.401	104
425.623	107
425.846	103
426.068	95
426.291	86
426.513	83
426.735	83
426.958	103
427.18	124
427.402	180
427.625	278
427.847	286
428.069	270
428.292	164
428.514	113
428.736	98
428.958	91
429.181	92
429.403	93
429.625	100
429.847	87
430.069	121
430.292	107
430.514	82
430.736	82
430.958	87
431.18	83
431.402	92
431.624	84
431.846	91
432.068	94
432.29	82
432.512	92
432.734	83
432.956	78
433.178	96
433.4	103
433.622	79
433.844	95
434.066	92
434.287	95
434.509	99
434.731	80
434.953	94
435.175	84
435.397	80
435.618	90
435.84	102
436.062	139
436.284	122
436.505	118
436.727	106
436.949	77
437.17	76
437.392	87
437.614	87
437.835	114
438.057	133
438.278	127
438.5	118
438.721	127
438.943	114
439.165	101
439.386	92
439.608	79
439.829	104
440.05	160
440.272	204
440.493	115
440.715	91
440.936	79
441.158	83
441.379	90
441.6	92
441.822	89
442.043	89
442.264	106
442.486	125
442.707	115
442.928	121
443.149	174
443.371	176
443.592	127
443.813	124
444.034	115
444.255	102
444.476	89
444.698	85
444.919	80
445.14	137
445.361	129
445.582	133
445.803	183
446.024	171
446.245	172
446.466	126
446.687	98
446.908	98
447.129	94
447.35	85
447.571	95
447.792	98
448.013	114
448.234	107
448.455	100
448.675	118
448.896	130
449.117	116
449.338	113
449.559	133
449.779	160
450	119
450.221	94
450.442	102
450.662	90
450.883	110
451.104	149
451.324	100
451.545	86
451.766	93
451.986	91
452.207	82
452.428	98
452.648	121
452.869	133
453.089	128
453.31	143
453.53	92
453.751	92
453.971	119
454.192	142
454.412	93
454.633	89
454.853	80
455.073	92
455.294	101
455.514	118
455.734	111
455.955	83
456.175	87
456.395	111
456.616	86
456.836	79
457.056	97
457.276	101
457.497	96
457.717	95
457.937	96
458.157	109
458.377	92
458.598	104
458.818	206
459.038	220
459.258	145
459.478	89
459.698	97
459.918	104
460.138	79
460.358	93
460.578	107
460.798	111
461.018	106
461.238	76
461.458	83
461.678	95
461.898	87
462.118	75
462.338	91
462.558	97
462.777	111
462.997	115
463.217	143
463.437	133
463.657	95
463.876	103
464.096	102
464.316	96
464.536	112
464.755	107
464.975	138
465.195	246
465.414	231
465.634	117
465.854	93
466.073	90
466.293	102
466.512	97
466.732	102
466.951	106
467.171	122
467.391	133
467.61	186
467.829	382
468.049	1388
468.268	2160
468.488	443
468.707	161
468.927	109
469.146	104
469.365	105
469.585	104
469.804	112
470.023	103
470.243	112
470.462	135
470.681	135
470.901	118
471.12	126
471.339	130
471.558	157
471.777	238
471.997	574
472.216	2567
472.435	5994
472.654	1226
472.873	277
473.092	133
473.311	130
473.53	115
473.749	103
473.968	111
474.187	123
474.406	124
474.625	86
474.844	102
475.063	104
475.282	86
475.501	90
475.72	101
475.939	96
476.158	81
476.377	99
476.596	95
476.814	108
477.033	96
477.252	104
477.471	86
477.69	102
477.908	111
478.127	97
478.346	106
478.564	110
478.783	119
479.002	128
479.22	115
479.439	150
479.658	144
479.876	135
480.095	164
480.313	184
480.532	269
480.751	534
480.969	2141
481.188	9831
481.406	5354
481.624	662
481.843	202
482.061	156
482.28	112
482.498	111
482.717	108
482.935	104
483.153	99
483.372	88
483.59	104
483.808	89
484.027	101
484.245	90
484.463	87
484.681	100
484.9	87
485.118	101
485.336	101
485.554	88
485.772	102
485.99	129
486.209	110
486.427	112
486.645	122
486.863	129
487.081	116
487.299	100
487.517	106
487.735	83
487.953	85
488.171	82
488.389	109
488.607	96
488.825	92
489.043	96
489.261	92
489.479	87
489.696	93
489.914	94
490.132	93
490.35	86
490.568	113
490.786	95
491.003	88
491.221	118
491.439	113
491.657	93
491.874	96
492.092	98
492.31	98
492.527	120
492.745	123
492.963	93
493.18	101
493.398	96
493.615	97
493.833	90
494.05	92
494.268	87
494.485	86
494.703	75
494.92	88
495.138	97
495.355	85
495.573	69
495.79	93
496.008	98
496.225	100
496.442	86
496.66	93
496.877	110
497.094	96
497.312	97
497.529	80
497.746	95
497.963	97
498.181	87
498.398	91
498.615	112
498.832	102
499.049	106
499.267	117
499.484	99
499.701	92
499.918	96
500.135	94
500.352	101
500.569	103
500.786	111
501.003	90
501.22	90
501.437	86
501.654	100
501.871	134
502.088	95
502.305	88
502.522	99
502.739	95
502.956	88
503.172	92
503.389	106
503.606	121
503.823	117
504.04	107
504.256	97
504.473	74
504.69	90
504.907	87
505.123	99
505.34	88
505.557	108
505.773	90
505.99	82
506.207	86
506.423	87
506.64	86
506.856	97
507.073	103
507.289	93
507.506	99
507.722	127
507.939	110
508.155	100
508.372	103
508.588	106
508.805	111
509.021	99
509.238	97
509.454	125
509.67	112
509.887	114
510.103	124
510.319	249
510.536	913
510.752	3278
510.968	846
511.184	186
511.401	134
511.617	117
511.833	123
512.049	103
512.265	104
512.481	100
512.698	87
512.914	102
513.13	95
513.346	90
513.562	88
513.778	102
513.994	121
514.21	114
514.426	149
514.642	166
514.858	157
515.074	231
515.29	679
515.506	2392
515.721	830
515.937	219
516.153	131
516.369	115
516.585	115
516.801	129
517.016	96
517.232	95
517.448	111
517.664	94
517.879	108
518.095	101
518.311	140
518.527	128
518.742	110
518.958	101
519.173	83
519.389	100
519.605	117
519.82	108
520.036	111
520.251	154
520.467	134
520.682	103
520.898	121
521.113	138
521.329	180
521.544	309
521.76	910
521.975	4059
522.19	2354
522.406	481
522.621	174
522.836	137
523.052	114
523.267	81
523.482	89
523.698	111
523.913	150
524.128	128
524.343	108
524.559	101
524.774	99
524.989	104
525.204	117
525.419	104
525.634	100
525.849	101
526.064	104
526.28	93
526.495	83
526.71	98
526.925	101
527.14	88
527.355	92
527.57	90
527.785	98
527.999	87
528.214	94
528.429	82
528.644	95
528.859	99
529.074	93
529.289	147
529.503	267
529.718	125
529.933	87
530.148	83
530.363	107
530.577	109
530.792	108
531.007	85
531.221	99
531.436	83
531.651	97
531.865	88
532.08	94
532.295	95
532.509	102
532.724	102
532.938	84
533.153	98
533.367	92
533.582	82
533.796	88
534.011	92
534.225	102
534.44	84
534.654	98
534.868	84
535.083	87
535.297	97
535.511	86
535.726	117
535.94	105
536.154	96
536.369	86
536.583	91
536.797	109
537.011	91
537.225	96
537.44	88
537.654	94
537.868	95
538.082	96
538.296	83
538.51	90
538.724	86
538.938	83
539.153	102
539.367	115
539.581	107
539.795	94
540.009	87
540.222	78
540.436	94
540.65	101
540.864	90
541.078	98
541.292	101
541.506	84
541.72	90
541.934	90
542.147	83
542.361	98
542.575	78
542.789	87
543.002	90
543.216	98
543.43	108
543.644	100
543.857	78
544.071	90
544.285	94
544.498	103
544.712	107
544.925	102
545.139	104
545.352	95
545.566	81
545.779	93
545.993	90
546.206	95
546.42	89
546.633	92
546.847	93
547.06	91
547.274	88
547.487	94
547.7	96
547.914	92
548.127	90
548.34	88
548.554	78
548.767	86
548.98	98
549.193	78
549.407	95
549.62	91
549.833	94
550.046	83
550.259	82
550.473	90
550.686	81
550.899	98
551.112	97
551.325	101
551.538	123
551.751	107
551.964	85
552.177	95
552.39	93
552.603	83
552.816	96
553.029	86
553.242	92
553.455	96
553.667	108
553.88	145
554.093	118
554.306	160
554.519	168
554.732	108
554.944	102
555.157	112
555.37	89
555.583	108
555.795	102
556.008	75
556.221	89
556.433	106
556.646	94
556.859	92
557.071	82
557.284	86
557.496	87
557.709	83
557.921	86
558.134	80
558.346	90
558.559	104
558.771	98
558.984	86
559.196	100
559.409	78
559.621	88
559.833	100
560.046	110
560.258	132
560.47	210
560.683	131
560.895	103
561.107	90
561.32	80
561.532	86
561.744	103
561.956	104
562.168	98
562.381	95
562.593	98
562.805	100
563.017	91
563.229	100
563.441	79
563.653	92
563.865	99
564.077	98
564.289	94
564.501	81
564.713	104
564.925	91
565.137	102
565.349	94
565.561	92
565.773	94
565.985	84
566.197	83
566.408	86
566.62	89
566.832	96
567.044	90
567.255	92
567.467	94
567.679	80
567.891	90
568.102	94
568.314	89
568.526	78
568.737	83
568.949	91
569.161	74
569.372	98
569.584	97
569.795	101
570.007	126
570.218	284
570.43	134
570.641	89
570.853	90
571.064	84
571.276	85
571.487	91
571.698	88
571.91	86
572.121	83
572.333	82
572.544	100
572.755	83
572.966	74
573.178	90
573.389	86
573.6	100
573.811	84
574.023	97
574.234	94
574.445	94
574.656	87
574.867	97
575.078	101
575.289	90
575.501	96
575.712	77
575.923	102
576.134	91
576.345	93
576.556	85
576.767	83
576.978	91
577.188	91
577.399	98
577.61	89
577.821	89
578.032	127
578.243	319
578.454	928
578.665	244
578.875	95
