Data from Circ_1988_H10_HRD10591_00078.txt Node
Date: Wed Jan 03 12:05:50 EST 2024
User: Yrep
Spectrometer: HR+D1059
Trigger mode: 1
Integration Time (sec): 1.000000E-1
Scans to average: 1
Electric dark correction enabled: true
Nonlinearity correction enabled: false
Boxcar width: 0
XAxis mode: Wavelengths
Number of Pixels in Spectrum: 2048
>>>>>Begin Spectral Data<<<<<
223.165	-6
223.4	-6
223.635	-6
223.869	-22
224.104	-10
224.338	-18
224.573	-23
224.808	-21
225.042	0
225.277	-6
225.511	-1
225.746	6
225.98	6
226.215	1
226.449	14
226.683	29
226.918	23
227.152	28
227.387	26
227.621	29
227.856	43
228.09	48
228.324	47
228.559	48
228.793	65
229.027	62
229.262	52
229.496	64
229.73	101
229.964	100
230.199	70
230.433	79
230.667	83
230.901	89
231.136	81
231.37	84
231.604	82
231.838	71
232.072	77
232.306	89
232.541	87
232.775	93
233.009	85
233.243	81
233.477	83
233.711	81
233.945	86
234.179	75
234.413	77
234.647	98
234.881	87
235.115	89
235.349	77
235.583	88
235.817	82
236.051	70
236.285	73
236.519	74
236.753	88
236.987	92
237.221	99
237.455	102
237.689	87
237.922	68
238.156	81
238.39	81
238.624	83
238.858	101
239.091	72
239.325	80
239.559	85
239.793	78
240.027	93
240.26	79
240.494	100
240.728	90
240.961	77
241.195	85
241.429	85
241.662	80
241.896	76
242.13	88
242.363	81
242.597	86
242.83	65
243.064	86
243.298	77
243.531	77
243.765	75
243.998	77
244.232	73
244.465	100
244.699	86
244.932	86
245.166	75
245.399	75
245.633	80
245.866	69
246.099	79
246.333	93
246.566	91
246.8	79
247.033	92
247.266	92
247.5	79
247.733	92
247.966	95
248.2	95
248.433	74
248.666	78
248.899	97
249.133	104
249.366	112
249.599	104
249.832	88
250.066	89
250.299	68
250.532	103
250.765	86
250.998	91
251.231	85
251.465	85
251.698	74
251.931	84
252.164	94
252.397	72
252.63	74
252.863	98
253.096	97
253.329	80
253.562	90
253.795	83
254.028	93
254.261	83
254.494	65
254.727	106
254.96	86
255.193	80
255.426	85
255.659	81
255.892	93
256.124	108
256.357	99
256.59	89
256.823	103
257.056	87
257.289	93
257.521	85
257.754	83
257.987	101
258.22	101
258.452	108
258.685	119
258.918	87
259.151	84
259.383	107
259.616	84
259.849	85
260.081	98
260.314	96
260.547	90
260.779	104
261.012	145
261.244	128
261.477	100
261.71	88
261.942	138
262.175	143
262.407	92
262.64	89
262.872	99
263.105	88
263.337	83
263.57	95
263.802	83
264.035	85
264.267	83
264.499	94
264.732	84
264.964	82
265.197	86
265.429	107
265.661	94
265.894	99
266.126	89
266.358	81
266.591	73
266.823	75
267.055	92
267.287	84
267.52	98
267.752	95
267.984	85
268.216	90
268.448	108
268.681	90
268.913	89
269.145	93
269.377	89
269.609	73
269.841	92
270.073	88
270.306	89
270.538	84
270.77	91
271.002	83
271.234	92
271.466	90
271.698	100
271.93	93
272.162	86
272.394	86
272.626	91
272.858	86
273.09	89
273.322	78
273.553	95
273.785	74
274.017	87
274.249	83
274.481	83
274.713	101
274.945	109
275.176	109
275.408	103
275.64	149
275.872	160
276.104	128
276.335	122
276.567	122
276.799	175
277.031	239
277.262	310
277.494	230
277.726	121
277.957	99
278.189	95
278.421	90
278.652	90
278.884	86
279.115	108
279.347	114
279.579	129
279.81	176
280.042	310
280.273	468
280.505	288
280.736	133
280.968	111
281.199	97
281.431	93
281.662	101
281.894	74
282.125	111
282.356	151
282.588	175
282.819	138
283.051	91
283.282	93
283.513	93
283.745	93
283.976	96
284.207	87
284.439	100
284.67	99
284.901	95
285.132	98
285.364	87
285.595	100
285.826	94
286.057	80
286.288	105
286.52	100
286.751	81
286.982	97
287.213	103
287.444	85
287.675	96
287.906	105
288.138	97
288.369	82
288.6	97
288.831	97
289.062	95
289.293	93
289.524	84
289.755	89
289.986	79
290.217	90
290.448	90
290.679	84
290.91	95
291.141	85
291.371	93
291.602	92
291.833	102
292.064	87
292.295	88
292.526	97
292.757	96
292.987	88
293.218	98
293.449	84
293.68	97
293.91	73
294.141	83
294.372	85
294.603	104
294.833	83
295.064	103
295.295	105
295.525	93
295.756	104
295.987	143
296.217	152
296.448	149
296.679	105
296.909	94
297.14	103
297.37	114
297.601	106
297.831	95
298.062	111
298.292	92
298.523	107
298.753	95
298.984	81
299.214	90
299.445	97
299.675	98
299.905	105
300.136	91
300.366	93
300.597	101
300.827	93
301.057	101
301.288	122
301.518	112
301.748	107
301.979	134
302.209	104
302.439	90
302.669	82
302.9	102
303.13	108
303.36	112
303.59	165
303.82	185
304.051	121
304.281	121
304.511	86
304.741	95
304.971	99
305.201	86
305.431	113
305.661	89
305.891	95
306.121	101
306.352	93
306.582	112
306.812	136
307.042	143
307.272	234
307.502	289
307.731	257
307.961	179
308.191	113
308.421	97
308.651	100
308.881	96
309.111	98
309.341	110
309.571	97
309.8	100
310.03	106
310.26	120
310.49	105
310.72	117
310.949	112
311.179	118
311.409	110
311.639	111
311.868	103
312.098	101
312.328	102
312.557	125
312.787	128
313.017	114
313.246	96
313.476	97
313.706	101
313.935	103
314.165	105
314.394	107
314.624	111
314.853	117
315.083	101
315.312	112
315.542	105
315.771	93
316.001	98
316.23	90
316.46	87
316.689	93
316.919	96
317.148	88
317.377	110
317.607	104
317.836	93
318.065	86
318.295	95
318.524	98
318.753	100
318.983	107
319.212	104
319.441	122
319.67	109
319.9	100
320.129	98
320.358	97
320.587	88
320.816	109
321.046	102
321.275	105
321.504	96
321.733	105
321.962	111
322.191	119
322.42	113
322.649	114
322.878	120
323.108	130
323.337	146
323.566	165
323.795	179
324.024	231
324.253	371
324.482	807
324.71	1599
324.939	2127
325.168	832
325.397	249
325.626	163
325.855	140
326.084	136
326.313	149
326.542	147
326.77	230
326.999	409
327.228	838
327.457	1459
327.686	1242
327.914	580
328.143	795
328.372	1140
328.6	587
328.829	237
329.058	197
329.287	227
329.515	233
329.744	373
329.972	776
330.201	1754
330.43	2557
330.658	1041
330.887	355
331.115	213
331.344	125
331.572	105
331.801	120
332.03	120
332.258	113
332.486	112
332.715	117
332.943	122
333.172	132
333.4	158
333.629	198
333.857	307
334.085	626
334.314	1472
334.542	3101
334.771	2866
334.999	673
335.227	217
335.455	155
335.684	143
335.912	118
336.14	130
336.369	145
336.597	117
336.825	114
337.053	103
337.281	94
337.51	104
337.738	98
337.966	100
338.194	117
338.422	97
338.65	99
338.878	94
339.106	105
339.334	96
339.562	95
339.79	96
340.018	103
340.246	99
340.474	111
340.702	102
340.93	99
341.158	88
341.386	104
341.614	109
341.842	102
342.07	98
342.298	113
342.526	101
342.754	99
342.981	96
343.209	90
343.437	103
343.665	90
343.893	101
344.12	112
344.348	96
344.576	97
344.804	95
345.031	112
345.259	108
345.487	102
345.714	96
345.942	91
346.17	89
346.397	104
346.625	105
346.853	97
347.08	92
347.308	96
347.535	86
347.763	105
347.99	95
348.218	107
348.445	112
348.673	98
348.9	86
349.128	103
349.355	86
349.583	93
349.81	93
350.037	102
350.265	106
350.492	105
350.72	99
350.947	96
351.174	124
351.402	115
351.629	110
351.856	120
352.083	116
352.311	115
352.538	104
352.765	122
352.992	126
353.22	133
353.447	107
353.674	98
353.901	82
354.128	86
354.355	85
354.583	86
354.81	99
355.037	101
355.264	94
355.491	98
355.718	89
355.945	109
356.172	110
356.399	99
356.626	111
356.853	101
357.08	78
357.307	105
357.534	91
357.761	100
357.988	102
358.215	88
358.441	90
358.668	90
358.895	94
359.122	109
359.349	75
359.576	89
359.802	111
360.029	128
360.256	143
360.483	112
360.709	92
360.936	101
361.163	103
361.39	103
361.616	106
361.843	100
362.07	108
362.296	101
362.523	102
362.749	97
362.976	106
363.203	88
363.429	94
363.656	99
363.882	93
364.109	102
364.335	96
364.562	94
364.788	95
365.015	91
365.241	85
365.468	105
365.694	126
365.92	107
366.147	102
366.373	93
366.599	103
366.826	95
367.052	90
367.278	85
367.505	83
367.731	95
367.957	102
368.184	97
368.41	106
368.636	112
368.862	125
369.089	125
369.315	110
369.541	90
369.767	99
369.993	95
370.219	106
370.445	86
370.672	80
370.898	75
371.124	95
371.35	94
371.576	90
371.802	89
372.028	93
372.254	97
372.48	73
372.706	96
372.932	83
373.158	82
373.384	81
373.61	95
373.835	95
374.061	90
374.287	98
374.513	76
374.739	92
374.965	96
375.191	92
375.416	86
375.642	89
375.868	93
376.094	97
376.319	93
376.545	95
376.771	95
376.997	98
377.222	106
377.448	95
377.674	74
377.899	107
378.125	102
378.35	109
378.576	89
378.802	94
379.027	101
379.253	92
379.478	92
379.704	98
379.929	77
380.155	101
380.38	92
380.606	100
380.831	86
381.057	103
381.282	94
381.507	104
381.733	101
381.958	104
382.184	100
382.409	103
382.634	93
382.86	101
383.085	106
383.31	96
383.535	109
383.761	97
383.986	105
384.211	99
384.436	99
384.662	115
384.887	95
385.112	114
385.337	109
385.562	123
385.787	97
386.013	108
386.238	123
386.463	105
386.688	93
386.913	103
387.138	102
387.363	106
387.588	110
387.813	94
388.038	108
388.263	126
388.488	110
388.713	100
388.938	102
389.163	105
389.387	95
389.612	85
389.837	98
390.062	107
390.287	97
390.512	96
390.736	71
390.961	91
391.186	99
391.411	95
391.636	97
391.86	82
392.085	88
392.31	95
392.534	88
392.759	75
392.984	97
393.208	96
393.433	106
393.658	98
393.882	100
394.107	68
394.331	76
394.556	88
394.78	93
395.005	84
395.229	83
395.454	96
395.678	80
395.903	93
396.127	105
396.352	91
396.576	78
396.801	81
397.025	100
397.249	88
397.474	103
397.698	85
397.922	107
398.147	91
398.371	98
398.595	82
398.82	106
399.044	88
399.268	80
399.492	87
399.717	97
399.941	101
400.165	104
400.389	96
400.613	85
400.837	81
401.062	106
401.286	98
401.51	113
401.734	100
401.958	98
402.182	162
402.406	190
402.63	136
402.854	95
403.078	89
403.302	98
403.526	87
403.75	78
403.974	97
404.198	83
404.422	98
404.645	87
404.869	113
405.093	119
405.317	154
405.541	138
405.765	116
405.988	143
406.212	211
406.436	312
406.66	195
406.883	113
407.107	100
407.331	107
407.555	115
407.778	98
408.002	95
408.226	95
408.449	87
408.673	87
408.896	85
409.12	93
409.344	99
409.567	93
409.791	98
410.014	100
410.238	95
410.461	93
410.685	104
410.908	92
411.132	109
411.355	97
411.578	101
411.802	83
412.025	106
412.249	113
412.472	118
412.695	138
412.919	111
413.142	111
413.365	107
413.589	97
413.812	91
414.035	89
414.258	110
414.482	90
414.705	95
414.928	74
415.151	81
415.374	84
415.597	84
415.821	103
416.044	103
416.267	99
416.49	91
416.713	73
416.936	89
417.159	99
417.382	109
417.605	131
417.828	125
418.051	107
418.274	106
418.497	98
418.72	72
418.943	85
419.166	102
419.389	93
419.611	90
419.834	100
420.057	99
420.28	95
420.503	92
420.726	81
420.948	85
421.171	117
421.394	96
421.617	96
421.839	92
422.062	87
422.285	96
422.507	93
422.73	110
422.953	91
423.175	93
423.398	86
423.621	89
423.843	101
424.066	87
424.288	90
424.511	102
424.733	110
424.956	125
425.178	117
425.401	119
425.623	113
425.846	97
426.068	97
426.291	98
426.513	82
426.735	121
426.958	99
427.18	118
427.402	177
427.625	242
427.847	231
428.069	210
428.292	131
428.514	134
428.736	97
428.958	93
429.181	83
429.403	87
429.625	99
429.847	99
430.069	105
430.292	85
430.514	81
430.736	95
430.958	96
431.18	100
431.402	94
431.624	78
431.846	85
432.068	86
432.29	83
432.512	89
432.734	94
432.956	91
433.178	97
433.4	96
433.622	98
433.844	80
434.066	94
434.287	84
434.509	107
434.731	89
434.953	94
435.175	87
435.397	104
435.618	104
435.84	106
436.062	117
436.284	110
436.505	99
436.727	94
436.949	92
437.17	87
437.392	72
437.614	98
437.835	127
438.057	132
438.278	125
438.5	107
438.721	129
438.943	117
439.165	95
439.386	93
439.608	95
439.829	101
440.05	153
440.272	178
440.493	98
440.715	89
440.936	97
441.158	94
441.379	95
441.6	106
441.822	96
442.043	102
442.264	96
442.486	100
442.707	103
442.928	137
443.149	165
443.371	146
443.592	123
443.813	137
444.034	112
444.255	98
444.476	89
444.698	103
444.919	105
445.14	126
445.361	126
445.582	120
445.803	156
446.024	145
446.245	152
446.466	111
446.687	85
446.908	82
447.129	98
447.35	89
447.571	86
447.792	107
448.013	99
448.234	125
448.455	121
448.675	126
448.896	152
449.117	96
449.338	116
449.559	137
449.779	148
450	90
450.221	91
450.442	96
450.662	117
450.883	108
451.104	145
451.324	120
451.545	85
451.766	81
451.986	88
452.207	96
452.428	90
452.648	115
452.869	119
453.089	115
453.31	134
453.53	114
453.751	93
453.971	111
454.192	137
454.412	104
454.633	97
454.853	94
455.073	93
455.294	102
455.514	110
455.734	91
455.955	58
456.175	90
456.395	74
456.616	85
456.836	90
457.056	88
457.276	89
457.497	86
457.717	90
457.937	99
458.157	96
458.377	103
458.598	129
458.818	193
459.038	222
459.258	130
459.478	115
459.698	82
459.918	91
460.138	95
460.358	85
460.578	73
460.798	90
461.018	91
461.238	82
461.458	86
461.678	85
461.898	96
462.118	99
462.338	95
462.558	86
462.777	90
462.997	113
463.217	147
463.437	115
463.657	100
463.876	94
464.096	100
464.316	96
464.536	109
464.755	102
464.975	125
465.195	237
465.414	241
465.634	100
465.854	87
466.073	101
466.293	95
466.512	105
466.732	98
466.951	100
467.171	111
467.391	130
467.61	190
467.829	344
468.049	1114
468.268	1831
468.488	387
468.707	153
468.927	106
469.146	101
469.365	88
469.585	106
469.804	101
470.023	107
470.243	123
470.462	130
470.681	145
470.901	111
471.12	102
471.339	130
471.558	138
471.777	207
471.997	508
472.216	2073
472.435	4973
472.654	1013
472.873	229
473.092	129
473.311	113
473.53	105
473.749	119
473.968	93
474.187	122
474.406	119
474.625	107
474.844	101
475.063	94
475.282	99
475.501	97
475.72	103
475.939	88
476.158	95
476.377	113
476.596	98
476.814	98
477.033	94
477.252	110
477.471	101
477.69	88
477.908	102
478.127	104
478.346	81
478.564	120
478.783	110
479.002	104
479.22	119
479.439	129
479.658	139
479.876	150
480.095	136
480.313	194
480.532	229
480.751	434
480.969	1813
481.188	7999
481.406	4405
481.624	591
481.843	198
482.061	137
482.28	104
482.498	102
482.717	110
482.935	99
483.153	98
483.372	101
483.59	100
483.808	94
484.027	91
484.245	104
484.463	102
484.681	95
484.9	101
485.118	105
485.336	98
485.554	102
485.772	101
485.99	124
486.209	126
486.427	111
486.645	129
486.863	131
487.081	103
487.299	97
487.517	103
487.735	95
487.953	101
488.171	86
488.389	108
488.607	93
488.825	93
489.043	91
489.261	100
489.479	92
489.696	95
489.914	93
490.132	91
490.35	83
490.568	101
490.786	85
491.003	92
491.221	94
491.439	95
491.657	96
491.874	86
492.092	94
492.31	82
492.527	102
492.745	120
492.963	107
493.18	109
493.398	98
493.615	82
493.833	101
494.05	89
494.268	100
494.485	91
494.703	87
494.92	97
495.138	99
495.355	87
495.573	94
495.79	102
496.008	89
496.225	95
496.442	106
496.66	105
496.877	92
497.094	96
497.312	101
497.529	101
497.746	94
497.963	115
498.181	89
498.398	103
498.615	145
498.832	109
499.049	100
499.267	104
499.484	94
499.701	102
499.918	96
500.135	96
500.352	95
500.569	106
500.786	97
501.003	99
501.22	91
501.437	97
501.654	103
501.871	136
502.088	117
502.305	101
502.522	102
502.739	93
502.956	109
503.172	105
503.389	117
503.606	118
503.823	116
504.04	96
504.256	105
504.473	90
504.69	90
504.907	107
505.123	103
505.34	89
505.557	87
505.773	89
505.99	87
506.207	90
506.423	98
506.64	83
506.856	106
507.073	101
507.289	96
507.506	88
507.722	121
507.939	120
508.155	99
508.372	91
508.588	96
508.805	89
509.021	100
509.238	89
509.454	94
509.67	122
509.887	125
510.103	160
510.319	253
510.536	1002
510.752	3437
510.968	903
511.184	173
511.401	122
511.617	104
511.833	128
512.049	97
512.265	96
512.481	98
512.698	89
512.914	97
513.13	98
513.346	94
513.562	101
513.778	112
513.994	109
514.21	116
514.426	153
514.642	174
514.858	138
515.074	207
515.29	685
515.506	2434
515.721	870
515.937	214
516.153	147
516.369	113
516.585	118
516.801	113
517.016	113
517.232	99
517.448	107
517.664	102
517.879	102
518.095	90
518.311	118
518.527	121
518.742	103
518.958	88
519.173	104
519.389	115
519.605	110
519.82	90
520.036	122
520.251	162
520.467	137
520.682	100
520.898	133
521.113	145
521.329	191
521.544	299
521.76	888
521.975	4154
522.19	2403
522.406	477
522.621	165
522.836	118
523.052	96
523.267	103
523.482	113
523.698	122
523.913	151
524.128	118
524.343	93
524.559	99
524.774	89
524.989	99
525.204	117
525.419	107
525.634	112
525.849	93
526.064	103
526.28	98
526.495	77
526.71	84
526.925	91
527.14	88
527.355	105
527.57	91
527.785	103
527.999	94
528.214	91
528.429	93
528.644	113
528.859	92
529.074	97
529.289	145
529.503	266
529.718	120
529.933	102
530.148	92
530.363	97
530.577	95
530.792	89
531.007	97
531.221	100
531.436	102
531.651	105
531.865	101
532.08	102
532.295	105
532.509	86
532.724	88
532.938	105
533.153	80
533.367	114
533.582	98
533.796	85
534.011	98
534.225	94
534.44	110
534.654	101
534.868	90
535.083	89
535.297	100
535.511	105
535.726	118
535.94	110
536.154	99
536.369	87
536.583	89
536.797	109
537.011	87
537.225	91
537.44	85
537.654	90
537.868	87
538.082	87
538.296	90
538.51	96
538.724	107
538.938	98
539.153	110
539.367	118
539.581	116
539.795	89
540.009	89
540.222	101
540.436	95
540.65	91
540.864	103
541.078	104
541.292	85
541.506	111
541.72	97
541.934	72
542.147	89
542.361	101
542.575	91
542.789	102
543.002	101
543.216	110
543.43	109
543.644	91
543.857	98
544.071	81
544.285	100
544.498	88
544.712	100
544.925	81
545.139	89
545.352	93
545.566	96
545.779	70
545.993	94
546.206	95
546.42	92
546.633	104
546.847	95
547.06	97
547.274	96
547.487	88
547.7	91
547.914	96
548.127	90
548.34	104
548.554	88
548.767	87
548.98	95
549.193	104
549.407	83
549.62	98
549.833	97
550.046	95
550.259	108
550.473	93
550.686	93
550.899	87
551.112	98
551.325	108
551.538	119
551.751	107
551.964	98
552.177	99
552.39	94
552.603	94
552.816	81
553.029	69
553.242	104
553.455	116
553.667	121
553.88	134
554.093	104
554.306	130
554.519	155
554.732	106
554.944	101
555.157	94
555.37	102
555.583	100
555.795	91
556.008	89
556.221	94
556.433	93
556.646	103
556.859	102
557.071	93
557.284	99
557.496	98
557.709	85
557.921	92
558.134	88
558.346	98
558.559	83
558.771	81
558.984	85
559.196	102
559.409	96
559.621	101
559.833	93
560.046	91
560.258	134
560.47	187
560.683	127
560.895	105
561.107	90
561.32	95
561.532	91
561.744	75
561.956	94
562.168	109
562.381	102
562.593	81
562.805	91
563.017	103
563.229	100
563.441	99
563.653	102
563.865	93
564.077	101
564.289	83
564.501	89
564.713	99
564.925	111
565.137	109
565.349	95
565.561	99
565.773	88
565.985	87
566.197	89
566.408	95
566.62	88
566.832	85
567.044	93
567.255	71
567.467	89
567.679	96
567.891	78
568.102	84
568.314	83
568.526	79
568.737	85
568.949	96
569.161	89
569.372	93
569.584	84
569.795	104
570.007	141
570.218	303
570.43	169
570.641	92
570.853	101
571.064	89
571.276	91
571.487	91
571.698	85
571.91	85
572.121	107
572.333	99
572.544	95
572.755	77
572.966	90
573.178	95
573.389	81
573.6	82
573.811	97
574.023	90
574.234	86
574.445	98
574.656	89
574.867	85
575.078	71
575.289	91
575.501	103
575.712	90
575.923	85
576.134	89
576.345	87
576.556	92
576.767	82
576.978	85
577.188	104
577.399	99
577.61	108
577.821	123
578.032	128
