Data from Circ_1988_H10_HRD10591_00067.txt Node
Date: Wed Jan 03 12:05:48 EST 2024
User: Yrep
Spectrometer: HR+D1059
Trigger mode: 1
Integration Time (sec): 1.000000E-1
Scans to average: 1
Electric dark correction enabled: true
Nonlinearity correction enabled: false
Boxcar width: 0
XAxis mode: Wavelengths
Number of Pixels in Spectrum: 2048
>>>>>Begin Spectral Data<<<<<
223.165	-15.81
223.4	-15.81
223.635	-15.81
223.869	-34.81
224.104	1.19
224.338	-13.81
224.573	-15.81
224.808	-5.81
225.042	-8.81
225.277	-10.81
225.511	-7.81
225.746	-2.81
225.98	5.19
226.215	25.19
226.449	13.19
226.683	28.19
226.918	20.19
227.152	23.19
227.387	37.19
227.621	31.19
227.856	46.19
228.09	51.19
228.324	57.19
228.559	51.19
228.793	57.19
229.027	61.19
229.262	88.19
229.496	85.19
229.73	99.19
229.964	90.19
230.199	86.19
230.433	85.19
230.667	85.19
230.901	93.19
231.136	85.19
231.37	80.19
231.604	98.19
231.838	85.19
232.072	65.19
232.306	79.19
232.541	81.19
232.775	77.19
233.009	77.19
233.243	90.19
233.477	77.19
233.711	74.19
233.945	103.19
234.179	77.19
234.413	68.19
234.647	78.19
234.881	84.19
235.115	90.19
235.349	79.19
235.583	95.19
235.817	78.19
236.051	85.19
236.285	71.19
236.519	96.19
236.753	85.19
236.987	90.19
237.221	110.19
237.455	103.19
237.689	91.19
237.922	82.19
238.156	81.19
238.39	68.19
238.624	79.19
238.858	72.19
239.091	87.19
239.325	85.19
239.559	100.19
239.793	97.19
240.027	81.19
240.26	98.19
240.494	81.19
240.728	83.19
240.961	83.19
241.195	88.19
241.429	77.19
241.662	93.19
241.896	61.19
242.13	73.19
242.363	77.19
242.597	76.19
242.83	93.19
243.064	84.19
243.298	83.19
243.531	74.19
243.765	96.19
243.998	84.19
244.232	88.19
244.465	102.19
244.699	81.19
244.932	77.19
245.166	90.19
245.399	91.19
245.633	88.19
245.866	83.19
246.099	85.19
246.333	91.19
246.566	84.19
246.8	83.19
247.033	80.19
247.266	85.19
247.5	78.19
247.733	90.19
247.966	78.19
248.2	82.19
248.433	74.19
248.666	79.19
248.899	113.19
249.133	103.19
249.366	127.19
249.599	136.19
249.832	90.19
250.066	89.19
250.299	98.19
250.532	95.19
250.765	99.19
250.998	82.19
251.231	99.19
251.465	101.19
251.698	106.19
251.931	88.19
252.164	98.19
252.397	81.19
252.63	91.19
252.863	95.19
253.096	89.19
253.329	83.19
253.562	84.19
253.795	78.19
254.028	91.19
254.261	86.19
254.494	84.19
254.727	71.19
254.96	87.19
255.193	71.19
255.426	87.19
255.659	93.19
255.892	133.19
256.124	125.19
256.357	111.19
256.59	102.19
256.823	99.19
257.056	99.19
257.289	98.19
257.521	95.19
257.754	97.19
257.987	102.19
258.22	119.19
258.452	142.19
258.685	118.19
258.918	98.19
259.151	85.19
259.383	91.19
259.616	90.19
259.849	105.19
260.081	109.19
260.314	93.19
260.547	100.19
260.779	121.19
261.012	176.19
261.244	141.19
261.477	113.19
261.71	113.19
261.942	128.19
262.175	152.19
262.407	118.19
262.64	87.19
262.872	90.19
263.105	84.19
263.337	97.19
263.57	93.19
263.802	97.19
264.035	88.19
264.267	89.19
264.499	71.19
264.732	71.19
264.964	74.19
265.197	77.19
265.429	85.19
265.661	85.19
265.894	79.19
266.126	89.19
266.358	82.19
266.591	82.19
266.823	77.19
267.055	91.19
267.287	85.19
267.52	82.19
267.752	98.19
267.984	103.19
268.216	95.19
268.448	97.19
268.681	101.19
268.913	100.19
269.145	89.19
269.377	85.19
269.609	98.19
269.841	98.19
270.073	90.19
270.306	86.19
270.538	88.19
270.77	86.19
271.002	95.19
271.234	96.19
271.466	113.19
271.698	103.19
271.93	91.19
272.162	90.19
272.394	91.19
272.626	99.19
272.858	93.19
273.09	81.19
273.322	102.19
273.553	89.19
273.785	92.19
274.017	81.19
274.249	90.19
274.481	90.19
274.713	88.19
274.945	92.19
275.176	112.19
275.408	149.19
275.64	163.19
275.872	208.19
276.104	151.19
276.335	126.19
276.567	143.19
276.799	202.19
277.031	298.19
277.262	432.19
277.494	296.19
277.726	141.19
277.957	117.19
278.189	115.19
278.421	110.19
278.652	97.19
278.884	111.19
279.115	103.19
279.347	107.19
279.579	126.19
279.81	233.19
280.042	440.19
280.273	629.19
280.505	405.19
280.736	173.19
280.968	123.19
281.199	109.19
281.431	95.19
281.662	96.19
281.894	84.19
282.125	115.19
282.356	160.19
282.588	176.19
282.819	141.19
283.051	90.19
283.282	90.19
283.513	99.19
283.745	91.19
283.976	98.19
284.207	84.19
284.439	93.19
284.67	107.19
284.901	101.19
285.132	87.19
285.364	81.19
285.595	87.19
285.826	96.19
286.057	113.19
286.288	95.19
286.52	82.19
286.751	86.19
286.982	78.19
287.213	85.19
287.444	97.19
287.675	109.19
287.906	103.19
288.138	97.19
288.369	106.19
288.6	104.19
288.831	90.19
289.062	95.19
289.293	94.19
289.524	93.19
289.755	90.19
289.986	63.19
290.217	98.19
290.448	87.19
290.679	74.19
290.91	88.19
291.141	91.19
291.371	98.19
291.602	84.19
291.833	73.19
292.064	81.19
292.295	97.19
292.526	84.19
292.757	85.19
292.987	90.19
293.218	95.19
293.449	100.19
293.68	92.19
293.91	91.19
294.141	93.19
294.372	82.19
294.603	105.19
294.833	106.19
295.064	86.19
295.295	91.19
295.525	97.19
295.756	107.19
295.987	147.19
296.217	186.19
296.448	135.19
296.679	105.19
296.909	104.19
297.14	79.19
297.37	88.19
297.601	94.19
297.831	98.19
298.062	111.19
298.292	90.19
298.523	101.19
298.753	107.19
298.984	105.19
299.214	98.19
299.445	85.19
299.675	90.19
299.905	94.19
300.136	102.19
300.366	90.19
300.597	93.19
300.827	105.19
301.057	104.19
301.288	132.19
301.518	116.19
301.748	104.19
301.979	149.19
302.209	124.19
302.439	92.19
302.669	105.19
302.9	105.19
303.13	112.19
303.36	131.19
303.59	203.19
303.82	234.19
304.051	122.19
304.281	113.19
304.511	109.19
304.741	101.19
304.971	89.19
305.201	96.19
305.431	98.19
305.661	103.19
305.891	101.19
306.121	106.19
306.352	136.19
306.582	136.19
306.812	135.19
307.042	192.19
307.272	284.19
307.502	337.19
307.731	281.19
307.961	175.19
308.191	113.19
308.421	107.19
308.651	102.19
308.881	104.19
309.111	113.19
309.341	83.19
309.571	99.19
309.8	96.19
310.03	108.19
310.26	114.19
310.49	102.19
310.72	120.19
310.949	125.19
311.179	127.19
311.409	110.19
311.639	106.19
311.868	119.19
312.098	95.19
312.328	113.19
312.557	137.19
312.787	161.19
313.017	107.19
313.246	96.19
313.476	111.19
313.706	99.19
313.935	107.19
314.165	113.19
314.394	132.19
314.624	115.19
314.853	120.19
315.083	100.19
315.312	117.19
315.542	114.19
315.771	102.19
316.001	102.19
316.23	98.19
316.46	97.19
316.689	110.19
316.919	112.19
317.148	119.19
317.377	102.19
317.607	100.19
317.836	103.19
318.065	100.19
318.295	104.19
318.524	102.19
318.753	101.19
318.983	103.19
319.212	108.19
319.441	124.19
319.67	110.19
319.9	100.19
320.129	91.19
320.358	98.19
320.587	105.19
320.816	107.19
321.046	115.19
321.275	121.19
321.504	103.19
321.733	96.19
321.962	110.19
322.191	113.19
322.42	117.19
322.649	136.19
322.878	132.19
323.108	136.19
323.337	149.19
323.566	145.19
323.795	192.19
324.024	244.19
324.253	490.19
324.482	992.19
324.71	2082.19
324.939	2706.19
325.168	1030.19
325.397	305.19
325.626	183.19
325.855	143.19
326.084	150.19
326.313	177.19
326.542	181.19
326.77	281.19
326.999	506.19
327.228	990.19
327.457	1881.19
327.686	1579.19
327.914	792.19
328.143	1149.19
328.372	1608.19
328.6	788.19
328.829	293.19
329.058	266.19
329.287	295.19
329.515	297.19
329.744	500.19
329.972	1145.19
330.201	2593.19
330.43	3825.19
330.658	1473.19
330.887	501.19
331.115	265.19
331.344	172.19
331.572	146.19
331.801	143.19
332.03	142.19
332.258	130.19
332.486	143.19
332.715	129.19
332.943	149.19
333.172	169.19
333.4	209.19
333.629	257.19
333.857	425.19
334.085	971.19
334.314	2333.19
334.542	4727.19
334.771	4209.19
334.999	971.19
335.227	335.19
335.455	194.19
335.684	146.19
335.912	127.19
336.14	147.19
336.369	109.19
336.597	126.19
336.825	117.19
337.053	111.19
337.281	122.19
337.51	112.19
337.738	108.19
337.966	112.19
338.194	105.19
338.422	119.19
338.65	112.19
338.878	104.19
339.106	114.19
339.334	97.19
339.562	98.19
339.79	99.19
340.018	112.19
340.246	106.19
340.474	108.19
340.702	99.19
340.93	102.19
341.158	105.19
341.386	106.19
341.614	112.19
341.842	95.19
342.07	111.19
342.298	103.19
342.526	96.19
342.754	94.19
342.981	90.19
343.209	99.19
343.437	112.19
343.665	86.19
343.893	101.19
344.12	89.19
344.348	96.19
344.576	89.19
344.804	101.19
345.031	117.19
345.259	114.19
345.487	97.19
345.714	110.19
345.942	99.19
346.17	81.19
346.397	90.19
346.625	101.19
346.853	85.19
347.08	98.19
347.308	102.19
347.535	101.19
347.763	109.19
347.99	107.19
348.218	114.19
348.445	114.19
348.673	131.19
348.9	101.19
349.128	114.19
349.355	110.19
349.583	90.19
349.81	95.19
350.037	119.19
350.265	91.19
350.492	101.19
350.72	102.19
350.947	107.19
351.174	130.19
351.402	119.19
351.629	110.19
351.856	119.19
352.083	122.19
352.311	111.19
352.538	130.19
352.765	127.19
352.992	128.19
353.22	111.19
353.447	120.19
353.674	109.19
353.901	107.19
354.128	108.19
354.355	95.19
354.583	100.19
354.81	90.19
355.037	114.19
355.264	99.19
355.491	80.19
355.718	87.19
355.945	89.19
356.172	97.19
356.399	102.19
356.626	97.19
356.853	100.19
357.08	101.19
357.307	83.19
357.534	91.19
357.761	99.19
357.988	103.19
358.215	97.19
358.441	98.19
358.668	93.19
358.895	104.19
359.122	82.19
359.349	106.19
359.576	90.19
359.802	119.19
360.029	172.19
360.256	167.19
360.483	123.19
360.709	93.19
360.936	97.19
361.163	119.19
361.39	112.19
361.616	106.19
361.843	104.19
362.07	122.19
362.296	115.19
362.523	108.19
362.749	114.19
362.976	105.19
363.203	99.19
363.429	104.19
363.656	89.19
363.882	91.19
364.109	91.19
364.335	110.19
364.562	109.19
364.788	108.19
365.015	96.19
365.241	105.19
365.468	118.19
365.694	126.19
365.92	118.19
366.147	109.19
366.373	91.19
366.599	95.19
366.826	93.19
367.052	88.19
367.278	89.19
367.505	107.19
367.731	105.19
367.957	99.19
368.184	102.19
368.41	111.19
368.636	130.19
368.862	123.19
369.089	118.19
369.315	106.19
369.541	108.19
369.767	115.19
369.993	107.19
370.219	97.19
370.445	106.19
370.672	96.19
370.898	92.19
371.124	102.19
371.35	102.19
371.576	93.19
371.802	83.19
372.028	94.19
372.254	76.19
372.48	85.19
372.706	86.19
372.932	99.19
373.158	91.19
373.384	103.19
373.61	101.19
373.835	94.19
374.061	102.19
374.287	96.19
374.513	106.19
374.739	106.19
374.965	91.19
375.191	105.19
375.416	80.19
375.642	105.19
375.868	99.19
376.094	95.19
376.319	98.19
376.545	94.19
376.771	92.19
376.997	96.19
377.222	92.19
377.448	96.19
377.674	90.19
377.899	89.19
378.125	97.19
378.35	80.19
378.576	98.19
378.802	93.19
379.027	79.19
379.253	94.19
379.478	95.19
379.704	113.19
379.929	86.19
380.155	77.19
380.38	89.19
380.606	104.19
380.831	95.19
381.057	99.19
381.282	101.19
381.507	109.19
381.733	95.19
381.958	97.19
382.184	97.19
382.409	100.19
382.634	105.19
382.86	112.19
383.085	112.19
383.31	117.19
383.535	110.19
383.761	101.19
383.986	104.19
384.211	106.19
384.436	102.19
384.662	99.19
384.887	100.19
385.112	115.19
385.337	116.19
385.562	96.19
385.787	105.19
386.013	133.19
386.238	134.19
386.463	126.19
386.688	117.19
386.913	96.19
387.138	103.19
387.363	127.19
387.588	104.19
387.813	102.19
388.038	118.19
388.263	110.19
388.488	125.19
388.713	105.19
388.938	84.19
389.163	91.19
389.387	106.19
389.612	102.19
389.837	94.19
390.062	96.19
390.287	87.19
390.512	108.19
390.736	101.19
390.961	86.19
391.186	84.19
391.411	97.19
391.636	94.19
391.86	95.19
392.085	85.19
392.31	103.19
392.534	99.19
392.759	101.19
392.984	92.19
393.208	92.19
393.433	101.19
393.658	97.19
393.882	91.19
394.107	93.19
394.331	88.19
394.556	91.19
394.78	85.19
395.005	83.19
395.229	95.19
395.454	82.19
395.678	85.19
395.903	86.19
396.127	95.19
396.352	102.19
396.576	97.19
396.801	101.19
397.025	89.19
397.249	91.19
397.474	95.19
397.698	92.19
397.922	91.19
398.147	98.19
398.371	92.19
398.595	82.19
398.82	82.19
399.044	87.19
399.268	77.19
399.492	99.19
399.717	91.19
399.941	113.19
400.165	107.19
400.389	114.19
400.613	102.19
400.837	89.19
401.062	97.19
401.286	99.19
401.51	107.19
401.734	116.19
401.958	118.19
402.182	163.19
402.406	194.19
402.63	171.19
402.854	103.19
403.078	87.19
403.302	98.19
403.526	89.19
403.75	103.19
403.974	102.19
404.198	102.19
404.422	100.19
404.645	99.19
404.869	123.19
405.093	149.19
405.317	189.19
405.541	178.19
405.765	141.19
405.988	140.19
406.212	233.19
406.436	344.19
406.66	226.19
406.883	137.19
407.107	116.19
407.331	117.19
407.555	122.19
407.778	119.19
408.002	88.19
408.226	108.19
408.449	94.19
408.673	100.19
408.896	102.19
409.12	111.19
409.344	90.19
409.567	92.19
409.791	95.19
410.014	111.19
410.238	94.19
410.461	102.19
410.685	103.19
410.908	109.19
411.132	114.19
411.355	90.19
411.578	101.19
411.802	99.19
412.025	110.19
412.249	112.19
412.472	159.19
412.695	185.19
412.919	131.19
413.142	106.19
413.365	88.19
413.589	87.19
413.812	90.19
414.035	104.19
414.258	109.19
414.482	97.19
414.705	90.19
414.928	101.19
415.151	89.19
415.374	86.19
415.597	102.19
415.821	96.19
416.044	98.19
416.267	101.19
416.49	96.19
416.713	104.19
416.936	87.19
417.159	113.19
417.382	122.19
417.605	135.19
417.828	161.19
418.051	118.19
418.274	105.19
418.497	95.19
418.72	91.19
418.943	85.19
419.166	95.19
419.389	94.19
419.611	99.19
419.834	103.19
420.057	116.19
420.28	117.19
420.503	96.19
420.726	94.19
420.948	75.19
421.171	110.19
421.394	86.19
421.617	112.19
421.839	86.19
422.062	84.19
422.285	99.19
422.507	111.19
422.73	121.19
422.953	94.19
423.175	85.19
423.398	89.19
423.621	83.19
423.843	85.19
424.066	97.19
424.288	93.19
424.511	110.19
424.733	128.19
424.956	132.19
425.178	118.19
425.401	121.19
425.623	118.19
425.846	106.19
426.068	106.19
426.291	93.19
426.513	97.19
426.735	102.19
426.958	94.19
427.18	150.19
427.402	223.19
427.625	310.19
427.847	306.19
428.069	254.19
428.292	163.19
428.514	114.19
428.736	106.19
428.958	92.19
429.181	113.19
429.403	92.19
429.625	86.19
429.847	114.19
430.069	132.19
430.292	90.19
430.514	92.19
430.736	105.19
430.958	81.19
431.18	89.19
431.402	88.19
431.624	84.19
431.846	91.19
432.068	96.19
432.29	96.19
432.512	103.19
432.734	93.19
432.956	106.19
433.178	109.19
433.4	109.19
433.622	97.19
433.844	95.19
434.066	95.19
434.287	79.19
434.509	78.19
434.731	86.19
434.953	102.19
435.175	95.19
435.397	108.19
435.618	99.19
435.84	122.19
436.062	166.19
436.284	136.19
436.505	103.19
436.727	102.19
436.949	96.19
437.17	82.19
437.392	94.19
437.614	97.19
437.835	148.19
438.057	181.19
438.278	151.19
438.5	142.19
438.721	160.19
438.943	127.19
439.165	88.19
439.386	96.19
439.608	90.19
439.829	115.19
440.05	165.19
440.272	200.19
440.493	122.19
440.715	101.19
440.936	108.19
441.158	94.19
441.379	109.19
441.6	99.19
441.822	109.19
442.043	119.19
442.264	127.19
442.486	119.19
442.707	120.19
442.928	133.19
443.149	189.19
443.371	197.19
443.592	162.19
443.813	157.19
444.034	156.19
444.255	98.19
444.476	93.19
444.698	95.19
444.919	99.19
445.14	150.19
445.361	151.19
445.582	169.19
445.803	223.19
446.024	199.19
446.245	174.19
446.466	125.19
446.687	93.19
446.908	89.19
447.129	91.19
447.35	112.19
447.571	117.19
447.792	93.19
448.013	97.19
448.234	117.19
448.455	121.19
448.675	138.19
448.896	142.19
449.117	115.19
449.338	109.19
449.559	165.19
449.779	157.19
450	104.19
450.221	100.19
450.442	88.19
450.662	113.19
450.883	129.19
451.104	159.19
451.324	126.19
451.545	98.19
451.766	93.19
451.986	93.19
452.207	103.19
452.428	102.19
452.648	120.19
452.869	138.19
453.089	152.19
453.31	139.19
453.53	115.19
453.751	111.19
453.971	146.19
454.192	137.19
454.412	108.19
454.633	112.19
454.853	107.19
455.073	92.19
455.294	99.19
455.514	114.19
455.734	96.19
455.955	101.19
456.175	88.19
456.395	77.19
456.616	96.19
456.836	87.19
457.056	90.19
457.276	82.19
457.497	90.19
457.717	106.19
457.937	105.19
458.157	95.19
458.377	110.19
458.598	142.19
458.818	233.19
459.038	267.19
459.258	183.19
459.478	99.19
459.698	97.19
459.918	74.19
460.138	81.19
460.358	99.19
460.578	86.19
460.798	92.19
461.018	105.19
461.238	92.19
461.458	103.19
461.678	101.19
461.898	93.19
462.118	96.19
462.338	103.19
462.558	97.19
462.777	98.19
462.997	123.19
463.217	160.19
463.437	121.19
463.657	105.19
463.876	100.19
464.096	106.19
464.316	114.19
464.536	120.19
464.755	115.19
464.975	145.19
465.195	265.19
465.414	292.19
465.634	127.19
465.854	106.19
466.073	97.19
466.293	107.19
466.512	109.19
466.732	123.19
466.951	119.19
467.171	121.19
467.391	135.19
467.61	211.19
467.829	408.19
468.049	1469.19
468.268	2294.19
468.488	472.19
468.707	155.19
468.927	124.19
469.146	93.19
469.365	111.19
469.585	120.19
469.804	126.19
470.023	120.19
470.243	126.19
470.462	132.19
470.681	164.19
470.901	131.19
471.12	136.19
471.339	137.19
471.558	183.19
471.777	264.19
471.997	646.19
472.216	2804.19
472.435	6490.19
472.654	1340.19
472.873	309.19
473.092	157.19
473.311	132.19
473.53	104.19
473.749	97.19
473.968	113.19
474.187	165.19
474.406	135.19
474.625	104.19
474.844	114.19
475.063	96.19
475.282	99.19
475.501	102.19
475.72	101.19
475.939	104.19
476.158	101.19
476.377	100.19
476.596	95.19
476.814	114.19
477.033	108.19
477.252	100.19
477.471	94.19
477.69	89.19
477.908	107.19
478.127	100.19
478.346	112.19
478.564	116.19
478.783	126.19
479.002	123.19
479.22	114.19
479.439	163.19
479.658	166.19
479.876	182.19
480.095	180.19
480.313	221.19
480.532	292.19
480.751	565.19
480.969	2338.19
481.188	10387.19
481.406	5896.19
481.624	739.19
481.843	233.19
482.061	146.19
482.28	129.19
482.498	111.19
482.717	97.19
482.935	121.19
483.153	103.19
483.372	102.19
483.59	85.19
483.808	106.19
484.027	99.19
484.245	101.19
484.463	112.19
484.681	103.19
484.9	109.19
485.118	97.19
485.336	104.19
485.554	115.19
485.772	125.19
485.99	127.19
486.209	117.19
486.427	112.19
486.645	144.19
486.863	151.19
487.081	121.19
487.299	111.19
487.517	100.19
487.735	104.19
487.953	114.19
488.171	118.19
488.389	103.19
488.607	100.19
488.825	118.19
489.043	82.19
489.261	97.19
489.479	92.19
489.696	107.19
489.914	90.19
490.132	95.19
490.35	97.19
490.568	88.19
490.786	93.19
491.003	100.19
491.221	117.19
491.439	105.19
491.657	105.19
491.874	88.19
492.092	102.19
492.31	103.19
492.527	106.19
492.745	131.19
492.963	102.19
493.18	94.19
493.398	110.19
493.615	96.19
493.833	98.19
494.05	89.19
494.268	89.19
494.485	113.19
494.703	79.19
494.92	101.19
495.138	107.19
495.355	99.19
495.573	82.19
495.79	101.19
496.008	96.19
496.225	97.19
496.442	95.19
496.66	96.19
496.877	101.19
497.094	92.19
497.312	106.19
497.529	110.19
497.746	102.19
497.963	107.19
498.181	119.19
498.398	106.19
498.615	129.19
498.832	127.19
499.049	93.19
499.267	90.19
499.484	109.19
499.701	93.19
499.918	88.19
500.135	104.19
500.352	101.19
500.569	118.19
500.786	114.19
501.003	119.19
501.22	105.19
501.437	85.19
501.654	105.19
501.871	143.19
502.088	116.19
502.305	98.19
502.522	99.19
502.739	97.19
502.956	91.19
503.172	104.19
503.389	123.19
503.606	145.19
503.823	120.19
504.04	104.19
504.256	84.19
504.473	99.19
504.69	103.19
504.907	99.19
505.123	86.19
505.34	109.19
505.557	105.19
505.773	86.19
505.99	107.19
506.207	85.19
506.423	95.19
506.64	94.19
506.856	90.19
507.073	101.19
507.289	102.19
507.506	123.19
507.722	143.19
507.939	150.19
508.155	117.19
508.372	93.19
508.588	107.19
508.805	108.19
509.021	101.19
509.238	103.19
509.454	107.19
509.67	112.19
