Data from Circ_1988_H10_HRD10591_00003.txt Node
Date: Wed Jan 03 12:05:35 EST 2024
User: Yrep
Spectrometer: HR+D1059
Trigger mode: 1
Integration Time (sec): 1.000000E-1
Scans to average: 1
Electric dark correction enabled: true
Nonlinearity correction enabled: false
Boxcar width: 0
XAxis mode: Wavelengths
Number of Pixels in Spectrum: 2048
>>>>>Begin Spectral Data<<<<<
223.165	-18.25
223.4	-18.25
223.635	-18.25
223.869	-19.25
224.104	-7.25
224.338	-10.25
224.573	-18.25
224.808	-18.25
225.042	-15.25
225.277	-13.25
225.511	0.75
225.746	18.75
225.98	14.75
226.215	14.75
226.449	1.75
226.683	21.75
226.918	16.75
227.152	30.75
227.387	33.75
227.621	40.75
227.856	50.75
228.09	45.75
228.324	51.75
228.559	63.75
228.793	52.75
229.027	69.75
229.262	79.75
229.496	68.75
229.73	92.75
229.964	92.75
230.199	82.75
230.433	77.75
230.667	84.75
230.901	76.75
231.136	71.75
231.37	69.75
231.604	73.75
231.838	71.75
232.072	96.75
232.306	77.75
232.541	73.75
232.775	76.75
233.009	92.75
233.243	68.75
233.477	89.75
233.711	80.75
233.945	86.75
234.179	88.75
234.413	97.75
234.647	85.75
234.881	81.75
235.115	84.75
235.349	96.75
235.583	87.75
235.817	72.75
236.051	85.75
236.285	93.75
236.519	79.75
236.753	80.75
236.987	81.75
237.221	89.75
237.455	102.75
237.689	83.75
237.922	80.75
238.156	82.75
238.39	90.75
238.624	80.75
238.858	81.75
239.091	88.75
239.325	71.75
239.559	79.75
239.793	84.75
240.027	73.75
240.26	90.75
240.494	81.75
240.728	87.75
240.961	70.75
241.195	78.75
241.429	81.75
241.662	82.75
241.896	83.75
242.13	81.75
242.363	83.75
242.597	88.75
242.83	71.75
243.064	70.75
243.298	73.75
243.531	82.75
243.765	70.75
243.998	86.75
244.232	74.75
244.465	86.75
244.699	93.75
244.932	79.75
245.166	89.75
245.399	99.75
245.633	87.75
245.866	80.75
246.099	72.75
246.333	92.75
246.566	90.75
246.8	73.75
247.033	60.75
247.266	79.75
247.5	82.75
247.733	94.75
247.966	100.75
248.2	87.75
248.433	81.75
248.666	78.75
248.899	97.75
249.133	88.75
249.366	113.75
249.599	112.75
249.832	97.75
250.066	98.75
250.299	97.75
250.532	112.75
250.765	89.75
250.998	87.75
251.231	92.75
251.465	102.75
251.698	81.75
251.931	90.75
252.164	96.75
252.397	82.75
252.63	99.75
252.863	74.75
253.096	81.75
253.329	98.75
253.562	93.75
253.795	78.75
254.028	97.75
254.261	84.75
254.494	66.75
254.727	83.75
254.96	89.75
255.193	82.75
255.426	71.75
255.659	91.75
255.892	105.75
256.124	110.75
256.357	86.75
256.59	91.75
256.823	92.75
257.056	102.75
257.289	105.75
257.521	92.75
257.754	90.75
257.987	90.75
258.22	120.75
258.452	128.75
258.685	125.75
258.918	106.75
259.151	84.75
259.383	97.75
259.616	103.75
259.849	93.75
260.081	106.75
260.314	97.75
260.547	102.75
260.779	119.75
261.012	163.75
261.244	144.75
261.477	110.75
261.71	99.75
261.942	130.75
262.175	144.75
262.407	93.75
262.64	96.75
262.872	89.75
263.105	96.75
263.337	89.75
263.57	83.75
263.802	104.75
264.035	99.75
264.267	79.75
264.499	82.75
264.732	80.75
264.964	92.75
265.197	102.75
265.429	89.75
265.661	74.75
265.894	102.75
266.126	98.75
266.358	96.75
266.591	76.75
266.823	84.75
267.055	90.75
267.287	81.75
267.52	97.75
267.752	81.75
267.984	82.75
268.216	90.75
268.448	98.75
268.681	99.75
268.913	93.75
269.145	73.75
269.377	90.75
269.609	84.75
269.841	86.75
270.073	91.75
270.306	84.75
270.538	94.75
270.77	88.75
271.002	84.75
271.234	100.75
271.466	99.75
271.698	102.75
271.93	87.75
272.162	108.75
272.394	90.75
272.626	97.75
272.858	100.75
273.09	81.75
273.322	99.75
273.553	91.75
273.785	99.75
274.017	79.75
274.249	84.75
274.481	84.75
274.713	98.75
274.945	100.75
275.176	113.75
275.408	125.75
275.64	160.75
275.872	194.75
276.104	124.75
276.335	117.75
276.567	135.75
276.799	212.75
277.031	289.75
277.262	386.75
277.494	256.75
277.726	150.75
277.957	112.75
278.189	106.75
278.421	97.75
278.652	97.75
278.884	101.75
279.115	120.75
279.347	132.75
279.579	142.75
279.81	222.75
280.042	400.75
280.273	624.75
280.505	359.75
280.736	162.75
280.968	122.75
281.199	114.75
281.431	102.75
281.662	99.75
281.894	100.75
282.125	117.75
282.356	141.75
282.588	196.75
282.819	164.75
283.051	100.75
283.282	101.75
283.513	92.75
283.745	96.75
283.976	88.75
284.207	95.75
284.439	89.75
284.67	81.75
284.901	89.75
285.132	81.75
285.364	74.75
285.595	94.75
285.826	99.75
286.057	95.75
286.288	88.75
286.52	85.75
286.751	102.75
286.982	92.75
287.213	92.75
287.444	89.75
287.675	101.75
287.906	92.75
288.138	96.75
288.369	97.75
288.6	83.75
288.831	89.75
289.062	101.75
289.293	92.75
289.524	80.75
289.755	73.75
289.986	91.75
290.217	98.75
290.448	98.75
290.679	88.75
290.91	91.75
291.141	96.75
291.371	91.75
291.602	91.75
291.833	81.75
292.064	81.75
292.295	94.75
292.526	85.75
292.757	107.75
292.987	84.75
293.218	100.75
293.449	94.75
293.68	89.75
293.91	104.75
294.141	82.75
294.372	91.75
294.603	97.75
294.833	70.75
295.064	95.75
295.295	80.75
295.525	90.75
295.756	103.75
295.987	133.75
296.217	176.75
296.448	164.75
296.679	110.75
296.909	87.75
297.14	92.75
297.37	93.75
297.601	95.75
297.831	107.75
298.062	97.75
298.292	84.75
298.523	92.75
298.753	94.75
298.984	95.75
299.214	91.75
299.445	100.75
299.675	117.75
299.905	109.75
300.136	101.75
300.366	98.75
300.597	96.75
300.827	91.75
301.057	129.75
301.288	113.75
301.518	103.75
301.748	122.75
301.979	148.75
302.209	128.75
302.439	93.75
302.669	98.75
302.9	103.75
303.13	116.75
303.36	133.75
303.59	192.75
303.82	222.75
304.051	117.75
304.281	94.75
304.511	102.75
304.741	92.75
304.971	92.75
305.201	102.75
305.431	90.75
305.661	92.75
305.891	101.75
306.121	98.75
306.352	111.75
306.582	154.75
306.812	137.75
307.042	184.75
307.272	279.75
307.502	328.75
307.731	278.75
307.961	181.75
308.191	111.75
308.421	101.75
308.651	87.75
308.881	91.75
309.111	101.75
309.341	118.75
309.571	104.75
309.8	118.75
310.03	126.75
310.26	113.75
310.49	109.75
310.72	106.75
310.949	122.75
311.179	115.75
311.409	104.75
311.639	97.75
311.868	98.75
312.098	95.75
312.328	113.75
312.557	112.75
312.787	139.75
313.017	124.75
313.246	106.75
313.476	103.75
313.706	110.75
313.935	100.75
314.165	115.75
314.394	125.75
314.624	111.75
314.853	98.75
315.083	97.75
315.312	96.75
315.542	101.75
315.771	104.75
316.001	85.75
316.23	86.75
316.46	95.75
316.689	106.75
316.919	97.75
317.148	118.75
317.377	105.75
317.607	118.75
317.836	99.75
318.065	97.75
318.295	96.75
318.524	101.75
318.753	96.75
318.983	106.75
319.212	121.75
319.441	128.75
319.67	131.75
319.9	112.75
320.129	113.75
320.358	100.75
320.587	101.75
320.816	104.75
321.046	114.75
321.275	106.75
321.504	101.75
321.733	105.75
321.962	100.75
322.191	114.75
322.42	116.75
322.649	124.75
322.878	130.75
323.108	147.75
323.337	140.75
323.566	160.75
323.795	182.75
324.024	247.75
324.253	444.75
324.482	960.75
324.71	1930.75
324.939	2631.75
325.168	1009.75
325.397	313.75
325.626	168.75
325.855	160.75
326.084	152.75
326.313	156.75
326.542	160.75
326.77	261.75
326.999	504.75
327.228	976.75
327.457	1777.75
327.686	1515.75
327.914	732.75
328.143	1048.75
328.372	1500.75
328.6	715.75
328.829	277.75
329.058	242.75
329.287	251.75
329.515	257.75
329.744	479.75
329.972	1054.75
330.201	2325.75
330.43	3450.75
330.658	1356.75
330.887	450.75
331.115	250.75
331.344	167.75
331.572	147.75
331.801	150.75
332.03	149.75
332.258	127.75
332.486	126.75
332.715	125.75
332.943	138.75
333.172	162.75
333.4	167.75
333.629	238.75
333.857	369.75
334.085	855.75
334.314	2002.75
334.542	4098.75
334.771	3831.75
334.999	887.75
335.227	287.75
335.455	170.75
335.684	124.75
335.912	135.75
336.14	134.75
336.369	115.75
336.597	124.75
336.825	119.75
337.053	114.75
337.281	100.75
337.51	99.75
337.738	115.75
337.966	118.75
338.194	113.75
338.422	114.75
338.65	93.75
338.878	100.75
339.106	95.75
339.334	95.75
339.562	97.75
339.79	105.75
340.018	114.75
340.246	114.75
340.474	105.75
340.702	106.75
340.93	96.75
341.158	103.75
341.386	118.75
341.614	97.75
341.842	96.75
342.07	96.75
342.298	93.75
342.526	103.75
342.754	95.75
342.981	69.75
343.209	81.75
343.437	117.75
343.665	95.75
343.893	95.75
344.12	89.75
344.348	98.75
344.576	104.75
344.804	90.75
345.031	115.75
345.259	129.75
345.487	97.75
345.714	106.75
345.942	93.75
346.17	98.75
346.397	94.75
346.625	100.75
346.853	93.75
347.08	94.75
347.308	98.75
347.535	109.75
347.763	117.75
347.99	113.75
348.218	101.75
348.445	98.75
348.673	115.75
348.9	98.75
349.128	99.75
349.355	109.75
349.583	97.75
349.81	100.75
350.037	105.75
350.265	98.75
350.492	109.75
350.72	94.75
350.947	98.75
351.174	118.75
351.402	111.75
351.629	110.75
351.856	120.75
352.083	106.75
352.311	117.75
352.538	125.75
352.765	124.75
352.992	132.75
353.22	120.75
353.447	116.75
353.674	109.75
353.901	99.75
354.128	98.75
354.355	103.75
354.583	121.75
354.81	105.75
355.037	103.75
355.264	100.75
355.491	96.75
355.718	98.75
355.945	106.75
356.172	112.75
356.399	101.75
356.626	93.75
356.853	99.75
357.08	89.75
357.307	88.75
357.534	105.75
357.761	112.75
357.988	115.75
358.215	123.75
358.441	123.75
358.668	105.75
358.895	105.75
359.122	113.75
359.349	92.75
359.576	103.75
359.802	119.75
360.029	141.75
360.256	153.75
360.483	120.75
360.709	97.75
360.936	91.75
361.163	82.75
361.39	110.75
361.616	93.75
361.843	103.75
362.07	96.75
362.296	112.75
362.523	104.75
362.749	101.75
362.976	92.75
363.203	96.75
363.429	104.75
363.656	77.75
363.882	100.75
364.109	108.75
364.335	103.75
364.562	106.75
364.788	91.75
365.015	102.75
365.241	119.75
365.468	120.75
365.694	117.75
365.92	111.75
366.147	101.75
366.373	94.75
366.599	109.75
366.826	78.75
367.052	80.75
367.278	96.75
367.505	99.75
367.731	108.75
367.957	99.75
368.184	94.75
368.41	124.75
368.636	125.75
368.862	129.75
369.089	131.75
369.315	101.75
369.541	100.75
369.767	89.75
369.993	92.75
370.219	92.75
370.445	80.75
370.672	87.75
370.898	88.75
371.124	102.75
371.35	82.75
371.576	92.75
371.802	81.75
372.028	91.75
372.254	83.75
372.48	85.75
372.706	95.75
372.932	105.75
373.158	99.75
373.384	95.75
373.61	103.75
373.835	104.75
374.061	85.75
374.287	98.75
374.513	102.75
374.739	104.75
374.965	90.75
375.191	98.75
375.416	101.75
375.642	96.75
375.868	100.75
376.094	86.75
376.319	111.75
376.545	94.75
376.771	102.75
376.997	123.75
377.222	117.75
377.448	95.75
377.674	98.75
377.899	103.75
378.125	96.75
378.35	103.75
378.576	104.75
378.802	106.75
379.027	113.75
379.253	114.75
379.478	120.75
379.704	120.75
379.929	116.75
380.155	113.75
380.38	114.75
380.606	118.75
380.831	101.75
381.057	131.75
381.282	133.75
381.507	119.75
381.733	131.75
381.958	127.75
382.184	159.75
382.409	150.75
382.634	126.75
382.86	127.75
383.085	131.75
383.31	141.75
383.535	142.75
383.761	132.75
383.986	155.75
384.211	133.75
384.436	144.75
384.662	139.75
384.887	163.75
385.112	180.75
385.337	171.75
385.562	171.75
385.787	176.75
386.013	191.75
386.238	200.75
386.463	174.75
386.688	170.75
386.913	171.75
387.138	188.75
387.363	178.75
387.588	146.75
387.813	161.75
388.038	167.75
388.263	207.75
388.488	198.75
388.713	111.75
388.938	104.75
389.163	105.75
389.387	94.75
389.612	80.75
389.837	103.75
390.062	91.75
390.287	113.75
390.512	88.75
390.736	93.75
390.961	92.75
391.186	87.75
391.411	88.75
391.636	86.75
391.86	97.75
392.085	81.75
392.31	94.75
392.534	80.75
392.759	80.75
392.984	87.75
393.208	111.75
393.433	144.75
393.658	115.75
393.882	83.75
394.107	73.75
394.331	87.75
394.556	102.75
394.78	94.75
395.005	92.75
395.229	91.75
395.454	98.75
395.678	94.75
395.903	94.75
396.127	102.75
396.352	72.75
396.576	97.75
396.801	105.75
397.025	112.75
397.249	100.75
397.474	97.75
397.698	89.75
397.922	89.75
398.147	105.75
398.371	91.75
398.595	85.75
398.82	93.75
399.044	88.75
399.268	80.75
399.492	86.75
399.717	90.75
399.941	104.75
400.165	87.75
400.389	94.75
400.613	88.75
400.837	95.75
401.062	99.75
401.286	96.75
401.51	99.75
401.734	105.75
401.958	95.75
402.182	161.75
402.406	220.75
402.63	157.75
402.854	111.75
403.078	99.75
403.302	88.75
403.526	79.75
403.75	84.75
403.974	90.75
404.198	97.75
404.422	89.75
404.645	87.75
404.869	119.75
405.093	125.75
405.317	153.75
405.541	154.75
405.765	129.75
405.988	156.75
406.212	226.75
406.436	321.75
406.66	241.75
406.883	142.75
407.107	98.75
407.331	120.75
407.555	109.75
407.778	96.75
408.002	99.75
408.226	94.75
408.449	84.75
408.673	88.75
408.896	114.75
409.12	100.75
409.344	102.75
409.567	77.75
409.791	86.75
410.014	88.75
410.238	95.75
410.461	98.75
410.685	84.75
410.908	106.75
411.132	100.75
411.355	109.75
411.578	117.75
411.802	104.75
412.025	87.75
412.249	112.75
412.472	128.75
412.695	165.75
412.919	136.75
413.142	106.75
413.365	100.75
413.589	96.75
413.812	109.75
414.035	103.75
414.258	98.75
414.482	115.75
414.705	92.75
414.928	106.75
415.151	113.75
415.374	100.75
415.597	109.75
415.821	113.75
416.044	98.75
416.267	91.75
416.49	85.75
416.713	99.75
416.936	110.75
417.159	100.75
417.382	133.75
417.605	138.75
417.828	153.75
418.051	127.75
418.274	101.75
418.497	88.75
418.72	96.75
418.943	101.75
419.166	104.75
419.389	102.75
419.611	108.75
419.834	96.75
420.057	101.75
420.28	110.75
420.503	99.75
420.726	94.75
420.948	104.75
421.171	101.75
421.394	112.75
421.617	95.75
421.839	113.75
422.062	90.75
422.285	99.75
422.507	112.75
422.73	136.75
422.953	110.75
423.175	96.75
423.398	87.75
423.621	95.75
423.843	84.75
424.066	99.75
424.288	82.75
424.511	94.75
424.733	90.75
424.956	116.75
425.178	112.75
425.401	112.75
425.623	101.75
425.846	102.75
426.068	123.75
426.291	95.75
426.513	89.75
426.735	112.75
426.958	106.75
427.18	119.75
427.402	173.75
427.625	272.75
427.847	274.75
428.069	239.75
428.292	156.75
428.514	105.75
428.736	98.75
428.958	98.75
429.181	88.75
429.403	93.75
429.625	104.75
429.847	101.75
430.069	115.75
430.292	103.75
430.514	95.75
430.736	100.75
430.958	84.75
431.18	78.75
431.402	86.75
431.624	87.75
431.846	92.75
432.068	90.75
432.29	68.75
432.512	95.75
432.734	99.75
432.956	96.75
433.178	106.75
433.4	108.75
433.622	89.75
433.844	98.75
434.066	95.75
434.287	90.75
434.509	90.75
434.731	97.75
434.953	82.75
435.175	96.75
435.397	100.75
435.618	117.75
435.84	103.75
436.062	129.75
436.284	115.75
436.505	106.75
436.727	94.75
436.949	92.75
437.17	94.75
437.392	99.75
437.614	95.75
437.835	129.75
438.057	146.75
438.278	116.75
438.5	104.75
438.721	125.75
438.943	109.75
439.165	109.75
439.386	85.75
439.608	97.75
439.829	108.75
440.05	135.75
440.272	191.75
440.493	130.75
440.715	97.75
440.936	103.75
441.158	90.75
441.379	90.75
441.6	88.75
441.822	96.75
442.043	104.75
442.264	112.75
442.486	112.75
442.707	102.75
442.928	129.75
443.149	174.75
443.371	186.75
443.592	146.75
443.813	117.75
444.034	112.75
444.255	104.75
444.476	111.75
444.698	88.75
444.919	92.75
445.14	147.75
445.361	125.75
445.582	133.75
445.803	199.75
446.024	179.75
446.245	180.75
446.466	141.75
446.687	96.75
446.908	94.75
447.129	104.75
447.35	104.75
447.571	92.75
447.792	114.75
448.013	115.75
448.234	145.75
448.455	117.75
448.675	127.75
448.896	134.75
449.117	95.75
449.338	109.75
449.559	125.75
449.779	146.75
450	94.75
450.221	89.75
450.442	102.75
450.662	113.75
450.883	129.75
451.104	135.75
451.324	106.75
451.545	98.75
451.766	89.75
451.986	93.75
452.207	105.75
452.428	97.75
452.648	114.75
452.869	126.75
453.089	143.75
453.31	130.75
453.53	112.75
453.751	84.75
453.971	126.75
454.192	142.75
454.412	96.75
454.633	87.75
454.853	88.75
455.073	96.75
455.294	102.75
455.514	104.75
455.734	100.75
455.955	99.75
456.175	86.75
456.395	82.75
456.616	90.75
456.836	84.75
457.056	91.75
457.276	94.75
457.497	75.75
457.717	99.75
457.937	94.75
458.157	94.75
458.377	99.75
458.598	142.75
458.818	214.75
459.038	247.75
459.258	146.75
459.478	102.75
459.698	104.75
459.918	90.75
460.138	94.75
460.358	82.75
460.578	93.75
460.798	105.75
461.018	109.75
461.238	87.75
461.458	80.75
461.678	105.75
461.898	92.75
462.118	85.75
462.338	104.75
462.558	87.75
462.777	94.75
462.997	131.75
463.217	158.75
463.437	119.75
463.657	98.75
463.876	104.75
464.096	99.75
464.316	101.75
464.536	108.75
464.755	128.75
464.975	147.75
465.195	253.75
465.414	280.75
465.634	118.75
465.854	116.75
466.073	87.75
466.293	110.75
466.512	114.75
466.732	101.75
466.951	105.75
467.171	120.75
467.391	133.75
467.61	215.75
467.829	421.75
468.049	1484.75
468.268	2352.75
468.488	479.75
468.707	149.75
468.927	106.75
469.146	100.75
469.365	97.75
469.585	111.75
469.804	118.75
470.023	135.75
470.243	121.75
470.462	135.75
470.681	158.75
470.901	142.75
471.12	135.75
471.339	133.75
471.558	165.75
471.777	249.75
471.997	617.75
472.216	2668.75
472.435	6326.75
472.654	1276.75
472.873	276.75
473.092	137.75
473.311	111.75
473.53	116.75
473.749	104.75
473.968	109.75
474.187	118.75
474.406	118.75
474.625	95.75
474.844	82.75
475.063	83.75
475.282	89.75
475.501	91.75
475.72	101.75
475.939	95.75
476.158	99.75
476.377	109.75
476.596	106.75
476.814	102.75
477.033	101.75
477.252	101.75
477.471	93.75
477.69	117.75
477.908	104.75
478.127	101.75
478.346	119.75
478.564	114.75
478.783	115.75
479.002	115.75
479.22	126.75
479.439	162.75
479.658	164.75
479.876	156.75
480.095	168.75
480.313	190.75
480.532	279.75
480.751	534.75
480.969	2190.75
481.188	10001.75
481.406	5591.75
481.624	713.75
481.843	230.75
482.061	162.75
482.28	132.75
482.498	117.75
482.717	99.75
482.935	108.75
483.153	102.75
483.372	108.75
483.59	85.75
483.808	105.75
484.027	100.75
484.245	101.75
484.463	96.75
484.681	109.75
484.9	100.75
485.118	107.75
485.336	100.75
485.554	118.75
485.772	101.75
485.99	108.75
486.209	114.75
486.427	126.75
486.645	120.75
486.863	126.75
487.081	106.75
487.299	116.75
487.517	114.75
487.735	91.75
487.953	106.75
488.171	108.75
488.389	87.75
488.607	105.75
488.825	106.75
489.043	90.75
489.261	92.75
489.479	90.75
489.696	96.75
489.914	97.75
490.132	97.75
490.35	98.75
490.568	84.75
490.786	74.75
491.003	88.75
491.221	106.75
491.439	109.75
491.657	86.75
491.874	107.75
492.092	92.75
492.31	92.75
492.527	102.75
492.745	98.75
492.963	89.75
493.18	85.75
493.398	102.75
493.615	108.75
493.833	79.75
494.05	97.75
494.268	106.75
494.485	89.75
494.703	92.75
494.92	94.75
495.138	93.75
495.355	98.75
495.573	100.75
495.79	96.75
496.008	113.75
496.225	96.75
496.442	117.75
496.66	92.75
496.877	111.75
497.094	90.75
497.312	92.75
497.529	95.75
497.746	115.75
497.963	106.75
498.181	100.75
498.398	108.75
498.615	119.75
498.832	112.75
499.049	100.75
499.267	93.75
499.484	83.75
499.701	94.75
499.918	106.75
500.135	92.75
500.352	94.75
500.569	103.75
500.786	118.75
501.003	86.75
501.22	86.75
501.437	101.75
501.654	104.75
501.871	127.75
502.088	103.75
502.305	82.75
502.522	82.75
502.739	93.75
502.956	103.75
503.172	100.75
503.389	116.75
503.606	154.75
503.823	104.75
504.04	100.75
504.256	112.75
504.473	105.75
504.69	95.75
504.907	101.75
505.123	95.75
505.34	101.75
505.557	111.75
505.773	81.75
505.99	90.75
506.207	94.75
506.423	104.75
506.64	84.75
506.856	102.75
507.073	86.75
507.289	99.75
507.506	109.75
507.722	150.75
507.939	160.75
508.155	103.75
508.372	92.75
508.588	105.75
508.805	99.75
509.021	99.75
509.238	109.75
509.454	104.75
509.67	126.75
509.887	127.75
510.103	146.75
