Data from Circ_1988_H10_HRD10591_00025.txt Node
Date: Wed Jan 03 12:05:39 EST 2024
User: Yrep
Spectrometer: HR+D1059
Trigger mode: 1
Integration Time (sec): 1.000000E-1
Scans to average: 1
Electric dark correction enabled: true
Nonlinearity correction enabled: false
Boxcar width: 0
XAxis mode: Wavelengths
Number of Pixels in Spectrum: 2048
>>>>>Begin Spectral Data<<<<<
223.165	-21.88
223.4	-21.88
223.635	-21.88
223.869	-22.88
224.104	-19.88
224.338	-20.88
224.573	-12.88
224.808	-10.88
225.042	-13.88
225.277	-9.88
225.511	4.12
225.746	1.12
225.98	3.12
226.215	15.12
226.449	25.12
226.683	18.12
226.918	32.12
227.152	34.12
227.387	44.12
227.621	46.12
227.856	31.12
228.09	29.12
228.324	45.12
228.559	58.12
228.793	58.12
229.027	71.12
229.262	64.12
229.496	75.12
229.73	88.12
229.964	79.12
230.199	65.12
230.433	79.12
230.667	79.12
230.901	78.12
231.136	82.12
231.37	68.12
231.604	89.12
231.838	85.12
232.072	68.12
232.306	71.12
232.541	85.12
232.775	79.12
233.009	82.12
233.243	88.12
233.477	85.12
233.711	103.12
233.945	85.12
234.179	70.12
234.413	75.12
234.647	80.12
234.881	70.12
235.115	86.12
235.349	86.12
235.583	78.12
235.817	73.12
236.051	83.12
236.285	81.12
236.519	85.12
236.753	84.12
236.987	76.12
237.221	88.12
237.455	102.12
237.689	65.12
237.922	87.12
238.156	75.12
238.39	78.12
238.624	65.12
238.858	71.12
239.091	75.12
239.325	78.12
239.559	89.12
239.793	84.12
240.027	88.12
240.26	86.12
240.494	68.12
240.728	81.12
240.961	95.12
241.195	80.12
241.429	67.12
241.662	77.12
241.896	71.12
242.13	69.12
242.363	88.12
242.597	81.12
242.83	65.12
243.064	75.12
243.298	73.12
243.531	87.12
243.765	90.12
243.998	62.12
244.232	96.12
244.465	95.12
244.699	77.12
244.932	80.12
245.166	75.12
245.399	76.12
245.633	83.12
245.866	77.12
246.099	81.12
246.333	88.12
246.566	84.12
246.8	89.12
247.033	85.12
247.266	82.12
247.5	89.12
247.733	69.12
247.966	73.12
248.2	86.12
248.433	94.12
248.666	75.12
248.899	97.12
249.133	85.12
249.366	102.12
249.599	114.12
249.832	101.12
250.066	87.12
250.299	87.12
250.532	82.12
250.765	78.12
250.998	82.12
251.231	88.12
251.465	87.12
251.698	87.12
251.931	103.12
252.164	94.12
252.397	80.12
252.63	86.12
252.863	81.12
253.096	77.12
253.329	77.12
253.562	85.12
253.795	94.12
254.028	68.12
254.261	78.12
254.494	86.12
254.727	81.12
254.96	89.12
255.193	83.12
255.426	81.12
255.659	87.12
255.892	103.12
256.124	112.12
256.357	101.12
256.59	84.12
256.823	69.12
257.056	85.12
257.289	102.12
257.521	98.12
257.754	86.12
257.987	105.12
258.22	89.12
258.452	131.12
258.685	103.12
258.918	89.12
259.151	84.12
259.383	88.12
259.616	86.12
259.849	92.12
260.081	79.12
260.314	87.12
260.547	91.12
260.779	120.12
261.012	146.12
261.244	165.12
261.477	112.12
261.71	109.12
261.942	134.12
262.175	140.12
262.407	97.12
262.64	84.12
262.872	85.12
263.105	95.12
263.337	104.12
263.57	77.12
263.802	90.12
264.035	92.12
264.267	91.12
264.499	80.12
264.732	87.12
264.964	92.12
265.197	86.12
265.429	72.12
265.661	90.12
265.894	70.12
266.126	87.12
266.358	83.12
266.591	96.12
266.823	94.12
267.055	99.12
267.287	84.12
267.52	90.12
267.752	94.12
267.984	94.12
268.216	99.12
268.448	97.12
268.681	103.12
268.913	93.12
269.145	96.12
269.377	80.12
269.609	88.12
269.841	87.12
270.073	75.12
270.306	87.12
270.538	80.12
270.77	85.12
271.002	88.12
271.234	82.12
271.466	109.12
271.698	93.12
271.93	95.12
272.162	105.12
272.394	85.12
272.626	88.12
272.858	76.12
273.09	83.12
273.322	91.12
273.553	91.12
273.785	101.12
274.017	88.12
274.249	92.12
274.481	90.12
274.713	89.12
274.945	95.12
275.176	93.12
275.408	133.12
275.64	163.12
275.872	189.12
276.104	147.12
276.335	128.12
276.567	135.12
276.799	199.12
277.031	288.12
277.262	373.12
277.494	241.12
277.726	140.12
277.957	104.12
278.189	105.12
278.421	103.12
278.652	88.12
278.884	97.12
279.115	100.12
279.347	97.12
279.579	140.12
279.81	213.12
280.042	395.12
280.273	572.12
280.505	351.12
280.736	157.12
280.968	104.12
281.199	96.12
281.431	85.12
281.662	97.12
281.894	111.12
282.125	120.12
282.356	143.12
282.588	174.12
282.819	143.12
283.051	108.12
283.282	80.12
283.513	88.12
283.745	89.12
283.976	95.12
284.207	81.12
284.439	90.12
284.67	84.12
284.901	99.12
285.132	91.12
285.364	82.12
285.595	71.12
285.826	80.12
286.057	79.12
286.288	79.12
286.52	103.12
286.751	95.12
286.982	91.12
287.213	84.12
287.444	90.12
287.675	91.12
287.906	96.12
288.138	107.12
288.369	92.12
288.6	101.12
288.831	91.12
289.062	94.12
289.293	77.12
289.524	77.12
289.755	78.12
289.986	91.12
290.217	75.12
290.448	80.12
290.679	93.12
290.91	99.12
291.141	102.12
291.371	93.12
291.602	81.12
291.833	84.12
292.064	79.12
292.295	110.12
292.526	97.12
292.757	75.12
292.987	97.12
293.218	106.12
293.449	84.12
293.68	88.12
293.91	87.12
294.141	88.12
294.372	100.12
294.603	86.12
294.833	89.12
295.064	86.12
295.295	88.12
295.525	80.12
295.756	95.12
295.987	149.12
296.217	191.12
296.448	153.12
296.679	92.12
296.909	83.12
297.14	93.12
297.37	67.12
297.601	87.12
297.831	99.12
298.062	88.12
298.292	87.12
298.523	95.12
298.753	84.12
298.984	87.12
299.214	84.12
299.445	108.12
299.675	102.12
299.905	98.12
300.136	100.12
300.366	93.12
300.597	92.12
300.827	90.12
301.057	110.12
301.288	130.12
301.518	114.12
301.748	109.12
301.979	132.12
302.209	123.12
302.439	102.12
302.669	95.12
302.9	100.12
303.13	107.12
303.36	127.12
303.59	182.12
303.82	217.12
304.051	137.12
304.281	99.12
304.511	91.12
304.741	99.12
304.971	89.12
305.201	100.12
305.431	84.12
305.661	92.12
305.891	93.12
306.121	102.12
306.352	112.12
306.582	130.12
306.812	124.12
307.042	168.12
307.272	261.12
307.502	323.12
307.731	269.12
307.961	188.12
308.191	99.12
308.421	89.12
308.651	97.12
308.881	100.12
309.111	91.12
309.341	89.12
309.571	97.12
309.8	88.12
310.03	101.12
310.26	116.12
310.49	97.12
310.72	101.12
310.949	127.12
311.179	111.12
311.409	95.12
311.639	110.12
311.868	108.12
312.098	97.12
312.328	114.12
312.557	115.12
312.787	119.12
313.017	123.12
313.246	93.12
313.476	85.12
313.706	103.12
313.935	95.12
314.165	101.12
314.394	112.12
314.624	113.12
314.853	100.12
315.083	90.12
315.312	101.12
315.542	90.12
315.771	85.12
316.001	98.12
316.23	88.12
316.46	104.12
316.689	92.12
316.919	100.12
317.148	105.12
317.377	100.12
317.607	88.12
317.836	71.12
318.065	85.12
318.295	86.12
318.524	95.12
318.753	93.12
318.983	100.12
319.212	104.12
319.441	127.12
319.67	123.12
319.9	101.12
320.129	99.12
320.358	103.12
320.587	106.12
320.816	102.12
321.046	119.12
321.275	102.12
321.504	102.12
321.733	95.12
321.962	113.12
322.191	106.12
322.42	122.12
322.649	124.12
322.878	124.12
323.108	124.12
323.337	147.12
323.566	143.12
323.795	172.12
324.024	230.12
324.253	429.12
324.482	893.12
324.71	1895.12
324.939	2539.12
325.168	971.12
325.397	283.12
325.626	177.12
325.855	146.12
326.084	150.12
326.313	162.12
326.542	170.12
326.77	238.12
326.999	463.12
327.228	943.12
327.457	1749.12
327.686	1487.12
327.914	718.12
328.143	960.12
328.372	1397.12
328.6	695.12
328.829	255.12
329.058	253.12
329.287	259.12
329.515	253.12
329.744	402.12
329.972	932.12
330.201	2095.12
330.43	3121.12
330.658	1237.12
330.887	419.12
331.115	245.12
331.344	157.12
331.572	130.12
331.801	127.12
332.03	150.12
332.258	112.12
332.486	121.12
332.715	123.12
332.943	134.12
333.172	143.12
333.4	175.12
333.629	222.12
333.857	347.12
334.085	764.12
334.314	1790.12
334.542	3757.12
334.771	3463.12
334.999	835.12
335.227	263.12
335.455	169.12
335.684	130.12
335.912	122.12
336.14	123.12
336.369	123.12
336.597	134.12
336.825	110.12
337.053	105.12
337.281	97.12
337.51	102.12
337.738	90.12
337.966	99.12
338.194	104.12
338.422	115.12
338.65	107.12
338.878	105.12
339.106	87.12
339.334	103.12
339.562	87.12
339.79	83.12
340.018	80.12
340.246	98.12
340.474	105.12
340.702	102.12
340.93	102.12
341.158	92.12
341.386	96.12
341.614	103.12
341.842	98.12
342.07	100.12
342.298	96.12
342.526	99.12
342.754	101.12
342.981	86.12
343.209	98.12
343.437	110.12
343.665	93.12
343.893	92.12
344.12	104.12
344.348	93.12
344.576	72.12
344.804	90.12
345.031	89.12
345.259	104.12
345.487	101.12
345.714	104.12
345.942	99.12
346.17	93.12
346.397	87.12
346.625	97.12
346.853	101.12
347.08	100.12
347.308	108.12
347.535	107.12
347.763	112.12
347.99	115.12
348.218	111.12
348.445	123.12
348.673	118.12
348.9	103.12
349.128	106.12
349.355	103.12
349.583	97.12
349.81	92.12
350.037	84.12
350.265	92.12
350.492	98.12
350.72	104.12
350.947	117.12
351.174	122.12
351.402	127.12
351.629	110.12
351.856	104.12
352.083	102.12
352.311	132.12
352.538	131.12
352.765	124.12
352.992	118.12
353.22	125.12
353.447	109.12
353.674	111.12
353.901	86.12
354.128	105.12
354.355	94.12
354.583	104.12
354.81	98.12
355.037	93.12
355.264	93.12
355.491	100.12
355.718	86.12
355.945	94.12
356.172	100.12
356.399	105.12
356.626	103.12
356.853	96.12
357.08	97.12
357.307	90.12
357.534	100.12
357.761	99.12
357.988	86.12
358.215	101.12
358.441	98.12
358.668	99.12
358.895	91.12
359.122	86.12
359.349	100.12
359.576	94.12
359.802	111.12
360.029	146.12
360.256	131.12
360.483	115.12
360.709	101.12
360.936	110.12
361.163	104.12
361.39	92.12
361.616	100.12
361.843	103.12
362.07	102.12
362.296	106.12
362.523	100.12
362.749	95.12
362.976	99.12
363.203	100.12
363.429	94.12
363.656	85.12
363.882	94.12
364.109	89.12
364.335	91.12
364.562	113.12
364.788	96.12
365.015	88.12
365.241	94.12
365.468	117.12
365.694	103.12
365.92	117.12
366.147	108.12
366.373	80.12
366.599	92.12
366.826	87.12
367.052	89.12
367.278	95.12
367.505	89.12
367.731	90.12
367.957	97.12
368.184	115.12
368.41	111.12
368.636	134.12
368.862	125.12
369.089	108.12
369.315	119.12
369.541	102.12
369.767	95.12
369.993	110.12
370.219	104.12
370.445	88.12
370.672	93.12
370.898	94.12
371.124	92.12
371.35	86.12
371.576	78.12
371.802	101.12
372.028	91.12
372.254	76.12
372.48	88.12
372.706	80.12
372.932	96.12
373.158	93.12
373.384	101.12
373.61	88.12
373.835	93.12
374.061	104.12
374.287	99.12
374.513	89.12
374.739	100.12
374.965	103.12
375.191	86.12
375.416	91.12
375.642	102.12
375.868	95.12
376.094	105.12
376.319	98.12
376.545	89.12
376.771	78.12
376.997	93.12
377.222	93.12
377.448	92.12
377.674	97.12
377.899	85.12
378.125	88.12
378.35	87.12
378.576	95.12
378.802	88.12
379.027	85.12
379.253	104.12
379.478	121.12
379.704	110.12
379.929	88.12
380.155	116.12
380.38	90.12
380.606	101.12
380.831	100.12
381.057	100.12
381.282	98.12
381.507	110.12
381.733	111.12
381.958	110.12
382.184	97.12
382.409	109.12
382.634	119.12
382.86	126.12
383.085	111.12
383.31	119.12
383.535	111.12
383.761	128.12
383.986	125.12
384.211	110.12
384.436	116.12
384.662	119.12
384.887	127.12
385.112	143.12
385.337	132.12
385.562	131.12
385.787	130.12
386.013	145.12
386.238	155.12
386.463	136.12
386.688	136.12
386.913	140.12
387.138	163.12
387.363	111.12
387.588	107.12
387.813	116.12
388.038	129.12
388.263	142.12
388.488	159.12
388.713	87.12
388.938	94.12
389.163	92.12
389.387	84.12
389.612	98.12
389.837	87.12
390.062	89.12
390.287	91.12
390.512	81.12
390.736	89.12
390.961	85.12
391.186	90.12
391.411	98.12
391.636	71.12
391.86	80.12
392.085	91.12
392.31	85.12
392.534	93.12
392.759	84.12
392.984	91.12
393.208	98.12
393.433	105.12
393.658	89.12
393.882	89.12
394.107	79.12
394.331	92.12
394.556	91.12
394.78	112.12
395.005	71.12
395.229	83.12
395.454	91.12
395.678	92.12
395.903	88.12
396.127	94.12
396.352	93.12
396.576	100.12
396.801	88.12
397.025	91.12
397.249	85.12
397.474	84.12
397.698	84.12
397.922	84.12
398.147	85.12
398.371	94.12
398.595	82.12
398.82	87.12
399.044	87.12
399.268	94.12
399.492	87.12
399.717	89.12
399.941	101.12
400.165	100.12
400.389	90.12
400.613	91.12
400.837	81.12
401.062	86.12
401.286	79.12
401.51	94.12
401.734	94.12
401.958	112.12
402.182	140.12
402.406	211.12
402.63	172.12
402.854	112.12
403.078	91.12
403.302	87.12
403.526	102.12
403.75	91.12
403.974	86.12
404.198	75.12
404.422	82.12
404.645	94.12
404.869	97.12
405.093	126.12
405.317	133.12
405.541	154.12
405.765	131.12
405.988	133.12
406.212	236.12
406.436	345.12
406.66	212.12
406.883	120.12
407.107	104.12
407.331	106.12
407.555	110.12
407.778	112.12
408.002	94.12
408.226	104.12
408.449	105.12
408.673	83.12
408.896	97.12
409.12	85.12
409.344	88.12
409.567	96.12
409.791	94.12
410.014	90.12
410.238	107.12
410.461	80.12
410.685	98.12
410.908	108.12
411.132	97.12
411.355	81.12
411.578	80.12
411.802	91.12
412.025	89.12
412.249	110.12
412.472	127.12
412.695	139.12
412.919	120.12
413.142	105.12
413.365	98.12
413.589	107.12
413.812	95.12
414.035	95.12
414.258	111.12
414.482	119.12
414.705	103.12
414.928	102.12
415.151	101.12
415.374	75.12
415.597	90.12
415.821	97.12
416.044	90.12
416.267	101.12
416.49	91.12
416.713	100.12
416.936	104.12
417.159	114.12
417.382	98.12
417.605	113.12
417.828	132.12
418.051	113.12
418.274	89.12
418.497	83.12
418.72	84.12
418.943	85.12
419.166	87.12
419.389	108.12
419.611	103.12
419.834	87.12
420.057	96.12
420.28	100.12
420.503	93.12
420.726	93.12
420.948	103.12
421.171	95.12
421.394	99.12
421.617	85.12
421.839	83.12
422.062	102.12
422.285	97.12
422.507	102.12
422.73	115.12
422.953	86.12
423.175	99.12
423.398	86.12
423.621	88.12
423.843	76.12
424.066	86.12
424.288	96.12
424.511	96.12
424.733	97.12
424.956	110.12
425.178	111.12
425.401	102.12
425.623	118.12
425.846	96.12
426.068	100.12
426.291	100.12
426.513	83.12
426.735	99.12
426.958	112.12
427.18	111.12
427.402	186.12
427.625	269.12
427.847	254.12
428.069	225.12
428.292	158.12
428.514	112.12
428.736	102.12
428.958	89.12
429.181	101.12
429.403	107.12
429.625	96.12
429.847	107.12
430.069	117.12
430.292	113.12
430.514	99.12
430.736	91.12
430.958	96.12
431.18	83.12
431.402	76.12
431.624	94.12
431.846	87.12
432.068	92.12
432.29	105.12
432.512	95.12
432.734	91.12
432.956	72.12
433.178	107.12
433.4	99.12
433.622	85.12
433.844	88.12
434.066	94.12
434.287	92.12
434.509	92.12
434.731	84.12
434.953	95.12
435.175	102.12
435.397	93.12
435.618	84.12
435.84	104.12
436.062	137.12
436.284	118.12
436.505	104.12
436.727	82.12
436.949	89.12
437.17	89.12
437.392	93.12
437.614	91.12
437.835	113.12
438.057	156.12
438.278	126.12
438.5	104.12
438.721	125.12
438.943	113.12
439.165	97.12
439.386	87.12
439.608	94.12
439.829	105.12
440.05	151.12
440.272	174.12
440.493	113.12
440.715	107.12
440.936	85.12
441.158	85.12
441.379	97.12
441.6	112.12
441.822	109.12
442.043	115.12
442.264	108.12
442.486	96.12
442.707	93.12
442.928	117.12
443.149	178.12
443.371	166.12
443.592	153.12
443.813	126.12
444.034	113.12
444.255	101.12
444.476	103.12
444.698	102.12
444.919	83.12
445.14	133.12
445.361	129.12
445.582	118.12
445.803	173.12
446.024	168.12
446.245	162.12
446.466	125.12
446.687	95.12
446.908	97.12
447.129	91.12
447.35	87.12
447.571	100.12
447.792	91.12
448.013	111.12
448.234	131.12
448.455	127.12
448.675	115.12
448.896	120.12
449.117	112.12
449.338	114.12
449.559	129.12
449.779	141.12
450	95.12
450.221	81.12
450.442	88.12
450.662	95.12
450.883	134.12
451.104	133.12
451.324	100.12
451.545	98.12
451.766	93.12
451.986	92.12
452.207	101.12
452.428	99.12
452.648	103.12
452.869	143.12
453.089	138.12
453.31	129.12
453.53	107.12
453.751	93.12
453.971	113.12
454.192	143.12
454.412	95.12
454.633	92.12
454.853	92.12
455.073	102.12
455.294	92.12
455.514	118.12
455.734	80.12
455.955	95.12
456.175	91.12
456.395	105.12
456.616	85.12
456.836	83.12
457.056	88.12
457.276	96.12
457.497	99.12
457.717	77.12
457.937	99.12
458.157	95.12
458.377	90.12
458.598	114.12
458.818	221.12
459.038	249.12
459.258	153.12
459.478	96.12
459.698	86.12
459.918	106.12
460.138	90.12
460.358	96.12
460.578	96.12
460.798	87.12
461.018	101.12
461.238	96.12
461.458	102.12
461.678	94.12
461.898	88.12
462.118	91.12
462.338	88.12
462.558	105.12
462.777	96.12
462.997	123.12
463.217	143.12
463.437	112.12
463.657	106.12
463.876	94.12
464.096	95.12
464.316	85.12
464.536	116.12
464.755	95.12
464.975	127.12
465.195	241.12
465.414	267.12
465.634	115.12
465.854	92.12
466.073	90.12
466.293	97.12
466.512	104.12
466.732	98.12
466.951	108.12
467.171	108.12
467.391	140.12
467.61	183.12
467.829	388.12
468.049	1365.12
468.268	2139.12
468.488	451.12
468.707	169.12
468.927	122.12
469.146	94.12
469.365	105.12
469.585	112.12
469.804	119.12
470.023	118.12
470.243	119.12
470.462	123.12
470.681	146.12
470.901	119.12
471.12	122.12
471.339	122.12
471.558	143.12
471.777	235.12
471.997	567.12
472.216	2405.12
472.435	5768.12
472.654	1206.12
472.873	255.12
473.092	136.12
473.311	112.12
473.53	96.12
473.749	100.12
473.968	110.12
474.187	125.12
474.406	99.12
474.625	98.12
474.844	84.12
475.063	101.12
475.282	106.12
475.501	84.12
475.72	85.12
475.939	81.12
476.158	93.12
476.377	96.12
476.596	99.12
476.814	113.12
477.033	108.12
477.252	103.12
477.471	92.12
477.69	107.12
477.908	101.12
478.127	89.12
478.346	102.12
478.564	126.12
478.783	121.12
479.002	116.12
479.22	116.12
479.439	145.12
479.658	149.12
479.876	145.12
480.095	156.12
480.313	181.12
480.532	235.12
480.751	488.12
480.969	2022.12
481.188	9181.12
481.406	5057.12
481.624	662.12
481.843	203.12
482.061	145.12
482.28	119.12
482.498	121.12
482.717	105.12
482.935	99.12
483.153	100.12
483.372	100.12
483.59	90.12
483.808	110.12
484.027	97.12
484.245	95.12
484.463	112.12
484.681	102.12
484.9	85.12
485.118	98.12
485.336	92.12
485.554	90.12
485.772	102.12
485.99	108.12
486.209	109.12
486.427	97.12
486.645	140.12
486.863	136.12
487.081	118.12
487.299	113.12
487.517	111.12
487.735	99.12
487.953	100.12
488.171	103.12
488.389	114.12
488.607	92.12
488.825	85.12
489.043	84.12
489.261	81.12
489.479	96.12
489.696	85.12
489.914	93.12
490.132	106.12
490.35	92.12
490.568	103.12
490.786	91.12
491.003	96.12
491.221	92.12
491.439	98.12
491.657	86.12
491.874	98.12
492.092	92.12
492.31	99.12
492.527	107.12
492.745	115.12
492.963	91.12
493.18	96.12
493.398	94.12
493.615	102.12
493.833	103.12
494.05	104.12
494.268	96.12
494.485	98.12
494.703	101.12
494.92	88.12
495.138	84.12
495.355	105.12
495.573	98.12
495.79	108.12
496.008	114.12
496.225	97.12
496.442	88.12
496.66	102.12
496.877	99.12
497.094	106.12
497.312	87.12
497.529	94.12
497.746	92.12
497.963	106.12
498.181	97.12
498.398	101.12
498.615	123.12
498.832	130.12
499.049	93.12
499.267	101.12
499.484	99.12
499.701	89.12
499.918	99.12
500.135	91.12
500.352	101.12
500.569	96.12
500.786	88.12
501.003	105.12
501.22	92.12
501.437	96.12
501.654	108.12
501.871	128.12
502.088	105.12
502.305	103.12
502.522	100.12
502.739	90.12
502.956	92.12
503.172	117.12
503.389	107.12
503.606	143.12
503.823	119.12
504.04	101.12
504.256	101.12
504.473	103.12
504.69	84.12
504.907	88.12
505.123	102.12
505.34	101.12
505.557	88.12
505.773	104.12
505.99	99.12
506.207	84.12
506.423	86.12
506.64	95.12
506.856	100.12
507.073	106.12
507.289	93.12
507.506	97.12
507.722	136.12
507.939	143.12
508.155	83.12
508.372	95.12
508.588	91.12
508.805	78.12
509.021	94.12
509.238	90.12
509.454	91.12
509.67	105.12
509.887	131.12
510.103	144.12
510.319	275.12
510.536	982.12
510.752	3679.12
510.968	968.12
511.184	209.12
511.401	144.12
