Data from Circ_1988_H10_HRD10591_00027.txt Node
Date: Wed Jan 03 12:05:40 EST 2024
User: Yrep
Spectrometer: HR+D1059
Trigger mode: 1
Integration Time (sec): 1.000000E-1
Scans to average: 1
Electric dark correction enabled: true
Nonlinearity correction enabled: false
Boxcar width: 0
XAxis mode: Wavelengths
Number of Pixels in Spectrum: 2048
>>>>>Begin Spectral Data<<<<<
223.165	-27.62
223.4	-27.62
223.635	-27.62
223.869	-28.62
224.104	-16.62
224.338	-21.62
224.573	-6.62
224.808	-26.62
225.042	-17.62
225.277	7.38
225.511	2.38
225.746	15.38
225.98	-3.62
226.215	0.38
226.449	20.38
226.683	28.38
226.918	34.38
227.152	40.38
227.387	37.38
227.621	49.38
227.856	54.38
228.09	51.38
228.324	49.38
228.559	57.38
228.793	60.38
229.027	61.38
229.262	65.38
229.496	85.38
229.73	91.38
229.964	92.38
230.199	81.38
230.433	83.38
230.667	73.38
230.901	74.38
231.136	85.38
231.37	77.38
231.604	91.38
231.838	97.38
232.072	77.38
232.306	83.38
232.541	93.38
232.775	69.38
233.009	86.38
233.243	74.38
233.477	84.38
233.711	80.38
233.945	92.38
234.179	85.38
234.413	81.38
234.647	82.38
234.881	79.38
235.115	79.38
235.349	83.38
235.583	82.38
235.817	89.38
236.051	74.38
236.285	93.38
236.519	77.38
236.753	86.38
236.987	89.38
237.221	97.38
237.455	93.38
237.689	89.38
237.922	92.38
238.156	76.38
238.39	92.38
238.624	91.38
238.858	85.38
239.091	76.38
239.325	80.38
239.559	91.38
239.793	92.38
240.027	92.38
240.26	93.38
240.494	86.38
240.728	88.38
240.961	75.38
241.195	79.38
241.429	82.38
241.662	67.38
241.896	87.38
242.13	76.38
242.363	68.38
242.597	89.38
242.83	80.38
243.064	94.38
243.298	84.38
243.531	84.38
243.765	91.38
243.998	86.38
244.232	97.38
244.465	89.38
244.699	89.38
244.932	89.38
245.166	106.38
245.399	67.38
245.633	95.38
245.866	100.38
246.099	91.38
246.333	91.38
246.566	71.38
246.8	69.38
247.033	81.38
247.266	83.38
247.5	93.38
247.733	77.38
247.966	85.38
248.2	101.38
248.433	83.38
248.666	92.38
248.899	115.38
249.133	100.38
249.366	123.38
249.599	113.38
249.832	97.38
250.066	87.38
250.299	87.38
250.532	108.38
250.765	92.38
250.998	97.38
251.231	84.38
251.465	89.38
251.698	89.38
251.931	108.38
252.164	104.38
252.397	89.38
252.63	75.38
252.863	79.38
253.096	101.38
253.329	81.38
253.562	97.38
253.795	94.38
254.028	85.38
254.261	99.38
254.494	86.38
254.727	100.38
254.96	84.38
255.193	99.38
255.426	88.38
255.659	95.38
255.892	123.38
256.124	109.38
256.357	95.38
256.59	101.38
256.823	88.38
257.056	98.38
257.289	110.38
257.521	91.38
257.754	104.38
257.987	95.38
258.22	100.38
258.452	117.38
258.685	110.38
258.918	103.38
259.151	93.38
259.383	93.38
259.616	79.38
259.849	87.38
260.081	89.38
260.314	108.38
260.547	98.38
260.779	120.38
261.012	150.38
261.244	145.38
261.477	106.38
261.71	113.38
261.942	157.38
262.175	148.38
262.407	103.38
262.64	88.38
262.872	90.38
263.105	90.38
263.337	75.38
263.57	87.38
263.802	88.38
264.035	85.38
264.267	79.38
264.499	83.38
264.732	87.38
264.964	99.38
265.197	85.38
265.429	74.38
265.661	91.38
265.894	90.38
266.126	83.38
266.358	91.38
266.591	86.38
266.823	90.38
267.055	90.38
267.287	73.38
267.52	92.38
267.752	89.38
267.984	95.38
268.216	91.38
268.448	94.38
268.681	101.38
268.913	99.38
269.145	95.38
269.377	76.38
269.609	74.38
269.841	92.38
270.073	84.38
270.306	87.38
270.538	95.38
270.77	96.38
271.002	92.38
271.234	103.38
271.466	110.38
271.698	105.38
271.93	100.38
272.162	104.38
272.394	100.38
272.626	103.38
272.858	94.38
273.09	88.38
273.322	93.38
273.553	95.38
273.785	90.38
274.017	95.38
274.249	79.38
274.481	85.38
274.713	97.38
274.945	108.38
275.176	120.38
275.408	121.38
275.64	170.38
275.872	204.38
276.104	135.38
276.335	117.38
276.567	142.38
276.799	200.38
277.031	268.38
277.262	368.38
277.494	250.38
277.726	130.38
277.957	104.38
278.189	103.38
278.421	104.38
278.652	100.38
278.884	101.38
279.115	120.38
279.347	105.38
279.579	129.38
279.81	215.38
280.042	377.38
280.273	567.38
280.505	343.38
280.736	160.38
280.968	99.38
281.199	104.38
281.431	107.38
281.662	88.38
281.894	111.38
282.125	102.38
282.356	145.38
282.588	193.38
282.819	141.38
283.051	92.38
283.282	97.38
283.513	100.38
283.745	104.38
283.976	87.38
284.207	93.38
284.439	99.38
284.67	92.38
284.901	92.38
285.132	85.38
285.364	93.38
285.595	100.38
285.826	86.38
286.057	91.38
286.288	102.38
286.52	103.38
286.751	84.38
286.982	95.38
287.213	91.38
287.444	111.38
287.675	79.38
287.906	103.38
288.138	90.38
288.369	101.38
288.6	86.38
288.831	90.38
289.062	85.38
289.293	86.38
289.524	104.38
289.755	89.38
289.986	89.38
290.217	106.38
290.448	91.38
290.679	90.38
290.91	98.38
291.141	92.38
291.371	108.38
291.602	92.38
291.833	86.38
292.064	94.38
292.295	89.38
292.526	95.38
292.757	96.38
292.987	76.38
293.218	92.38
293.449	109.38
293.68	97.38
293.91	95.38
294.141	92.38
294.372	106.38
294.603	114.38
294.833	91.38
295.064	93.38
295.295	97.38
295.525	104.38
295.756	101.38
295.987	144.38
296.217	163.38
296.448	146.38
296.679	105.38
296.909	116.38
297.14	101.38
297.37	96.38
297.601	91.38
297.831	96.38
298.062	112.38
298.292	91.38
298.523	103.38
298.753	103.38
298.984	86.38
299.214	92.38
299.445	106.38
299.675	96.38
299.905	104.38
300.136	90.38
300.366	92.38
300.597	91.38
300.827	97.38
301.057	113.38
301.288	127.38
301.518	98.38
301.748	113.38
301.979	141.38
302.209	113.38
302.439	100.38
302.669	102.38
302.9	106.38
303.13	111.38
303.36	139.38
303.59	161.38
303.82	219.38
304.051	128.38
304.281	101.38
304.511	97.38
304.741	96.38
304.971	103.38
305.201	100.38
305.431	92.38
305.661	111.38
305.891	104.38
306.121	108.38
306.352	119.38
306.582	122.38
306.812	139.38
307.042	178.38
307.272	265.38
307.502	307.38
307.731	264.38
307.961	185.38
308.191	116.38
308.421	114.38
308.651	101.38
308.881	117.38
309.111	94.38
309.341	105.38
309.571	120.38
309.8	95.38
310.03	108.38
310.26	112.38
310.49	107.38
310.72	98.38
310.949	124.38
311.179	116.38
311.409	100.38
311.639	81.38
311.868	95.38
312.098	99.38
312.328	113.38
312.557	117.38
312.787	118.38
313.017	117.38
313.246	99.38
313.476	107.38
313.706	106.38
313.935	109.38
314.165	114.38
314.394	116.38
314.624	108.38
314.853	104.38
315.083	94.38
315.312	91.38
315.542	105.38
315.771	97.38
316.001	101.38
316.23	106.38
316.46	105.38
316.689	95.38
316.919	104.38
317.148	98.38
317.377	97.38
317.607	97.38
317.836	108.38
318.065	120.38
318.295	112.38
318.524	97.38
318.753	97.38
318.983	98.38
319.212	113.38
319.441	111.38
319.67	124.38
319.9	91.38
320.129	77.38
320.358	103.38
320.587	100.38
320.816	101.38
321.046	106.38
321.275	95.38
321.504	93.38
321.733	112.38
321.962	96.38
322.191	110.38
322.42	133.38
322.649	133.38
322.878	105.38
323.108	118.38
323.337	148.38
323.566	159.38
323.795	176.38
324.024	215.38
324.253	389.38
324.482	842.38
324.71	1736.38
324.939	2281.38
325.168	880.38
325.397	247.38
325.626	171.38
325.855	143.38
326.084	117.38
326.313	133.38
326.542	168.38
326.77	239.38
326.999	437.38
327.228	865.38
327.457	1571.38
327.686	1393.38
327.914	675.38
328.143	897.38
328.372	1321.38
328.6	689.38
328.829	253.38
329.058	220.38
329.287	242.38
329.515	248.38
329.744	414.38
329.972	901.38
330.201	2019.38
330.43	3001.38
330.658	1193.38
330.887	410.38
331.115	245.38
331.344	141.38
331.572	152.38
331.801	162.38
332.03	147.38
332.258	125.38
332.486	124.38
332.715	125.38
332.943	132.38
333.172	149.38
333.4	171.38
333.629	220.38
333.857	343.38
334.085	784.38
334.314	1753.38
334.542	3583.38
334.771	3343.38
334.999	784.38
335.227	261.38
335.455	163.38
335.684	122.38
335.912	132.38
336.14	112.38
336.369	119.38
336.597	129.38
336.825	124.38
337.053	102.38
337.281	111.38
337.51	108.38
337.738	113.38
337.966	110.38
338.194	107.38
338.422	103.38
338.65	95.38
338.878	98.38
339.106	98.38
339.334	94.38
339.562	104.38
339.79	100.38
340.018	98.38
340.246	92.38
340.474	106.38
340.702	103.38
340.93	100.38
341.158	101.38
341.386	103.38
341.614	108.38
341.842	100.38
342.07	103.38
342.298	101.38
342.526	92.38
342.754	80.38
342.981	95.38
343.209	105.38
343.437	113.38
343.665	105.38
343.893	103.38
344.12	96.38
344.348	93.38
344.576	93.38
344.804	97.38
345.031	120.38
345.259	122.38
345.487	113.38
345.714	118.38
345.942	97.38
346.17	99.38
346.397	83.38
346.625	100.38
346.853	93.38
347.08	90.38
347.308	94.38
347.535	115.38
347.763	104.38
347.99	94.38
348.218	104.38
348.445	114.38
348.673	112.38
348.9	108.38
349.128	102.38
349.355	93.38
349.583	106.38
349.81	106.38
350.037	96.38
350.265	101.38
350.492	111.38
350.72	103.38
350.947	94.38
351.174	132.38
351.402	121.38
351.629	118.38
351.856	113.38
352.083	104.38
352.311	105.38
352.538	112.38
352.765	117.38
352.992	123.38
353.22	108.38
353.447	116.38
353.674	106.38
353.901	104.38
354.128	98.38
354.355	106.38
354.583	105.38
354.81	98.38
355.037	101.38
355.264	95.38
355.491	103.38
355.718	85.38
355.945	96.38
356.172	91.38
356.399	97.38
356.626	95.38
356.853	83.38
357.08	104.38
357.307	101.38
357.534	81.38
357.761	95.38
357.988	120.38
358.215	101.38
358.441	109.38
358.668	120.38
358.895	102.38
359.122	88.38
359.349	95.38
359.576	105.38
359.802	110.38
360.029	147.38
360.256	143.38
360.483	116.38
360.709	97.38
360.936	114.38
361.163	103.38
361.39	111.38
361.616	102.38
361.843	96.38
362.07	100.38
362.296	104.38
362.523	86.38
362.749	81.38
362.976	87.38
363.203	98.38
363.429	95.38
363.656	109.38
363.882	105.38
364.109	108.38
364.335	107.38
364.562	91.38
364.788	104.38
365.015	101.38
365.241	108.38
365.468	109.38
365.694	125.38
365.92	116.38
366.147	108.38
366.373	106.38
366.599	96.38
366.826	80.38
367.052	105.38
367.278	111.38
367.505	97.38
367.731	99.38
367.957	104.38
368.184	102.38
368.41	97.38
368.636	117.38
368.862	116.38
369.089	107.38
369.315	110.38
369.541	107.38
369.767	92.38
369.993	90.38
370.219	92.38
370.445	99.38
370.672	108.38
370.898	89.38
371.124	93.38
371.35	92.38
371.576	102.38
371.802	105.38
372.028	92.38
372.254	82.38
372.48	72.38
372.706	92.38
372.932	100.38
373.158	80.38
373.384	93.38
373.61	97.38
373.835	87.38
374.061	98.38
374.287	94.38
374.513	92.38
374.739	103.38
374.965	87.38
375.191	102.38
375.416	99.38
375.642	101.38
375.868	104.38
376.094	91.38
376.319	87.38
376.545	93.38
376.771	99.38
376.997	91.38
377.222	87.38
377.448	97.38
377.674	103.38
377.899	97.38
378.125	96.38
378.35	113.38
378.576	92.38
378.802	100.38
379.027	111.38
379.253	111.38
379.478	101.38
379.704	104.38
379.929	108.38
380.155	103.38
380.38	117.38
380.606	112.38
380.831	107.38
381.057	119.38
381.282	118.38
381.507	88.38
381.733	109.38
381.958	116.38
382.184	106.38
382.409	108.38
382.634	112.38
382.86	102.38
383.085	122.38
383.31	113.38
383.535	124.38
383.761	121.38
383.986	124.38
384.211	128.38
384.436	107.38
384.662	121.38
384.887	124.38
385.112	137.38
385.337	148.38
385.562	123.38
385.787	131.38
386.013	148.38
386.238	171.38
386.463	129.38
386.688	138.38
386.913	133.38
387.138	134.38
387.363	140.38
387.588	108.38
387.813	125.38
388.038	115.38
388.263	147.38
388.488	135.38
388.713	114.38
388.938	102.38
389.163	91.38
389.387	81.38
389.612	107.38
389.837	100.38
390.062	91.38
390.287	74.38
390.512	94.38
390.736	93.38
390.961	95.38
391.186	92.38
391.411	100.38
391.636	83.38
391.86	93.38
392.085	95.38
392.31	87.38
392.534	95.38
392.759	88.38
392.984	104.38
393.208	115.38
393.433	113.38
393.658	100.38
393.882	95.38
394.107	85.38
394.331	79.38
394.556	75.38
394.78	85.38
395.005	103.38
395.229	95.38
395.454	86.38
395.678	83.38
395.903	89.38
396.127	84.38
396.352	85.38
396.576	85.38
396.801	104.38
397.025	94.38
397.249	83.38
397.474	93.38
397.698	100.38
397.922	81.38
398.147	98.38
398.371	91.38
398.595	89.38
398.82	85.38
399.044	94.38
399.268	97.38
399.492	90.38
399.717	93.38
399.941	82.38
400.165	101.38
400.389	100.38
400.613	100.38
400.837	100.38
401.062	103.38
401.286	88.38
401.51	97.38
401.734	104.38
401.958	117.38
402.182	142.38
402.406	200.38
402.63	152.38
402.854	115.38
403.078	87.38
403.302	102.38
403.526	99.38
403.75	97.38
403.974	87.38
404.198	98.38
404.422	85.38
404.645	101.38
404.869	101.38
405.093	133.38
405.317	152.38
405.541	145.38
405.765	135.38
405.988	148.38
406.212	218.38
406.436	315.38
406.66	203.38
406.883	117.38
407.107	105.38
407.331	115.38
407.555	117.38
407.778	103.38
408.002	85.38
408.226	95.38
408.449	99.38
408.673	96.38
408.896	101.38
409.12	109.38
409.344	91.38
409.567	93.38
409.791	83.38
410.014	96.38
410.238	100.38
410.461	95.38
410.685	103.38
410.908	93.38
411.132	113.38
411.355	125.38
411.578	93.38
411.802	97.38
412.025	99.38
412.249	122.38
412.472	129.38
412.695	156.38
412.919	127.38
413.142	108.38
413.365	99.38
413.589	95.38
413.812	104.38
414.035	99.38
414.258	103.38
414.482	104.38
414.705	95.38
414.928	83.38
415.151	88.38
415.374	101.38
415.597	87.38
415.821	96.38
416.044	102.38
416.267	110.38
416.49	88.38
416.713	99.38
416.936	102.38
417.159	109.38
417.382	109.38
417.605	144.38
417.828	134.38
418.051	119.38
418.274	104.38
418.497	99.38
418.72	97.38
418.943	90.38
419.166	105.38
419.389	104.38
419.611	113.38
419.834	122.38
420.057	92.38
420.28	98.38
420.503	109.38
420.726	90.38
420.948	100.38
421.171	103.38
421.394	108.38
421.617	94.38
421.839	102.38
422.062	88.38
422.285	96.38
422.507	95.38
422.73	106.38
422.953	98.38
423.175	92.38
423.398	89.38
423.621	85.38
423.843	96.38
424.066	87.38
424.288	92.38
424.511	106.38
424.733	104.38
424.956	123.38
425.178	114.38
425.401	104.38
425.623	110.38
425.846	90.38
426.068	115.38
426.291	103.38
426.513	108.38
426.735	105.38
426.958	101.38
427.18	117.38
427.402	167.38
427.625	261.38
427.847	259.38
428.069	208.38
428.292	142.38
428.514	112.38
428.736	96.38
428.958	88.38
429.181	84.38
429.403	91.38
429.625	106.38
429.847	109.38
430.069	112.38
430.292	98.38
430.514	111.38
430.736	93.38
430.958	99.38
431.18	72.38
431.402	92.38
431.624	85.38
431.846	88.38
432.068	98.38
432.29	72.38
432.512	92.38
432.734	86.38
432.956	97.38
433.178	104.38
433.4	94.38
433.622	114.38
433.844	87.38
434.066	89.38
434.287	87.38
434.509	91.38
434.731	104.38
434.953	95.38
435.175	95.38
435.397	93.38
435.618	99.38
435.84	105.38
436.062	132.38
436.284	140.38
436.505	107.38
436.727	102.38
436.949	91.38
437.17	94.38
437.392	105.38
437.614	109.38
437.835	118.38
438.057	153.38
438.278	116.38
438.5	119.38
438.721	125.38
438.943	108.38
439.165	77.38
439.386	93.38
439.608	115.38
439.829	113.38
440.05	127.38
440.272	183.38
440.493	111.38
440.715	92.38
440.936	87.38
441.158	83.38
441.379	100.38
441.6	104.38
441.822	96.38
442.043	116.38
442.264	116.38
442.486	120.38
442.707	109.38
442.928	109.38
443.149	160.38
443.371	167.38
443.592	133.38
443.813	140.38
444.034	124.38
444.255	102.38
444.476	85.38
444.698	98.38
444.919	87.38
445.14	140.38
445.361	139.38
445.582	137.38
445.803	172.38
446.024	155.38
446.245	171.38
446.466	127.38
446.687	87.38
446.908	97.38
447.129	97.38
447.35	113.38
447.571	108.38
447.792	99.38
448.013	115.38
448.234	135.38
448.455	101.38
448.675	122.38
448.896	131.38
449.117	103.38
449.338	124.38
449.559	143.38
449.779	143.38
450	92.38
450.221	83.38
450.442	90.38
450.662	114.38
450.883	125.38
451.104	150.38
451.324	103.38
451.545	88.38
451.766	100.38
451.986	98.38
452.207	92.38
452.428	109.38
452.648	119.38
452.869	137.38
453.089	134.38
453.31	128.38
453.53	97.38
453.751	107.38
453.971	114.38
454.192	131.38
454.412	113.38
454.633	89.38
454.853	97.38
455.073	91.38
455.294	112.38
455.514	121.38
455.734	99.38
455.955	82.38
456.175	93.38
456.395	95.38
456.616	83.38
456.836	90.38
457.056	76.38
457.276	84.38
457.497	87.38
457.717	97.38
457.937	84.38
458.157	95.38
458.377	108.38
458.598	114.38
458.818	194.38
459.038	216.38
459.258	131.38
459.478	103.38
459.698	85.38
459.918	103.38
460.138	89.38
460.358	100.38
460.578	99.38
460.798	109.38
461.018	101.38
461.238	90.38
461.458	101.38
461.678	100.38
461.898	92.38
462.118	87.38
462.338	92.38
462.558	90.38
462.777	93.38
462.997	109.38
463.217	143.38
463.437	120.38
463.657	101.38
463.876	92.38
464.096	111.38
464.316	86.38
464.536	99.38
464.755	109.38
464.975	131.38
465.195	249.38
465.414	235.38
465.634	122.38
465.854	95.38
466.073	105.38
466.293	98.38
466.512	92.38
466.732	105.38
466.951	95.38
467.171	95.38
467.391	135.38
467.61	209.38
467.829	371.38
468.049	1299.38
468.268	2055.38
468.488	416.38
468.707	137.38
468.927	120.38
469.146	103.38
469.365	106.38
469.585	110.38
469.804	115.38
470.023	120.38
470.243	108.38
470.462	126.38
470.681	146.38
470.901	124.38
471.12	121.38
471.339	132.38
471.558	163.38
471.777	247.38
471.997	557.38
472.216	2291.38
472.435	5479.38
472.654	1138.38
472.873	237.38
473.092	153.38
473.311	119.38
473.53	111.38
473.749	98.38
473.968	104.38
474.187	126.38
474.406	129.38
474.625	97.38
474.844	99.38
475.063	91.38
475.282	83.38
475.501	91.38
475.72	92.38
475.939	102.38
476.158	98.38
476.377	100.38
476.596	92.38
476.814	107.38
477.033	113.38
477.252	97.38
477.471	89.38
477.69	104.38
477.908	108.38
478.127	109.38
478.346	99.38
478.564	95.38
478.783	121.38
479.002	119.38
479.22	108.38
479.439	137.38
479.658	151.38
479.876	160.38
480.095	156.38
480.313	181.38
480.532	260.38
480.751	489.38
480.969	1965.38
481.188	8788.38
481.406	4839.38
481.624	636.38
481.843	202.38
482.061	148.38
482.28	123.38
482.498	109.38
482.717	105.38
482.935	118.38
483.153	101.38
483.372	106.38
483.59	100.38
483.808	99.38
484.027	97.38
484.245	109.38
484.463	101.38
484.681	107.38
484.9	100.38
485.118	107.38
485.336	99.38
485.554	111.38
485.772	113.38
485.99	117.38
486.209	115.38
486.427	118.38
486.645	122.38
486.863	139.38
487.081	121.38
487.299	123.38
487.517	98.38
487.735	113.38
487.953	104.38
488.171	102.38
488.389	96.38
488.607	112.38
488.825	98.38
489.043	93.38
489.261	88.38
489.479	93.38
489.696	92.38
489.914	106.38
490.132	99.38
490.35	94.38
490.568	97.38
490.786	106.38
491.003	91.38
491.221	91.38
491.439	108.38
491.657	95.38
491.874	106.38
492.092	109.38
492.31	104.38
492.527	103.38
492.745	110.38
492.963	102.38
493.18	99.38
493.398	94.38
493.615	112.38
493.833	92.38
494.05	108.38
494.268	95.38
494.485	99.38
494.703	82.38
494.92	79.38
495.138	92.38
495.355	104.38
495.573	97.38
495.79	85.38
496.008	129.38
496.225	96.38
496.442	79.38
496.66	87.38
496.877	109.38
497.094	106.38
497.312	89.38
497.529	83.38
497.746	90.38
497.963	82.38
498.181	99.38
498.398	102.38
498.615	133.38
498.832	100.38
499.049	92.38
499.267	97.38
499.484	83.38
499.701	96.38
499.918	106.38
500.135	92.38
500.352	82.38
500.569	108.38
500.786	107.38
501.003	102.38
501.22	107.38
501.437	90.38
501.654	90.38
501.871	113.38
502.088	104.38
502.305	103.38
502.522	91.38
502.739	102.38
502.956	97.38
503.172	99.38
503.389	122.38
503.606	139.38
503.823	109.38
504.04	118.38
504.256	100.38
504.473	111.38
504.69	106.38
504.907	107.38
505.123	99.38
505.34	92.38
505.557	101.38
505.773	88.38
505.99	96.38
506.207	90.38
506.423	91.38
506.64	99.38
506.856	103.38
507.073	96.38
507.289	101.38
507.506	109.38
507.722	135.38
507.939	146.38
508.155	114.38
508.372	99.38
508.588	109.38
508.805	120.38
509.021	115.38
509.238	117.38
509.454	115.38
509.67	108.38
509.887	124.38
