Data from Circ_1988_H10_HRD10591_00089.txt Node
Date: Wed Jan 03 12:05:52 EST 2024
User: Yrep
Spectrometer: HR+D1059
Trigger mode: 1
Integration Time (sec): 1.000000E-1
Scans to average: 1
Electric dark correction enabled: true
Nonlinearity correction enabled: false
Boxcar width: 0
XAxis mode: Wavelengths
Number of Pixels in Spectrum: 2048
>>>>>Begin Spectral Data<<<<<
223.165	-24.06
223.4	-24.06
223.635	-24.06
223.869	-10.06
224.104	-10.06
224.338	-19.06
224.573	-17.06
224.808	-6.06
225.042	-20.06
225.277	-9.06
225.511	-11.06
225.746	-7.06
225.98	7.94
226.215	10.94
226.449	14.94
226.683	34.94
226.918	31.94
227.152	32.94
227.387	37.94
227.621	46.94
227.856	43.94
228.09	33.94
228.324	50.94
228.559	67.94
228.793	58.94
229.027	52.94
229.262	57.94
229.496	74.94
229.73	107.94
229.964	108.94
230.199	73.94
230.433	82.94
230.667	80.94
230.901	77.94
231.136	80.94
231.37	69.94
231.604	84.94
231.838	89.94
232.072	70.94
232.306	78.94
232.541	85.94
232.775	82.94
233.009	82.94
233.243	86.94
233.477	85.94
233.711	92.94
233.945	65.94
234.179	88.94
234.413	71.94
234.647	83.94
234.881	96.94
235.115	79.94
235.349	89.94
235.583	83.94
235.817	73.94
236.051	94.94
236.285	87.94
236.519	82.94
236.753	80.94
236.987	82.94
237.221	91.94
237.455	100.94
237.689	80.94
237.922	91.94
238.156	80.94
238.39	80.94
238.624	67.94
238.858	89.94
239.091	80.94
239.325	72.94
239.559	105.94
239.793	83.94
240.027	79.94
240.26	81.94
240.494	84.94
240.728	83.94
240.961	81.94
241.195	77.94
241.429	83.94
241.662	82.94
241.896	78.94
242.13	70.94
242.363	64.94
242.597	83.94
242.83	81.94
243.064	79.94
243.298	84.94
243.531	90.94
243.765	85.94
243.998	76.94
244.232	86.94
244.465	85.94
244.699	88.94
244.932	74.94
245.166	88.94
245.399	80.94
245.633	94.94
245.866	84.94
246.099	87.94
246.333	74.94
246.566	93.94
246.8	77.94
247.033	94.94
247.266	71.94
247.5	73.94
247.733	82.94
247.966	83.94
248.2	65.94
248.433	86.94
248.666	93.94
248.899	89.94
249.133	106.94
249.366	129.94
249.599	116.94
249.832	85.94
250.066	93.94
250.299	98.94
250.532	86.94
250.765	100.94
250.998	80.94
251.231	97.94
251.465	98.94
251.698	101.94
251.931	88.94
252.164	72.94
252.397	93.94
252.63	81.94
252.863	83.94
253.096	75.94
253.329	81.94
253.562	68.94
253.795	82.94
254.028	73.94
254.261	87.94
254.494	81.94
254.727	80.94
254.96	85.94
255.193	88.94
255.426	91.94
255.659	95.94
255.892	109.94
256.124	132.94
256.357	93.94
256.59	99.94
256.823	100.94
257.056	103.94
257.289	105.94
257.521	91.94
257.754	84.94
257.987	96.94
258.22	99.94
258.452	139.94
258.685	122.94
258.918	107.94
259.151	96.94
259.383	92.94
259.616	83.94
259.849	71.94
260.081	88.94
260.314	86.94
260.547	95.94
260.779	112.94
261.012	164.94
261.244	159.94
261.477	115.94
261.71	111.94
261.942	152.94
262.175	137.94
262.407	91.94
262.64	95.94
262.872	100.94
263.105	89.94
263.337	102.94
263.57	85.94
263.802	91.94
264.035	85.94
264.267	89.94
264.499	93.94
264.732	96.94
264.964	102.94
265.197	83.94
265.429	88.94
265.661	100.94
265.894	90.94
266.126	83.94
266.358	84.94
266.591	92.94
266.823	89.94
267.055	88.94
267.287	83.94
267.52	82.94
267.752	89.94
267.984	105.94
268.216	102.94
268.448	100.94
268.681	95.94
268.913	110.94
269.145	99.94
269.377	91.94
269.609	83.94
269.841	84.94
270.073	81.94
270.306	80.94
270.538	69.94
270.77	76.94
271.002	91.94
271.234	101.94
271.466	118.94
271.698	101.94
271.93	85.94
272.162	91.94
272.394	101.94
272.626	95.94
272.858	74.94
273.09	84.94
273.322	71.94
273.553	95.94
273.785	88.94
274.017	83.94
274.249	89.94
274.481	84.94
274.713	90.94
274.945	95.94
275.176	103.94
275.408	118.94
275.64	158.94
275.872	174.94
276.104	142.94
276.335	116.94
276.567	123.94
276.799	187.94
277.031	284.94
277.262	344.94
277.494	243.94
277.726	127.94
277.957	110.94
278.189	103.94
278.421	94.94
278.652	99.94
278.884	102.94
279.115	95.94
279.347	110.94
279.579	123.94
279.81	187.94
280.042	360.94
280.273	525.94
280.505	335.94
280.736	142.94
280.968	105.94
281.199	99.94
281.431	102.94
281.662	96.94
281.894	104.94
282.125	119.94
282.356	161.94
282.588	201.94
282.819	139.94
283.051	89.94
283.282	75.94
283.513	87.94
283.745	96.94
283.976	90.94
284.207	91.94
284.439	82.94
284.67	70.94
284.901	80.94
285.132	85.94
285.364	99.94
285.595	77.94
285.826	89.94
286.057	92.94
286.288	86.94
286.52	95.94
286.751	95.94
286.982	88.94
287.213	85.94
287.444	98.94
287.675	97.94
287.906	89.94
288.138	102.94
288.369	108.94
288.6	94.94
288.831	99.94
289.062	81.94
289.293	87.94
289.524	87.94
289.755	102.94
289.986	78.94
290.217	72.94
290.448	90.94
290.679	70.94
290.91	99.94
291.141	97.94
291.371	98.94
291.602	81.94
291.833	83.94
292.064	80.94
292.295	96.94
292.526	88.94
292.757	99.94
292.987	83.94
293.218	87.94
293.449	86.94
293.68	84.94
293.91	96.94
294.141	87.94
294.372	91.94
294.603	83.94
294.833	63.94
295.064	91.94
295.295	89.94
295.525	88.94
295.756	91.94
295.987	148.94
296.217	169.94
296.448	152.94
296.679	92.94
296.909	96.94
297.14	84.94
297.37	82.94
297.601	99.94
297.831	96.94
298.062	86.94
298.292	96.94
298.523	100.94
298.753	84.94
298.984	92.94
299.214	92.94
299.445	117.94
299.675	95.94
299.905	85.94
300.136	93.94
300.366	80.94
300.597	100.94
300.827	110.94
301.057	133.94
301.288	129.94
301.518	97.94
301.748	104.94
301.979	133.94
302.209	117.94
302.439	97.94
302.669	107.94
302.9	97.94
303.13	116.94
303.36	139.94
303.59	190.94
303.82	208.94
304.051	131.94
304.281	86.94
304.511	96.94
304.741	80.94
304.971	84.94
305.201	88.94
305.431	103.94
305.661	95.94
305.891	107.94
306.121	110.94
306.352	120.94
306.582	117.94
306.812	109.94
307.042	169.94
307.272	260.94
307.502	298.94
307.731	265.94
307.961	173.94
308.191	120.94
308.421	100.94
308.651	95.94
308.881	99.94
309.111	108.94
309.341	114.94
309.571	94.94
309.8	109.94
310.03	117.94
310.26	116.94
310.49	105.94
310.72	116.94
310.949	104.94
311.179	120.94
311.409	104.94
311.639	107.94
311.868	99.94
312.098	104.94
312.328	124.94
312.557	108.94
312.787	122.94
313.017	119.94
313.246	103.94
313.476	92.94
313.706	108.94
313.935	104.94
314.165	115.94
314.394	114.94
314.624	97.94
314.853	100.94
315.083	103.94
315.312	72.94
315.542	85.94
315.771	105.94
316.001	100.94
316.23	97.94
316.46	85.94
316.689	90.94
316.919	105.94
317.148	100.94
317.377	100.94
317.607	97.94
317.836	87.94
318.065	101.94
318.295	102.94
318.524	84.94
318.753	112.94
318.983	92.94
319.212	107.94
319.441	103.94
319.67	129.94
319.9	108.94
320.129	96.94
320.358	106.94
320.587	82.94
320.816	105.94
321.046	112.94
321.275	103.94
321.504	102.94
321.733	102.94
321.962	118.94
322.191	95.94
322.42	127.94
322.649	137.94
322.878	125.94
323.108	113.94
323.337	136.94
323.566	159.94
323.795	163.94
324.024	241.94
324.253	415.94
324.482	874.94
324.71	1732.94
324.939	2299.94
325.168	900.94
325.397	267.94
325.626	170.94
325.855	139.94
326.084	137.94
326.313	124.94
326.542	158.94
326.77	242.94
326.999	450.94
327.228	859.94
327.457	1559.94
327.686	1370.94
327.914	680.94
328.143	910.94
328.372	1338.94
328.6	711.94
328.829	259.94
329.058	219.94
329.287	259.94
329.515	246.94
329.744	409.94
329.972	912.94
330.201	1960.94
330.43	3097.94
330.658	1245.94
330.887	438.94
331.115	248.94
331.344	159.94
331.572	150.94
331.801	140.94
332.03	130.94
332.258	127.94
332.486	128.94
332.715	119.94
332.943	147.94
333.172	153.94
333.4	164.94
333.629	204.94
333.857	355.94
334.085	747.94
334.314	1709.94
334.542	3646.94
334.771	3475.94
334.999	783.94
335.227	264.94
335.455	173.94
335.684	157.94
335.912	126.94
336.14	126.94
336.369	115.94
336.597	134.94
336.825	122.94
337.053	103.94
337.281	100.94
337.51	87.94
337.738	103.94
337.966	110.94
338.194	103.94
338.422	105.94
338.65	108.94
338.878	92.94
339.106	83.94
339.334	101.94
339.562	102.94
339.79	98.94
340.018	97.94
340.246	105.94
340.474	108.94
340.702	100.94
340.93	98.94
341.158	90.94
341.386	100.94
341.614	95.94
341.842	97.94
342.07	85.94
342.298	91.94
342.526	100.94
342.754	83.94
342.981	87.94
343.209	87.94
343.437	91.94
343.665	95.94
343.893	101.94
344.12	95.94
344.348	86.94
344.576	81.94
344.804	95.94
345.031	112.94
345.259	126.94
345.487	100.94
345.714	103.94
345.942	107.94
346.17	104.94
346.397	93.94
346.625	91.94
346.853	100.94
347.08	91.94
347.308	96.94
347.535	100.94
347.763	106.94
347.99	103.94
348.218	112.94
348.445	102.94
348.673	124.94
348.9	108.94
349.128	91.94
349.355	104.94
349.583	95.94
349.81	99.94
350.037	103.94
350.265	100.94
350.492	97.94
350.72	96.94
350.947	112.94
351.174	104.94
351.402	113.94
351.629	115.94
351.856	96.94
352.083	109.94
352.311	121.94
352.538	119.94
352.765	132.94
352.992	127.94
353.22	115.94
353.447	99.94
353.674	103.94
353.901	98.94
354.128	104.94
354.355	103.94
354.583	95.94
354.81	97.94
355.037	103.94
355.264	101.94
355.491	91.94
355.718	86.94
355.945	100.94
356.172	83.94
356.399	97.94
356.626	69.94
356.853	94.94
357.08	98.94
357.307	91.94
357.534	90.94
357.761	81.94
357.988	96.94
358.215	95.94
358.441	94.94
358.668	92.94
358.895	88.94
359.122	82.94
359.349	87.94
359.576	100.94
359.802	112.94
360.029	159.94
360.256	151.94
360.483	124.94
360.709	97.94
360.936	93.94
361.163	95.94
361.39	88.94
361.616	95.94
361.843	92.94
362.07	100.94
362.296	105.94
362.523	99.94
362.749	95.94
362.976	103.94
363.203	92.94
363.429	92.94
363.656	90.94
363.882	95.94
364.109	100.94
364.335	92.94
364.562	103.94
364.788	108.94
365.015	88.94
365.241	100.94
365.468	109.94
365.694	130.94
365.92	105.94
366.147	86.94
366.373	91.94
366.599	103.94
366.826	105.94
367.052	96.94
367.278	91.94
367.505	87.94
367.731	73.94
367.957	105.94
368.184	102.94
368.41	113.94
368.636	122.94
368.862	131.94
369.089	110.94
369.315	102.94
369.541	106.94
369.767	86.94
369.993	94.94
370.219	102.94
370.445	97.94
370.672	92.94
370.898	91.94
371.124	100.94
371.35	83.94
371.576	92.94
371.802	83.94
372.028	83.94
372.254	95.94
372.48	100.94
372.706	85.94
372.932	83.94
373.158	79.94
373.384	99.94
373.61	83.94
373.835	92.94
374.061	103.94
374.287	109.94
374.513	99.94
374.739	86.94
374.965	82.94
375.191	99.94
375.416	99.94
375.642	108.94
375.868	98.94
376.094	85.94
376.319	86.94
376.545	93.94
376.771	72.94
376.997	88.94
377.222	92.94
377.448	96.94
377.674	92.94
377.899	100.94
378.125	99.94
378.35	105.94
378.576	84.94
378.802	77.94
379.027	97.94
379.253	87.94
379.478	84.94
379.704	80.94
379.929	91.94
380.155	84.94
380.38	101.94
380.606	91.94
380.831	102.94
381.057	103.94
381.282	105.94
381.507	96.94
381.733	101.94
381.958	105.94
382.184	93.94
382.409	95.94
382.634	88.94
382.86	99.94
383.085	100.94
383.31	88.94
383.535	93.94
383.761	104.94
383.986	98.94
384.211	97.94
384.436	116.94
384.662	99.94
384.887	112.94
385.112	109.94
385.337	117.94
385.562	107.94
385.787	107.94
386.013	129.94
386.238	131.94
386.463	121.94
386.688	116.94
386.913	79.94
387.138	114.94
387.363	101.94
387.588	100.94
387.813	109.94
388.038	114.94
388.263	125.94
388.488	113.94
388.713	86.94
388.938	104.94
389.163	101.94
389.387	88.94
389.612	99.94
389.837	84.94
390.062	97.94
390.287	82.94
390.512	94.94
390.736	105.94
390.961	91.94
391.186	102.94
391.411	94.94
391.636	104.94
391.86	83.94
392.085	100.94
392.31	85.94
392.534	83.94
392.759	101.94
392.984	85.94
393.208	96.94
393.433	87.94
393.658	83.94
393.882	94.94
394.107	95.94
394.331	78.94
394.556	90.94
394.78	89.94
395.005	85.94
395.229	96.94
395.454	88.94
395.678	75.94
395.903	93.94
396.127	91.94
396.352	94.94
396.576	95.94
396.801	86.94
397.025	81.94
397.249	72.94
397.474	100.94
397.698	84.94
397.922	93.94
398.147	91.94
398.371	93.94
398.595	84.94
398.82	92.94
399.044	82.94
399.268	97.94
399.492	84.94
399.717	92.94
399.941	82.94
400.165	101.94
400.389	104.94
400.613	90.94
400.837	81.94
401.062	94.94
401.286	83.94
401.51	94.94
401.734	93.94
401.958	104.94
402.182	150.94
402.406	206.94
402.63	162.94
402.854	114.94
403.078	95.94
403.302	93.94
403.526	106.94
403.75	104.94
403.974	96.94
404.198	82.94
404.422	77.94
404.645	93.94
404.869	99.94
405.093	118.94
405.317	169.94
405.541	165.94
405.765	131.94
405.988	141.94
406.212	222.94
406.436	308.94
406.66	226.94
406.883	126.94
407.107	111.94
407.331	125.94
407.555	117.94
407.778	120.94
408.002	95.94
408.226	93.94
408.449	80.94
408.673	82.94
408.896	87.94
409.12	96.94
409.344	90.94
409.567	82.94
409.791	104.94
410.014	96.94
410.238	96.94
410.461	96.94
410.685	98.94
410.908	106.94
411.132	112.94
411.355	103.94
411.578	92.94
411.802	93.94
412.025	98.94
412.249	104.94
412.472	116.94
412.695	167.94
412.919	123.94
413.142	118.94
413.365	91.94
413.589	96.94
413.812	99.94
414.035	105.94
414.258	102.94
414.482	100.94
414.705	99.94
414.928	94.94
415.151	95.94
415.374	105.94
415.597	95.94
415.821	80.94
416.044	100.94
416.267	92.94
416.49	96.94
416.713	87.94
416.936	93.94
417.159	93.94
417.382	100.94
417.605	131.94
417.828	139.94
418.051	119.94
418.274	94.94
418.497	93.94
418.72	84.94
418.943	101.94
419.166	92.94
419.389	74.94
419.611	101.94
419.834	85.94
420.057	91.94
420.28	102.94
420.503	93.94
420.726	99.94
420.948	98.94
421.171	128.94
421.394	103.94
421.617	101.94
421.839	112.94
422.062	101.94
422.285	98.94
422.507	98.94
422.73	115.94
422.953	95.94
423.175	95.94
423.398	103.94
423.621	66.94
423.843	85.94
424.066	91.94
424.288	91.94
424.511	81.94
424.733	128.94
424.956	113.94
425.178	103.94
425.401	91.94
425.623	115.94
425.846	104.94
426.068	100.94
426.291	97.94
426.513	108.94
426.735	88.94
426.958	118.94
427.18	124.94
427.402	176.94
427.625	269.94
427.847	278.94
428.069	228.94
428.292	135.94
428.514	96.94
428.736	102.94
428.958	103.94
429.181	102.94
429.403	84.94
429.625	88.94
429.847	111.94
430.069	120.94
430.292	100.94
430.514	96.94
430.736	78.94
430.958	93.94
431.18	97.94
431.402	85.94
431.624	102.94
431.846	80.94
432.068	89.94
432.29	81.94
432.512	90.94
432.734	80.94
432.956	87.94
433.178	89.94
433.4	101.94
433.622	87.94
433.844	94.94
434.066	94.94
434.287	91.94
434.509	104.94
434.731	94.94
434.953	94.94
435.175	95.94
435.397	105.94
435.618	116.94
435.84	103.94
436.062	143.94
436.284	127.94
436.505	112.94
436.727	100.94
436.949	91.94
437.17	94.94
437.392	101.94
437.614	93.94
437.835	132.94
438.057	155.94
438.278	149.94
438.5	111.94
438.721	150.94
438.943	103.94
439.165	100.94
439.386	103.94
439.608	97.94
439.829	105.94
440.05	131.94
440.272	176.94
440.493	105.94
440.715	91.94
440.936	90.94
441.158	105.94
441.379	101.94
441.6	100.94
441.822	103.94
442.043	107.94
442.264	125.94
442.486	107.94
442.707	113.94
442.928	136.94
443.149	196.94
443.371	174.94
443.592	146.94
443.813	131.94
444.034	126.94
444.255	100.94
444.476	97.94
444.698	87.94
444.919	95.94
445.14	135.94
445.361	125.94
445.582	143.94
445.803	173.94
446.024	171.94
446.245	164.94
446.466	125.94
446.687	95.94
446.908	96.94
447.129	104.94
447.35	92.94
447.571	101.94
447.792	96.94
448.013	98.94
448.234	107.94
448.455	110.94
448.675	117.94
448.896	129.94
449.117	94.94
449.338	108.94
449.559	143.94
449.779	156.94
450	86.94
450.221	88.94
450.442	88.94
450.662	94.94
450.883	129.94
451.104	146.94
451.324	101.94
451.545	101.94
451.766	81.94
451.986	68.94
452.207	93.94
452.428	106.94
452.648	115.94
452.869	153.94
453.089	143.94
453.31	144.94
453.53	105.94
453.751	92.94
453.971	116.94
454.192	144.94
454.412	106.94
454.633	98.94
454.853	99.94
455.073	95.94
455.294	108.94
455.514	120.94
455.734	89.94
455.955	95.94
456.175	83.94
456.395	87.94
456.616	94.94
456.836	90.94
457.056	98.94
457.276	101.94
457.497	85.94
457.717	80.94
457.937	93.94
458.157	99.94
458.377	96.94
458.598	127.94
458.818	220.94
459.038	257.94
459.258	156.94
459.478	100.94
459.698	80.94
459.918	99.94
460.138	98.94
460.358	78.94
460.578	91.94
460.798	99.94
461.018	86.94
461.238	87.94
461.458	93.94
461.678	79.94
461.898	92.94
462.118	73.94
462.338	70.94
462.558	102.94
462.777	95.94
462.997	115.94
463.217	133.94
463.437	108.94
463.657	95.94
463.876	88.94
464.096	89.94
464.316	113.94
464.536	97.94
464.755	98.94
464.975	132.94
465.195	264.94
465.414	274.94
465.634	119.94
465.854	94.94
466.073	87.94
466.293	100.94
466.512	93.94
466.732	93.94
466.951	92.94
467.171	89.94
467.391	137.94
467.61	206.94
467.829	377.94
468.049	1271.94
468.268	2008.94
468.488	412.94
468.707	150.94
468.927	117.94
469.146	100.94
469.365	100.94
469.585	97.94
469.804	135.94
470.023	118.94
470.243	127.94
470.462	124.94
470.681	164.94
470.901	122.94
471.12	127.94
471.339	131.94
471.558	156.94
471.777	235.94
471.997	540.94
472.216	2340.94
472.435	5630.94
472.654	1168.94
472.873	254.94
473.092	135.94
473.311	119.94
473.53	101.94
473.749	114.94
473.968	108.94
474.187	128.94
474.406	129.94
474.625	103.94
474.844	105.94
475.063	88.94
475.282	94.94
475.501	105.94
475.72	117.94
475.939	99.94
476.158	96.94
476.377	96.94
476.596	94.94
476.814	100.94
477.033	113.94
477.252	120.94
477.471	102.94
477.69	106.94
477.908	104.94
478.127	99.94
478.346	108.94
478.564	109.94
478.783	118.94
479.002	125.94
479.22	132.94
479.439	141.94
479.658	169.94
479.876	144.94
480.095	145.94
480.313	193.94
480.532	237.94
480.751	500.94
480.969	1980.94
481.188	9043.94
481.406	5121.94
481.624	661.94
481.843	193.94
482.061	146.94
482.28	125.94
482.498	109.94
482.717	101.94
482.935	104.94
483.153	87.94
483.372	113.94
483.59	100.94
483.808	95.94
484.027	98.94
484.245	105.94
484.463	112.94
484.681	104.94
484.9	114.94
485.118	105.94
485.336	119.94
485.554	105.94
485.772	112.94
485.99	101.94
486.209	124.94
486.427	120.94
486.645	135.94
486.863	141.94
487.081	102.94
487.299	109.94
487.517	108.94
487.735	96.94
487.953	104.94
488.171	105.94
488.389	109.94
488.607	114.94
488.825	109.94
489.043	100.94
489.261	99.94
489.479	100.94
489.696	92.94
489.914	88.94
490.132	67.94
490.35	97.94
490.568	90.94
490.786	76.94
491.003	106.94
491.221	88.94
491.439	117.94
491.657	93.94
491.874	95.94
492.092	85.94
492.31	98.94
492.527	112.94
492.745	124.94
492.963	104.94
493.18	100.94
493.398	103.94
493.615	103.94
493.833	91.94
494.05	104.94
494.268	97.94
494.485	87.94
494.703	88.94
494.92	95.94
495.138	92.94
495.355	93.94
495.573	102.94
495.79	104.94
496.008	103.94
496.225	101.94
496.442	87.94
496.66	99.94
496.877	97.94
497.094	106.94
497.312	90.94
497.529	100.94
497.746	90.94
497.963	98.94
498.181	104.94
498.398	109.94
498.615	119.94
498.832	104.94
499.049	88.94
499.267	98.94
499.484	78.94
499.701	104.94
499.918	108.94
500.135	81.94
500.352	90.94
500.569	104.94
500.786	111.94
501.003	100.94
501.22	94.94
501.437	109.94
501.654	103.94
501.871	128.94
502.088	99.94
502.305	82.94
502.522	101.94
502.739	98.94
502.956	98.94
503.172	99.94
503.389	100.94
503.606	126.94
503.823	110.94
504.04	98.94
504.256	97.94
504.473	91.94
504.69	88.94
504.907	91.94
505.123	87.94
505.34	87.94
505.557	100.94
505.773	96.94
505.99	99.94
506.207	97.94
506.423	88.94
506.64	87.94
506.856	88.94
507.073	84.94
507.289	90.94
507.506	105.94
507.722	129.94
507.939	149.94
508.155	114.94
508.372	109.94
508.588	107.94
508.805	104.94
509.021	105.94
509.238	94.94
509.454	112.94
509.67	127.94
509.887	121.94
510.103	157.94
510.319	258.94
510.536	1030.94
510.752	3720.94
510.968	971.94
