Data from Circ_1988_H10_HRD10591_00064.txt Node
Date: Wed Jan 03 12:05:47 EST 2024
User: Yrep
Spectrometer: HR+D1059
Trigger mode: 1
Integration Time (sec): 1.000000E-1
Scans to average: 1
Electric dark correction enabled: true
Nonlinearity correction enabled: false
Boxcar width: 0
XAxis mode: Wavelengths
Number of Pixels in Spectrum: 2048
>>>>>Begin Spectral Data<<<<<
223.165	-19.19
223.4	-19.19
223.635	-19.19
223.869	-25.19
224.104	-23.19
224.338	-24.19
224.573	-4.19
224.808	-9.19
225.042	-4.19
225.277	-8.19
225.511	1.81
225.746	-1.19
225.98	6.81
226.215	12.81
226.449	12.81
226.683	17.81
226.918	24.81
227.152	41.81
227.387	34.81
227.621	35.81
227.856	44.81
228.09	23.81
228.324	51.81
228.559	54.81
228.793	59.81
229.027	70.81
229.262	83.81
229.496	80.81
229.73	98.81
229.964	96.81
230.199	92.81
230.433	83.81
230.667	62.81
230.901	89.81
231.136	78.81
231.37	78.81
231.604	75.81
231.838	107.81
232.072	88.81
232.306	95.81
232.541	81.81
232.775	84.81
233.009	84.81
233.243	82.81
233.477	88.81
233.711	75.81
233.945	72.81
234.179	86.81
234.413	72.81
234.647	85.81
234.881	81.81
235.115	84.81
235.349	78.81
235.583	89.81
235.817	82.81
236.051	84.81
236.285	87.81
236.519	83.81
236.753	97.81
236.987	89.81
237.221	96.81
237.455	98.81
237.689	91.81
237.922	67.81
238.156	86.81
238.39	91.81
238.624	84.81
238.858	86.81
239.091	89.81
239.325	81.81
239.559	88.81
239.793	98.81
240.027	101.81
240.26	84.81
240.494	99.81
240.728	78.81
240.961	80.81
241.195	83.81
241.429	104.81
241.662	84.81
241.896	83.81
242.13	78.81
242.363	83.81
242.597	82.81
242.83	94.81
243.064	82.81
243.298	84.81
243.531	74.81
243.765	90.81
243.998	88.81
244.232	93.81
244.465	95.81
244.699	81.81
244.932	73.81
245.166	88.81
245.399	82.81
245.633	93.81
245.866	79.81
246.099	65.81
246.333	80.81
246.566	82.81
246.8	75.81
247.033	80.81
247.266	102.81
247.5	84.81
247.733	96.81
247.966	99.81
248.2	82.81
248.433	91.81
248.666	75.81
248.899	96.81
249.133	87.81
249.366	108.81
249.599	126.81
249.832	95.81
250.066	94.81
250.299	89.81
250.532	114.81
250.765	96.81
250.998	83.81
251.231	90.81
251.465	84.81
251.698	105.81
251.931	99.81
252.164	91.81
252.397	89.81
252.63	96.81
252.863	86.81
253.096	64.81
253.329	84.81
253.562	78.81
253.795	84.81
254.028	93.81
254.261	96.81
254.494	86.81
254.727	83.81
254.96	71.81
255.193	96.81
255.426	86.81
255.659	96.81
255.892	123.81
256.124	146.81
256.357	102.81
256.59	87.81
256.823	79.81
257.056	106.81
257.289	103.81
257.521	98.81
257.754	87.81
257.987	97.81
258.22	111.81
258.452	121.81
258.685	118.81
258.918	99.81
259.151	86.81
259.383	94.81
259.616	101.81
259.849	91.81
260.081	92.81
260.314	102.81
260.547	105.81
260.779	122.81
261.012	152.81
261.244	146.81
261.477	138.81
261.71	112.81
261.942	132.81
262.175	149.81
262.407	95.81
262.64	92.81
262.872	87.81
263.105	90.81
263.337	90.81
263.57	94.81
263.802	89.81
264.035	97.81
264.267	82.81
264.499	90.81
264.732	87.81
264.964	94.81
265.197	87.81
265.429	102.81
265.661	71.81
265.894	90.81
266.126	96.81
266.358	95.81
266.591	64.81
266.823	92.81
267.055	97.81
267.287	84.81
267.52	89.81
267.752	94.81
267.984	99.81
268.216	89.81
268.448	108.81
268.681	82.81
268.913	108.81
269.145	82.81
269.377	79.81
269.609	84.81
269.841	83.81
270.073	82.81
270.306	102.81
270.538	93.81
270.77	93.81
271.002	113.81
271.234	104.81
271.466	110.81
271.698	89.81
271.93	78.81
272.162	92.81
272.394	103.81
272.626	92.81
272.858	82.81
273.09	91.81
273.322	108.81
273.553	104.81
273.785	94.81
274.017	96.81
274.249	88.81
274.481	92.81
274.713	100.81
274.945	89.81
275.176	117.81
275.408	121.81
275.64	161.81
275.872	199.81
276.104	144.81
276.335	132.81
276.567	135.81
276.799	193.81
277.031	288.81
277.262	369.81
277.494	250.81
277.726	146.81
277.957	114.81
278.189	106.81
278.421	106.81
278.652	103.81
278.884	82.81
279.115	105.81
279.347	123.81
279.579	137.81
279.81	207.81
280.042	384.81
280.273	566.81
280.505	351.81
280.736	158.81
280.968	108.81
281.199	88.81
281.431	102.81
281.662	101.81
281.894	104.81
282.125	116.81
282.356	131.81
282.588	194.81
282.819	149.81
283.051	114.81
283.282	97.81
283.513	91.81
283.745	97.81
283.976	89.81
284.207	83.81
284.439	107.81
284.67	82.81
284.901	86.81
285.132	86.81
285.364	89.81
285.595	102.81
285.826	92.81
286.057	91.81
286.288	79.81
286.52	106.81
286.751	97.81
286.982	85.81
287.213	96.81
287.444	91.81
287.675	106.81
287.906	103.81
288.138	87.81
288.369	98.81
288.6	88.81
288.831	80.81
289.062	96.81
289.293	88.81
289.524	91.81
289.755	102.81
289.986	80.81
290.217	90.81
290.448	105.81
290.679	103.81
290.91	94.81
291.141	94.81
291.371	90.81
291.602	110.81
291.833	87.81
292.064	99.81
292.295	93.81
292.526	89.81
292.757	95.81
292.987	88.81
293.218	88.81
293.449	94.81
293.68	96.81
293.91	87.81
294.141	100.81
294.372	97.81
294.603	87.81
294.833	90.81
295.064	88.81
295.295	90.81
295.525	100.81
295.756	115.81
295.987	126.81
296.217	166.81
296.448	164.81
296.679	103.81
296.909	112.81
297.14	84.81
297.37	95.81
297.601	103.81
297.831	104.81
298.062	83.81
298.292	103.81
298.523	102.81
298.753	98.81
298.984	102.81
299.214	103.81
299.445	101.81
299.675	111.81
299.905	107.81
300.136	103.81
300.366	114.81
300.597	90.81
300.827	97.81
301.057	116.81
301.288	121.81
301.518	101.81
301.748	106.81
301.979	127.81
302.209	123.81
302.439	118.81
302.669	110.81
302.9	100.81
303.13	106.81
303.36	130.81
303.59	188.81
303.82	206.81
304.051	116.81
304.281	112.81
304.511	110.81
304.741	96.81
304.971	82.81
305.201	104.81
305.431	92.81
305.661	103.81
305.891	98.81
306.121	111.81
306.352	112.81
306.582	123.81
306.812	134.81
307.042	176.81
307.272	262.81
307.502	328.81
307.731	258.81
307.961	175.81
308.191	102.81
308.421	96.81
308.651	82.81
308.881	105.81
309.111	97.81
309.341	98.81
309.571	119.81
309.8	106.81
310.03	121.81
310.26	104.81
310.49	107.81
310.72	117.81
310.949	122.81
311.179	111.81
311.409	113.81
311.639	107.81
311.868	103.81
312.098	100.81
312.328	112.81
312.557	127.81
312.787	126.81
313.017	104.81
313.246	104.81
313.476	94.81
313.706	107.81
313.935	124.81
314.165	117.81
314.394	114.81
314.624	102.81
314.853	118.81
315.083	120.81
315.312	90.81
315.542	83.81
315.771	106.81
316.001	107.81
316.23	94.81
316.46	103.81
316.689	102.81
316.919	100.81
317.148	121.81
317.377	113.81
317.607	95.81
317.836	98.81
318.065	85.81
318.295	106.81
318.524	102.81
318.753	96.81
318.983	95.81
319.212	112.81
319.441	122.81
319.67	116.81
319.9	92.81
320.129	99.81
320.358	93.81
320.587	96.81
320.816	110.81
321.046	124.81
321.275	98.81
321.504	98.81
321.733	86.81
321.962	89.81
322.191	130.81
322.42	123.81
322.649	119.81
322.878	122.81
323.108	123.81
323.337	144.81
323.566	168.81
323.795	187.81
324.024	225.81
324.253	433.81
324.482	890.81
324.71	1803.81
324.939	2366.81
325.168	903.81
325.397	284.81
325.626	162.81
325.855	136.81
326.084	146.81
326.313	134.81
326.542	168.81
326.77	237.81
326.999	455.81
327.228	922.81
327.457	1621.81
327.686	1394.81
327.914	737.81
328.143	982.81
328.372	1420.81
328.6	717.81
328.829	286.81
329.058	251.81
329.287	255.81
329.515	277.81
329.744	452.81
329.972	1020.81
330.201	2258.81
330.43	3257.81
330.658	1276.81
330.887	447.81
331.115	230.81
331.344	147.81
331.572	163.81
331.801	145.81
332.03	143.81
332.258	129.81
332.486	116.81
332.715	118.81
332.943	144.81
333.172	166.81
333.4	167.81
333.629	244.81
333.857	364.81
334.085	841.81
334.314	1954.81
334.542	3977.81
334.771	3620.81
334.999	842.81
335.227	282.81
335.455	168.81
335.684	166.81
335.912	135.81
336.14	137.81
336.369	129.81
336.597	136.81
336.825	111.81
337.053	108.81
337.281	111.81
337.51	91.81
337.738	110.81
337.966	107.81
338.194	120.81
338.422	108.81
338.65	115.81
338.878	107.81
339.106	102.81
339.334	97.81
339.562	104.81
339.79	101.81
340.018	96.81
340.246	99.81
340.474	114.81
340.702	122.81
340.93	94.81
341.158	110.81
341.386	101.81
341.614	103.81
341.842	97.81
342.07	94.81
342.298	112.81
342.526	87.81
342.754	101.81
342.981	93.81
343.209	85.81
343.437	103.81
343.665	94.81
343.893	92.81
344.12	101.81
344.348	96.81
344.576	89.81
344.804	100.81
345.031	100.81
345.259	129.81
345.487	101.81
345.714	107.81
345.942	103.81
346.17	99.81
346.397	97.81
346.625	112.81
346.853	100.81
347.08	98.81
347.308	100.81
347.535	97.81
347.763	110.81
347.99	110.81
348.218	116.81
348.445	123.81
348.673	109.81
348.9	114.81
349.128	100.81
349.355	102.81
349.583	95.81
349.81	102.81
350.037	100.81
350.265	102.81
350.492	98.81
350.72	99.81
350.947	100.81
351.174	127.81
351.402	143.81
351.629	114.81
351.856	107.81
352.083	132.81
352.311	131.81
352.538	146.81
352.765	131.81
352.992	127.81
353.22	123.81
353.447	112.81
353.674	80.81
353.901	103.81
354.128	106.81
354.355	103.81
354.583	105.81
354.81	97.81
355.037	98.81
355.264	90.81
355.491	95.81
355.718	86.81
355.945	100.81
356.172	103.81
356.399	97.81
356.626	90.81
356.853	98.81
357.08	99.81
357.307	94.81
357.534	95.81
357.761	73.81
357.988	101.81
358.215	90.81
358.441	114.81
358.668	98.81
358.895	104.81
359.122	86.81
359.349	104.81
359.576	92.81
359.802	120.81
360.029	151.81
360.256	157.81
360.483	121.81
360.709	84.81
360.936	90.81
361.163	107.81
361.39	110.81
361.616	116.81
361.843	99.81
362.07	107.81
362.296	106.81
362.523	99.81
362.749	94.81
362.976	96.81
363.203	95.81
363.429	92.81
363.656	85.81
363.882	94.81
364.109	103.81
364.335	110.81
364.562	101.81
364.788	104.81
365.015	111.81
365.241	99.81
365.468	110.81
365.694	110.81
365.92	99.81
366.147	94.81
366.373	93.81
366.599	104.81
366.826	93.81
367.052	90.81
367.278	106.81
367.505	99.81
367.731	84.81
367.957	110.81
368.184	108.81
368.41	107.81
368.636	127.81
368.862	126.81
369.089	137.81
369.315	116.81
369.541	115.81
369.767	102.81
369.993	94.81
370.219	101.81
370.445	105.81
370.672	74.81
370.898	94.81
371.124	94.81
371.35	91.81
371.576	95.81
371.802	88.81
372.028	83.81
372.254	87.81
372.48	84.81
372.706	96.81
372.932	80.81
373.158	84.81
373.384	99.81
373.61	91.81
373.835	99.81
374.061	90.81
374.287	93.81
374.513	100.81
374.739	107.81
374.965	89.81
375.191	99.81
375.416	96.81
375.642	87.81
375.868	91.81
376.094	96.81
376.319	100.81
376.545	91.81
376.771	83.81
376.997	91.81
377.222	96.81
377.448	90.81
377.674	95.81
377.899	89.81
378.125	76.81
378.35	92.81
378.576	92.81
378.802	95.81
379.027	96.81
379.253	82.81
379.478	82.81
379.704	93.81
379.929	90.81
380.155	94.81
380.38	90.81
380.606	116.81
380.831	109.81
381.057	100.81
381.282	101.81
381.507	97.81
381.733	95.81
381.958	94.81
382.184	106.81
382.409	113.81
382.634	116.81
382.86	113.81
383.085	101.81
383.31	95.81
383.535	104.81
383.761	95.81
383.986	110.81
384.211	98.81
384.436	101.81
384.662	111.81
384.887	103.81
385.112	104.81
385.337	104.81
385.562	108.81
385.787	102.81
386.013	124.81
386.238	134.81
386.463	122.81
386.688	102.81
386.913	112.81
387.138	103.81
387.363	112.81
387.588	98.81
387.813	106.81
388.038	98.81
388.263	116.81
388.488	120.81
388.713	105.81
388.938	83.81
389.163	105.81
389.387	98.81
389.612	91.81
389.837	86.81
390.062	82.81
390.287	89.81
390.512	85.81
390.736	97.81
390.961	92.81
391.186	87.81
391.411	102.81
391.636	80.81
391.86	91.81
392.085	88.81
392.31	91.81
392.534	85.81
392.759	93.81
392.984	96.81
393.208	92.81
393.433	105.81
393.658	82.81
393.882	76.81
394.107	92.81
394.331	89.81
394.556	89.81
394.78	94.81
395.005	90.81
395.229	82.81
395.454	73.81
395.678	98.81
395.903	81.81
396.127	90.81
396.352	105.81
396.576	83.81
396.801	95.81
397.025	90.81
397.249	90.81
397.474	86.81
397.698	101.81
397.922	92.81
398.147	86.81
398.371	87.81
398.595	104.81
398.82	91.81
399.044	85.81
399.268	85.81
399.492	98.81
399.717	92.81
399.941	99.81
400.165	100.81
400.389	90.81
400.613	89.81
400.837	79.81
401.062	98.81
401.286	95.81
401.51	94.81
401.734	106.81
401.958	113.81
402.182	165.81
402.406	201.81
402.63	164.81
402.854	115.81
403.078	90.81
403.302	95.81
403.526	82.81
403.75	96.81
403.974	108.81
404.198	85.81
404.422	86.81
404.645	99.81
404.869	110.81
405.093	126.81
405.317	168.81
405.541	158.81
405.765	143.81
405.988	166.81
406.212	233.81
406.436	309.81
406.66	212.81
406.883	140.81
407.107	113.81
407.331	111.81
407.555	103.81
407.778	103.81
408.002	105.81
408.226	83.81
408.449	103.81
408.673	104.81
408.896	102.81
409.12	103.81
409.344	99.81
409.567	99.81
409.791	91.81
410.014	87.81
410.238	92.81
410.461	97.81
410.685	79.81
410.908	112.81
411.132	105.81
411.355	104.81
411.578	90.81
411.802	93.81
412.025	95.81
412.249	107.81
412.472	131.81
412.695	173.81
412.919	126.81
413.142	106.81
413.365	102.81
413.589	100.81
413.812	103.81
414.035	106.81
414.258	108.81
414.482	116.81
414.705	104.81
414.928	90.81
415.151	73.81
415.374	102.81
415.597	100.81
415.821	100.81
416.044	115.81
416.267	94.81
416.49	89.81
416.713	94.81
416.936	111.81
417.159	107.81
417.382	130.81
417.605	130.81
417.828	142.81
418.051	117.81
418.274	109.81
418.497	100.81
418.72	100.81
418.943	88.81
419.166	85.81
419.389	94.81
419.611	105.81
419.834	90.81
420.057	99.81
420.28	111.81
420.503	104.81
420.726	99.81
420.948	104.81
421.171	101.81
421.394	97.81
421.617	100.81
421.839	97.81
422.062	100.81
422.285	104.81
422.507	122.81
422.73	115.81
422.953	92.81
423.175	98.81
423.398	106.81
423.621	104.81
423.843	95.81
424.066	89.81
424.288	88.81
424.511	99.81
424.733	106.81
424.956	130.81
425.178	99.81
425.401	122.81
425.623	123.81
425.846	100.81
426.068	106.81
426.291	110.81
426.513	94.81
426.735	102.81
426.958	103.81
427.18	123.81
427.402	186.81
427.625	282.81
427.847	276.81
428.069	242.81
428.292	153.81
428.514	106.81
428.736	96.81
428.958	99.81
429.181	97.81
429.403	85.81
429.625	87.81
429.847	94.81
430.069	110.81
430.292	107.81
430.514	108.81
430.736	83.81
430.958	98.81
431.18	95.81
431.402	90.81
431.624	99.81
431.846	102.81
432.068	86.81
432.29	90.81
432.512	95.81
432.734	90.81
432.956	94.81
433.178	105.81
433.4	111.81
433.622	98.81
433.844	94.81
434.066	98.81
434.287	97.81
434.509	104.81
434.731	108.81
434.953	99.81
435.175	110.81
435.397	87.81
435.618	105.81
435.84	106.81
436.062	135.81
436.284	126.81
436.505	96.81
436.727	118.81
436.949	101.81
437.17	99.81
437.392	95.81
437.614	88.81
437.835	130.81
438.057	158.81
438.278	129.81
438.5	133.81
438.721	156.81
438.943	106.81
439.165	91.81
439.386	92.81
439.608	92.81
439.829	114.81
440.05	158.81
440.272	200.81
440.493	124.81
440.715	105.81
440.936	90.81
441.158	110.81
441.379	84.81
441.6	111.81
441.822	117.81
442.043	103.81
442.264	113.81
442.486	112.81
442.707	119.81
442.928	129.81
443.149	166.81
443.371	190.81
443.592	148.81
443.813	131.81
444.034	132.81
444.255	100.81
444.476	77.81
444.698	101.81
444.919	88.81
445.14	146.81
445.361	126.81
445.582	139.81
445.803	192.81
446.024	197.81
446.245	178.81
446.466	137.81
446.687	100.81
446.908	92.81
447.129	111.81
447.35	94.81
447.571	95.81
447.792	101.81
448.013	111.81
448.234	123.81
448.455	108.81
448.675	138.81
448.896	135.81
449.117	101.81
449.338	128.81
449.559	152.81
449.779	151.81
450	97.81
450.221	87.81
450.442	101.81
450.662	115.81
450.883	132.81
451.104	135.81
451.324	102.81
451.545	92.81
451.766	106.81
451.986	82.81
452.207	105.81
452.428	104.81
452.648	105.81
452.869	145.81
453.089	134.81
453.31	155.81
453.53	97.81
453.751	107.81
453.971	122.81
454.192	159.81
454.412	99.81
454.633	89.81
454.853	85.81
455.073	91.81
455.294	102.81
455.514	119.81
455.734	95.81
455.955	100.81
456.175	71.81
456.395	81.81
456.616	81.81
456.836	97.81
457.056	104.81
457.276	84.81
457.497	83.81
457.717	89.81
457.937	88.81
458.157	100.81
458.377	102.81
458.598	129.81
458.818	219.81
459.038	245.81
459.258	161.81
459.478	107.81
459.698	93.81
459.918	100.81
460.138	87.81
460.358	88.81
460.578	96.81
460.798	106.81
461.018	99.81
461.238	97.81
461.458	98.81
461.678	97.81
461.898	110.81
462.118	89.81
462.338	96.81
462.558	103.81
462.777	108.81
462.997	124.81
463.217	158.81
463.437	131.81
463.657	102.81
463.876	103.81
464.096	86.81
464.316	102.81
464.536	106.81
464.755	112.81
464.975	135.81
465.195	250.81
465.414	264.81
465.634	116.81
465.854	104.81
466.073	109.81
466.293	101.81
466.512	102.81
466.732	111.81
466.951	126.81
467.171	110.81
467.391	133.81
467.61	187.81
467.829	379.81
468.049	1333.81
468.268	2047.81
468.488	436.81
468.707	142.81
468.927	97.81
469.146	112.81
469.365	93.81
469.585	106.81
469.804	118.81
470.023	130.81
470.243	123.81
470.462	139.81
470.681	172.81
470.901	121.81
471.12	114.81
471.339	130.81
471.558	160.81
471.777	233.81
471.997	560.81
472.216	2462.81
472.435	5753.81
472.654	1206.81
472.873	248.81
473.092	151.81
473.311	123.81
473.53	97.81
473.749	102.81
473.968	114.81
474.187	135.81
474.406	115.81
474.625	98.81
474.844	101.81
475.063	106.81
475.282	92.81
475.501	90.81
475.72	113.81
475.939	89.81
476.158	83.81
476.377	80.81
476.596	104.81
476.814	131.81
477.033	104.81
477.252	105.81
477.471	105.81
477.69	97.81
477.908	110.81
478.127	102.81
478.346	100.81
478.564	123.81
478.783	115.81
479.002	136.81
479.22	112.81
479.439	145.81
479.658	148.81
479.876	162.81
480.095	143.81
480.313	177.81
480.532	245.81
480.751	522.81
480.969	2074.81
481.188	9238.81
481.406	5154.81
481.624	666.81
481.843	212.81
482.061	151.81
482.28	132.81
482.498	118.81
482.717	108.81
482.935	100.81
483.153	104.81
483.372	102.81
483.59	113.81
483.808	102.81
484.027	98.81
484.245	116.81
484.463	112.81
484.681	107.81
484.9	78.81
485.118	99.81
485.336	99.81
485.554	117.81
485.772	122.81
485.99	107.81
486.209	128.81
486.427	125.81
486.645	122.81
486.863	128.81
487.081	119.81
487.299	106.81
487.517	96.81
487.735	114.81
487.953	86.81
488.171	107.81
488.389	109.81
488.607	115.81
488.825	94.81
489.043	101.81
489.261	116.81
489.479	87.81
489.696	91.81
489.914	97.81
490.132	105.81
490.35	86.81
490.568	91.81
490.786	88.81
491.003	89.81
491.221	98.81
491.439	119.81
491.657	106.81
491.874	105.81
492.092	104.81
492.31	107.81
492.527	105.81
492.745	120.81
492.963	97.81
493.18	90.81
493.398	106.81
493.615	112.81
493.833	105.81
494.05	106.81
494.268	78.81
494.485	86.81
494.703	107.81
494.92	104.81
495.138	89.81
495.355	86.81
495.573	96.81
495.79	92.81
496.008	103.81
496.225	108.81
496.442	95.81
496.66	86.81
496.877	102.81
497.094	106.81
497.312	94.81
497.529	98.81
497.746	99.81
497.963	98.81
498.181	85.81
498.398	108.81
498.615	121.81
498.832	123.81
499.049	101.81
499.267	99.81
499.484	102.81
499.701	105.81
499.918	105.81
500.135	103.81
500.352	100.81
500.569	130.81
500.786	130.81
501.003	104.81
501.22	92.81
501.437	101.81
501.654	107.81
501.871	120.81
502.088	103.81
502.305	102.81
502.522	99.81
502.739	110.81
502.956	93.81
503.172	104.81
503.389	112.81
503.606	156.81
503.823	106.81
504.04	106.81
504.256	108.81
504.473	93.81
504.69	92.81
504.907	99.81
505.123	98.81
505.34	104.81
505.557	94.81
505.773	91.81
505.99	93.81
506.207	95.81
506.423	79.81
506.64	103.81
506.856	106.81
507.073	78.81
507.289	97.81
507.506	108.81
507.722	137.81
507.939	148.81
508.155	96.81
508.372	95.81
508.588	100.81
508.805	93.81
509.021	105.81
509.238	106.81
509.454	107.81
509.67	105.81
509.887	114.81
