Data from Circ_1988_H10_HRD10591_00069.txt Node
Date: Wed Jan 03 12:05:48 EST 2024
User: Yrep
Spectrometer: HR+D1059
Trigger mode: 1
Integration Time (sec): 1.000000E-1
Scans to average: 1
Electric dark correction enabled: true
Nonlinearity correction enabled: false
Boxcar width: 0
XAxis mode: Wavelengths
Number of Pixels in Spectrum: 2048
>>>>>Begin Spectral Data<<<<<
223.165	-17.75
223.4	-17.75
223.635	-17.75
223.869	-15.75
224.104	-19.75
224.338	-17.75
224.573	-21.75
224.808	-6.75
225.042	-8.75
225.277	-22.75
225.511	5.25
225.746	5.25
225.98	1.25
226.215	9.25
226.449	15.25
226.683	27.25
226.918	31.25
227.152	36.25
227.387	36.25
227.621	34.25
227.856	44.25
228.09	52.25
228.324	66.25
228.559	67.25
228.793	57.25
229.027	67.25
229.262	88.25
229.496	88.25
229.73	91.25
229.964	89.25
230.199	82.25
230.433	87.25
230.667	98.25
230.901	90.25
231.136	76.25
231.37	76.25
231.604	97.25
231.838	88.25
232.072	74.25
232.306	77.25
232.541	88.25
232.775	82.25
233.009	84.25
233.243	86.25
233.477	80.25
233.711	76.25
233.945	77.25
234.179	81.25
234.413	88.25
234.647	92.25
234.881	81.25
235.115	105.25
235.349	90.25
235.583	85.25
235.817	85.25
236.051	83.25
236.285	79.25
236.519	79.25
236.753	82.25
236.987	87.25
237.221	93.25
237.455	108.25
237.689	81.25
237.922	89.25
238.156	91.25
238.39	74.25
238.624	67.25
238.858	85.25
239.091	86.25
239.325	82.25
239.559	98.25
239.793	89.25
240.027	86.25
240.26	76.25
240.494	87.25
240.728	79.25
240.961	77.25
241.195	90.25
241.429	78.25
241.662	84.25
241.896	74.25
242.13	84.25
242.363	91.25
242.597	80.25
242.83	90.25
243.064	84.25
243.298	89.25
243.531	73.25
243.765	83.25
243.998	91.25
244.232	65.25
244.465	115.25
244.699	103.25
244.932	77.25
245.166	84.25
245.399	95.25
245.633	83.25
245.866	67.25
246.099	82.25
246.333	89.25
246.566	80.25
246.8	85.25
247.033	83.25
247.266	80.25
247.5	88.25
247.733	95.25
247.966	90.25
248.2	83.25
248.433	79.25
248.666	80.25
248.899	91.25
249.133	106.25
249.366	129.25
249.599	126.25
249.832	104.25
250.066	96.25
250.299	101.25
250.532	104.25
250.765	93.25
250.998	83.25
251.231	82.25
251.465	87.25
251.698	98.25
251.931	92.25
252.164	99.25
252.397	97.25
252.63	93.25
252.863	81.25
253.096	89.25
253.329	93.25
253.562	85.25
253.795	102.25
254.028	80.25
254.261	96.25
254.494	97.25
254.727	90.25
254.96	89.25
255.193	83.25
255.426	87.25
255.659	93.25
255.892	120.25
256.124	126.25
256.357	109.25
256.59	89.25
256.823	89.25
257.056	91.25
257.289	109.25
257.521	85.25
257.754	108.25
257.987	105.25
258.22	107.25
258.452	133.25
258.685	119.25
258.918	85.25
259.151	99.25
259.383	97.25
259.616	91.25
259.849	96.25
260.081	115.25
260.314	102.25
260.547	114.25
260.779	117.25
261.012	145.25
261.244	154.25
261.477	124.25
261.71	121.25
261.942	162.25
262.175	154.25
262.407	113.25
262.64	85.25
262.872	89.25
263.105	91.25
263.337	100.25
263.57	100.25
263.802	103.25
264.035	100.25
264.267	82.25
264.499	91.25
264.732	75.25
264.964	82.25
265.197	83.25
265.429	86.25
265.661	93.25
265.894	96.25
266.126	83.25
266.358	87.25
266.591	92.25
266.823	93.25
267.055	85.25
267.287	85.25
267.52	102.25
267.752	81.25
267.984	85.25
268.216	99.25
268.448	101.25
268.681	88.25
268.913	95.25
269.145	80.25
269.377	95.25
269.609	83.25
269.841	93.25
270.073	81.25
270.306	89.25
270.538	96.25
270.77	93.25
271.002	87.25
271.234	85.25
271.466	112.25
271.698	93.25
271.93	102.25
272.162	103.25
272.394	96.25
272.626	95.25
272.858	98.25
273.09	93.25
273.322	103.25
273.553	90.25
273.785	86.25
274.017	97.25
274.249	95.25
274.481	85.25
274.713	103.25
274.945	96.25
275.176	96.25
275.408	121.25
275.64	155.25
275.872	188.25
276.104	143.25
276.335	119.25
276.567	125.25
276.799	183.25
277.031	273.25
277.262	367.25
277.494	251.25
277.726	146.25
277.957	108.25
278.189	107.25
278.421	108.25
278.652	110.25
278.884	105.25
279.115	108.25
279.347	113.25
279.579	130.25
279.81	208.25
280.042	377.25
280.273	538.25
280.505	325.25
280.736	167.25
280.968	117.25
281.199	107.25
281.431	91.25
281.662	90.25
281.894	99.25
282.125	105.25
282.356	145.25
282.588	193.25
282.819	135.25
283.051	94.25
283.282	96.25
283.513	92.25
283.745	97.25
283.976	90.25
284.207	88.25
284.439	99.25
284.67	87.25
284.901	94.25
285.132	79.25
285.364	80.25
285.595	91.25
285.826	95.25
286.057	95.25
286.288	96.25
286.52	84.25
286.751	100.25
286.982	96.25
287.213	102.25
287.444	99.25
287.675	105.25
287.906	103.25
288.138	88.25
288.369	100.25
288.6	104.25
288.831	92.25
289.062	104.25
289.293	94.25
289.524	93.25
289.755	97.25
289.986	94.25
290.217	96.25
290.448	92.25
290.679	96.25
290.91	89.25
291.141	87.25
291.371	97.25
291.602	86.25
291.833	85.25
292.064	90.25
292.295	87.25
292.526	108.25
292.757	112.25
292.987	95.25
293.218	101.25
293.449	92.25
293.68	108.25
293.91	83.25
294.141	94.25
294.372	89.25
294.603	106.25
294.833	87.25
295.064	81.25
295.295	94.25
295.525	103.25
295.756	111.25
295.987	129.25
296.217	173.25
296.448	162.25
296.679	120.25
296.909	95.25
297.14	91.25
297.37	93.25
297.601	92.25
297.831	110.25
298.062	101.25
298.292	91.25
298.523	80.25
298.753	101.25
298.984	88.25
299.214	96.25
299.445	87.25
299.675	113.25
299.905	106.25
300.136	126.25
300.366	88.25
300.597	96.25
300.827	110.25
301.057	115.25
301.288	125.25
301.518	109.25
301.748	99.25
301.979	150.25
302.209	115.25
302.439	105.25
302.669	117.25
302.9	108.25
303.13	106.25
303.36	131.25
303.59	155.25
303.82	193.25
304.051	116.25
304.281	114.25
304.511	104.25
304.741	95.25
304.971	105.25
305.201	104.25
305.431	109.25
305.661	105.25
305.891	108.25
306.121	112.25
306.352	133.25
306.582	119.25
306.812	132.25
307.042	172.25
307.272	253.25
307.502	289.25
307.731	262.25
307.961	157.25
308.191	101.25
308.421	119.25
308.651	104.25
308.881	120.25
309.111	106.25
309.341	115.25
309.571	108.25
309.8	127.25
310.03	124.25
310.26	113.25
310.49	104.25
310.72	99.25
310.949	135.25
311.179	114.25
311.409	108.25
311.639	106.25
311.868	95.25
312.098	106.25
312.328	102.25
312.557	121.25
312.787	127.25
313.017	120.25
313.246	112.25
313.476	107.25
313.706	106.25
313.935	103.25
314.165	116.25
314.394	104.25
314.624	111.25
314.853	106.25
315.083	101.25
315.312	100.25
315.542	95.25
315.771	98.25
316.001	103.25
316.23	100.25
316.46	83.25
316.689	85.25
316.919	91.25
317.148	114.25
317.377	106.25
317.607	96.25
317.836	107.25
318.065	101.25
318.295	106.25
318.524	108.25
318.753	84.25
318.983	90.25
319.212	126.25
319.441	125.25
319.67	138.25
319.9	110.25
320.129	103.25
320.358	105.25
320.587	104.25
320.816	99.25
321.046	115.25
321.275	113.25
321.504	101.25
321.733	114.25
321.962	106.25
322.191	119.25
322.42	122.25
322.649	121.25
322.878	104.25
323.108	144.25
323.337	156.25
323.566	154.25
323.795	186.25
324.024	224.25
324.253	442.25
324.482	927.25
324.71	1851.25
324.939	2447.25
325.168	927.25
325.397	271.25
325.626	165.25
325.855	143.25
326.084	139.25
326.313	135.25
326.542	169.25
326.77	257.25
326.999	468.25
327.228	928.25
327.457	1674.25
327.686	1435.25
327.914	709.25
328.143	953.25
328.372	1401.25
328.6	690.25
328.829	248.25
329.058	235.25
329.287	246.25
329.515	265.25
329.744	459.25
329.972	967.25
330.201	2177.25
330.43	3206.25
330.658	1283.25
330.887	437.25
331.115	247.25
331.344	151.25
331.572	144.25
331.801	141.25
332.03	140.25
332.258	133.25
332.486	131.25
332.715	121.25
332.943	144.25
333.172	148.25
333.4	170.25
333.629	218.25
333.857	372.25
334.085	844.25
334.314	1913.25
334.542	3911.25
334.771	3545.25
334.999	853.25
335.227	292.25
335.455	172.25
335.684	149.25
335.912	124.25
336.14	114.25
336.369	118.25
336.597	115.25
336.825	115.25
337.053	103.25
337.281	107.25
337.51	113.25
337.738	127.25
337.966	119.25
338.194	123.25
338.422	128.25
338.65	111.25
338.878	93.25
339.106	99.25
339.334	106.25
339.562	91.25
339.79	86.25
340.018	97.25
340.246	97.25
340.474	100.25
340.702	119.25
340.93	94.25
341.158	95.25
341.386	98.25
341.614	98.25
341.842	101.25
342.07	88.25
342.298	95.25
342.526	95.25
342.754	98.25
342.981	99.25
343.209	95.25
343.437	96.25
343.665	102.25
343.893	102.25
344.12	93.25
344.348	98.25
344.576	92.25
344.804	89.25
345.031	124.25
345.259	113.25
345.487	109.25
345.714	99.25
345.942	85.25
346.17	105.25
346.397	96.25
346.625	103.25
346.853	107.25
347.08	104.25
347.308	108.25
347.535	113.25
347.763	122.25
347.99	106.25
348.218	115.25
348.445	121.25
348.673	117.25
348.9	113.25
349.128	97.25
349.355	107.25
349.583	88.25
349.81	101.25
350.037	108.25
350.265	98.25
350.492	107.25
350.72	102.25
350.947	104.25
351.174	119.25
351.402	136.25
351.629	108.25
351.856	125.25
352.083	115.25
352.311	117.25
352.538	131.25
352.765	115.25
352.992	133.25
353.22	132.25
353.447	119.25
353.674	101.25
353.901	103.25
354.128	104.25
354.355	108.25
354.583	107.25
354.81	100.25
355.037	103.25
355.264	79.25
355.491	98.25
355.718	88.25
355.945	89.25
356.172	94.25
356.399	103.25
356.626	101.25
356.853	93.25
357.08	92.25
357.307	96.25
357.534	95.25
357.761	109.25
357.988	103.25
358.215	98.25
358.441	113.25
358.668	87.25
358.895	91.25
359.122	95.25
359.349	90.25
359.576	99.25
359.802	143.25
360.029	156.25
360.256	147.25
360.483	126.25
360.709	99.25
360.936	101.25
361.163	112.25
361.39	116.25
361.616	99.25
361.843	103.25
362.07	112.25
362.296	97.25
362.523	94.25
362.749	107.25
362.976	102.25
363.203	95.25
363.429	104.25
363.656	90.25
363.882	95.25
364.109	101.25
364.335	103.25
364.562	95.25
364.788	99.25
365.015	101.25
365.241	105.25
365.468	129.25
365.694	116.25
365.92	114.25
366.147	105.25
366.373	88.25
366.599	99.25
366.826	106.25
367.052	88.25
367.278	100.25
367.505	99.25
367.731	86.25
367.957	89.25
368.184	106.25
368.41	99.25
368.636	121.25
368.862	137.25
369.089	123.25
369.315	111.25
369.541	104.25
369.767	105.25
369.993	92.25
370.219	98.25
370.445	86.25
370.672	95.25
370.898	80.25
371.124	93.25
371.35	96.25
371.576	90.25
371.802	93.25
372.028	83.25
372.254	83.25
372.48	85.25
372.706	84.25
372.932	79.25
373.158	102.25
373.384	108.25
373.61	84.25
373.835	84.25
374.061	88.25
374.287	100.25
374.513	89.25
374.739	89.25
374.965	79.25
375.191	89.25
375.416	99.25
375.642	95.25
375.868	97.25
376.094	89.25
376.319	103.25
376.545	90.25
376.771	73.25
376.997	89.25
377.222	97.25
377.448	89.25
377.674	90.25
377.899	96.25
378.125	94.25
378.35	112.25
378.576	83.25
378.802	96.25
379.027	77.25
379.253	96.25
379.478	95.25
379.704	94.25
379.929	77.25
380.155	92.25
380.38	95.25
380.606	91.25
380.831	88.25
381.057	106.25
381.282	103.25
381.507	107.25
381.733	100.25
381.958	105.25
382.184	109.25
382.409	99.25
382.634	107.25
382.86	108.25
383.085	90.25
383.31	111.25
383.535	96.25
383.761	110.25
383.986	94.25
384.211	91.25
384.436	108.25
384.662	109.25
384.887	123.25
385.112	117.25
385.337	107.25
385.562	118.25
385.787	107.25
386.013	120.25
386.238	131.25
386.463	102.25
386.688	110.25
386.913	116.25
387.138	115.25
387.363	113.25
387.588	103.25
387.813	99.25
388.038	108.25
388.263	121.25
388.488	109.25
388.713	106.25
388.938	100.25
389.163	87.25
389.387	90.25
389.612	96.25
389.837	79.25
390.062	88.25
390.287	90.25
390.512	108.25
390.736	113.25
390.961	96.25
391.186	97.25
391.411	95.25
391.636	84.25
391.86	75.25
392.085	97.25
392.31	105.25
392.534	99.25
392.759	83.25
392.984	87.25
393.208	93.25
393.433	87.25
393.658	94.25
393.882	78.25
394.107	101.25
394.331	80.25
394.556	89.25
394.78	95.25
395.005	89.25
395.229	88.25
395.454	95.25
395.678	97.25
395.903	90.25
396.127	95.25
396.352	97.25
396.576	87.25
396.801	84.25
397.025	94.25
397.249	85.25
397.474	99.25
397.698	87.25
397.922	92.25
398.147	89.25
398.371	100.25
398.595	106.25
398.82	88.25
399.044	87.25
399.268	87.25
399.492	92.25
399.717	81.25
399.941	95.25
400.165	98.25
400.389	97.25
400.613	95.25
400.837	91.25
401.062	103.25
401.286	96.25
401.51	91.25
401.734	101.25
401.958	112.25
402.182	157.25
402.406	201.25
402.63	137.25
402.854	107.25
403.078	94.25
403.302	98.25
403.526	103.25
403.75	101.25
403.974	105.25
404.198	101.25
404.422	99.25
404.645	92.25
404.869	101.25
405.093	163.25
405.317	185.25
405.541	152.25
405.765	127.25
405.988	138.25
406.212	215.25
406.436	314.25
406.66	217.25
406.883	124.25
407.107	104.25
407.331	117.25
407.555	118.25
407.778	131.25
408.002	99.25
408.226	92.25
408.449	95.25
408.673	103.25
408.896	94.25
409.12	113.25
409.344	83.25
409.567	93.25
409.791	107.25
410.014	105.25
410.238	102.25
410.461	99.25
410.685	89.25
410.908	94.25
411.132	115.25
411.355	97.25
411.578	111.25
411.802	105.25
412.025	101.25
412.249	115.25
412.472	137.25
412.695	161.25
412.919	143.25
413.142	107.25
413.365	84.25
413.589	92.25
413.812	81.25
414.035	124.25
414.258	105.25
414.482	102.25
414.705	107.25
414.928	85.25
415.151	84.25
415.374	107.25
415.597	86.25
415.821	111.25
416.044	101.25
416.267	106.25
416.49	112.25
416.713	100.25
416.936	104.25
417.159	113.25
417.382	120.25
417.605	131.25
417.828	143.25
418.051	101.25
418.274	91.25
418.497	71.25
418.72	104.25
418.943	91.25
419.166	106.25
419.389	98.25
419.611	96.25
419.834	102.25
420.057	92.25
420.28	109.25
420.503	108.25
420.726	100.25
420.948	99.25
421.171	105.25
421.394	120.25
421.617	104.25
421.839	96.25
422.062	82.25
422.285	99.25
422.507	99.25
422.73	128.25
422.953	98.25
423.175	105.25
423.398	85.25
423.621	98.25
423.843	94.25
424.066	106.25
424.288	91.25
424.511	109.25
424.733	106.25
424.956	146.25
425.178	98.25
425.401	99.25
425.623	113.25
425.846	98.25
426.068	104.25
426.291	93.25
426.513	96.25
426.735	106.25
426.958	110.25
427.18	128.25
427.402	201.25
427.625	287.25
427.847	277.25
428.069	243.25
428.292	171.25
428.514	112.25
428.736	107.25
428.958	101.25
429.181	99.25
429.403	97.25
429.625	92.25
429.847	100.25
430.069	111.25
430.292	96.25
430.514	101.25
430.736	100.25
430.958	104.25
431.18	90.25
431.402	100.25
431.624	92.25
431.846	86.25
432.068	83.25
432.29	98.25
432.512	97.25
432.734	101.25
432.956	101.25
433.178	104.25
433.4	116.25
433.622	96.25
433.844	94.25
434.066	106.25
434.287	88.25
434.509	95.25
434.731	101.25
434.953	89.25
435.175	110.25
435.397	105.25
435.618	103.25
435.84	114.25
436.062	132.25
436.284	137.25
436.505	98.25
436.727	101.25
436.949	85.25
437.17	88.25
437.392	105.25
437.614	113.25
437.835	120.25
438.057	154.25
438.278	135.25
438.5	105.25
438.721	149.25
438.943	118.25
439.165	96.25
439.386	87.25
439.608	108.25
439.829	120.25
440.05	169.25
440.272	210.25
440.493	123.25
440.715	82.25
440.936	100.25
441.158	91.25
441.379	106.25
441.6	108.25
441.822	106.25
442.043	112.25
442.264	119.25
442.486	113.25
442.707	107.25
442.928	130.25
443.149	183.25
443.371	171.25
443.592	137.25
443.813	154.25
444.034	129.25
444.255	92.25
444.476	88.25
444.698	94.25
444.919	89.25
445.14	133.25
445.361	133.25
445.582	140.25
445.803	184.25
446.024	181.25
446.245	171.25
446.466	124.25
446.687	96.25
446.908	95.25
447.129	100.25
447.35	102.25
447.571	108.25
447.792	103.25
448.013	110.25
448.234	119.25
448.455	127.25
448.675	134.25
448.896	138.25
449.117	123.25
449.338	120.25
449.559	167.25
449.779	162.25
450	110.25
450.221	103.25
450.442	105.25
450.662	99.25
450.883	143.25
451.104	157.25
451.324	103.25
451.545	95.25
451.766	105.25
451.986	102.25
452.207	104.25
452.428	108.25
452.648	106.25
452.869	130.25
453.089	146.25
453.31	146.25
453.53	95.25
453.751	91.25
453.971	106.25
454.192	158.25
454.412	121.25
454.633	94.25
454.853	95.25
455.073	100.25
455.294	101.25
455.514	122.25
455.734	97.25
455.955	98.25
456.175	90.25
456.395	82.25
456.616	85.25
456.836	83.25
457.056	96.25
457.276	91.25
457.497	86.25
457.717	97.25
457.937	114.25
458.157	102.25
458.377	99.25
458.598	132.25
458.818	217.25
459.038	245.25
459.258	177.25
459.478	117.25
459.698	95.25
459.918	105.25
460.138	103.25
460.358	92.25
460.578	84.25
460.798	94.25
461.018	94.25
461.238	97.25
461.458	104.25
461.678	102.25
461.898	93.25
462.118	81.25
462.338	103.25
462.558	92.25
462.777	99.25
462.997	119.25
463.217	157.25
463.437	113.25
463.657	93.25
463.876	92.25
464.096	106.25
464.316	117.25
464.536	119.25
464.755	133.25
464.975	151.25
465.195	246.25
465.414	258.25
465.634	108.25
465.854	104.25
466.073	106.25
466.293	102.25
466.512	95.25
466.732	108.25
466.951	98.25
467.171	115.25
467.391	133.25
467.61	193.25
467.829	357.25
468.049	1263.25
468.268	1942.25
468.488	413.25
468.707	159.25
468.927	127.25
469.146	112.25
469.365	97.25
469.585	114.25
469.804	117.25
470.023	132.25
470.243	138.25
470.462	135.25
470.681	155.25
470.901	138.25
471.12	114.25
471.339	128.25
471.558	161.25
471.777	238.25
471.997	569.25
472.216	2327.25
472.435	5630.25
472.654	1197.25
472.873	255.25
473.092	151.25
473.311	133.25
473.53	103.25
473.749	92.25
473.968	122.25
474.187	137.25
474.406	123.25
474.625	106.25
474.844	95.25
475.063	104.25
475.282	94.25
475.501	84.25
475.72	90.25
475.939	109.25
476.158	103.25
476.377	99.25
476.596	90.25
476.814	115.25
477.033	109.25
477.252	103.25
477.471	101.25
477.69	91.25
477.908	108.25
478.127	109.25
478.346	105.25
478.564	117.25
478.783	117.25
479.002	117.25
479.22	105.25
479.439	139.25
479.658	164.25
479.876	155.25
480.095	159.25
480.313	195.25
480.532	259.25
480.751	509.25
480.969	2034.25
481.188	9131.25
481.406	5157.25
481.624	640.25
481.843	206.25
482.061	138.25
482.28	133.25
482.498	113.25
482.717	106.25
482.935	115.25
483.153	100.25
483.372	96.25
483.59	113.25
483.808	104.25
484.027	98.25
484.245	104.25
484.463	105.25
484.681	104.25
484.9	108.25
485.118	106.25
485.336	103.25
485.554	112.25
485.772	109.25
485.99	120.25
486.209	115.25
486.427	116.25
486.645	135.25
486.863	133.25
487.081	116.25
487.299	113.25
487.517	95.25
487.735	108.25
487.953	88.25
488.171	115.25
488.389	101.25
488.607	85.25
488.825	99.25
489.043	97.25
489.261	114.25
489.479	107.25
489.696	88.25
489.914	90.25
490.132	96.25
490.35	93.25
490.568	95.25
490.786	92.25
491.003	97.25
491.221	100.25
491.439	113.25
491.657	107.25
491.874	93.25
492.092	96.25
492.31	109.25
492.527	115.25
492.745	118.25
492.963	102.25
493.18	103.25
493.398	105.25
493.615	96.25
493.833	97.25
494.05	85.25
494.268	104.25
494.485	96.25
494.703	99.25
494.92	104.25
495.138	91.25
495.355	112.25
495.573	96.25
495.79	99.25
496.008	95.25
496.225	95.25
496.442	106.25
496.66	93.25
496.877	105.25
497.094	101.25
497.312	96.25
497.529	103.25
497.746	94.25
497.963	116.25
498.181	106.25
498.398	123.25
498.615	130.25
498.832	121.25
499.049	111.25
499.267	95.25
499.484	97.25
499.701	83.25
499.918	95.25
500.135	88.25
500.352	96.25
500.569	110.25
500.786	116.25
501.003	107.25
501.22	104.25
501.437	101.25
501.654	100.25
501.871	125.25
502.088	96.25
502.305	92.25
502.522	88.25
502.739	97.25
502.956	113.25
503.172	97.25
503.389	113.25
503.606	135.25
503.823	116.25
504.04	119.25
504.256	91.25
504.473	94.25
504.69	113.25
504.907	93.25
505.123	88.25
505.34	96.25
505.557	100.25
505.773	88.25
505.99	75.25
506.207	94.25
506.423	97.25
506.64	95.25
506.856	96.25
507.073	102.25
507.289	95.25
507.506	108.25
507.722	145.25
507.939	143.25
508.155	112.25
508.372	105.25
508.588	109.25
508.805	107.25
509.021	87.25
509.238	102.25
509.454	100.25
509.67	104.25
509.887	113.25
