Data from Circ_1988_H10_HRD10591_00018.txt Node
Date: Wed Jan 03 12:05:38 EST 2024
User: Yrep
Spectrometer: HR+D1059
Trigger mode: 1
Integration Time (sec): 1.000000E-1
Scans to average: 1
Electric dark correction enabled: true
Nonlinearity correction enabled: false
Boxcar width: 0
XAxis mode: Wavelengths
Number of Pixels in Spectrum: 2048
>>>>>Begin Spectral Data<<<<<
223.165	-0.38
223.4	-0.38
223.635	-0.38
223.869	-16.38
224.104	-9.38
224.338	-22.38
224.573	-15.38
224.808	-7.38
225.042	-10.38
225.277	-16.38
225.511	-9.38
225.746	15.62
225.98	7.62
226.215	2.62
226.449	13.62
226.683	19.62
226.918	17.62
227.152	30.62
227.387	29.62
227.621	55.62
227.856	57.62
228.09	57.62
228.324	58.62
228.559	55.62
228.793	56.62
229.027	71.62
229.262	71.62
229.496	79.62
229.73	99.62
229.964	84.62
230.199	70.62
230.433	70.62
230.667	89.62
230.901	88.62
231.136	87.62
231.37	76.62
231.604	82.62
231.838	88.62
232.072	75.62
232.306	70.62
232.541	78.62
232.775	80.62
233.009	90.62
233.243	84.62
233.477	85.62
233.711	92.62
233.945	89.62
234.179	75.62
234.413	77.62
234.647	100.62
234.881	77.62
235.115	61.62
235.349	93.62
235.583	82.62
235.817	87.62
236.051	71.62
236.285	76.62
236.519	82.62
236.753	70.62
236.987	81.62
237.221	91.62
237.455	91.62
237.689	98.62
237.922	80.62
238.156	75.62
238.39	78.62
238.624	76.62
238.858	69.62
239.091	83.62
239.325	83.62
239.559	73.62
239.793	81.62
240.027	86.62
240.26	83.62
240.494	86.62
240.728	75.62
240.961	86.62
241.195	93.62
241.429	88.62
241.662	73.62
241.896	65.62
242.13	69.62
242.363	66.62
242.597	71.62
242.83	74.62
243.064	82.62
243.298	81.62
243.531	92.62
243.765	87.62
243.998	90.62
244.232	82.62
244.465	94.62
244.699	97.62
244.932	72.62
245.166	81.62
245.399	92.62
245.633	79.62
245.866	85.62
246.099	83.62
246.333	101.62
246.566	81.62
246.8	89.62
247.033	80.62
247.266	91.62
247.5	84.62
247.733	80.62
247.966	97.62
248.2	90.62
248.433	95.62
248.666	93.62
248.899	83.62
249.133	91.62
249.366	97.62
249.599	114.62
249.832	98.62
250.066	91.62
250.299	86.62
250.532	87.62
250.765	93.62
250.998	84.62
251.231	107.62
251.465	90.62
251.698	94.62
251.931	102.62
252.164	87.62
252.397	102.62
252.63	82.62
252.863	90.62
253.096	79.62
253.329	79.62
253.562	82.62
253.795	85.62
254.028	87.62
254.261	84.62
254.494	86.62
254.727	82.62
254.96	77.62
255.193	58.62
255.426	77.62
255.659	87.62
255.892	100.62
256.124	127.62
256.357	93.62
256.59	96.62
256.823	93.62
257.056	83.62
257.289	99.62
257.521	93.62
257.754	99.62
257.987	96.62
258.22	99.62
258.452	126.62
258.685	127.62
258.918	111.62
259.151	82.62
259.383	101.62
259.616	90.62
259.849	87.62
260.081	91.62
260.314	91.62
260.547	101.62
260.779	125.62
261.012	140.62
261.244	154.62
261.477	113.62
261.71	108.62
261.942	137.62
262.175	161.62
262.407	103.62
262.64	93.62
262.872	82.62
263.105	81.62
263.337	103.62
263.57	79.62
263.802	79.62
264.035	79.62
264.267	81.62
264.499	103.62
264.732	89.62
264.964	87.62
265.197	88.62
265.429	74.62
265.661	97.62
265.894	83.62
266.126	80.62
266.358	72.62
266.591	80.62
266.823	81.62
267.055	70.62
267.287	87.62
267.52	85.62
267.752	89.62
267.984	84.62
268.216	90.62
268.448	106.62
268.681	111.62
268.913	98.62
269.145	82.62
269.377	85.62
269.609	89.62
269.841	89.62
270.073	96.62
270.306	83.62
270.538	89.62
270.77	91.62
271.002	86.62
271.234	96.62
271.466	100.62
271.698	90.62
271.93	87.62
272.162	104.62
272.394	96.62
272.626	91.62
272.858	90.62
273.09	93.62
273.322	91.62
273.553	82.62
273.785	104.62
274.017	95.62
274.249	98.62
274.481	89.62
274.713	98.62
274.945	109.62
275.176	106.62
275.408	113.62
275.64	165.62
275.872	193.62
276.104	142.62
276.335	120.62
276.567	134.62
276.799	193.62
277.031	267.62
277.262	385.62
277.494	272.62
277.726	126.62
277.957	102.62
278.189	105.62
278.421	91.62
278.652	101.62
278.884	97.62
279.115	100.62
279.347	111.62
279.579	133.62
279.81	200.62
280.042	375.62
280.273	553.62
280.505	337.62
280.736	150.62
280.968	116.62
281.199	105.62
281.431	90.62
281.662	94.62
281.894	96.62
282.125	105.62
282.356	155.62
282.588	186.62
282.819	125.62
283.051	98.62
283.282	90.62
283.513	87.62
283.745	103.62
283.976	88.62
284.207	105.62
284.439	87.62
284.67	92.62
284.901	101.62
285.132	78.62
285.364	70.62
285.595	87.62
285.826	71.62
286.057	88.62
286.288	79.62
286.52	97.62
286.751	101.62
286.982	91.62
287.213	89.62
287.444	86.62
287.675	113.62
287.906	95.62
288.138	80.62
288.369	109.62
288.6	98.62
288.831	94.62
289.062	86.62
289.293	94.62
289.524	105.62
289.755	88.62
289.986	94.62
290.217	90.62
290.448	90.62
290.679	105.62
290.91	106.62
291.141	90.62
291.371	104.62
291.602	84.62
291.833	84.62
292.064	86.62
292.295	100.62
292.526	89.62
292.757	90.62
292.987	89.62
293.218	91.62
293.449	104.62
293.68	86.62
293.91	83.62
294.141	96.62
294.372	94.62
294.603	98.62
294.833	104.62
295.064	87.62
295.295	93.62
295.525	97.62
295.756	109.62
295.987	120.62
296.217	185.62
296.448	165.62
296.679	105.62
296.909	104.62
297.14	104.62
297.37	101.62
297.601	101.62
297.831	94.62
298.062	95.62
298.292	94.62
298.523	93.62
298.753	87.62
298.984	103.62
299.214	96.62
299.445	115.62
299.675	100.62
299.905	98.62
300.136	88.62
300.366	89.62
300.597	82.62
300.827	97.62
301.057	113.62
301.288	122.62
301.518	115.62
301.748	114.62
301.979	143.62
302.209	130.62
302.439	81.62
302.669	95.62
302.9	95.62
303.13	114.62
303.36	118.62
303.59	201.62
303.82	221.62
304.051	125.62
304.281	83.62
304.511	102.62
304.741	91.62
304.971	102.62
305.201	101.62
305.431	94.62
305.661	89.62
305.891	115.62
306.121	107.62
306.352	119.62
306.582	117.62
306.812	136.62
307.042	174.62
307.272	283.62
307.502	321.62
307.731	272.62
307.961	183.62
308.191	93.62
308.421	86.62
308.651	108.62
308.881	101.62
309.111	105.62
309.341	96.62
309.571	119.62
309.8	107.62
310.03	107.62
310.26	98.62
310.49	95.62
310.72	93.62
310.949	128.62
311.179	104.62
311.409	89.62
311.639	98.62
311.868	100.62
312.098	98.62
312.328	95.62
312.557	99.62
312.787	136.62
313.017	112.62
313.246	103.62
313.476	99.62
313.706	103.62
313.935	80.62
314.165	115.62
314.394	127.62
314.624	124.62
314.853	93.62
315.083	106.62
315.312	102.62
315.542	92.62
315.771	104.62
316.001	95.62
316.23	98.62
316.46	77.62
316.689	95.62
316.919	93.62
317.148	113.62
317.377	103.62
317.607	105.62
317.836	110.62
318.065	82.62
318.295	98.62
318.524	90.62
318.753	85.62
318.983	91.62
319.212	100.62
319.441	115.62
319.67	123.62
319.9	105.62
320.129	92.62
320.358	93.62
320.587	113.62
320.816	114.62
321.046	118.62
321.275	88.62
321.504	106.62
321.733	87.62
321.962	103.62
322.191	103.62
322.42	106.62
322.649	118.62
322.878	116.62
323.108	113.62
323.337	133.62
323.566	152.62
323.795	170.62
324.024	228.62
324.253	410.62
324.482	867.62
324.71	1716.62
324.939	2325.62
325.168	894.62
325.397	279.62
325.626	169.62
325.855	146.62
326.084	141.62
326.313	151.62
326.542	171.62
326.77	249.62
326.999	454.62
327.228	894.62
327.457	1602.62
327.686	1412.62
327.914	682.62
328.143	909.62
328.372	1337.62
328.6	682.62
328.829	255.62
329.058	207.62
329.287	221.62
329.515	242.62
329.744	409.62
329.972	890.62
330.201	1982.62
330.43	3032.62
330.658	1219.62
330.887	397.62
331.115	241.62
331.344	157.62
331.572	139.62
331.801	149.62
332.03	127.62
332.258	135.62
332.486	125.62
332.715	133.62
332.943	143.62
333.172	154.62
333.4	161.62
333.629	226.62
333.857	335.62
334.085	712.62
334.314	1663.62
334.542	3520.62
334.771	3320.62
334.999	801.62
335.227	269.62
335.455	169.62
335.684	142.62
335.912	119.62
336.14	124.62
336.369	115.62
336.597	133.62
336.825	112.62
337.053	110.62
337.281	118.62
337.51	104.62
337.738	97.62
337.966	98.62
338.194	120.62
338.422	105.62
338.65	100.62
338.878	111.62
339.106	105.62
339.334	99.62
339.562	100.62
339.79	106.62
340.018	88.62
340.246	107.62
340.474	111.62
340.702	92.62
340.93	99.62
341.158	89.62
341.386	111.62
341.614	106.62
341.842	86.62
342.07	92.62
342.298	96.62
342.526	97.62
342.754	96.62
342.981	90.62
343.209	86.62
343.437	90.62
343.665	97.62
343.893	83.62
344.12	93.62
344.348	86.62
344.576	93.62
344.804	110.62
345.031	102.62
345.259	113.62
345.487	93.62
345.714	102.62
345.942	104.62
346.17	86.62
346.397	112.62
346.625	87.62
346.853	94.62
347.08	96.62
347.308	89.62
347.535	106.62
347.763	106.62
347.99	100.62
348.218	91.62
348.445	112.62
348.673	107.62
348.9	105.62
349.128	90.62
349.355	89.62
349.583	86.62
349.81	100.62
350.037	93.62
350.265	98.62
350.492	111.62
350.72	109.62
350.947	102.62
351.174	105.62
351.402	130.62
351.629	100.62
351.856	113.62
352.083	115.62
352.311	110.62
352.538	117.62
352.765	123.62
352.992	128.62
353.22	121.62
353.447	111.62
353.674	106.62
353.901	98.62
354.128	85.62
354.355	95.62
354.583	93.62
354.81	80.62
355.037	93.62
355.264	101.62
355.491	101.62
355.718	90.62
355.945	106.62
356.172	112.62
356.399	104.62
356.626	115.62
356.853	101.62
357.08	87.62
357.307	104.62
357.534	96.62
357.761	97.62
357.988	89.62
358.215	95.62
358.441	119.62
358.668	107.62
358.895	89.62
359.122	93.62
359.349	86.62
359.576	81.62
359.802	106.62
360.029	138.62
360.256	122.62
360.483	114.62
360.709	102.62
360.936	96.62
361.163	99.62
361.39	115.62
361.616	112.62
361.843	91.62
362.07	89.62
362.296	103.62
362.523	103.62
362.749	91.62
362.976	103.62
363.203	89.62
363.429	93.62
363.656	99.62
363.882	90.62
364.109	94.62
364.335	101.62
364.562	96.62
364.788	102.62
365.015	96.62
365.241	107.62
365.468	123.62
365.694	111.62
365.92	106.62
366.147	83.62
366.373	88.62
366.599	93.62
366.826	100.62
367.052	98.62
367.278	94.62
367.505	106.62
367.731	103.62
367.957	89.62
368.184	88.62
368.41	107.62
368.636	112.62
368.862	130.62
369.089	137.62
369.315	104.62
369.541	108.62
369.767	90.62
369.993	110.62
370.219	99.62
370.445	102.62
370.672	75.62
370.898	90.62
371.124	86.62
371.35	94.62
371.576	88.62
371.802	98.62
372.028	106.62
372.254	101.62
372.48	95.62
372.706	87.62
372.932	90.62
373.158	95.62
373.384	96.62
373.61	95.62
373.835	110.62
374.061	105.62
374.287	98.62
374.513	97.62
374.739	96.62
374.965	90.62
375.191	96.62
375.416	97.62
375.642	97.62
375.868	87.62
376.094	95.62
376.319	100.62
376.545	94.62
376.771	109.62
376.997	97.62
377.222	97.62
377.448	102.62
377.674	102.62
377.899	101.62
378.125	101.62
378.35	113.62
378.576	111.62
378.802	93.62
379.027	103.62
379.253	103.62
379.478	100.62
379.704	111.62
379.929	106.62
380.155	106.62
380.38	111.62
380.606	105.62
380.831	105.62
381.057	114.62
381.282	115.62
381.507	100.62
381.733	119.62
381.958	116.62
382.184	127.62
382.409	128.62
382.634	129.62
382.86	123.62
383.085	120.62
383.31	134.62
383.535	106.62
383.761	119.62
383.986	124.62
384.211	132.62
384.436	128.62
384.662	134.62
384.887	137.62
385.112	161.62
385.337	151.62
385.562	154.62
385.787	138.62
386.013	144.62
386.238	173.62
386.463	151.62
386.688	132.62
386.913	142.62
387.138	158.62
387.363	136.62
387.588	131.62
387.813	126.62
388.038	129.62
388.263	165.62
388.488	157.62
388.713	114.62
388.938	97.62
389.163	99.62
389.387	98.62
389.612	85.62
389.837	94.62
390.062	89.62
390.287	78.62
390.512	97.62
390.736	90.62
390.961	97.62
391.186	85.62
391.411	89.62
391.636	99.62
391.86	86.62
392.085	101.62
392.31	102.62
392.534	103.62
392.759	86.62
392.984	83.62
393.208	104.62
393.433	104.62
393.658	104.62
393.882	100.62
394.107	78.62
394.331	100.62
394.556	88.62
394.78	99.62
395.005	79.62
395.229	83.62
395.454	95.62
395.678	91.62
395.903	86.62
396.127	98.62
396.352	92.62
396.576	98.62
396.801	98.62
397.025	116.62
397.249	104.62
397.474	95.62
397.698	93.62
397.922	74.62
398.147	83.62
398.371	81.62
398.595	75.62
398.82	83.62
399.044	83.62
399.268	89.62
399.492	91.62
399.717	84.62
399.941	85.62
400.165	103.62
400.389	93.62
400.613	91.62
400.837	83.62
401.062	92.62
401.286	96.62
401.51	99.62
401.734	97.62
401.958	107.62
402.182	136.62
402.406	192.62
402.63	165.62
402.854	117.62
403.078	103.62
403.302	103.62
403.526	86.62
403.75	93.62
403.974	92.62
404.198	99.62
404.422	83.62
404.645	89.62
404.869	109.62
405.093	124.62
405.317	142.62
405.541	135.62
405.765	129.62
405.988	155.62
406.212	219.62
406.436	325.62
406.66	218.62
406.883	141.62
407.107	112.62
407.331	96.62
407.555	102.62
407.778	118.62
408.002	107.62
408.226	85.62
408.449	91.62
408.673	94.62
408.896	93.62
409.12	102.62
409.344	95.62
409.567	94.62
409.791	85.62
410.014	93.62
410.238	88.62
410.461	97.62
410.685	112.62
410.908	98.62
411.132	127.62
411.355	98.62
411.578	89.62
411.802	99.62
412.025	103.62
412.249	104.62
412.472	121.62
412.695	148.62
412.919	123.62
413.142	91.62
413.365	107.62
413.589	92.62
413.812	90.62
414.035	110.62
414.258	105.62
414.482	99.62
414.705	94.62
414.928	86.62
415.151	113.62
415.374	98.62
415.597	91.62
415.821	98.62
416.044	99.62
416.267	108.62
416.49	103.62
416.713	94.62
416.936	104.62
417.159	98.62
417.382	121.62
417.605	148.62
417.828	145.62
418.051	108.62
418.274	100.62
418.497	86.62
418.72	92.62
418.943	85.62
419.166	95.62
419.389	87.62
419.611	110.62
419.834	101.62
420.057	89.62
420.28	111.62
420.503	103.62
420.726	101.62
420.948	96.62
421.171	109.62
421.394	112.62
421.617	94.62
421.839	98.62
422.062	96.62
422.285	83.62
422.507	117.62
422.73	123.62
422.953	97.62
423.175	95.62
423.398	86.62
423.621	92.62
423.843	83.62
424.066	102.62
424.288	103.62
424.511	102.62
424.733	108.62
424.956	113.62
425.178	106.62
425.401	102.62
425.623	95.62
425.846	106.62
426.068	100.62
426.291	94.62
426.513	103.62
426.735	110.62
426.958	97.62
427.18	126.62
427.402	161.62
427.625	262.62
427.847	243.62
428.069	235.62
428.292	160.62
428.514	108.62
428.736	102.62
428.958	96.62
429.181	95.62
429.403	89.62
429.625	90.62
429.847	120.62
430.069	112.62
430.292	110.62
430.514	94.62
430.736	78.62
430.958	104.62
431.18	91.62
431.402	79.62
431.624	90.62
431.846	89.62
432.068	96.62
432.29	91.62
432.512	103.62
432.734	96.62
432.956	99.62
433.178	98.62
433.4	90.62
433.622	99.62
433.844	96.62
434.066	98.62
434.287	94.62
434.509	92.62
434.731	84.62
434.953	88.62
435.175	106.62
435.397	90.62
435.618	111.62
435.84	107.62
436.062	123.62
436.284	111.62
436.505	98.62
436.727	95.62
436.949	99.62
437.17	100.62
437.392	84.62
437.614	105.62
437.835	125.62
438.057	131.62
438.278	105.62
438.5	130.62
438.721	125.62
438.943	107.62
439.165	96.62
439.386	99.62
439.608	107.62
439.829	120.62
440.05	142.62
440.272	166.62
440.493	108.62
440.715	85.62
440.936	89.62
441.158	92.62
441.379	99.62
441.6	108.62
441.822	121.62
442.043	107.62
442.264	112.62
442.486	107.62
442.707	110.62
442.928	131.62
443.149	165.62
443.371	177.62
443.592	130.62
443.813	131.62
444.034	125.62
444.255	106.62
444.476	99.62
444.698	84.62
444.919	90.62
445.14	122.62
445.361	121.62
445.582	139.62
445.803	167.62
446.024	178.62
446.245	165.62
446.466	118.62
446.687	81.62
446.908	97.62
447.129	97.62
447.35	97.62
447.571	101.62
447.792	91.62
448.013	103.62
448.234	124.62
448.455	110.62
448.675	133.62
448.896	108.62
449.117	111.62
449.338	102.62
449.559	149.62
449.779	136.62
450	90.62
450.221	95.62
450.442	97.62
450.662	88.62
450.883	122.62
451.104	142.62
451.324	102.62
451.545	94.62
451.766	82.62
451.986	88.62
452.207	102.62
452.428	101.62
452.648	105.62
452.869	146.62
453.089	146.62
453.31	168.62
453.53	96.62
453.751	100.62
453.971	120.62
454.192	135.62
454.412	104.62
454.633	85.62
454.853	91.62
455.073	91.62
455.294	109.62
455.514	122.62
455.734	101.62
455.955	86.62
456.175	96.62
456.395	96.62
456.616	97.62
456.836	74.62
457.056	95.62
457.276	87.62
457.497	99.62
457.717	90.62
457.937	89.62
458.157	93.62
458.377	92.62
458.598	114.62
458.818	217.62
459.038	231.62
459.258	161.62
459.478	114.62
459.698	87.62
459.918	92.62
460.138	77.62
460.358	94.62
460.578	87.62
460.798	97.62
461.018	107.62
461.238	94.62
461.458	74.62
461.678	103.62
461.898	81.62
462.118	95.62
462.338	89.62
462.558	83.62
462.777	100.62
462.997	143.62
463.217	161.62
463.437	137.62
463.657	101.62
463.876	99.62
464.096	106.62
464.316	107.62
464.536	99.62
464.755	109.62
464.975	130.62
465.195	249.62
465.414	250.62
465.634	118.62
465.854	97.62
466.073	99.62
466.293	99.62
466.512	99.62
466.732	112.62
466.951	123.62
467.171	112.62
467.391	135.62
467.61	209.62
467.829	373.62
468.049	1319.62
468.268	2152.62
468.488	456.62
468.707	161.62
468.927	104.62
469.146	101.62
469.365	107.62
469.585	104.62
469.804	118.62
470.023	127.62
470.243	117.62
470.462	138.62
470.681	145.62
470.901	128.62
471.12	101.62
471.339	139.62
471.558	163.62
471.777	225.62
471.997	532.62
472.216	2384.62
472.435	5672.62
472.654	1145.62
472.873	267.62
473.092	142.62
473.311	105.62
473.53	97.62
473.749	86.62
473.968	109.62
474.187	121.62
474.406	112.62
474.625	94.62
474.844	103.62
475.063	93.62
475.282	98.62
475.501	93.62
475.72	89.62
475.939	86.62
476.158	99.62
476.377	109.62
476.596	102.62
476.814	111.62
477.033	105.62
477.252	114.62
477.471	86.62
477.69	101.62
477.908	102.62
478.127	90.62
478.346	93.62
478.564	111.62
478.783	133.62
479.002	112.62
479.22	121.62
479.439	162.62
479.658	148.62
479.876	149.62
480.095	157.62
480.313	182.62
480.532	245.62
480.751	477.62
480.969	1935.62
481.188	8921.62
481.406	5017.62
481.624	656.62
481.843	199.62
482.061	129.62
482.28	103.62
482.498	88.62
482.717	104.62
482.935	107.62
483.153	106.62
483.372	85.62
483.59	100.62
483.808	115.62
484.027	102.62
484.245	98.62
484.463	106.62
484.681	111.62
484.9	109.62
485.118	107.62
485.336	112.62
485.554	101.62
485.772	105.62
485.99	118.62
486.209	118.62
486.427	121.62
486.645	117.62
486.863	134.62
487.081	130.62
487.299	118.62
487.517	112.62
487.735	102.62
487.953	93.62
488.171	98.62
488.389	107.62
488.607	118.62
488.825	99.62
489.043	91.62
489.261	92.62
489.479	92.62
489.696	93.62
489.914	90.62
490.132	97.62
490.35	94.62
490.568	83.62
490.786	94.62
491.003	94.62
491.221	89.62
491.439	104.62
491.657	99.62
491.874	105.62
492.092	101.62
492.31	100.62
492.527	108.62
492.745	107.62
492.963	101.62
493.18	108.62
493.398	102.62
493.615	111.62
493.833	95.62
494.05	91.62
494.268	110.62
494.485	85.62
494.703	100.62
494.92	101.62
495.138	86.62
495.355	99.62
495.573	79.62
495.79	100.62
496.008	113.62
496.225	98.62
496.442	96.62
496.66	88.62
496.877	81.62
497.094	96.62
497.312	88.62
497.529	81.62
497.746	77.62
497.963	87.62
498.181	92.62
498.398	112.62
498.615	124.62
498.832	122.62
499.049	103.62
499.267	98.62
499.484	98.62
499.701	87.62
499.918	86.62
500.135	94.62
500.352	96.62
500.569	101.62
500.786	101.62
501.003	88.62
501.22	104.62
501.437	102.62
501.654	110.62
501.871	144.62
502.088	103.62
502.305	103.62
502.522	112.62
502.739	97.62
502.956	80.62
503.172	99.62
503.389	110.62
503.606	125.62
503.823	106.62
504.04	95.62
504.256	93.62
504.473	94.62
504.69	83.62
504.907	105.62
505.123	88.62
505.34	99.62
505.557	114.62
505.773	97.62
505.99	93.62
506.207	84.62
506.423	82.62
506.64	91.62
506.856	77.62
507.073	107.62
507.289	97.62
507.506	107.62
507.722	126.62
507.939	141.62
508.155	103.62
508.372	88.62
508.588	102.62
508.805	92.62
509.021	120.62
509.238	93.62
509.454	101.62
509.67	109.62
509.887	110.62
510.103	144.62
510.319	253.62
510.536	967.62
510.752	3613.62
