Data from Circ_1988_H10_HRD10591_00072.txt Node
Date: Wed Jan 03 12:05:49 EST 2024
User: Yrep
Spectrometer: HR+D1059
Trigger mode: 1
Integration Time (sec): 1.000000E-1
Scans to average: 1
Electric dark correction enabled: true
Nonlinearity correction enabled: false
Boxcar width: 0
XAxis mode: Wavelengths
Number of Pixels in Spectrum: 2048
>>>>>Begin Spectral Data<<<<<
223.165	-16
223.4	-16
223.635	-16
223.869	-22
224.104	-25
224.338	-17
224.573	-21
224.808	-16
225.042	-8
225.277	3
225.511	12
225.746	4
225.98	-2
226.215	1
226.449	14
226.683	25
226.918	39
227.152	29
227.387	37
227.621	37
227.856	44
228.09	48
228.324	46
228.559	59
228.793	59
229.027	66
229.262	79
229.496	63
229.73	98
229.964	91
230.199	70
230.433	81
230.667	77
230.901	82
231.136	70
231.37	72
231.604	77
231.838	81
232.072	81
232.306	84
232.541	90
232.775	92
233.009	86
233.243	85
233.477	72
233.711	73
233.945	70
234.179	77
234.413	95
234.647	82
234.881	81
235.115	75
235.349	77
235.583	80
235.817	83
236.051	84
236.285	74
236.519	87
236.753	85
236.987	73
237.221	84
237.455	99
237.689	87
237.922	64
238.156	81
238.39	79
238.624	69
238.858	78
239.091	74
239.325	73
239.559	79
239.793	71
240.027	77
240.26	85
240.494	88
240.728	85
240.961	69
241.195	87
241.429	84
241.662	84
241.896	71
242.13	68
242.363	89
242.597	89
242.83	91
243.064	70
243.298	66
243.531	78
243.765	90
243.998	73
244.232	90
244.465	80
244.699	78
244.932	82
245.166	80
245.399	80
245.633	81
245.866	94
246.099	77
246.333	77
246.566	87
246.8	75
247.033	82
247.266	77
247.5	84
247.733	74
247.966	75
248.2	87
248.433	77
248.666	83
248.899	91
249.133	99
249.366	118
249.599	115
249.832	88
250.066	83
250.299	85
250.532	79
250.765	93
250.998	68
251.231	79
251.465	89
251.698	85
251.931	90
252.164	85
252.397	74
252.63	89
252.863	63
253.096	79
253.329	90
253.562	89
253.795	87
254.028	81
254.261	90
254.494	93
254.727	90
254.96	91
255.193	86
255.426	69
255.659	86
255.892	112
256.124	118
256.357	96
256.59	81
256.823	77
257.056	98
257.289	85
257.521	98
257.754	97
257.987	88
258.22	114
258.452	115
258.685	109
258.918	103
259.151	85
259.383	87
259.616	98
259.849	92
260.081	96
260.314	83
260.547	103
260.779	109
261.012	137
261.244	146
261.477	107
261.71	103
261.942	130
262.175	144
262.407	99
262.64	87
262.872	91
263.105	97
263.337	90
263.57	84
263.802	88
264.035	74
264.267	87
264.499	88
264.732	80
264.964	85
265.197	95
265.429	92
265.661	90
265.894	82
266.126	96
266.358	93
266.591	85
266.823	78
267.055	85
267.287	89
267.52	79
267.752	87
267.984	83
268.216	99
268.448	98
268.681	92
268.913	81
269.145	81
269.377	90
269.609	81
269.841	82
270.073	96
270.306	87
270.538	90
270.77	78
271.002	69
271.234	107
271.466	84
271.698	87
271.93	89
272.162	89
272.394	88
272.626	91
272.858	97
273.09	88
273.322	79
273.553	89
273.785	85
274.017	94
274.249	90
274.481	88
274.713	94
274.945	102
275.176	98
275.408	113
275.64	142
275.872	171
276.104	131
276.335	122
276.567	136
276.799	171
277.031	258
277.262	318
277.494	233
277.726	114
277.957	115
278.189	91
278.421	81
278.652	93
278.884	95
279.115	90
279.347	90
279.579	126
279.81	177
280.042	336
280.273	467
280.505	321
280.736	120
280.968	104
281.199	101
281.431	106
281.662	101
281.894	105
282.125	96
282.356	128
282.588	175
282.819	132
283.051	85
283.282	98
283.513	81
283.745	99
283.976	82
284.207	88
284.439	94
284.67	101
284.901	101
285.132	102
285.364	77
285.595	94
285.826	90
286.057	80
286.288	87
286.52	78
286.751	91
286.982	93
287.213	87
287.444	102
287.675	93
287.906	88
288.138	91
288.369	110
288.6	93
288.831	90
289.062	100
289.293	80
289.524	107
289.755	84
289.986	85
290.217	78
290.448	90
290.679	82
290.91	81
291.141	84
291.371	81
291.602	99
291.833	81
292.064	95
292.295	100
292.526	79
292.757	93
292.987	86
293.218	88
293.449	79
293.68	92
293.91	90
294.141	107
294.372	99
294.603	83
294.833	87
295.064	88
295.295	85
295.525	94
295.756	97
295.987	124
296.217	162
296.448	128
296.679	100
296.909	93
297.14	101
297.37	102
297.601	89
297.831	99
298.062	76
298.292	95
298.523	97
298.753	90
298.984	88
299.214	92
299.445	86
299.675	87
299.905	104
300.136	98
300.366	83
300.597	101
300.827	101
301.057	113
301.288	112
301.518	90
301.748	101
301.979	132
302.209	109
302.439	113
302.669	94
302.9	96
303.13	105
303.36	124
303.59	173
303.82	184
304.051	103
304.281	98
304.511	112
304.741	94
304.971	96
305.201	98
305.431	90
305.661	87
305.891	101
306.121	107
306.352	123
306.582	124
306.812	129
307.042	167
307.272	234
307.502	281
307.731	244
307.961	158
308.191	118
308.421	95
308.651	87
308.881	106
309.111	104
309.341	99
309.571	108
309.8	88
310.03	121
310.26	106
310.49	113
310.72	111
310.949	117
311.179	119
311.409	97
311.639	88
311.868	91
312.098	116
312.328	107
312.557	109
312.787	115
313.017	104
313.246	104
313.476	101
313.706	98
313.935	95
314.165	111
314.394	120
314.624	110
314.853	95
315.083	99
315.312	87
315.542	98
315.771	98
316.001	89
316.23	100
316.46	85
316.689	96
316.919	85
317.148	110
317.377	104
317.607	93
317.836	96
318.065	94
318.295	99
318.524	88
318.753	105
318.983	96
319.212	105
319.441	100
319.67	114
319.9	87
320.129	91
320.358	95
320.587	90
320.816	104
321.046	93
321.275	98
321.504	106
321.733	104
321.962	114
322.191	121
322.42	122
322.649	111
322.878	114
323.108	123
323.337	122
323.566	141
323.795	157
324.024	213
324.253	397
324.482	827
324.71	1637
324.939	2175
325.168	821
325.397	245
325.626	175
325.855	148
326.084	123
326.313	149
326.542	165
326.77	229
326.999	432
327.228	862
327.457	1474
327.686	1279
327.914	615
328.143	821
328.372	1193
328.6	591
328.829	249
329.058	224
329.287	213
329.515	241
329.744	382
329.972	812
330.201	1823
330.43	2715
330.658	1124
330.887	377
331.115	210
331.344	146
331.572	119
331.801	123
332.03	143
332.258	127
332.486	110
332.715	115
332.943	132
333.172	147
333.4	155
333.629	223
333.857	319
334.085	671
334.314	1571
334.542	3314
334.771	3080
334.999	727
335.227	255
335.455	143
335.684	127
335.912	111
336.14	120
336.369	117
336.597	126
336.825	110
337.053	98
337.281	95
337.51	94
337.738	114
337.966	99
338.194	102
338.422	105
338.65	92
338.878	111
339.106	102
339.334	95
339.562	98
339.79	92
340.018	91
340.246	104
340.474	102
340.702	105
340.93	108
341.158	106
341.386	100
341.614	84
341.842	102
342.07	89
342.298	97
342.526	102
342.754	99
342.981	98
343.209	86
343.437	108
343.665	89
343.893	107
344.12	94
344.348	101
344.576	100
344.804	95
345.031	105
345.259	112
345.487	106
345.714	101
345.942	95
346.17	91
346.397	83
346.625	104
346.853	110
347.08	93
347.308	104
347.535	104
347.763	108
347.99	109
348.218	101
348.445	99
348.673	98
348.9	99
349.128	84
349.355	95
349.583	85
349.81	89
350.037	95
350.265	89
350.492	93
350.72	96
350.947	96
351.174	115
351.402	117
351.629	93
351.856	101
352.083	125
352.311	113
352.538	121
352.765	124
352.992	122
353.22	122
353.447	110
353.674	109
353.901	102
354.128	100
354.355	91
354.583	110
354.81	111
355.037	86
355.264	99
355.491	96
355.718	80
355.945	100
356.172	88
356.399	85
356.626	101
356.853	81
357.08	94
357.307	93
357.534	90
357.761	90
357.988	98
358.215	111
358.441	88
358.668	93
358.895	92
359.122	96
359.349	102
359.576	100
359.802	114
360.029	123
360.256	115
360.483	107
360.709	96
360.936	97
361.163	103
361.39	116
361.616	117
361.843	100
362.07	99
362.296	112
362.523	102
362.749	101
362.976	78
363.203	102
363.429	104
363.656	110
363.882	98
364.109	77
364.335	96
364.562	91
364.788	93
365.015	105
365.241	99
365.468	117
365.694	107
365.92	104
366.147	109
366.373	97
366.599	95
366.826	74
367.052	91
367.278	97
367.505	88
367.731	94
367.957	96
368.184	101
368.41	112
368.636	127
368.862	120
369.089	105
369.315	102
369.541	100
369.767	87
369.993	97
370.219	95
370.445	94
370.672	75
370.898	77
371.124	102
371.35	93
371.576	87
371.802	74
372.028	83
372.254	84
372.48	89
372.706	88
372.932	86
373.158	94
373.384	89
373.61	90
373.835	90
374.061	97
374.287	101
374.513	94
374.739	93
374.965	82
375.191	77
375.416	82
375.642	82
375.868	88
376.094	95
376.319	107
376.545	88
376.771	82
376.997	85
377.222	84
377.448	107
377.674	104
377.899	80
378.125	96
378.35	82
378.576	89
378.802	92
379.027	103
379.253	87
379.478	95
379.704	95
379.929	95
380.155	96
380.38	109
380.606	94
380.831	106
381.057	103
381.282	102
381.507	97
381.733	107
381.958	111
382.184	97
382.409	104
382.634	100
382.86	100
383.085	94
383.31	120
383.535	114
383.761	100
383.986	96
384.211	110
384.436	105
384.662	101
384.887	104
385.112	104
385.337	114
385.562	115
385.787	116
386.013	111
386.238	136
386.463	114
386.688	113
386.913	119
387.138	105
387.363	115
387.588	107
387.813	102
388.038	97
388.263	100
388.488	122
388.713	90
388.938	79
389.163	85
389.387	96
389.612	91
389.837	87
390.062	97
390.287	79
390.512	87
390.736	94
390.961	92
391.186	78
391.411	88
391.636	98
391.86	90
392.085	79
392.31	90
392.534	81
392.759	96
392.984	87
393.208	84
393.433	91
393.658	90
393.882	83
394.107	80
394.331	81
394.556	86
394.78	80
395.005	102
395.229	97
395.454	74
395.678	95
395.903	83
396.127	72
396.352	85
396.576	100
396.801	98
397.025	85
397.249	90
397.474	98
397.698	85
397.922	96
398.147	91
398.371	81
398.595	89
398.82	95
399.044	94
399.268	87
399.492	92
399.717	91
399.941	99
400.165	89
400.389	94
400.613	89
400.837	96
401.062	91
401.286	114
401.51	99
401.734	104
401.958	113
402.182	159
402.406	205
402.63	136
402.854	111
403.078	94
403.302	89
403.526	89
403.75	85
403.974	82
404.198	87
404.422	83
404.645	96
404.869	112
405.093	117
405.317	168
405.541	151
405.765	127
405.988	142
406.212	217
406.436	291
406.66	195
406.883	131
407.107	117
407.331	97
407.555	110
407.778	113
408.002	98
408.226	83
408.449	74
408.673	100
408.896	87
409.12	99
409.344	91
409.567	86
409.791	93
410.014	92
410.238	93
410.461	93
410.685	87
410.908	97
411.132	98
411.355	125
411.578	88
411.802	90
412.025	98
412.249	118
412.472	122
412.695	154
412.919	125
413.142	104
413.365	88
413.589	86
413.812	91
414.035	95
414.258	116
414.482	110
414.705	100
414.928	101
415.151	97
415.374	106
415.597	94
415.821	106
416.044	98
416.267	97
416.49	115
416.713	92
416.936	103
417.159	85
417.382	100
417.605	118
417.828	135
418.051	105
418.274	96
418.497	88
418.72	86
418.943	96
419.166	80
419.389	86
419.611	102
419.834	102
420.057	101
420.28	100
420.503	103
420.726	101
420.948	97
421.171	99
421.394	98
421.617	102
421.839	100
422.062	105
422.285	104
422.507	101
422.73	114
422.953	92
423.175	87
423.398	73
423.621	95
423.843	87
424.066	74
424.288	95
424.511	93
424.733	109
424.956	126
425.178	114
425.401	102
425.623	111
425.846	93
426.068	99
426.291	88
426.513	95
426.735	101
426.958	100
427.18	134
427.402	185
427.625	244
427.847	238
428.069	219
428.292	142
428.514	109
428.736	104
428.958	96
429.181	92
429.403	94
429.625	91
429.847	98
430.069	105
430.292	105
430.514	95
430.736	91
430.958	79
431.18	89
431.402	87
431.624	83
431.846	93
432.068	96
432.29	97
432.512	91
432.734	103
432.956	97
433.178	102
433.4	93
433.622	89
433.844	95
434.066	95
434.287	97
434.509	91
434.731	93
434.953	92
435.175	90
435.397	79
435.618	95
435.84	114
436.062	128
436.284	122
436.505	114
436.727	105
436.949	87
437.17	90
437.392	95
437.614	92
437.835	116
438.057	147
438.278	141
438.5	126
438.721	134
438.943	79
439.165	78
439.386	76
439.608	104
439.829	107
440.05	143
440.272	176
440.493	109
440.715	90
440.936	88
441.158	88
441.379	91
441.6	97
441.822	96
442.043	91
442.264	125
442.486	116
442.707	101
442.928	120
443.149	167
443.371	165
443.592	137
443.813	133
444.034	118
444.255	84
444.476	84
444.698	80
444.919	77
445.14	146
445.361	132
445.582	126
445.803	172
446.024	159
446.245	150
446.466	121
446.687	89
446.908	74
447.129	97
447.35	94
447.571	90
447.792	104
448.013	112
448.234	123
448.455	117
448.675	124
448.896	143
449.117	115
449.338	122
449.559	143
449.779	150
450	100
450.221	87
450.442	91
450.662	102
450.883	125
451.104	137
451.324	102
451.545	95
451.766	95
451.986	95
452.207	85
452.428	91
452.648	117
452.869	127
453.089	137
453.31	130
453.53	104
453.751	96
453.971	117
454.192	141
454.412	108
454.633	93
454.853	98
455.073	101
455.294	96
455.514	114
455.734	86
455.955	96
456.175	95
456.395	82
456.616	102
456.836	78
457.056	94
457.276	110
457.497	94
457.717	94
457.937	91
458.157	99
458.377	104
458.598	119
458.818	192
459.038	231
459.258	134
459.478	97
459.698	96
459.918	98
460.138	100
460.358	82
460.578	93
460.798	82
461.018	94
461.238	84
461.458	91
461.678	94
461.898	97
462.118	74
462.338	85
462.558	98
462.777	98
462.997	113
463.217	136
463.437	110
463.657	91
463.876	98
464.096	97
464.316	108
464.536	85
464.755	88
464.975	136
465.195	233
465.414	233
465.634	104
465.854	88
466.073	113
466.293	97
466.512	99
466.732	98
466.951	93
467.171	119
467.391	118
467.61	179
467.829	345
468.049	1155
468.268	1809
468.488	379
468.707	124
468.927	97
469.146	93
469.365	94
469.585	85
469.804	106
470.023	117
470.243	110
470.462	115
470.681	131
470.901	118
471.12	110
471.339	134
471.558	165
471.777	225
471.997	508
472.216	2125
472.435	5134
472.654	1063
472.873	238
473.092	124
473.311	111
473.53	111
473.749	97
473.968	110
474.187	123
474.406	101
474.625	95
474.844	102
475.063	93
475.282	91
475.501	97
475.72	96
475.939	100
476.158	93
476.377	101
476.596	97
476.814	100
477.033	86
477.252	97
477.471	106
477.69	96
477.908	105
478.127	78
478.346	98
478.564	111
478.783	125
479.002	117
479.22	122
479.439	152
479.658	145
479.876	138
480.095	143
480.313	165
480.532	245
480.751	458
480.969	1808
481.188	8217
481.406	4601
481.624	585
481.843	182
482.061	120
482.28	111
482.498	99
482.717	104
482.935	114
483.153	98
483.372	106
483.59	97
483.808	80
484.027	96
484.245	102
484.463	98
484.681	110
484.9	87
485.118	91
485.336	92
485.554	99
485.772	119
485.99	112
486.209	128
486.427	116
486.645	118
486.863	121
487.081	97
487.299	95
487.517	103
487.735	101
487.953	109
488.171	99
488.389	97
488.607	117
488.825	100
489.043	99
489.261	87
489.479	72
489.696	100
489.914	95
490.132	82
490.35	85
490.568	89
490.786	99
491.003	78
491.221	96
491.439	106
491.657	102
491.874	91
492.092	97
492.31	89
492.527	111
492.745	105
492.963	93
493.18	99
493.398	98
493.615	101
493.833	90
494.05	96
494.268	84
494.485	103
494.703	89
494.92	79
495.138	94
495.355	89
495.573	92
495.79	99
496.008	106
496.225	105
496.442	86
496.66	84
496.877	106
497.094	91
497.312	90
497.529	100
497.746	83
497.963	97
498.181	95
498.398	102
498.615	123
498.832	112
499.049	85
499.267	86
499.484	89
499.701	106
499.918	107
500.135	82
500.352	107
500.569	111
500.786	115
501.003	91
501.22	87
501.437	98
501.654	109
501.871	113
502.088	109
502.305	88
502.522	93
502.739	100
502.956	94
503.172	103
503.389	106
503.606	121
503.823	106
504.04	95
504.256	87
504.473	84
504.69	99
504.907	99
505.123	101
505.34	106
505.557	94
505.773	83
505.99	102
506.207	74
506.423	97
506.64	90
506.856	93
507.073	103
507.289	110
507.506	99
507.722	143
507.939	136
508.155	104
508.372	106
508.588	107
508.805	102
509.021	106
509.238	113
509.454	107
509.67	113
509.887	113
510.103	148
510.319	259
510.536	952
510.752	3333
510.968	883
511.184	189
511.401	121
511.617	111
511.833	127
512.049	109
512.265	106
512.481	95
512.698	94
512.914	97
513.13	97
513.346	91
513.562	106
513.778	102
513.994	106
514.21	122
514.426	142
514.642	183
514.858	161
515.074	222
515.29	678
515.506	2416
515.721	863
515.937	209
516.153	131
516.369	128
516.585	121
516.801	127
517.016	109
517.232	103
517.448	113
517.664	96
517.879	98
518.095	97
518.311	136
518.527	137
518.742	109
518.958	91
519.173	109
519.389	107
519.605	102
519.82	100
520.036	104
520.251	148
520.467	133
520.682	118
520.898	130
521.113	133
521.329	166
521.544	290
521.76	885
521.975	4141
522.19	2460
522.406	497
522.621	167
522.836	111
523.052	105
523.267	97
523.482	92
523.698	98
523.913	141
524.128	118
524.343	90
524.559	89
524.774	91
524.989	107
525.204	111
525.419	105
525.634	97
525.849	86
526.064	90
526.28	103
526.495	100
526.71	88
526.925	88
527.14	106
527.355	95
527.57	90
527.785	96
527.999	94
528.214	99
528.429	100
528.644	100
528.859	93
529.074	84
529.289	146
529.503	259
529.718	124
529.933	81
530.148	89
530.363	92
530.577	88
530.792	102
531.007	85
531.221	102
531.436	91
531.651	93
531.865	88
532.08	87
532.295	107
532.509	101
532.724	92
532.938	89
533.153	97
533.367	94
533.582	93
533.796	98
534.011	99
534.225	89
534.44	92
534.654	81
534.868	81
535.083	106
535.297	93
535.511	114
535.726	111
535.94	110
536.154	107
536.369	84
536.583	90
536.797	92
537.011	95
537.225	88
537.44	91
537.654	96
537.868	94
538.082	93
538.296	92
538.51	97
538.724	84
538.938	98
539.153	106
539.367	102
539.581	93
539.795	101
540.009	99
540.222	97
540.436	107
540.65	86
540.864	94
541.078	96
541.292	91
541.506	93
541.72	95
541.934	78
542.147	88
542.361	96
542.575	99
542.789	89
543.002	92
543.216	104
543.43	119
543.644	111
543.857	96
544.071	83
544.285	90
544.498	92
544.712	95
544.925	70
545.139	84
545.352	95
545.566	94
545.779	98
545.993	90
546.206	89
546.42	88
546.633	89
546.847	93
547.06	82
547.274	88
547.487	87
547.7	83
547.914	93
548.127	99
548.34	79
548.554	99
548.767	94
548.98	97
549.193	79
549.407	84
549.62	118
549.833	87
550.046	96
550.259	97
550.473	95
550.686	93
550.899	93
551.112	102
551.325	107
551.538	122
551.751	99
551.964	97
552.177	110
552.39	82
552.603	86
552.816	83
553.029	103
553.242	89
553.455	118
553.667	98
553.88	106
554.093	115
554.306	138
554.519	164
554.732	117
554.944	113
555.157	96
555.37	84
555.583	84
555.795	102
556.008	79
556.221	94
556.433	92
556.646	89
556.859	94
557.071	93
557.284	91
557.496	93
557.709	81
557.921	92
558.134	89
558.346	98
558.559	93
558.771	89
558.984	81
559.196	96
559.409	86
559.621	107
559.833	85
560.046	115
560.258	136
560.47	196
560.683	128
560.895	102
561.107	90
561.32	105
561.532	81
561.744	74
561.956	94
562.168	83
562.381	91
562.593	93
562.805	96
563.017	85
563.229	90
563.441	91
563.653	84
563.865	75
564.077	94
564.289	99
564.501	81
564.713	98
564.925	101
565.137	121
565.349	101
565.561	77
565.773	99
565.985	76
566.197	75
566.408	92
566.62	85
566.832	86
567.044	96
567.255	95
567.467	83
567.679	89
567.891	90
568.102	94
568.314	82
568.526	84
568.737	97
568.949	78
569.161	97
569.372	95
569.584	107
569.795	87
570.007	118
570.218	291
570.43	131
570.641	99
570.853	96
571.064	103
571.276	87
571.487	81
571.698	82
571.91	71
572.121	80
572.333	79
572.544	99
572.755	93
572.966	94
573.178	93
573.389	101
573.6	96
573.811	83
574.023	94
574.234	85
574.445	93
574.656	111
574.867	95
575.078	102
575.289	78
575.501	90
575.712	83
575.923	85
576.134	88
576.345	86
576.556	102
576.767	104
576.978	90
577.188	85
577.399	96
577.61	112
577.821	103
578.032	116
578.243	314
578.454	1013
578.665	261
