Data from Circ_1988_H10_HRD10591_00021.txt Node
Date: Wed Jan 03 12:05:39 EST 2024
User: Yrep
Spectrometer: HR+D1059
Trigger mode: 1
Integration Time (sec): 1.000000E-1
Scans to average: 1
Electric dark correction enabled: true
Nonlinearity correction enabled: false
Boxcar width: 0
XAxis mode: Wavelengths
Number of Pixels in Spectrum: 2048
>>>>>Begin Spectral Data<<<<<
223.165	-31.31
223.4	-31.31
223.635	-31.31
223.869	-14.31
224.104	-25.31
224.338	-20.31
224.573	-22.31
224.808	-10.31
225.042	-15.31
225.277	-8.31
225.511	-1.31
225.746	16.69
225.98	8.69
226.215	13.69
226.449	15.69
226.683	25.69
226.918	28.69
227.152	39.69
227.387	41.69
227.621	41.69
227.856	39.69
228.09	49.69
228.324	41.69
228.559	56.69
228.793	47.69
229.027	59.69
229.262	78.69
229.496	62.69
229.73	96.69
229.964	96.69
230.199	75.69
230.433	78.69
230.667	81.69
230.901	85.69
231.136	72.69
231.37	81.69
231.604	70.69
231.838	87.69
232.072	79.69
232.306	85.69
232.541	67.69
232.775	87.69
233.009	65.69
233.243	70.69
233.477	90.69
233.711	84.69
233.945	81.69
234.179	86.69
234.413	92.69
234.647	82.69
234.881	87.69
235.115	87.69
235.349	96.69
235.583	75.69
235.817	77.69
236.051	79.69
236.285	85.69
236.519	89.69
236.753	77.69
236.987	80.69
237.221	84.69
237.455	85.69
237.689	72.69
237.922	68.69
238.156	73.69
238.39	75.69
238.624	96.69
238.858	77.69
239.091	90.69
239.325	87.69
239.559	77.69
239.793	86.69
240.027	67.69
240.26	84.69
240.494	80.69
240.728	83.69
240.961	78.69
241.195	81.69
241.429	84.69
241.662	76.69
241.896	71.69
242.13	75.69
242.363	80.69
242.597	89.69
242.83	69.69
243.064	69.69
243.298	80.69
243.531	77.69
243.765	81.69
243.998	89.69
244.232	80.69
244.465	96.69
244.699	95.69
244.932	79.69
245.166	78.69
245.399	70.69
245.633	69.69
245.866	85.69
246.099	78.69
246.333	71.69
246.566	81.69
246.8	92.69
247.033	75.69
247.266	80.69
247.5	99.69
247.733	84.69
247.966	94.69
248.2	86.69
248.433	99.69
248.666	75.69
248.899	81.69
249.133	95.69
249.366	121.69
249.599	104.69
249.832	89.69
250.066	88.69
250.299	100.69
250.532	95.69
250.765	92.69
250.998	88.69
251.231	91.69
251.465	87.69
251.698	91.69
251.931	100.69
252.164	100.69
252.397	92.69
252.63	87.69
252.863	62.69
253.096	88.69
253.329	96.69
253.562	91.69
253.795	84.69
254.028	80.69
254.261	80.69
254.494	83.69
254.727	92.69
254.96	86.69
255.193	77.69
255.426	76.69
255.659	83.69
255.892	104.69
256.124	113.69
256.357	100.69
256.59	100.69
256.823	93.69
257.056	94.69
257.289	100.69
257.521	87.69
257.754	97.69
257.987	95.69
258.22	120.69
258.452	126.69
258.685	116.69
258.918	94.69
259.151	89.69
259.383	80.69
259.616	95.69
259.849	90.69
260.081	76.69
260.314	82.69
260.547	106.69
260.779	121.69
261.012	143.69
261.244	165.69
261.477	127.69
261.71	118.69
261.942	143.69
262.175	136.69
262.407	95.69
262.64	96.69
262.872	89.69
263.105	83.69
263.337	90.69
263.57	91.69
263.802	87.69
264.035	85.69
264.267	85.69
264.499	95.69
264.732	91.69
264.964	86.69
265.197	86.69
265.429	82.69
265.661	80.69
265.894	72.69
266.126	73.69
266.358	100.69
266.591	90.69
266.823	83.69
267.055	87.69
267.287	104.69
267.52	91.69
267.752	89.69
267.984	92.69
268.216	105.69
268.448	83.69
268.681	101.69
268.913	89.69
269.145	82.69
269.377	107.69
269.609	94.69
269.841	73.69
270.073	83.69
270.306	91.69
270.538	88.69
270.77	95.69
271.002	81.69
271.234	91.69
271.466	111.69
271.698	101.69
271.93	84.69
272.162	78.69
272.394	89.69
272.626	89.69
272.858	95.69
273.09	85.69
273.322	87.69
273.553	84.69
273.785	90.69
274.017	77.69
274.249	86.69
274.481	103.69
274.713	91.69
274.945	99.69
275.176	120.69
275.408	128.69
275.64	174.69
275.872	215.69
276.104	149.69
276.335	111.69
276.567	149.69
276.799	207.69
277.031	316.69
277.262	411.69
277.494	308.69
277.726	151.69
277.957	98.69
278.189	101.69
278.421	92.69
278.652	103.69
278.884	97.69
279.115	104.69
279.347	124.69
279.579	135.69
279.81	248.69
280.042	437.69
280.273	664.69
280.505	415.69
280.736	157.69
280.968	112.69
281.199	97.69
281.431	115.69
281.662	97.69
281.894	80.69
282.125	116.69
282.356	148.69
282.588	161.69
282.819	123.69
283.051	112.69
283.282	93.69
283.513	87.69
283.745	93.69
283.976	75.69
284.207	104.69
284.439	93.69
284.67	86.69
284.901	87.69
285.132	78.69
285.364	93.69
285.595	87.69
285.826	72.69
286.057	73.69
286.288	87.69
286.52	98.69
286.751	92.69
286.982	84.69
287.213	90.69
287.444	108.69
287.675	95.69
287.906	91.69
288.138	108.69
288.369	99.69
288.6	90.69
288.831	99.69
289.062	104.69
289.293	86.69
289.524	78.69
289.755	102.69
289.986	85.69
290.217	103.69
290.448	87.69
290.679	92.69
290.91	97.69
291.141	93.69
291.371	85.69
291.602	89.69
291.833	85.69
292.064	91.69
292.295	78.69
292.526	83.69
292.757	95.69
292.987	95.69
293.218	95.69
293.449	98.69
293.68	88.69
293.91	92.69
294.141	92.69
294.372	87.69
294.603	91.69
294.833	95.69
295.064	96.69
295.295	87.69
295.525	92.69
295.756	104.69
295.987	148.69
296.217	187.69
296.448	153.69
296.679	97.69
296.909	88.69
297.14	85.69
297.37	89.69
297.601	94.69
297.831	89.69
298.062	92.69
298.292	95.69
298.523	98.69
298.753	88.69
298.984	87.69
299.214	83.69
299.445	101.69
299.675	128.69
299.905	107.69
300.136	99.69
300.366	86.69
300.597	98.69
300.827	81.69
301.057	106.69
301.288	124.69
301.518	117.69
301.748	103.69
301.979	136.69
302.209	118.69
302.439	103.69
302.669	103.69
302.9	98.69
303.13	107.69
303.36	135.69
303.59	186.69
303.82	231.69
304.051	133.69
304.281	104.69
304.511	94.69
304.741	83.69
304.971	83.69
305.201	83.69
305.431	99.69
305.661	106.69
305.891	104.69
306.121	99.69
306.352	109.69
306.582	117.69
306.812	129.69
307.042	201.69
307.272	294.69
307.502	349.69
307.731	281.69
307.961	167.69
308.191	118.69
308.421	101.69
308.651	104.69
308.881	100.69
309.111	102.69
309.341	107.69
309.571	118.69
309.8	118.69
310.03	119.69
310.26	111.69
310.49	107.69
310.72	110.69
310.949	123.69
311.179	103.69
311.409	102.69
311.639	108.69
311.868	112.69
312.098	99.69
312.328	111.69
312.557	114.69
312.787	128.69
313.017	105.69
313.246	92.69
313.476	103.69
313.706	100.69
313.935	101.69
314.165	114.69
314.394	106.69
314.624	95.69
314.853	105.69
315.083	94.69
315.312	98.69
315.542	96.69
315.771	100.69
316.001	95.69
316.23	83.69
316.46	92.69
316.689	95.69
316.919	95.69
317.148	100.69
317.377	100.69
317.607	100.69
317.836	87.69
318.065	103.69
318.295	88.69
318.524	84.69
318.753	104.69
318.983	103.69
319.212	121.69
319.441	119.69
319.67	119.69
319.9	96.69
320.129	76.69
320.358	93.69
320.587	118.69
320.816	108.69
321.046	100.69
321.275	101.69
321.504	88.69
321.733	113.69
321.962	100.69
322.191	106.69
322.42	116.69
322.649	126.69
322.878	104.69
323.108	139.69
323.337	133.69
323.566	157.69
323.795	174.69
324.024	233.69
324.253	473.69
324.482	1009.69
324.71	2030.69
324.939	2765.69
325.168	1024.69
325.397	297.69
325.626	177.69
325.855	153.69
326.084	154.69
326.313	149.69
326.542	178.69
326.77	278.69
326.999	502.69
327.228	1046.69
327.457	1952.69
327.686	1661.69
327.914	795.69
328.143	1130.69
328.372	1597.69
328.6	783.69
328.829	273.69
329.058	246.69
329.287	259.69
329.515	275.69
329.744	497.69
329.972	1125.69
330.201	2552.69
330.43	3696.69
330.658	1423.69
330.887	469.69
331.115	239.69
331.344	150.69
331.572	153.69
331.801	147.69
332.03	124.69
332.258	111.69
332.486	122.69
332.715	134.69
332.943	147.69
333.172	166.69
333.4	175.69
333.629	247.69
333.857	425.69
334.085	938.69
334.314	2168.69
334.542	4522.69
334.771	4051.69
334.999	934.69
335.227	311.69
335.455	161.69
335.684	144.69
335.912	143.69
336.14	131.69
336.369	140.69
336.597	132.69
336.825	126.69
337.053	112.69
337.281	103.69
337.51	96.69
337.738	104.69
337.966	104.69
338.194	109.69
338.422	109.69
338.65	103.69
338.878	108.69
339.106	95.69
339.334	105.69
339.562	98.69
339.79	96.69
340.018	101.69
340.246	92.69
340.474	99.69
340.702	99.69
340.93	92.69
341.158	115.69
341.386	91.69
341.614	98.69
341.842	95.69
342.07	98.69
342.298	103.69
342.526	97.69
342.754	100.69
342.981	91.69
343.209	75.69
343.437	100.69
343.665	103.69
343.893	104.69
344.12	96.69
344.348	96.69
344.576	95.69
344.804	101.69
345.031	111.69
345.259	113.69
345.487	113.69
345.714	94.69
345.942	77.69
346.17	102.69
346.397	101.69
346.625	83.69
346.853	85.69
347.08	93.69
347.308	108.69
347.535	109.69
347.763	112.69
347.99	107.69
348.218	119.69
348.445	121.69
348.673	118.69
348.9	101.69
349.128	110.69
349.355	92.69
349.583	87.69
349.81	94.69
350.037	93.69
350.265	91.69
350.492	88.69
350.72	87.69
350.947	112.69
351.174	107.69
351.402	104.69
351.629	111.69
351.856	109.69
352.083	103.69
352.311	115.69
352.538	114.69
352.765	118.69
352.992	107.69
353.22	121.69
353.447	111.69
353.674	98.69
353.901	98.69
354.128	99.69
354.355	97.69
354.583	117.69
354.81	91.69
355.037	103.69
355.264	105.69
355.491	97.69
355.718	89.69
355.945	87.69
356.172	85.69
356.399	97.69
356.626	104.69
356.853	94.69
357.08	106.69
357.307	95.69
357.534	100.69
357.761	96.69
357.988	96.69
358.215	104.69
358.441	97.69
358.668	101.69
358.895	96.69
359.122	100.69
359.349	92.69
359.576	109.69
359.802	121.69
360.029	136.69
360.256	140.69
360.483	113.69
360.709	92.69
360.936	101.69
361.163	108.69
361.39	97.69
361.616	102.69
361.843	98.69
362.07	115.69
362.296	109.69
362.523	114.69
362.749	98.69
362.976	97.69
363.203	90.69
363.429	94.69
363.656	95.69
363.882	87.69
364.109	99.69
364.335	78.69
364.562	98.69
364.788	96.69
365.015	107.69
365.241	89.69
365.468	113.69
365.694	103.69
365.92	108.69
366.147	101.69
366.373	100.69
366.599	94.69
366.826	97.69
367.052	78.69
367.278	93.69
367.505	98.69
367.731	104.69
367.957	88.69
368.184	105.69
368.41	118.69
368.636	128.69
368.862	132.69
369.089	120.69
369.315	108.69
369.541	100.69
369.767	95.69
369.993	90.69
370.219	98.69
370.445	95.69
370.672	91.69
370.898	95.69
371.124	91.69
371.35	93.69
371.576	90.69
371.802	81.69
372.028	94.69
372.254	80.69
372.48	84.69
372.706	84.69
372.932	85.69
373.158	80.69
373.384	98.69
373.61	83.69
373.835	100.69
374.061	85.69
374.287	101.69
374.513	83.69
374.739	95.69
374.965	105.69
375.191	100.69
375.416	91.69
375.642	87.69
375.868	89.69
376.094	103.69
376.319	89.69
376.545	89.69
376.771	91.69
376.997	103.69
377.222	110.69
377.448	103.69
377.674	90.69
377.899	101.69
378.125	112.69
378.35	92.69
378.576	107.69
378.802	97.69
379.027	100.69
379.253	87.69
379.478	91.69
379.704	99.69
379.929	110.69
380.155	103.69
380.38	100.69
380.606	113.69
380.831	118.69
381.057	108.69
381.282	115.69
381.507	116.69
381.733	104.69
381.958	94.69
382.184	116.69
382.409	128.69
382.634	142.69
382.86	103.69
383.085	112.69
383.31	127.69
383.535	108.69
383.761	114.69
383.986	109.69
384.211	134.69
384.436	128.69
384.662	126.69
384.887	129.69
385.112	141.69
385.337	144.69
385.562	140.69
385.787	148.69
386.013	145.69
386.238	151.69
386.463	147.69
386.688	136.69
386.913	124.69
387.138	152.69
387.363	123.69
387.588	127.69
387.813	122.69
388.038	144.69
388.263	155.69
388.488	151.69
388.713	105.69
388.938	103.69
389.163	91.69
389.387	94.69
389.612	87.69
389.837	90.69
390.062	75.69
390.287	86.69
390.512	81.69
390.736	87.69
390.961	79.69
391.186	89.69
391.411	89.69
391.636	85.69
391.86	71.69
392.085	83.69
392.31	84.69
392.534	98.69
392.759	94.69
392.984	98.69
393.208	98.69
393.433	108.69
393.658	97.69
393.882	88.69
394.107	82.69
394.331	84.69
394.556	86.69
394.78	97.69
395.005	77.69
395.229	90.69
395.454	72.69
395.678	89.69
395.903	77.69
396.127	87.69
396.352	79.69
396.576	89.69
396.801	92.69
397.025	92.69
397.249	88.69
397.474	84.69
397.698	97.69
397.922	89.69
398.147	82.69
398.371	88.69
398.595	86.69
398.82	79.69
399.044	84.69
399.268	99.69
399.492	107.69
399.717	92.69
399.941	90.69
400.165	91.69
400.389	91.69
400.613	80.69
400.837	97.69
401.062	84.69
401.286	101.69
401.51	102.69
401.734	96.69
401.958	116.69
402.182	160.69
402.406	203.69
402.63	159.69
402.854	100.69
403.078	90.69
403.302	101.69
403.526	83.69
403.75	105.69
403.974	94.69
404.198	79.69
404.422	85.69
404.645	98.69
404.869	111.69
405.093	131.69
405.317	160.69
405.541	171.69
405.765	134.69
405.988	147.69
406.212	213.69
406.436	322.69
406.66	213.69
406.883	115.69
407.107	114.69
407.331	111.69
407.555	108.69
407.778	100.69
408.002	87.69
408.226	79.69
408.449	91.69
408.673	91.69
408.896	102.69
409.12	93.69
409.344	102.69
409.567	80.69
409.791	94.69
410.014	85.69
410.238	85.69
410.461	99.69
410.685	93.69
410.908	104.69
411.132	106.69
411.355	99.69
411.578	82.69
411.802	92.69
412.025	97.69
412.249	96.69
412.472	132.69
412.695	169.69
412.919	131.69
413.142	113.69
413.365	95.69
413.589	83.69
413.812	79.69
414.035	108.69
414.258	109.69
414.482	110.69
414.705	94.69
414.928	93.69
415.151	100.69
415.374	99.69
415.597	99.69
415.821	89.69
416.044	101.69
416.267	98.69
416.49	92.69
416.713	95.69
416.936	89.69
417.159	121.69
417.382	105.69
417.605	134.69
417.828	146.69
418.051	100.69
418.274	93.69
418.497	88.69
418.72	92.69
418.943	92.69
419.166	84.69
419.389	93.69
419.611	88.69
419.834	111.69
420.057	111.69
420.28	99.69
420.503	103.69
420.726	99.69
420.948	84.69
421.171	121.69
421.394	110.69
421.617	85.69
421.839	72.69
422.062	82.69
422.285	105.69
422.507	105.69
422.73	121.69
422.953	116.69
423.175	91.69
423.398	85.69
423.621	86.69
423.843	92.69
424.066	86.69
424.288	91.69
424.511	88.69
424.733	92.69
424.956	100.69
425.178	97.69
425.401	111.69
425.623	114.69
425.846	91.69
426.068	111.69
426.291	92.69
426.513	98.69
426.735	100.69
426.958	105.69
427.18	127.69
427.402	191.69
427.625	315.69
427.847	283.69
428.069	275.69
428.292	177.69
428.514	111.69
428.736	104.69
428.958	91.69
429.181	98.69
429.403	105.69
429.625	111.69
429.847	99.69
430.069	118.69
430.292	101.69
430.514	101.69
430.736	94.69
430.958	95.69
431.18	84.69
431.402	92.69
431.624	81.69
431.846	84.69
432.068	81.69
432.29	92.69
432.512	84.69
432.734	89.69
432.956	110.69
433.178	97.69
433.4	94.69
433.622	99.69
433.844	99.69
434.066	97.69
434.287	91.69
434.509	94.69
434.731	91.69
434.953	87.69
435.175	96.69
435.397	90.69
435.618	80.69
435.84	98.69
436.062	133.69
436.284	109.69
436.505	104.69
436.727	95.69
436.949	107.69
437.17	88.69
437.392	81.69
437.614	107.69
437.835	131.69
438.057	142.69
438.278	123.69
438.5	115.69
438.721	131.69
438.943	106.69
439.165	91.69
439.386	80.69
439.608	100.69
439.829	105.69
440.05	142.69
440.272	186.69
440.493	118.69
440.715	86.69
440.936	94.69
441.158	98.69
441.379	98.69
441.6	98.69
441.822	98.69
442.043	88.69
442.264	112.69
442.486	98.69
442.707	107.69
442.928	121.69
443.149	177.69
443.371	145.69
443.592	127.69
443.813	116.69
444.034	126.69
444.255	102.69
444.476	92.69
444.698	88.69
444.919	90.69
445.14	132.69
445.361	129.69
445.582	144.69
445.803	193.69
446.024	176.69
446.245	160.69
446.466	121.69
446.687	91.69
446.908	79.69
447.129	106.69
447.35	86.69
447.571	97.69
447.792	99.69
448.013	109.69
448.234	127.69
448.455	108.69
448.675	117.69
448.896	126.69
449.117	94.69
449.338	102.69
449.559	131.69
449.779	140.69
450	92.69
450.221	83.69
450.442	103.69
450.662	106.69
450.883	121.69
451.104	136.69
451.324	97.69
451.545	87.69
451.766	98.69
451.986	83.69
452.207	81.69
452.428	101.69
452.648	112.69
452.869	106.69
453.089	140.69
453.31	139.69
453.53	105.69
453.751	93.69
453.971	116.69
454.192	130.69
454.412	112.69
454.633	87.69
454.853	84.69
455.073	97.69
455.294	94.69
455.514	96.69
455.734	99.69
455.955	83.69
456.175	101.69
456.395	78.69
456.616	76.69
456.836	86.69
457.056	89.69
457.276	68.69
457.497	83.69
457.717	95.69
457.937	93.69
458.157	83.69
458.377	103.69
458.598	140.69
458.818	226.69
459.038	250.69
459.258	153.69
459.478	103.69
459.698	98.69
459.918	82.69
460.138	82.69
460.358	84.69
460.578	96.69
460.798	94.69
461.018	95.69
461.238	91.69
461.458	88.69
461.678	94.69
461.898	93.69
462.118	90.69
462.338	84.69
462.558	91.69
462.777	97.69
462.997	126.69
463.217	161.69
463.437	125.69
463.657	97.69
463.876	102.69
464.096	99.69
464.316	96.69
464.536	109.69
464.755	108.69
464.975	138.69
465.195	244.69
465.414	257.69
465.634	118.69
465.854	97.69
466.073	92.69
466.293	110.69
466.512	97.69
466.732	98.69
466.951	96.69
467.171	111.69
467.391	128.69
467.61	224.69
467.829	436.69
468.049	1567.69
468.268	2479.69
468.488	488.69
468.707	175.69
468.927	125.69
469.146	109.69
469.365	92.69
469.585	114.69
469.804	120.69
470.023	116.69
470.243	107.69
470.462	127.69
470.681	156.69
470.901	122.69
471.12	125.69
471.339	135.69
471.558	174.69
471.777	256.69
471.997	655.69
472.216	2787.69
472.435	6702.69
472.654	1335.69
472.873	281.69
473.092	142.69
473.311	129.69
473.53	114.69
473.749	109.69
473.968	120.69
474.187	130.69
474.406	116.69
474.625	93.69
474.844	98.69
475.063	96.69
475.282	86.69
475.501	104.69
475.72	103.69
475.939	79.69
476.158	89.69
476.377	103.69
476.596	96.69
476.814	107.69
477.033	121.69
477.252	101.69
477.471	111.69
477.69	102.69
477.908	100.69
478.127	105.69
478.346	91.69
478.564	115.69
478.783	125.69
479.002	110.69
479.22	130.69
479.439	158.69
479.658	151.69
479.876	165.69
480.095	172.69
480.313	187.69
480.532	281.69
480.751	592.69
480.969	2382.69
481.188	10570.69
481.406	5844.69
481.624	741.69
481.843	233.69
482.061	163.69
482.28	126.69
482.498	96.69
482.717	105.69
482.935	110.69
483.153	103.69
483.372	99.69
483.59	98.69
483.808	94.69
484.027	109.69
484.245	97.69
484.463	108.69
484.681	105.69
484.9	83.69
485.118	95.69
485.336	88.69
485.554	86.69
485.772	111.69
485.99	106.69
486.209	111.69
486.427	107.69
486.645	133.69
486.863	126.69
487.081	127.69
487.299	107.69
487.517	95.69
487.735	104.69
487.953	99.69
488.171	103.69
488.389	99.69
488.607	117.69
488.825	92.69
489.043	95.69
489.261	96.69
489.479	81.69
489.696	88.69
489.914	97.69
490.132	81.69
490.35	97.69
490.568	94.69
490.786	92.69
491.003	99.69
491.221	103.69
491.439	110.69
491.657	83.69
491.874	103.69
492.092	98.69
492.31	100.69
492.527	103.69
492.745	107.69
492.963	107.69
493.18	101.69
493.398	91.69
493.615	105.69
493.833	91.69
494.05	97.69
494.268	99.69
494.485	98.69
494.703	95.69
494.92	97.69
495.138	83.69
495.355	99.69
495.573	100.69
495.79	100.69
496.008	111.69
496.225	99.69
496.442	92.69
496.66	97.69
496.877	90.69
497.094	98.69
497.312	82.69
497.529	89.69
497.746	87.69
497.963	90.69
498.181	101.69
498.398	110.69
498.615	113.69
498.832	114.69
499.049	92.69
499.267	77.69
499.484	101.69
499.701	99.69
499.918	104.69
500.135	94.69
500.352	88.69
500.569	102.69
500.786	117.69
501.003	94.69
501.22	98.69
501.437	77.69
501.654	98.69
501.871	132.69
502.088	97.69
502.305	81.69
502.522	96.69
502.739	91.69
502.956	89.69
503.172	102.69
503.389	116.69
503.606	137.69
503.823	113.69
504.04	105.69
504.256	92.69
504.473	92.69
504.69	83.69
504.907	110.69
505.123	83.69
505.34	83.69
505.557	89.69
505.773	96.69
505.99	87.69
506.207	89.69
506.423	97.69
506.64	91.69
506.856	106.69
507.073	83.69
507.289	91.69
507.506	112.69
507.722	136.69
507.939	132.69
508.155	101.69
508.372	81.69
508.588	94.69
508.805	105.69
509.021	102.69
509.238	97.69
509.454	117.69
509.67	105.69
509.887	100.69
510.103	131.69
510.319	254.69
510.536	1004.69
510.752	3663.69
510.968	925.69
511.184	198.69
