Data from Circ_1988_H10_HRD10591_00028.txt Node
Date: Wed Jan 03 12:05:40 EST 2024
User: Yrep
Spectrometer: HR+D1059
Trigger mode: 1
Integration Time (sec): 1.000000E-1
Scans to average: 1
Electric dark correction enabled: true
Nonlinearity correction enabled: false
Boxcar width: 0
XAxis mode: Wavelengths
Number of Pixels in Spectrum: 2048
>>>>>Begin Spectral Data<<<<<
223.165	-24.94
223.4	-24.94
223.635	-24.94
223.869	-24.94
224.104	-28.94
224.338	-10.94
224.573	-10.94
224.808	-13.94
225.042	-0.94
225.277	-5.94
225.511	-8.94
225.746	12.06
225.98	9.06
226.215	19.06
226.449	19.06
226.683	14.06
226.918	22.06
227.152	35.06
227.387	29.06
227.621	37.06
227.856	47.06
228.09	33.06
228.324	42.06
228.559	68.06
228.793	54.06
229.027	51.06
229.262	75.06
229.496	85.06
229.73	99.06
229.964	80.06
230.199	70.06
230.433	71.06
230.667	80.06
230.901	85.06
231.136	98.06
231.37	80.06
231.604	71.06
231.838	75.06
232.072	87.06
232.306	56.06
232.541	66.06
232.775	76.06
233.009	89.06
233.243	75.06
233.477	88.06
233.711	76.06
233.945	68.06
234.179	90.06
234.413	73.06
234.647	79.06
234.881	93.06
235.115	86.06
235.349	63.06
235.583	84.06
235.817	66.06
236.051	77.06
236.285	87.06
236.519	78.06
236.753	69.06
236.987	96.06
237.221	93.06
237.455	86.06
237.689	83.06
237.922	68.06
238.156	67.06
238.39	82.06
238.624	75.06
238.858	68.06
239.091	77.06
239.325	76.06
239.559	82.06
239.793	86.06
240.027	98.06
240.26	84.06
240.494	61.06
240.728	73.06
240.961	67.06
241.195	82.06
241.429	83.06
241.662	70.06
241.896	76.06
242.13	61.06
242.363	75.06
242.597	69.06
242.83	71.06
243.064	88.06
243.298	87.06
243.531	71.06
243.765	85.06
243.998	103.06
244.232	83.06
244.465	85.06
244.699	90.06
244.932	73.06
245.166	70.06
245.399	77.06
245.633	75.06
245.866	86.06
246.099	90.06
246.333	90.06
246.566	71.06
246.8	81.06
247.033	80.06
247.266	75.06
247.5	67.06
247.733	73.06
247.966	72.06
248.2	90.06
248.433	82.06
248.666	77.06
248.899	83.06
249.133	105.06
249.366	113.06
249.599	95.06
249.832	79.06
250.066	90.06
250.299	92.06
250.532	102.06
250.765	92.06
250.998	61.06
251.231	77.06
251.465	78.06
251.698	89.06
251.931	90.06
252.164	73.06
252.397	89.06
252.63	62.06
252.863	69.06
253.096	82.06
253.329	77.06
253.562	91.06
253.795	81.06
254.028	68.06
254.261	87.06
254.494	73.06
254.727	89.06
254.96	81.06
255.193	67.06
255.426	85.06
255.659	83.06
255.892	101.06
256.124	102.06
256.357	92.06
256.59	86.06
256.823	85.06
257.056	98.06
257.289	101.06
257.521	85.06
257.754	93.06
257.987	86.06
258.22	93.06
258.452	128.06
258.685	102.06
258.918	92.06
259.151	82.06
259.383	80.06
259.616	89.06
259.849	86.06
260.081	83.06
260.314	76.06
260.547	97.06
260.779	109.06
261.012	145.06
261.244	142.06
261.477	108.06
261.71	89.06
261.942	124.06
262.175	142.06
262.407	99.06
262.64	89.06
262.872	86.06
263.105	79.06
263.337	86.06
263.57	89.06
263.802	90.06
264.035	90.06
264.267	79.06
264.499	73.06
264.732	83.06
264.964	79.06
265.197	97.06
265.429	83.06
265.661	82.06
265.894	77.06
266.126	81.06
266.358	76.06
266.591	89.06
266.823	75.06
267.055	85.06
267.287	85.06
267.52	97.06
267.752	86.06
267.984	69.06
268.216	83.06
268.448	89.06
268.681	86.06
268.913	95.06
269.145	74.06
269.377	75.06
269.609	90.06
269.841	93.06
270.073	85.06
270.306	79.06
270.538	75.06
270.77	91.06
271.002	83.06
271.234	92.06
271.466	111.06
271.698	90.06
271.93	85.06
272.162	74.06
272.394	67.06
272.626	76.06
272.858	82.06
273.09	65.06
273.322	83.06
273.553	89.06
273.785	91.06
274.017	80.06
274.249	86.06
274.481	91.06
274.713	79.06
274.945	92.06
275.176	87.06
275.408	124.06
275.64	140.06
275.872	173.06
276.104	131.06
276.335	98.06
276.567	107.06
276.799	165.06
277.031	254.06
277.262	343.06
277.494	250.06
277.726	135.06
277.957	92.06
278.189	100.06
278.421	76.06
278.652	78.06
278.884	77.06
279.115	100.06
279.347	103.06
279.579	143.06
279.81	186.06
280.042	355.06
280.273	525.06
280.505	323.06
280.736	146.06
280.968	110.06
281.199	108.06
281.431	92.06
281.662	100.06
281.894	89.06
282.125	111.06
282.356	141.06
282.588	160.06
282.819	138.06
283.051	84.06
283.282	85.06
283.513	89.06
283.745	82.06
283.976	92.06
284.207	90.06
284.439	68.06
284.67	73.06
284.901	81.06
285.132	79.06
285.364	72.06
285.595	85.06
285.826	83.06
286.057	78.06
286.288	86.06
286.52	83.06
286.751	80.06
286.982	79.06
287.213	75.06
287.444	86.06
287.675	100.06
287.906	91.06
288.138	82.06
288.369	97.06
288.6	88.06
288.831	92.06
289.062	87.06
289.293	82.06
289.524	76.06
289.755	85.06
289.986	85.06
290.217	78.06
290.448	66.06
290.679	81.06
290.91	102.06
291.141	92.06
291.371	87.06
291.602	81.06
291.833	95.06
292.064	72.06
292.295	89.06
292.526	83.06
292.757	98.06
292.987	87.06
293.218	82.06
293.449	90.06
293.68	84.06
293.91	91.06
294.141	85.06
294.372	91.06
294.603	103.06
294.833	84.06
295.064	82.06
295.295	86.06
295.525	98.06
295.756	114.06
295.987	133.06
296.217	155.06
296.448	147.06
296.679	91.06
296.909	82.06
297.14	98.06
297.37	81.06
297.601	96.06
297.831	90.06
298.062	106.06
298.292	96.06
298.523	81.06
298.753	86.06
298.984	83.06
299.214	91.06
299.445	88.06
299.675	91.06
299.905	99.06
300.136	90.06
300.366	98.06
300.597	89.06
300.827	94.06
301.057	97.06
301.288	117.06
301.518	97.06
301.748	109.06
301.979	137.06
302.209	107.06
302.439	91.06
302.669	111.06
302.9	79.06
303.13	99.06
303.36	124.06
303.59	164.06
303.82	194.06
304.051	108.06
304.281	83.06
304.511	87.06
304.741	97.06
304.971	91.06
305.201	82.06
305.431	84.06
305.661	100.06
305.891	95.06
306.121	122.06
306.352	107.06
306.582	116.06
306.812	130.06
307.042	157.06
307.272	251.06
307.502	269.06
307.731	249.06
307.961	158.06
308.191	104.06
308.421	103.06
308.651	106.06
308.881	103.06
309.111	102.06
309.341	92.06
309.571	100.06
309.8	110.06
310.03	100.06
310.26	91.06
310.49	102.06
310.72	110.06
310.949	121.06
311.179	97.06
311.409	97.06
311.639	104.06
311.868	102.06
312.098	112.06
312.328	90.06
312.557	98.06
312.787	109.06
313.017	122.06
313.246	96.06
313.476	95.06
313.706	89.06
313.935	97.06
314.165	113.06
314.394	113.06
314.624	103.06
314.853	97.06
315.083	85.06
315.312	95.06
315.542	73.06
315.771	96.06
316.001	103.06
316.23	81.06
316.46	97.06
316.689	88.06
316.919	92.06
317.148	101.06
317.377	100.06
317.607	110.06
317.836	101.06
318.065	91.06
318.295	94.06
318.524	91.06
318.753	94.06
318.983	87.06
319.212	106.06
319.441	114.06
319.67	98.06
319.9	110.06
320.129	89.06
320.358	88.06
320.587	99.06
320.816	91.06
321.046	107.06
321.275	102.06
321.504	106.06
321.733	87.06
321.962	102.06
322.191	102.06
322.42	109.06
322.649	113.06
322.878	103.06
323.108	121.06
323.337	142.06
323.566	127.06
323.795	159.06
324.024	215.06
324.253	382.06
324.482	831.06
324.71	1625.06
324.939	2165.06
325.168	841.06
325.397	247.06
325.626	167.06
325.855	134.06
326.084	110.06
326.313	134.06
326.542	160.06
326.77	212.06
326.999	411.06
327.228	799.06
327.457	1507.06
327.686	1301.06
327.914	625.06
328.143	817.06
328.372	1192.06
328.6	621.06
328.829	237.06
329.058	194.06
329.287	223.06
329.515	223.06
329.744	362.06
329.972	795.06
330.201	1817.06
330.43	2756.06
330.658	1088.06
330.887	366.06
331.115	210.06
331.344	139.06
331.572	125.06
331.801	139.06
332.03	123.06
332.258	125.06
332.486	124.06
332.715	117.06
332.943	117.06
333.172	135.06
333.4	147.06
333.629	201.06
333.857	317.06
334.085	693.06
334.314	1559.06
334.542	3230.06
334.771	2999.06
334.999	732.06
335.227	250.06
335.455	128.06
335.684	125.06
335.912	108.06
336.14	111.06
336.369	114.06
336.597	90.06
336.825	111.06
337.053	91.06
337.281	90.06
337.51	101.06
337.738	93.06
337.966	106.06
338.194	114.06
338.422	92.06
338.65	102.06
338.878	109.06
339.106	97.06
339.334	92.06
339.562	86.06
339.79	103.06
340.018	101.06
340.246	100.06
340.474	93.06
340.702	84.06
340.93	85.06
341.158	91.06
341.386	91.06
341.614	103.06
341.842	92.06
342.07	106.06
342.298	100.06
342.526	83.06
342.754	77.06
342.981	92.06
343.209	79.06
343.437	93.06
343.665	103.06
343.893	91.06
344.12	91.06
344.348	99.06
344.576	86.06
344.804	93.06
345.031	94.06
345.259	110.06
345.487	97.06
345.714	98.06
345.942	92.06
346.17	82.06
346.397	86.06
346.625	100.06
346.853	95.06
347.08	97.06
347.308	99.06
347.535	96.06
347.763	97.06
347.99	102.06
348.218	99.06
348.445	103.06
348.673	91.06
348.9	97.06
349.128	90.06
349.355	99.06
349.583	100.06
349.81	97.06
350.037	101.06
350.265	86.06
350.492	91.06
350.72	96.06
350.947	104.06
351.174	105.06
351.402	118.06
351.629	111.06
351.856	114.06
352.083	112.06
352.311	111.06
352.538	115.06
352.765	117.06
352.992	122.06
353.22	117.06
353.447	95.06
353.674	101.06
353.901	102.06
354.128	108.06
354.355	88.06
354.583	108.06
354.81	91.06
355.037	97.06
355.264	84.06
355.491	94.06
355.718	76.06
355.945	90.06
356.172	90.06
356.399	89.06
356.626	88.06
356.853	86.06
357.08	76.06
357.307	100.06
357.534	85.06
357.761	102.06
357.988	97.06
358.215	104.06
358.441	94.06
358.668	98.06
358.895	84.06
359.122	81.06
359.349	98.06
359.576	97.06
359.802	109.06
360.029	130.06
360.256	134.06
360.483	96.06
360.709	88.06
360.936	85.06
361.163	98.06
361.39	110.06
361.616	105.06
361.843	95.06
362.07	96.06
362.296	98.06
362.523	94.06
362.749	95.06
362.976	84.06
363.203	103.06
363.429	114.06
363.656	85.06
363.882	75.06
364.109	92.06
364.335	94.06
364.562	85.06
364.788	57.06
365.015	97.06
365.241	101.06
365.468	114.06
365.694	104.06
365.92	102.06
366.147	88.06
366.373	91.06
366.599	86.06
366.826	88.06
367.052	97.06
367.278	83.06
367.505	99.06
367.731	91.06
367.957	95.06
368.184	111.06
368.41	111.06
368.636	111.06
368.862	145.06
369.089	129.06
369.315	80.06
369.541	110.06
369.767	94.06
369.993	79.06
370.219	98.06
370.445	81.06
370.672	85.06
370.898	92.06
371.124	90.06
371.35	99.06
371.576	78.06
371.802	89.06
372.028	83.06
372.254	88.06
372.48	84.06
372.706	79.06
372.932	74.06
373.158	82.06
373.384	97.06
373.61	85.06
373.835	91.06
374.061	93.06
374.287	97.06
374.513	83.06
374.739	87.06
374.965	77.06
375.191	86.06
375.416	92.06
375.642	84.06
375.868	95.06
376.094	100.06
376.319	86.06
376.545	93.06
376.771	98.06
376.997	96.06
377.222	82.06
377.448	93.06
377.674	80.06
377.899	86.06
378.125	93.06
378.35	89.06
378.576	98.06
378.802	102.06
379.027	93.06
379.253	86.06
379.478	96.06
379.704	98.06
379.929	108.06
380.155	101.06
380.38	105.06
380.606	89.06
380.831	101.06
381.057	102.06
381.282	106.06
381.507	89.06
381.733	109.06
381.958	120.06
382.184	115.06
382.409	117.06
382.634	94.06
382.86	98.06
383.085	101.06
383.31	108.06
383.535	108.06
383.761	108.06
383.986	110.06
384.211	99.06
384.436	112.06
384.662	111.06
384.887	116.06
385.112	136.06
385.337	126.06
385.562	134.06
385.787	124.06
386.013	142.06
386.238	138.06
386.463	122.06
386.688	115.06
386.913	125.06
387.138	138.06
387.363	115.06
387.588	104.06
387.813	110.06
388.038	126.06
388.263	138.06
388.488	132.06
388.713	84.06
388.938	84.06
389.163	88.06
389.387	88.06
389.612	86.06
389.837	94.06
390.062	99.06
390.287	81.06
390.512	82.06
390.736	78.06
390.961	93.06
391.186	96.06
391.411	91.06
391.636	98.06
391.86	86.06
392.085	80.06
392.31	85.06
392.534	95.06
392.759	99.06
392.984	81.06
393.208	91.06
393.433	90.06
393.658	79.06
393.882	91.06
394.107	74.06
394.331	85.06
394.556	78.06
394.78	84.06
395.005	95.06
395.229	92.06
395.454	84.06
395.678	90.06
395.903	87.06
396.127	84.06
396.352	88.06
396.576	72.06
396.801	98.06
397.025	97.06
397.249	75.06
397.474	85.06
397.698	83.06
397.922	92.06
398.147	84.06
398.371	70.06
398.595	78.06
398.82	97.06
399.044	79.06
399.268	83.06
399.492	83.06
399.717	87.06
399.941	103.06
400.165	75.06
400.389	79.06
400.613	89.06
400.837	78.06
401.062	81.06
401.286	84.06
401.51	98.06
401.734	84.06
401.958	101.06
402.182	133.06
402.406	177.06
402.63	125.06
402.854	103.06
403.078	98.06
403.302	86.06
403.526	105.06
403.75	99.06
403.974	87.06
404.198	92.06
404.422	75.06
404.645	98.06
404.869	90.06
405.093	116.06
405.317	141.06
405.541	139.06
405.765	113.06
405.988	141.06
406.212	199.06
406.436	298.06
406.66	217.06
406.883	122.06
407.107	91.06
407.331	96.06
407.555	100.06
407.778	88.06
408.002	97.06
408.226	95.06
408.449	79.06
408.673	87.06
408.896	92.06
409.12	95.06
409.344	91.06
409.567	82.06
409.791	75.06
410.014	94.06
410.238	89.06
410.461	88.06
410.685	83.06
410.908	93.06
411.132	95.06
411.355	101.06
411.578	108.06
411.802	84.06
412.025	94.06
412.249	100.06
412.472	102.06
412.695	146.06
412.919	120.06
413.142	85.06
413.365	96.06
413.589	90.06
413.812	81.06
414.035	99.06
414.258	107.06
414.482	89.06
414.705	97.06
414.928	95.06
415.151	103.06
415.374	90.06
415.597	85.06
415.821	94.06
416.044	97.06
416.267	97.06
416.49	85.06
416.713	79.06
416.936	107.06
417.159	112.06
417.382	106.06
417.605	122.06
417.828	122.06
418.051	109.06
418.274	90.06
418.497	78.06
418.72	80.06
418.943	86.06
419.166	87.06
419.389	81.06
419.611	99.06
419.834	81.06
420.057	91.06
420.28	85.06
420.503	90.06
420.726	97.06
420.948	104.06
421.171	107.06
421.394	97.06
421.617	84.06
421.839	89.06
422.062	92.06
422.285	94.06
422.507	89.06
422.73	110.06
422.953	105.06
423.175	100.06
423.398	84.06
423.621	86.06
423.843	78.06
424.066	93.06
424.288	85.06
424.511	84.06
424.733	95.06
424.956	127.06
425.178	114.06
425.401	89.06
425.623	102.06
425.846	92.06
426.068	78.06
426.291	83.06
426.513	88.06
426.735	94.06
426.958	86.06
427.18	114.06
427.402	161.06
427.625	242.06
427.847	227.06
428.069	205.06
428.292	150.06
428.514	95.06
428.736	93.06
428.958	91.06
429.181	90.06
429.403	89.06
429.625	89.06
429.847	97.06
430.069	107.06
430.292	98.06
430.514	92.06
430.736	98.06
430.958	81.06
431.18	81.06
431.402	92.06
431.624	87.06
431.846	65.06
432.068	86.06
432.29	103.06
432.512	107.06
432.734	91.06
432.956	83.06
433.178	92.06
433.4	91.06
433.622	95.06
433.844	101.06
434.066	93.06
434.287	93.06
434.509	71.06
434.731	81.06
434.953	85.06
435.175	97.06
435.397	87.06
435.618	101.06
435.84	110.06
436.062	125.06
436.284	112.06
436.505	87.06
436.727	89.06
436.949	97.06
437.17	86.06
437.392	82.06
437.614	88.06
437.835	110.06
438.057	125.06
438.278	110.06
438.5	112.06
438.721	121.06
438.943	107.06
439.165	102.06
439.386	92.06
439.608	98.06
439.829	115.06
440.05	127.06
440.272	156.06
440.493	93.06
440.715	93.06
440.936	84.06
441.158	91.06
441.379	96.06
441.6	106.06
441.822	100.06
442.043	112.06
442.264	104.06
442.486	93.06
442.707	85.06
442.928	121.06
443.149	153.06
443.371	167.06
443.592	116.06
443.813	106.06
444.034	109.06
444.255	90.06
444.476	74.06
444.698	90.06
444.919	83.06
445.14	129.06
445.361	111.06
445.582	130.06
445.803	150.06
446.024	137.06
446.245	125.06
446.466	105.06
446.687	102.06
446.908	81.06
447.129	92.06
447.35	85.06
447.571	94.06
447.792	87.06
448.013	97.06
448.234	101.06
448.455	92.06
448.675	119.06
448.896	135.06
449.117	98.06
449.338	104.06
449.559	121.06
449.779	141.06
450	91.06
450.221	92.06
450.442	74.06
450.662	100.06
450.883	103.06
451.104	134.06
451.324	102.06
451.545	66.06
451.766	99.06
451.986	87.06
452.207	93.06
452.428	105.06
452.648	107.06
452.869	121.06
453.089	128.06
453.31	116.06
453.53	98.06
453.751	94.06
453.971	115.06
454.192	136.06
454.412	110.06
454.633	95.06
454.853	75.06
455.073	97.06
455.294	92.06
455.514	105.06
455.734	87.06
455.955	95.06
456.175	85.06
456.395	95.06
456.616	105.06
456.836	94.06
457.056	85.06
457.276	95.06
457.497	74.06
457.717	88.06
457.937	90.06
458.157	93.06
458.377	98.06
458.598	118.06
458.818	204.06
459.038	213.06
459.258	120.06
459.478	96.06
459.698	90.06
459.918	78.06
460.138	84.06
460.358	81.06
460.578	102.06
460.798	102.06
461.018	71.06
461.238	83.06
461.458	88.06
461.678	89.06
461.898	82.06
462.118	94.06
462.338	88.06
462.558	83.06
462.777	84.06
462.997	108.06
463.217	146.06
463.437	121.06
463.657	105.06
463.876	91.06
464.096	102.06
464.316	81.06
464.536	91.06
464.755	94.06
464.975	113.06
465.195	223.06
465.414	241.06
465.634	108.06
465.854	94.06
466.073	101.06
466.293	93.06
466.512	94.06
466.732	96.06
466.951	99.06
467.171	107.06
467.391	130.06
467.61	189.06
467.829	342.06
468.049	1203.06
468.268	1931.06
468.488	396.06
468.707	160.06
468.927	103.06
469.146	97.06
469.365	87.06
469.585	107.06
469.804	115.06
470.023	109.06
470.243	102.06
470.462	104.06
470.681	134.06
470.901	117.06
471.12	104.06
471.339	122.06
471.558	155.06
471.777	219.06
471.997	524.06
472.216	2161.06
472.435	5065.06
472.654	1051.06
472.873	253.06
473.092	133.06
473.311	123.06
473.53	107.06
473.749	99.06
473.968	108.06
474.187	111.06
474.406	113.06
474.625	82.06
474.844	96.06
475.063	92.06
475.282	91.06
475.501	104.06
475.72	99.06
475.939	95.06
476.158	97.06
476.377	94.06
476.596	98.06
476.814	98.06
477.033	109.06
477.252	110.06
477.471	114.06
477.69	99.06
477.908	102.06
478.127	97.06
478.346	98.06
478.564	108.06
478.783	109.06
479.002	116.06
479.22	125.06
479.439	130.06
479.658	146.06
479.876	146.06
480.095	148.06
480.313	166.06
480.532	207.06
480.751	460.06
480.969	1792.06
481.188	8186.06
481.406	4565.06
481.624	599.06
481.843	187.06
482.061	121.06
482.28	99.06
482.498	98.06
482.717	98.06
482.935	108.06
483.153	108.06
483.372	92.06
483.59	105.06
483.808	95.06
484.027	85.06
484.245	85.06
484.463	91.06
484.681	107.06
484.9	94.06
485.118	91.06
485.336	91.06
485.554	90.06
485.772	109.06
485.99	113.06
486.209	121.06
486.427	120.06
486.645	120.06
486.863	130.06
487.081	117.06
487.299	111.06
487.517	90.06
487.735	100.06
487.953	102.06
488.171	79.06
488.389	101.06
488.607	117.06
488.825	102.06
489.043	79.06
489.261	100.06
489.479	85.06
489.696	82.06
489.914	81.06
490.132	84.06
490.35	86.06
490.568	81.06
490.786	87.06
491.003	96.06
491.221	91.06
491.439	102.06
491.657	92.06
491.874	99.06
492.092	91.06
492.31	93.06
492.527	123.06
492.745	103.06
492.963	93.06
493.18	81.06
493.398	81.06
493.615	73.06
493.833	97.06
494.05	102.06
494.268	92.06
494.485	84.06
494.703	95.06
494.92	90.06
495.138	91.06
495.355	83.06
495.573	89.06
495.79	99.06
496.008	111.06
496.225	106.06
496.442	85.06
496.66	93.06
496.877	98.06
497.094	83.06
497.312	87.06
497.529	85.06
497.746	87.06
497.963	101.06
498.181	95.06
498.398	103.06
498.615	115.06
498.832	108.06
499.049	102.06
499.267	92.06
499.484	76.06
499.701	93.06
499.918	98.06
500.135	83.06
500.352	99.06
500.569	99.06
500.786	100.06
501.003	94.06
501.22	93.06
501.437	96.06
501.654	90.06
501.871	120.06
502.088	111.06
502.305	94.06
502.522	100.06
502.739	100.06
502.956	98.06
503.172	92.06
503.389	94.06
503.606	123.06
503.823	96.06
504.04	96.06
504.256	87.06
504.473	86.06
504.69	89.06
504.907	106.06
505.123	88.06
505.34	86.06
505.557	85.06
505.773	88.06
505.99	105.06
506.207	94.06
506.423	89.06
506.64	93.06
506.856	93.06
507.073	100.06
507.289	109.06
507.506	86.06
507.722	128.06
507.939	139.06
508.155	102.06
508.372	112.06
508.588	95.06
508.805	95.06
509.021	88.06
509.238	107.06
509.454	95.06
509.67	128.06
509.887	115.06
510.103	133.06
510.319	242.06
510.536	892.06
510.752	3292.06
510.968	902.06
511.184	169.06
511.401	134.06
511.617	107.06
511.833	116.06
512.049	96.06
512.265	91.06
512.481	86.06
512.698	89.06
512.914	93.06
