Data from Circ_1988_H10_HRD10591_00046.txt Node
Date: Wed Jan 03 12:05:44 EST 2024
User: Yrep
Spectrometer: HR+D1059
Trigger mode: 1
Integration Time (sec): 1.000000E-1
Scans to average: 1
Electric dark correction enabled: true
Nonlinearity correction enabled: false
Boxcar width: 0
XAxis mode: Wavelengths
Number of Pixels in Spectrum: 2048
>>>>>Begin Spectral Data<<<<<
223.165	-22
223.4	-22
223.635	-22
223.869	-33
224.104	-19
224.338	-8
224.573	-11
224.808	-10
225.042	-4
225.277	-1
225.511	-3
225.746	2
225.98	6
226.215	24
226.449	14
226.683	10
226.918	28
227.152	27
227.387	37
227.621	35
227.856	50
228.09	28
228.324	65
228.559	60
228.793	172
229.027	454
229.262	510
229.496	590
229.73	776
229.964	783
230.199	569
230.433	508
230.667	513
230.901	503
231.136	495
231.37	488
231.604	500
231.838	486
232.072	498
232.306	486
232.541	514
232.775	519
233.009	534
233.243	539
233.477	536
233.711	528
233.945	535
234.179	575
234.413	566
234.647	539
234.881	577
235.115	583
235.349	617
235.583	611
235.817	651
236.051	699
236.285	667
236.519	686
236.753	730
236.987	879
237.221	1317
237.455	1458
237.689	927
237.922	757
238.156	764
238.39	752
238.624	729
238.858	755
239.091	746
239.325	764
239.559	800
239.793	819
240.027	851
240.26	976
240.494	1015
240.728	974
240.961	951
241.195	890
241.429	866
241.662	902
241.896	918
242.13	932
242.363	926
242.597	941
242.83	963
243.064	996
243.298	1029
243.531	993
243.765	979
243.998	1041
244.232	1052
244.465	1056
244.699	1061
244.932	1054
245.166	1092
245.399	1069
245.633	1123
245.866	1116
246.099	1108
246.333	1138
246.566	1127
246.8	1157
247.033	1181
247.266	1195
247.5	1305
247.733	1316
247.966	1359
248.2	1353
248.433	1336
248.666	1449
248.899	1552
249.133	1675
249.366	1743
249.599	1727
249.832	1833
250.066	2196
250.299	3165
250.532	4367
250.765	3837
250.998	2862
251.231	2360
251.465	2053
251.698	1897
251.931	1831
252.164	1789
252.397	1771
252.63	1768
252.863	1813
253.096	1881
253.329	1941
253.562	1860
253.795	1809
254.028	1872
254.261	1924
254.494	2135
254.727	2432
254.96	2475
255.193	2564
255.426	2775
255.659	3744
255.892	5973
256.124	8079
256.357	6256
256.59	4167
256.823	3213
257.056	2806
257.289	2543
257.521	2430
257.754	2303
257.987	2172
258.22	2194
258.452	2172
258.685	2103
258.918	2078
259.151	2033
259.383	2107
259.616	2068
259.849	2124
260.081	2236
260.314	2350
260.547	2298
260.779	2211
261.012	2225
261.244	2188
261.477	2074
261.71	2102
261.942	2155
262.175	2174
262.407	2076
262.64	1983
262.872	2018
263.105	1959
263.337	1969
263.57	1997
263.802	2002
264.035	2001
264.267	1983
264.499	1984
264.732	1974
264.964	2001
265.197	1980
265.429	1993
265.661	2044
265.894	2065
266.126	2100
266.358	2065
266.591	2111
266.823	2160
267.055	2135
267.287	2149
267.52	2130
267.752	2169
267.984	2167
268.216	2220
268.448	2243
268.681	2321
268.913	2389
269.145	2491
269.377	2487
269.609	2412
269.841	2422
270.073	2500
270.306	2692
270.538	2766
270.77	2699
271.002	2634
271.234	2608
271.466	2750
271.698	2827
271.93	2888
272.162	2839
272.394	2816
272.626	2731
272.858	2667
273.09	2702
273.322	2628
273.553	2611
273.785	2673
274.017	2688
274.249	2697
274.481	2787
274.713	2784
274.945	2861
275.176	2924
275.408	3012
275.64	3139
275.872	3301
276.104	3197
276.335	3219
276.567	3344
276.799	3723
277.031	4231
277.262	4675
277.494	4225
277.726	3729
277.957	3511
278.189	3375
278.421	3195
278.652	3180
278.884	3204
279.115	3183
279.347	3339
279.579	3481
279.81	3963
280.042	4509
280.273	5202
280.505	4658
280.736	3951
280.968	3521
281.199	3382
281.431	3333
281.662	3247
281.894	3163
282.125	3177
282.356	3358
282.588	3446
282.819	3303
283.051	3102
283.282	3055
283.513	3065
283.745	3122
283.976	3078
284.207	3136
284.439	3094
284.67	3108
284.901	3107
285.132	3166
285.364	3062
285.595	3135
285.826	3188
286.057	3143
286.288	3155
286.52	3181
286.751	3156
286.982	3168
287.213	3179
287.444	3175
287.675	3244
287.906	3287
288.138	3350
288.369	3363
288.6	3343
288.831	3313
289.062	3287
289.293	3276
289.524	3273
289.755	3250
289.986	3204
290.217	3246
290.448	3227
290.679	3239
290.91	3228
291.141	3206
291.371	3166
291.602	3144
291.833	3180
292.064	3216
292.295	3137
292.526	3173
292.757	3150
292.987	3103
293.218	3077
293.449	3165
293.68	3138
293.91	3185
294.141	3141
294.372	3113
294.603	3159
294.833	3143
295.064	3216
295.295	3246
295.525	3206
295.756	3267
295.987	3350
296.217	3537
296.448	3474
296.679	3311
296.909	3263
297.14	3294
297.37	3325
297.601	3378
297.831	3359
298.062	3426
298.292	3403
298.523	3408
298.753	3459
298.984	3450
299.214	3408
299.445	3460
299.675	3463
299.905	3609
300.136	3503
300.366	3552
300.597	3501
300.827	3600
301.057	3725
301.288	3759
301.518	3719
301.748	3797
301.979	3909
302.209	3867
302.439	3846
302.669	3723
302.9	3674
303.13	3746
303.36	3900
303.59	4136
303.82	4317
304.051	4071
304.281	3842
304.511	3718
304.741	3711
304.971	3675
305.201	3608
305.431	3695
305.661	3646
305.891	3643
306.121	3689
306.352	3662
306.582	3798
306.812	3759
307.042	4135
307.272	4527
307.502	4718
307.731	4460
307.961	4129
308.191	3878
308.421	3768
308.651	3776
308.881	3771
309.111	3808
309.341	3751
309.571	3883
309.8	3884
310.03	4013
310.26	4073
310.49	4045
310.72	4171
310.949	4246
311.179	4188
311.409	4035
311.639	4121
311.868	4062
312.098	4090
312.328	4183
312.557	4373
312.787	4480
313.017	4310
313.246	4147
313.476	4108
313.706	4142
313.935	4293
314.165	4391
314.394	4375
314.624	4325
314.853	4191
315.083	4184
315.312	4158
315.542	4077
315.771	4101
316.001	4024
316.23	4090
316.46	4151
316.689	4199
316.919	4195
317.148	4290
317.377	4243
317.607	4241
317.836	4271
318.065	4228
318.295	4191
318.524	4172
318.753	4147
318.983	4169
319.212	4201
319.441	4297
319.67	4305
319.9	4203
320.129	4210
320.358	4281
320.587	4315
320.816	4387
321.046	4427
321.275	4399
321.504	4424
321.733	4472
321.962	4534
322.191	4660
322.42	4790
322.649	4880
322.878	5012
323.108	5118
323.337	5472
323.566	5683
323.795	6057
324.024	6589
324.253	8434
324.482	12197
324.71	15625
324.939	15625
325.168	13899
325.397	7684
325.626	6532
325.855	6191
326.084	6121
326.313	6211
326.542	6347
326.77	7168
326.999	8847
327.228	12163
327.457	15522
327.686	15299
327.914	12766
328.143	14137
328.372	14979
328.6	12223
328.829	9417
329.058	9300
329.287	9574
329.515	10459
329.744	12702
329.972	15544
330.201	15625
330.43	15625
330.658	15625
330.887	11878
331.115	9511
331.344	8233
331.572	7754
331.801	7782
332.03	7681
332.258	7531
332.486	7600
332.715	7914
332.943	8356
333.172	8935
333.4	9943
333.629	11424
333.857	13701
334.085	15625
334.314	15625
334.542	15625
334.771	15625
334.999	15625
335.227	11691
335.455	9561
335.684	8456
335.912	7720
336.14	7163
336.369	6898
336.597	6862
336.825	6548
337.053	6286
337.281	6104
337.51	5887
337.738	5910
337.966	5806
338.194	5729
338.422	5575
338.65	5433
338.878	5357
339.106	5291
339.334	5273
339.562	5237
339.79	5086
340.018	5110
340.246	5041
340.474	5134
340.702	5028
340.93	4992
341.158	4911
341.386	5024
341.614	4971
341.842	4846
342.07	4828
342.298	4866
342.526	4848
342.754	4751
342.981	4738
343.209	4834
343.437	5057
343.665	5251
343.893	5542
344.12	5531
344.348	5364
344.576	5184
344.804	5111
345.031	5095
345.259	5063
345.487	4846
345.714	4740
345.942	4717
346.17	4673
346.397	4572
346.625	4645
346.853	4619
347.08	4672
347.308	4600
347.535	4727
347.763	4707
347.99	4628
348.218	4732
348.445	4781
348.673	4662
348.9	4562
349.128	4584
349.355	4447
349.583	4507
349.81	4509
350.037	4442
350.265	4468
350.492	4456
350.72	4463
350.947	4491
351.174	4575
351.402	4697
351.629	4588
351.856	4618
352.083	4662
352.311	4689
352.538	4731
352.765	4641
352.992	4619
353.22	4561
353.447	4505
353.674	4448
353.901	4371
354.128	4369
354.355	4294
354.583	4393
354.81	4374
355.037	4411
355.264	4254
355.491	4289
355.718	4312
355.945	4281
356.172	4287
356.399	4241
356.626	4310
356.853	4331
357.08	4271
357.307	4265
357.534	4264
357.761	4293
357.988	4315
358.215	4333
358.441	4371
358.668	4326
358.895	4413
359.122	4416
359.349	4457
359.576	4549
359.802	4803
360.029	5012
360.256	4934
360.483	4806
360.709	4568
360.936	4610
361.163	4567
361.39	4528
361.616	4572
361.843	4574
362.07	4535
362.296	4589
362.523	4528
362.749	4605
362.976	4544
363.203	4430
363.429	4405
363.656	4480
363.882	4420
364.109	4483
364.335	4407
364.562	4402
364.788	4358
365.015	4327
365.241	4454
365.468	4461
365.694	4491
365.92	4495
366.147	4324
366.373	4395
366.599	4379
366.826	4359
367.052	4395
367.278	4419
367.505	4407
367.731	4435
367.957	4390
368.184	4469
368.41	4577
368.636	4585
368.862	4531
369.089	4556
369.315	4496
369.541	4444
369.767	4495
369.993	4566
370.219	4555
370.445	4500
370.672	4531
370.898	4544
371.124	4605
371.35	4656
371.576	4586
371.802	4608
372.028	4551
372.254	4597
372.48	4633
372.706	4779
372.932	4758
373.158	4680
373.384	4623
373.61	4624
373.835	4643
374.061	4667
374.287	4783
374.513	4815
374.739	4915
374.965	5019
375.191	4934
375.416	4909
375.642	4830
375.868	4764
376.094	4690
376.319	4590
376.545	4645
376.771	4683
376.997	4620
377.222	4597
377.448	4555
377.674	4603
377.899	4538
378.125	4530
378.35	4522
378.576	4457
378.802	4495
379.027	4549
379.253	4574
379.478	4530
379.704	4507
379.929	4611
380.155	4579
380.38	4583
380.606	4621
380.831	4596
381.057	4596
381.282	4603
381.507	4598
381.733	4665
381.958	4658
382.184	4720
382.409	4800
382.634	4820
382.86	4871
383.085	4854
383.31	4964
383.535	5060
383.761	5041
383.986	5170
384.211	5220
384.436	5237
384.662	5294
384.887	5373
385.112	5355
385.337	5518
385.562	5478
385.787	5439
386.013	5581
386.238	5645
386.463	5563
386.688	5481
386.913	5372
387.138	5442
387.363	5443
387.588	5275
387.813	5415
388.038	5407
388.263	5419
388.488	5424
388.713	5403
388.938	5355
389.163	5311
389.387	5360
389.612	5284
389.837	5295
390.062	5276
390.287	5280
390.512	5327
390.736	5393
390.961	5473
391.186	5502
391.411	5628
391.636	5752
391.86	5930
392.085	6012
392.31	5954
392.534	5726
392.759	5689
392.984	5665
393.208	5639
393.433	5631
393.658	5583
393.882	5504
394.107	5615
394.331	5643
394.556	5656
394.78	5693
395.005	5765
395.229	5703
395.454	5944
395.678	6097
395.903	6056
396.127	6104
396.352	5906
396.576	5750
396.801	5835
397.025	5896
397.249	5980
397.474	6042
397.698	6085
397.922	6189
398.147	6342
398.371	6507
398.595	6595
398.82	6930
399.044	7351
399.268	8045
399.492	9021
399.717	9550
399.941	9448
400.165	8895
400.389	8315
400.613	7568
400.837	7067
401.062	6978
401.286	6929
401.51	6788
401.734	6861
401.958	6886
402.182	7110
402.406	7175
402.63	7172
402.854	7339
403.078	7339
403.302	7512
403.526	7585
403.75	7721
403.974	7776
404.198	7869
404.422	8154
404.645	8337
404.869	8741
405.093	9345
405.317	9972
405.541	9865
405.765	8889
405.988	8411
406.212	8350
406.436	8326
406.66	8311
406.883	8174
407.107	8764
407.331	9190
407.555	9516
407.778	9275
408.002	8589
408.226	8286
408.449	8179
408.673	8040
408.896	8054
409.12	8174
409.344	7857
409.567	7547
409.791	7520
410.014	7392
410.238	7308
410.461	7377
410.685	7429
410.908	7528
411.132	7677
411.355	7877
411.578	7547
411.802	7542
412.025	7872
412.249	8579
412.472	9444
412.695	10025
412.919	9345
413.142	8870
413.365	8216
413.589	7808
413.812	7465
414.035	7330
414.258	7430
414.482	7300
414.705	7159
414.928	7093
415.151	6941
415.374	6962
415.597	6883
415.821	6779
416.044	6959
416.267	6940
416.49	6675
416.713	6686
416.936	6776
417.159	6931
417.382	7243
417.605	7470
417.828	7607
418.051	7289
418.274	6940
418.497	6855
418.72	7073
418.943	7035
419.166	7517
419.389	8013
419.611	8065
419.834	8131
420.057	8540
420.28	9124
420.503	8830
420.726	8335
420.948	8089
421.171	8072
421.394	7714
421.617	7172
421.839	7048
422.062	7201
422.285	7237
422.507	7741
422.73	8181
422.953	7585
423.175	7237
423.398	7281
423.621	7198
423.843	7371
424.066	7403
424.288	7244
424.511	7515
424.733	7914
424.956	8279
425.178	7857
425.401	7969
425.623	7933
425.846	6971
426.068	6969
426.291	6872
426.513	6814
426.735	6963
426.958	7448
427.18	8200
427.402	9523
427.625	10197
427.847	9860
428.069	9585
428.292	8215
428.514	7014
428.736	6655
428.958	6582
429.181	6267
429.403	6182
429.625	6334
429.847	6633
430.069	7090
430.292	6595
430.514	6216
430.736	6135
430.958	6057
431.18	5980
431.402	5984
431.624	5913
431.846	6011
432.068	5949
432.29	6107
432.512	5969
432.734	6158
432.956	6076
433.178	6153
433.4	6082
433.622	6080
433.844	6072
434.066	6103
434.287	6131
434.509	6401
434.731	6517
434.953	6649
435.175	6750
435.397	6858
435.618	6757
435.84	7077
436.062	7941
436.284	7876
436.505	6676
436.727	6520
436.949	6200
437.17	6099
437.392	6045
437.614	6165
437.835	6580
438.057	7439
438.278	8111
438.5	7919
438.721	8718
438.943	7519
439.165	6499
439.386	6244
439.608	6373
439.829	6562
440.05	6964
440.272	7361
440.493	6654
440.715	6417
440.936	6335
441.158	6317
441.379	6447
441.6	6710
441.822	6929
442.043	7306
442.264	8078
442.486	7707
442.707	6991
442.928	6860
443.149	7102
443.371	7277
443.592	7608
443.813	8615
444.034	8564
444.255	7523
444.476	7399
444.698	7523
444.919	7611
445.14	7457
445.361	7445
445.582	7632
445.803	8336
446.024	8885
446.245	8416
446.466	7554
446.687	6526
446.908	6212
447.129	6018
447.35	5791
447.571	5803
447.792	5679
448.013	5852
448.234	5960
448.455	6581
448.675	7773
448.896	8131
449.117	6759
449.338	6969
449.559	8366
449.779	8528
450	6508
450.221	5916
450.442	5742
450.662	5681
450.883	5839
451.104	5943
451.324	5657
451.545	5551
451.766	5409
451.986	5300
452.207	5265
452.428	5297
452.648	5278
452.869	5307
453.089	5388
453.31	5443
453.53	5281
453.751	5201
453.971	5334
454.192	5434
454.412	5269
454.633	5160
454.853	5144
455.073	5132
455.294	5501
455.514	5940
455.734	5506
455.955	5056
456.175	4983
456.395	4939
456.616	4901
456.836	5001
457.056	4958
457.276	4928
457.497	5086
457.717	5028
457.937	5140
458.157	5273
458.377	5329
458.598	5687
458.818	6493
459.038	7153
459.258	6944
459.478	6244
459.698	6195
459.918	6103
460.138	6333
460.358	6454
460.578	6581
460.798	6522
461.018	6573
461.238	6488
461.458	6457
461.678	6517
461.898	6610
462.118	6745
462.338	7021
462.558	7139
462.777	7375
462.997	7963
463.217	8371
463.437	8141
463.657	7659
463.876	7452
464.096	7376
464.316	7470
464.536	7569
464.755	7319
464.975	7269
465.195	7623
465.414	7720
465.634	6724
465.854	6351
466.073	6127
466.293	5972
466.512	5836
466.732	5704
466.951	5723
467.171	5785
467.391	6035
467.61	6309
467.829	7187
468.049	10900
468.268	13952
468.488	9185
468.707	7056
468.927	6512
469.146	6203
469.365	6091
469.585	6021
469.804	6140
470.023	6307
470.243	6209
470.462	6313
470.681	6584
470.901	6379
471.12	6293
471.339	6401
471.558	6629
471.777	7189
471.997	9105
472.216	14892
472.435	15625
472.654	15625
472.873	10859
473.092	8848
473.311	7839
473.53	7215
473.749	6906
473.968	7158
474.187	7918
474.406	7307
474.625	6379
474.844	6172
475.063	6024
475.282	6045
475.501	6079
475.72	6000
475.939	5984
476.158	6072
476.377	5986
476.596	6011
476.814	6162
477.033	6192
477.252	6290
477.471	6379
477.69	6479
477.908	6616
478.127	6716
478.346	6779
478.564	6875
478.783	7111
479.002	7349
479.22	7336
479.439	7569
479.658	7799
479.876	8073
480.095	8299
480.313	9065
480.532	9693
480.751	11470
480.969	15625
481.188	15625
481.406	15625
481.624	15625
481.843	13988
482.061	11541
482.28	10228
482.498	9403
482.717	8777
482.935	8439
483.153	8145
483.372	7911
483.59	7731
483.808	7628
484.027	7523
484.245	7537
484.463	7482
484.681	7541
484.9	7555
485.118	7457
485.336	7529
485.554	7533
485.772	7540
485.99	7487
486.209	7625
486.427	7602
486.645	7632
486.863	7820
487.081	7709
487.299	7691
487.517	7710
487.735	7697
487.953	7665
488.171	7673
488.389	7703
488.607	7865
488.825	7867
489.043	7999
489.261	7993
489.479	8194
489.696	8224
489.914	8529
490.132	8644
490.35	8934
490.568	9147
490.786	9576
491.003	10183
491.221	10961
491.439	11864
491.657	11935
491.874	11841
492.092	12104
492.31	12270
492.527	13003
492.745	13405
492.963	13147
493.18	12678
493.398	12274
493.615	12034
493.833	11571
494.05	11234
494.268	10887
494.485	10658
494.703	10319
494.92	10151
495.138	9977
495.355	9829
495.573	9669
495.79	9545
496.008	9464
496.225	9350
496.442	9240
496.66	9263
496.877	9262
497.094	9223
497.312	9267
497.529	9401
497.746	9567
497.963	9632
498.181	10095
498.398	10277
498.615	10597
498.832	10942
499.049	11471
499.267	12019
499.484	12595
499.701	13286
499.918	13903
500.135	14586
500.352	15259
500.569	15625
500.786	15625
501.003	15136
501.22	14447
501.437	13736
501.654	12917
501.871	12295
502.088	11513
502.305	10865
502.522	10303
502.739	9981
502.956	9533
503.172	9300
503.389	8973
503.606	8943
503.823	8819
504.04	8624
504.256	8653
504.473	8783
504.69	8773
504.907	8507
505.123	8201
505.34	7906
505.557	7641
505.773	7522
505.99	7411
506.207	7397
506.423	7296
506.64	7179
506.856	7144
507.073	7051
507.289	7037
507.506	6909
507.722	7089
507.939	7113
508.155	6885
508.372	6733
508.588	6684
508.805	6697
509.021	6697
509.238	6848
509.454	6869
509.67	6717
509.887	6649
510.103	6595
510.319	6824
510.536	8421
510.752	12688
510.968	8369
511.184	6851
511.401	7112
511.617	7790
511.833	9359
512.049	9301
512.265	8129
512.481	7551
512.698	7101
512.914	6968
513.13	6740
513.346	6677
513.562	6682
513.778	6640
513.994	6671
514.21	6751
514.426	6924
514.642	7265
514.858	7390
515.074	7827
515.29	9623
515.506	12710
515.721	9137
515.937	7483
516.153	7247
516.369	7151
516.585	7213
516.801	7283
517.016	7398
517.232	7629
517.448	7825
517.664	7859
517.879	7907
518.095	7803
518.311	7771
518.527	7687
518.742	7260
518.958	7122
519.173	6863
519.389	6830
519.605	6616
519.82	6598
520.036	6693
520.251	6846
520.467	6840
520.682	6783
520.898	6796
521.113	6941
521.329	7365
521.544	8209
521.76	10715
521.975	15184
522.19	12642
522.406	7792
522.621	6633
522.836	6225
523.052	6027
523.267	5835
523.482	5708
523.698	5673
523.913	5713
524.128	5660
524.343	5511
524.559	5485
524.774	5443
524.989	5369
525.204	5486
525.419	5429
525.634	5333
525.849	5230
526.064	5210
526.28	5230
526.495	5180
526.71	5175
526.925	5083
527.14	5118
527.355	5118
527.57	5068
527.785	5105
527.999	5093
528.214	5123
528.429	5158
528.644	5097
528.859	5062
529.074	5113
529.289	5407
529.503	6062
529.718	5582
529.933	5323
530.148	5179
530.363	5139
530.577	5063
530.792	5053
531.007	5042
531.221	5107
531.436	5087
531.651	5060
531.865	5019
532.08	5045
532.295	5059
532.509	5034
532.724	4966
532.938	4975
533.153	5005
533.367	4945
533.582	4969
533.796	4968
534.011	4892
534.225	4934
534.44	4887
534.654	4853
534.868	4829
535.083	4853
535.297	4883
535.511	4862
535.726	4941
535.94	4905
536.154	4847
536.369	4715
536.583	4713
536.797	4699
537.011	4725
537.225	4641
537.44	4578
537.654	4618
537.868	4651
538.082	4667
538.296	4654
538.51	4555
538.724	4538
538.938	4603
539.153	4581
539.367	4722
539.581	4688
539.795	4549
540.009	4521
540.222	4502
540.436	4547
540.65	4534
540.864	4549
541.078	4601
