Data from Circ_1988_H10_HRD10591_00047.txt Node
Date: Wed Jan 03 12:05:44 EST 2024
User: Yrep
Spectrometer: HR+D1059
Trigger mode: 1
Integration Time (sec): 1.000000E-1
Scans to average: 1
Electric dark correction enabled: true
Nonlinearity correction enabled: false
Boxcar width: 0
XAxis mode: Wavelengths
Number of Pixels in Spectrum: 2048
>>>>>Begin Spectral Data<<<<<
223.165	-11.81
223.4	-11.81
223.635	-11.81
223.869	-24.81
224.104	-29.81
224.338	-23.81
224.573	-13.81
224.808	-11.81
225.042	-4.81
225.277	2.19
225.511	-10.81
225.746	-12.81
225.98	6.19
226.215	10.19
226.449	19.19
226.683	32.19
226.918	30.19
227.152	44.19
227.387	35.19
227.621	41.19
227.856	52.19
228.09	48.19
228.324	48.19
228.559	53.19
228.793	49.19
229.027	67.19
229.262	79.19
229.496	84.19
229.73	111.19
229.964	102.19
230.199	80.19
230.433	66.19
230.667	73.19
230.901	71.19
231.136	82.19
231.37	98.19
231.604	85.19
231.838	82.19
232.072	84.19
232.306	80.19
232.541	75.19
232.775	84.19
233.009	86.19
233.243	79.19
233.477	84.19
233.711	87.19
233.945	85.19
234.179	72.19
234.413	82.19
234.647	75.19
234.881	83.19
235.115	70.19
235.349	76.19
235.583	87.19
235.817	84.19
236.051	74.19
236.285	90.19
236.519	86.19
236.753	89.19
236.987	91.19
237.221	99.19
237.455	106.19
237.689	98.19
237.922	77.19
238.156	79.19
238.39	73.19
238.624	75.19
238.858	84.19
239.091	88.19
239.325	80.19
239.559	94.19
239.793	92.19
240.027	94.19
240.26	97.19
240.494	97.19
240.728	76.19
240.961	82.19
241.195	88.19
241.429	79.19
241.662	94.19
241.896	80.19
242.13	79.19
242.363	68.19
242.597	78.19
242.83	90.19
243.064	94.19
243.298	85.19
243.531	68.19
243.765	73.19
243.998	90.19
244.232	86.19
244.465	88.19
244.699	86.19
244.932	89.19
245.166	74.19
245.399	85.19
245.633	80.19
245.866	82.19
246.099	88.19
246.333	87.19
246.566	78.19
246.8	83.19
247.033	90.19
247.266	78.19
247.5	86.19
247.733	86.19
247.966	81.19
248.2	84.19
248.433	99.19
248.666	78.19
248.899	86.19
249.133	90.19
249.366	114.19
249.599	115.19
249.832	105.19
250.066	100.19
250.299	95.19
250.532	108.19
250.765	81.19
250.998	89.19
251.231	89.19
251.465	93.19
251.698	97.19
251.931	91.19
252.164	96.19
252.397	80.19
252.63	78.19
252.863	72.19
253.096	86.19
253.329	85.19
253.562	87.19
253.795	94.19
254.028	78.19
254.261	87.19
254.494	89.19
254.727	94.19
254.96	78.19
255.193	88.19
255.426	81.19
255.659	102.19
255.892	114.19
256.124	123.19
256.357	101.19
256.59	80.19
256.823	95.19
257.056	79.19
257.289	111.19
257.521	95.19
257.754	95.19
257.987	91.19
258.22	112.19
258.452	120.19
258.685	129.19
258.918	89.19
259.151	80.19
259.383	92.19
259.616	94.19
259.849	93.19
260.081	102.19
260.314	108.19
260.547	114.19
260.779	111.19
261.012	156.19
261.244	162.19
261.477	125.19
261.71	128.19
261.942	145.19
262.175	147.19
262.407	108.19
262.64	90.19
262.872	96.19
263.105	90.19
263.337	89.19
263.57	93.19
263.802	91.19
264.035	98.19
264.267	90.19
264.499	86.19
264.732	91.19
264.964	79.19
265.197	98.19
265.429	86.19
265.661	85.19
265.894	87.19
266.126	87.19
266.358	90.19
266.591	88.19
266.823	83.19
267.055	92.19
267.287	90.19
267.52	93.19
267.752	94.19
267.984	92.19
268.216	86.19
268.448	98.19
268.681	97.19
268.913	95.19
269.145	101.19
269.377	95.19
269.609	115.19
269.841	104.19
270.073	80.19
270.306	94.19
270.538	91.19
270.77	80.19
271.002	93.19
271.234	112.19
271.466	104.19
271.698	104.19
271.93	84.19
272.162	91.19
272.394	95.19
272.626	110.19
272.858	80.19
273.09	96.19
273.322	105.19
273.553	74.19
273.785	84.19
274.017	90.19
274.249	107.19
274.481	90.19
274.713	110.19
274.945	101.19
275.176	113.19
275.408	121.19
275.64	164.19
275.872	199.19
276.104	139.19
276.335	120.19
276.567	138.19
276.799	203.19
277.031	288.19
277.262	394.19
277.494	286.19
277.726	145.19
277.957	118.19
278.189	108.19
278.421	94.19
278.652	97.19
278.884	99.19
279.115	94.19
279.347	115.19
279.579	117.19
279.81	210.19
280.042	384.19
280.273	588.19
280.505	378.19
280.736	160.19
280.968	107.19
281.199	105.19
281.431	97.19
281.662	106.19
281.894	95.19
282.125	130.19
282.356	148.19
282.588	173.19
282.819	155.19
283.051	106.19
283.282	91.19
283.513	99.19
283.745	82.19
283.976	89.19
284.207	90.19
284.439	81.19
284.67	82.19
284.901	91.19
285.132	90.19
285.364	88.19
285.595	103.19
285.826	102.19
286.057	95.19
286.288	86.19
286.52	81.19
286.751	102.19
286.982	85.19
287.213	88.19
287.444	84.19
287.675	101.19
287.906	94.19
288.138	94.19
288.369	99.19
288.6	100.19
288.831	81.19
289.062	87.19
289.293	81.19
289.524	92.19
289.755	98.19
289.986	94.19
290.217	86.19
290.448	78.19
290.679	95.19
290.91	92.19
291.141	86.19
291.371	94.19
291.602	98.19
291.833	87.19
292.064	88.19
292.295	107.19
292.526	101.19
292.757	108.19
292.987	80.19
293.218	96.19
293.449	78.19
293.68	96.19
293.91	94.19
294.141	100.19
294.372	106.19
294.603	105.19
294.833	94.19
295.064	95.19
295.295	96.19
295.525	74.19
295.756	100.19
295.987	143.19
296.217	161.19
296.448	164.19
296.679	94.19
296.909	117.19
297.14	80.19
297.37	83.19
297.601	107.19
297.831	93.19
298.062	92.19
298.292	102.19
298.523	86.19
298.753	110.19
298.984	87.19
299.214	81.19
299.445	108.19
299.675	99.19
299.905	97.19
300.136	103.19
300.366	98.19
300.597	110.19
300.827	104.19
301.057	120.19
301.288	107.19
301.518	112.19
301.748	119.19
301.979	136.19
302.209	111.19
302.439	103.19
302.669	98.19
302.9	93.19
303.13	111.19
303.36	143.19
303.59	192.19
303.82	224.19
304.051	135.19
304.281	108.19
304.511	103.19
304.741	99.19
304.971	108.19
305.201	93.19
305.431	89.19
305.661	93.19
305.891	103.19
306.121	104.19
306.352	119.19
306.582	146.19
306.812	123.19
307.042	191.19
307.272	274.19
307.502	328.19
307.731	284.19
307.961	183.19
308.191	126.19
308.421	92.19
308.651	89.19
308.881	99.19
309.111	96.19
309.341	92.19
309.571	120.19
309.8	103.19
310.03	111.19
310.26	114.19
310.49	105.19
310.72	116.19
310.949	126.19
311.179	114.19
311.409	101.19
311.639	103.19
311.868	114.19
312.098	113.19
312.328	117.19
312.557	125.19
312.787	146.19
313.017	114.19
313.246	90.19
313.476	106.19
313.706	114.19
313.935	118.19
314.165	122.19
314.394	121.19
314.624	111.19
314.853	126.19
315.083	91.19
315.312	99.19
315.542	99.19
315.771	108.19
316.001	105.19
316.23	96.19
316.46	102.19
316.689	96.19
316.919	102.19
317.148	116.19
317.377	106.19
317.607	89.19
317.836	106.19
318.065	91.19
318.295	98.19
318.524	93.19
318.753	94.19
318.983	108.19
319.212	121.19
319.441	113.19
319.67	127.19
319.9	101.19
320.129	112.19
320.358	113.19
320.587	120.19
320.816	108.19
321.046	114.19
321.275	112.19
321.504	108.19
321.733	91.19
321.962	105.19
322.191	115.19
322.42	112.19
322.649	114.19
322.878	117.19
323.108	127.19
323.337	143.19
323.566	157.19
323.795	174.19
324.024	232.19
324.253	439.19
324.482	998.19
324.71	1985.19
324.939	2640.19
325.168	989.19
325.397	306.19
325.626	166.19
325.855	139.19
326.084	146.19
326.313	140.19
326.542	187.19
326.77	255.19
326.999	481.19
327.228	995.19
327.457	1835.19
327.686	1570.19
327.914	741.19
328.143	1046.19
328.372	1530.19
328.6	751.19
328.829	286.19
329.058	244.19
329.287	270.19
329.515	286.19
329.744	477.19
329.972	1043.19
330.201	2301.19
330.43	3443.19
330.658	1389.19
330.887	449.19
331.115	246.19
331.344	162.19
331.572	140.19
331.801	156.19
332.03	132.19
332.258	135.19
332.486	128.19
332.715	124.19
332.943	134.19
333.172	168.19
333.4	184.19
333.629	236.19
333.857	394.19
334.085	885.19
334.314	2021.19
334.542	4170.19
334.771	3834.19
334.999	888.19
335.227	295.19
335.455	183.19
335.684	157.19
335.912	116.19
336.14	128.19
336.369	135.19
336.597	125.19
336.825	127.19
337.053	98.19
337.281	113.19
337.51	106.19
337.738	101.19
337.966	105.19
338.194	111.19
338.422	118.19
338.65	111.19
338.878	112.19
339.106	110.19
339.334	103.19
339.562	103.19
339.79	90.19
340.018	102.19
340.246	108.19
340.474	94.19
340.702	115.19
340.93	103.19
341.158	103.19
341.386	113.19
341.614	115.19
341.842	106.19
342.07	105.19
342.298	103.19
342.526	94.19
342.754	111.19
342.981	90.19
343.209	98.19
343.437	93.19
343.665	103.19
343.893	89.19
344.12	85.19
344.348	92.19
344.576	102.19
344.804	121.19
345.031	106.19
345.259	100.19
345.487	118.19
345.714	98.19
345.942	78.19
346.17	94.19
346.397	103.19
346.625	107.19
346.853	99.19
347.08	100.19
347.308	100.19
347.535	89.19
347.763	114.19
347.99	108.19
348.218	115.19
348.445	130.19
348.673	114.19
348.9	98.19
349.128	96.19
349.355	93.19
349.583	97.19
349.81	93.19
350.037	93.19
350.265	96.19
350.492	112.19
350.72	102.19
350.947	129.19
351.174	120.19
351.402	127.19
351.629	105.19
351.856	116.19
352.083	114.19
352.311	111.19
352.538	127.19
352.765	134.19
352.992	110.19
353.22	119.19
353.447	107.19
353.674	99.19
353.901	96.19
354.128	97.19
354.355	97.19
354.583	94.19
354.81	111.19
355.037	92.19
355.264	103.19
355.491	110.19
355.718	80.19
355.945	95.19
356.172	96.19
356.399	103.19
356.626	100.19
356.853	87.19
357.08	89.19
357.307	87.19
357.534	95.19
357.761	99.19
357.988	102.19
358.215	95.19
358.441	101.19
358.668	106.19
358.895	106.19
359.122	87.19
359.349	98.19
359.576	110.19
359.802	117.19
360.029	167.19
360.256	150.19
360.483	123.19
360.709	90.19
360.936	106.19
361.163	94.19
361.39	91.19
361.616	110.19
361.843	90.19
362.07	118.19
362.296	103.19
362.523	114.19
362.749	96.19
362.976	103.19
363.203	99.19
363.429	88.19
363.656	110.19
363.882	113.19
364.109	106.19
364.335	98.19
364.562	102.19
364.788	84.19
365.015	107.19
365.241	100.19
365.468	127.19
365.694	122.19
365.92	102.19
366.147	107.19
366.373	105.19
366.599	92.19
366.826	104.19
367.052	104.19
367.278	104.19
367.505	103.19
367.731	103.19
367.957	106.19
368.184	102.19
368.41	110.19
368.636	131.19
368.862	143.19
369.089	129.19
369.315	118.19
369.541	88.19
369.767	95.19
369.993	99.19
370.219	98.19
370.445	108.19
370.672	84.19
370.898	88.19
371.124	99.19
371.35	98.19
371.576	74.19
371.802	92.19
372.028	95.19
372.254	94.19
372.48	103.19
372.706	92.19
372.932	104.19
373.158	92.19
373.384	99.19
373.61	100.19
373.835	84.19
374.061	96.19
374.287	103.19
374.513	94.19
374.739	92.19
374.965	86.19
375.191	103.19
375.416	96.19
375.642	90.19
375.868	95.19
376.094	84.19
376.319	87.19
376.545	90.19
376.771	103.19
376.997	88.19
377.222	94.19
377.448	89.19
377.674	90.19
377.899	96.19
378.125	100.19
378.35	97.19
378.576	100.19
378.802	102.19
379.027	90.19
379.253	91.19
379.478	87.19
379.704	91.19
379.929	101.19
380.155	95.19
380.38	99.19
380.606	121.19
380.831	105.19
381.057	112.19
381.282	111.19
381.507	109.19
381.733	101.19
381.958	94.19
382.184	108.19
382.409	103.19
382.634	107.19
382.86	106.19
383.085	97.19
383.31	104.19
383.535	112.19
383.761	92.19
383.986	110.19
384.211	120.19
384.436	107.19
384.662	110.19
384.887	131.19
385.112	107.19
385.337	104.19
385.562	123.19
385.787	102.19
386.013	145.19
386.238	146.19
386.463	119.19
386.688	117.19
386.913	117.19
387.138	129.19
387.363	108.19
387.588	124.19
387.813	113.19
388.038	125.19
388.263	123.19
388.488	118.19
388.713	98.19
388.938	98.19
389.163	107.19
389.387	86.19
389.612	105.19
389.837	108.19
390.062	80.19
390.287	94.19
390.512	87.19
390.736	96.19
390.961	81.19
391.186	86.19
391.411	98.19
391.636	90.19
391.86	103.19
392.085	89.19
392.31	100.19
392.534	89.19
392.759	94.19
392.984	101.19
393.208	106.19
393.433	98.19
393.658	100.19
393.882	87.19
394.107	91.19
394.331	91.19
394.556	79.19
394.78	84.19
395.005	92.19
395.229	98.19
395.454	100.19
395.678	98.19
395.903	92.19
396.127	91.19
396.352	102.19
396.576	87.19
396.801	96.19
397.025	102.19
397.249	102.19
397.474	92.19
397.698	100.19
397.922	92.19
398.147	98.19
398.371	94.19
398.595	87.19
398.82	99.19
399.044	99.19
399.268	90.19
399.492	91.19
399.717	82.19
399.941	91.19
400.165	106.19
400.389	96.19
400.613	82.19
400.837	95.19
401.062	98.19
401.286	84.19
401.51	101.19
401.734	109.19
401.958	108.19
402.182	148.19
402.406	211.19
402.63	149.19
402.854	88.19
403.078	100.19
403.302	100.19
403.526	81.19
403.75	86.19
403.974	100.19
404.198	105.19
404.422	92.19
404.645	90.19
404.869	121.19
405.093	134.19
405.317	166.19
405.541	168.19
405.765	136.19
405.988	150.19
406.212	219.19
406.436	330.19
406.66	225.19
406.883	133.19
407.107	109.19
407.331	113.19
407.555	100.19
407.778	104.19
408.002	96.19
408.226	110.19
408.449	95.19
408.673	90.19
408.896	98.19
409.12	108.19
409.344	97.19
409.567	84.19
409.791	88.19
410.014	91.19
410.238	94.19
410.461	98.19
410.685	87.19
410.908	91.19
411.132	100.19
411.355	103.19
411.578	88.19
411.802	94.19
412.025	83.19
412.249	111.19
412.472	143.19
412.695	160.19
412.919	136.19
413.142	110.19
413.365	91.19
413.589	83.19
413.812	85.19
414.035	98.19
414.258	111.19
414.482	109.19
414.705	99.19
414.928	91.19
415.151	106.19
415.374	86.19
415.597	97.19
415.821	75.19
416.044	89.19
416.267	78.19
416.49	94.19
416.713	102.19
416.936	104.19
417.159	108.19
417.382	112.19
417.605	132.19
417.828	138.19
418.051	130.19
418.274	101.19
418.497	94.19
418.72	102.19
418.943	99.19
419.166	96.19
419.389	100.19
419.611	110.19
419.834	91.19
420.057	106.19
420.28	117.19
420.503	98.19
420.726	105.19
420.948	87.19
421.171	102.19
421.394	107.19
421.617	91.19
421.839	98.19
422.062	94.19
422.285	105.19
422.507	94.19
422.73	105.19
422.953	93.19
423.175	88.19
423.398	97.19
423.621	101.19
423.843	105.19
424.066	89.19
424.288	105.19
424.511	105.19
424.733	111.19
424.956	115.19
425.178	102.19
425.401	114.19
425.623	132.19
425.846	97.19
426.068	100.19
426.291	109.19
426.513	94.19
426.735	107.19
426.958	114.19
427.18	111.19
427.402	171.19
427.625	286.19
427.847	295.19
428.069	248.19
428.292	170.19
428.514	119.19
428.736	110.19
428.958	98.19
429.181	89.19
429.403	96.19
429.625	99.19
429.847	103.19
430.069	124.19
430.292	108.19
430.514	95.19
430.736	70.19
430.958	92.19
431.18	98.19
431.402	75.19
431.624	97.19
431.846	86.19
432.068	91.19
432.29	90.19
432.512	100.19
432.734	85.19
432.956	106.19
433.178	95.19
433.4	99.19
433.622	97.19
433.844	96.19
434.066	94.19
434.287	91.19
434.509	92.19
434.731	97.19
434.953	94.19
435.175	99.19
435.397	103.19
435.618	96.19
435.84	107.19
436.062	148.19
436.284	111.19
436.505	102.19
436.727	94.19
436.949	94.19
437.17	89.19
437.392	89.19
437.614	90.19
437.835	131.19
438.057	173.19
438.278	124.19
438.5	124.19
438.721	132.19
438.943	112.19
439.165	99.19
439.386	86.19
439.608	111.19
439.829	107.19
440.05	149.19
440.272	202.19
440.493	102.19
440.715	105.19
440.936	102.19
441.158	100.19
441.379	97.19
441.6	107.19
441.822	100.19
442.043	110.19
442.264	108.19
442.486	115.19
442.707	95.19
442.928	137.19
443.149	186.19
443.371	185.19
443.592	136.19
443.813	142.19
444.034	119.19
444.255	90.19
444.476	97.19
444.698	99.19
444.919	81.19
445.14	135.19
445.361	145.19
445.582	140.19
445.803	182.19
446.024	193.19
446.245	164.19
446.466	120.19
446.687	99.19
446.908	102.19
447.129	100.19
447.35	88.19
447.571	112.19
447.792	107.19
448.013	99.19
448.234	114.19
448.455	106.19
448.675	123.19
448.896	132.19
449.117	104.19
449.338	109.19
449.559	157.19
449.779	152.19
450	108.19
450.221	103.19
450.442	87.19
450.662	107.19
450.883	136.19
451.104	144.19
451.324	109.19
451.545	84.19
451.766	94.19
451.986	94.19
452.207	101.19
452.428	103.19
452.648	120.19
452.869	128.19
453.089	133.19
453.31	139.19
453.53	98.19
453.751	107.19
453.971	117.19
454.192	132.19
454.412	108.19
454.633	82.19
454.853	108.19
455.073	87.19
455.294	107.19
455.514	110.19
455.734	107.19
455.955	88.19
456.175	82.19
456.395	84.19
456.616	84.19
456.836	99.19
457.056	84.19
457.276	86.19
457.497	95.19
457.717	85.19
457.937	89.19
458.157	91.19
458.377	96.19
458.598	137.19
458.818	210.19
459.038	266.19
459.258	156.19
459.478	97.19
459.698	86.19
459.918	80.19
460.138	95.19
460.358	95.19
460.578	111.19
460.798	89.19
461.018	106.19
461.238	107.19
461.458	90.19
461.678	84.19
461.898	98.19
462.118	99.19
462.338	71.19
462.558	98.19
462.777	102.19
462.997	126.19
463.217	160.19
463.437	123.19
463.657	111.19
463.876	108.19
464.096	96.19
464.316	106.19
464.536	106.19
464.755	108.19
464.975	128.19
465.195	251.19
465.414	257.19
465.634	111.19
465.854	109.19
466.073	110.19
466.293	103.19
466.512	103.19
466.732	90.19
466.951	110.19
467.171	100.19
467.391	127.19
467.61	203.19
467.829	375.19
468.049	1378.19
468.268	2210.19
468.488	452.19
468.707	158.19
468.927	124.19
469.146	104.19
469.365	100.19
469.585	108.19
469.804	114.19
470.023	131.19
470.243	118.19
470.462	130.19
470.681	159.19
470.901	119.19
471.12	114.19
471.339	143.19
471.558	173.19
471.777	250.19
471.997	617.19
472.216	2548.19
472.435	6068.19
472.654	1226.19
472.873	282.19
473.092	147.19
473.311	116.19
473.53	108.19
473.749	107.19
473.968	104.19
474.187	148.19
474.406	119.19
474.625	98.19
474.844	95.19
475.063	109.19
475.282	100.19
475.501	99.19
475.72	118.19
475.939	98.19
476.158	95.19
476.377	107.19
476.596	102.19
476.814	104.19
477.033	113.19
477.252	116.19
477.471	94.19
477.69	112.19
477.908	110.19
478.127	107.19
478.346	105.19
478.564	111.19
478.783	127.19
479.002	126.19
479.22	121.19
479.439	158.19
479.658	153.19
479.876	139.19
480.095	158.19
480.313	190.19
480.532	264.19
480.751	526.19
480.969	2144.19
481.188	9725.19
481.406	5418.19
481.624	691.19
481.843	216.19
482.061	152.19
482.28	142.19
482.498	105.19
482.717	108.19
482.935	101.19
483.153	104.19
483.372	100.19
483.59	94.19
483.808	99.19
484.027	106.19
484.245	99.19
484.463	95.19
484.681	94.19
484.9	115.19
485.118	111.19
485.336	95.19
485.554	102.19
485.772	112.19
485.99	119.19
486.209	113.19
486.427	125.19
486.645	129.19
486.863	130.19
487.081	113.19
487.299	105.19
487.517	96.19
487.735	105.19
487.953	115.19
488.171	102.19
488.389	105.19
488.607	99.19
488.825	95.19
489.043	100.19
489.261	92.19
489.479	83.19
489.696	92.19
489.914	101.19
490.132	85.19
490.35	97.19
490.568	98.19
490.786	108.19
491.003	98.19
491.221	109.19
491.439	116.19
491.657	100.19
491.874	111.19
492.092	100.19
492.31	98.19
492.527	118.19
492.745	118.19
492.963	91.19
493.18	106.19
493.398	102.19
493.615	100.19
493.833	97.19
494.05	91.19
494.268	107.19
494.485	106.19
494.703	94.19
494.92	88.19
495.138	101.19
495.355	92.19
495.573	100.19
495.79	90.19
496.008	101.19
496.225	95.19
496.442	101.19
496.66	90.19
496.877	98.19
497.094	101.19
497.312	83.19
497.529	101.19
497.746	81.19
497.963	101.19
498.181	110.19
498.398	103.19
498.615	124.19
498.832	128.19
499.049	99.19
499.267	100.19
499.484	90.19
499.701	105.19
499.918	104.19
500.135	100.19
500.352	102.19
500.569	112.19
500.786	129.19
501.003	121.19
501.22	107.19
501.437	107.19
501.654	114.19
501.871	123.19
502.088	107.19
502.305	107.19
502.522	79.19
502.739	107.19
502.956	98.19
503.172	96.19
503.389	112.19
503.606	145.19
503.823	120.19
504.04	94.19
504.256	111.19
504.473	92.19
504.69	83.19
504.907	90.19
505.123	98.19
505.34	93.19
505.557	103.19
505.773	98.19
505.99	93.19
506.207	92.19
506.423	107.19
506.64	108.19
506.856	100.19
507.073	97.19
507.289	101.19
507.506	104.19
507.722	133.19
507.939	150.19
508.155	97.19
508.372	96.19
508.588	123.19
508.805	103.19
509.021	104.19
509.238	112.19
509.454	108.19
509.67	115.19
509.887	115.19
