Data from Circ_1988_H10_HRD10591_00096.txt Node
Date: Wed Jan 03 12:05:54 EST 2024
User: Yrep
Spectrometer: HR+D1059
Trigger mode: 1
Integration Time (sec): 1.000000E-1
Scans to average: 1
Electric dark correction enabled: true
Nonlinearity correction enabled: false
Boxcar width: 0
XAxis mode: Wavelengths
Number of Pixels in Spectrum: 2048
>>>>>Begin Spectral Data<<<<<
223.165	-7.31
223.4	-7.31
223.635	-7.31
223.869	-17.31
224.104	-12.31
224.338	-29.31
224.573	-14.31
224.808	-9.31
225.042	-12.31
225.277	-8.31
225.511	-11.31
225.746	12.69
225.98	24.69
226.215	15.69
226.449	4.69
226.683	5.69
226.918	28.69
227.152	29.69
227.387	18.69
227.621	32.69
227.856	25.69
228.09	41.69
228.324	50.69
228.559	62.69
228.793	56.69
229.027	80.69
229.262	73.69
229.496	90.69
229.73	92.69
229.964	91.69
230.199	90.69
230.433	84.69
230.667	87.69
230.901	78.69
231.136	68.69
231.37	85.69
231.604	85.69
231.838	81.69
232.072	71.69
232.306	95.69
232.541	99.69
232.775	78.69
233.009	79.69
233.243	95.69
233.477	86.69
233.711	81.69
233.945	82.69
234.179	82.69
234.413	88.69
234.647	83.69
234.881	80.69
235.115	85.69
235.349	74.69
235.583	80.69
235.817	76.69
236.051	85.69
236.285	86.69
236.519	88.69
236.753	72.69
236.987	90.69
237.221	92.69
237.455	105.69
237.689	76.69
237.922	77.69
238.156	89.69
238.39	84.69
238.624	81.69
238.858	71.69
239.091	77.69
239.325	83.69
239.559	89.69
239.793	87.69
240.027	73.69
240.26	96.69
240.494	85.69
240.728	68.69
240.961	84.69
241.195	76.69
241.429	62.69
241.662	81.69
241.896	96.69
242.13	75.69
242.363	79.69
242.597	85.69
242.83	78.69
243.064	83.69
243.298	80.69
243.531	84.69
243.765	66.69
243.998	92.69
244.232	86.69
244.465	85.69
244.699	83.69
244.932	66.69
245.166	84.69
245.399	90.69
245.633	71.69
245.866	75.69
246.099	76.69
246.333	77.69
246.566	97.69
246.8	80.69
247.033	95.69
247.266	74.69
247.5	88.69
247.733	81.69
247.966	71.69
248.2	79.69
248.433	82.69
248.666	91.69
248.899	98.69
249.133	92.69
249.366	105.69
249.599	106.69
249.832	97.69
250.066	84.69
250.299	92.69
250.532	77.69
250.765	100.69
250.998	104.69
251.231	98.69
251.465	76.69
251.698	87.69
251.931	98.69
252.164	89.69
252.397	86.69
252.63	91.69
252.863	80.69
253.096	91.69
253.329	89.69
253.562	89.69
253.795	86.69
254.028	101.69
254.261	105.69
254.494	98.69
254.727	88.69
254.96	88.69
255.193	83.69
255.426	92.69
255.659	86.69
255.892	103.69
256.124	100.69
256.357	82.69
256.59	81.69
256.823	90.69
257.056	98.69
257.289	104.69
257.521	89.69
257.754	95.69
257.987	107.69
258.22	96.69
258.452	117.69
258.685	113.69
258.918	88.69
259.151	82.69
259.383	78.69
259.616	79.69
259.849	85.69
260.081	94.69
260.314	101.69
260.547	94.69
260.779	117.69
261.012	141.69
261.244	149.69
261.477	112.69
261.71	114.69
261.942	131.69
262.175	162.69
262.407	105.69
262.64	86.69
262.872	93.69
263.105	85.69
263.337	90.69
263.57	91.69
263.802	99.69
264.035	97.69
264.267	102.69
264.499	90.69
264.732	95.69
264.964	84.69
265.197	88.69
265.429	91.69
265.661	90.69
265.894	96.69
266.126	91.69
266.358	93.69
266.591	86.69
266.823	92.69
267.055	85.69
267.287	88.69
267.52	86.69
267.752	76.69
267.984	88.69
268.216	90.69
268.448	101.69
268.681	106.69
268.913	93.69
269.145	92.69
269.377	85.69
269.609	77.69
269.841	88.69
270.073	80.69
270.306	90.69
270.538	95.69
270.77	91.69
271.002	89.69
271.234	103.69
271.466	103.69
271.698	94.69
271.93	88.69
272.162	89.69
272.394	89.69
272.626	99.69
272.858	94.69
273.09	106.69
273.322	82.69
273.553	83.69
273.785	85.69
274.017	104.69
274.249	94.69
274.481	90.69
274.713	90.69
274.945	104.69
275.176	96.69
275.408	120.69
275.64	154.69
275.872	185.69
276.104	129.69
276.335	109.69
276.567	138.69
276.799	191.69
277.031	273.69
277.262	373.69
277.494	252.69
277.726	127.69
277.957	103.69
278.189	107.69
278.421	103.69
278.652	87.69
278.884	92.69
279.115	94.69
279.347	109.69
279.579	127.69
279.81	201.69
280.042	354.69
280.273	530.69
280.505	324.69
280.736	148.69
280.968	125.69
281.199	86.69
281.431	97.69
281.662	91.69
281.894	90.69
282.125	110.69
282.356	148.69
282.588	174.69
282.819	158.69
283.051	96.69
283.282	87.69
283.513	93.69
283.745	101.69
283.976	88.69
284.207	88.69
284.439	94.69
284.67	80.69
284.901	84.69
285.132	98.69
285.364	84.69
285.595	101.69
285.826	88.69
286.057	108.69
286.288	89.69
286.52	82.69
286.751	83.69
286.982	87.69
287.213	100.69
287.444	85.69
287.675	98.69
287.906	98.69
288.138	86.69
288.369	94.69
288.6	102.69
288.831	94.69
289.062	88.69
289.293	80.69
289.524	92.69
289.755	84.69
289.986	85.69
290.217	78.69
290.448	95.69
290.679	84.69
290.91	97.69
291.141	88.69
291.371	96.69
291.602	89.69
291.833	96.69
292.064	86.69
292.295	78.69
292.526	89.69
292.757	82.69
292.987	84.69
293.218	98.69
293.449	94.69
293.68	86.69
293.91	72.69
294.141	89.69
294.372	95.69
294.603	98.69
294.833	97.69
295.064	92.69
295.295	84.69
295.525	100.69
295.756	109.69
295.987	142.69
296.217	194.69
296.448	136.69
296.679	87.69
296.909	88.69
297.14	90.69
297.37	100.69
297.601	96.69
297.831	85.69
298.062	90.69
298.292	94.69
298.523	103.69
298.753	108.69
298.984	86.69
299.214	89.69
299.445	90.69
299.675	104.69
299.905	105.69
300.136	100.69
300.366	82.69
300.597	92.69
300.827	84.69
301.057	117.69
301.288	133.69
301.518	110.69
301.748	123.69
301.979	135.69
302.209	116.69
302.439	98.69
302.669	84.69
302.9	105.69
303.13	106.69
303.36	119.69
303.59	180.69
303.82	182.69
304.051	131.69
304.281	86.69
304.511	103.69
304.741	80.69
304.971	91.69
305.201	92.69
305.431	100.69
305.661	98.69
305.891	89.69
306.121	95.69
306.352	106.69
306.582	132.69
306.812	124.69
307.042	167.69
307.272	259.69
307.502	310.69
307.731	292.69
307.961	187.69
308.191	122.69
308.421	94.69
308.651	92.69
308.881	96.69
309.111	101.69
309.341	93.69
309.571	116.69
309.8	112.69
310.03	105.69
310.26	116.69
310.49	104.69
310.72	120.69
310.949	123.69
311.179	119.69
311.409	100.69
311.639	100.69
311.868	109.69
312.098	110.69
312.328	104.69
312.557	106.69
312.787	114.69
313.017	121.69
313.246	96.69
313.476	95.69
313.706	105.69
313.935	112.69
314.165	118.69
314.394	117.69
314.624	106.69
314.853	110.69
315.083	106.69
315.312	106.69
315.542	101.69
315.771	101.69
316.001	84.69
316.23	94.69
316.46	98.69
316.689	102.69
316.919	85.69
317.148	116.69
317.377	109.69
317.607	94.69
317.836	101.69
318.065	96.69
318.295	96.69
318.524	93.69
318.753	103.69
318.983	93.69
319.212	106.69
319.441	110.69
319.67	131.69
319.9	127.69
320.129	81.69
320.358	93.69
320.587	105.69
320.816	90.69
321.046	101.69
321.275	105.69
321.504	99.69
321.733	99.69
321.962	108.69
322.191	125.69
322.42	116.69
322.649	112.69
322.878	125.69
323.108	125.69
323.337	149.69
323.566	166.69
323.795	195.69
324.024	223.69
324.253	398.69
324.482	825.69
324.71	1718.69
324.939	2303.69
325.168	908.69
325.397	278.69
325.626	164.69
325.855	148.69
326.084	126.69
326.313	156.69
326.542	174.69
326.77	232.69
326.999	434.69
327.228	862.69
327.457	1584.69
327.686	1348.69
327.914	673.69
328.143	946.69
328.372	1350.69
328.6	689.69
328.829	264.69
329.058	222.69
329.287	229.69
329.515	255.69
329.744	420.69
329.972	900.69
330.201	2018.69
330.43	3096.69
330.658	1255.69
330.887	412.69
331.115	236.69
331.344	172.69
331.572	133.69
331.801	154.69
332.03	140.69
332.258	135.69
332.486	120.69
332.715	125.69
332.943	121.69
333.172	149.69
333.4	174.69
333.629	212.69
333.857	327.69
334.085	728.69
334.314	1696.69
334.542	3649.69
334.771	3492.69
334.999	820.69
335.227	253.69
335.455	147.69
335.684	155.69
335.912	133.69
336.14	131.69
336.369	114.69
336.597	131.69
336.825	116.69
337.053	94.69
337.281	106.69
337.51	108.69
337.738	113.69
337.966	89.69
338.194	101.69
338.422	116.69
338.65	107.69
338.878	97.69
339.106	98.69
339.334	91.69
339.562	104.69
339.79	104.69
340.018	115.69
340.246	108.69
340.474	102.69
340.702	89.69
340.93	80.69
341.158	93.69
341.386	104.69
341.614	111.69
341.842	122.69
342.07	116.69
342.298	98.69
342.526	85.69
342.754	88.69
342.981	89.69
343.209	93.69
343.437	109.69
343.665	82.69
343.893	95.69
344.12	96.69
344.348	105.69
344.576	90.69
344.804	92.69
345.031	108.69
345.259	106.69
345.487	106.69
345.714	101.69
345.942	109.69
346.17	79.69
346.397	95.69
346.625	89.69
346.853	93.69
347.08	88.69
347.308	100.69
347.535	112.69
347.763	108.69
347.99	111.69
348.218	106.69
348.445	124.69
348.673	127.69
348.9	103.69
349.128	111.69
349.355	89.69
349.583	90.69
349.81	98.69
350.037	85.69
350.265	110.69
350.492	95.69
350.72	96.69
350.947	106.69
351.174	124.69
351.402	128.69
351.629	99.69
351.856	110.69
352.083	115.69
352.311	112.69
352.538	124.69
352.765	115.69
352.992	123.69
353.22	114.69
353.447	101.69
353.674	112.69
353.901	88.69
354.128	113.69
354.355	98.69
354.583	95.69
354.81	96.69
355.037	86.69
355.264	93.69
355.491	98.69
355.718	96.69
355.945	90.69
356.172	110.69
356.399	90.69
356.626	93.69
356.853	74.69
357.08	94.69
357.307	92.69
357.534	88.69
357.761	83.69
357.988	98.69
358.215	93.69
358.441	86.69
358.668	99.69
358.895	101.69
359.122	95.69
359.349	95.69
359.576	100.69
359.802	98.69
360.029	135.69
360.256	150.69
360.483	128.69
360.709	92.69
360.936	92.69
361.163	98.69
361.39	97.69
361.616	113.69
361.843	95.69
362.07	109.69
362.296	125.69
362.523	97.69
362.749	109.69
362.976	91.69
363.203	97.69
363.429	106.69
363.656	89.69
363.882	80.69
364.109	84.69
364.335	110.69
364.562	90.69
364.788	97.69
365.015	88.69
365.241	106.69
365.468	116.69
365.694	133.69
365.92	111.69
366.147	93.69
366.373	102.69
366.599	99.69
366.826	83.69
367.052	99.69
367.278	91.69
367.505	95.69
367.731	102.69
367.957	103.69
368.184	94.69
368.41	121.69
368.636	114.69
368.862	138.69
369.089	115.69
369.315	94.69
369.541	91.69
369.767	92.69
369.993	90.69
370.219	106.69
370.445	104.69
370.672	97.69
370.898	98.69
371.124	83.69
371.35	95.69
371.576	79.69
371.802	72.69
372.028	76.69
372.254	84.69
372.48	92.69
372.706	82.69
372.932	99.69
373.158	88.69
373.384	105.69
373.61	96.69
373.835	87.69
374.061	72.69
374.287	100.69
374.513	85.69
374.739	95.69
374.965	99.69
375.191	80.69
375.416	87.69
375.642	98.69
375.868	89.69
376.094	88.69
376.319	91.69
376.545	92.69
376.771	93.69
376.997	77.69
377.222	91.69
377.448	84.69
377.674	94.69
377.899	104.69
378.125	76.69
378.35	78.69
378.576	85.69
378.802	99.69
379.027	88.69
379.253	101.69
379.478	103.69
379.704	87.69
379.929	97.69
380.155	95.69
380.38	99.69
380.606	86.69
380.831	99.69
381.057	114.69
381.282	108.69
381.507	101.69
381.733	88.69
381.958	98.69
382.184	93.69
382.409	103.69
382.634	92.69
382.86	103.69
383.085	101.69
383.31	102.69
383.535	101.69
383.761	95.69
383.986	98.69
384.211	104.69
384.436	99.69
384.662	85.69
384.887	116.69
385.112	106.69
385.337	111.69
385.562	104.69
385.787	104.69
386.013	110.69
386.238	122.69
386.463	96.69
386.688	114.69
386.913	112.69
387.138	120.69
387.363	102.69
387.588	103.69
387.813	93.69
388.038	115.69
388.263	115.69
388.488	113.69
388.713	104.69
388.938	89.69
389.163	106.69
389.387	104.69
389.612	88.69
389.837	82.69
390.062	97.69
390.287	90.69
390.512	86.69
390.736	86.69
390.961	98.69
391.186	90.69
391.411	78.69
391.636	91.69
391.86	94.69
392.085	96.69
392.31	100.69
392.534	94.69
392.759	102.69
392.984	85.69
393.208	84.69
393.433	100.69
393.658	98.69
393.882	86.69
394.107	100.69
394.331	80.69
394.556	89.69
394.78	77.69
395.005	95.69
395.229	75.69
395.454	84.69
395.678	95.69
395.903	85.69
396.127	83.69
396.352	88.69
396.576	99.69
396.801	84.69
397.025	87.69
397.249	83.69
397.474	90.69
397.698	90.69
397.922	96.69
398.147	93.69
398.371	90.69
398.595	90.69
398.82	82.69
399.044	97.69
399.268	85.69
399.492	103.69
399.717	101.69
399.941	102.69
400.165	110.69
400.389	94.69
400.613	97.69
400.837	86.69
401.062	87.69
401.286	103.69
401.51	96.69
401.734	94.69
401.958	113.69
402.182	160.69
402.406	223.69
402.63	149.69
402.854	109.69
403.078	89.69
403.302	84.69
403.526	88.69
403.75	103.69
403.974	86.69
404.198	98.69
404.422	95.69
404.645	104.69
404.869	102.69
405.093	126.69
405.317	151.69
405.541	149.69
405.765	131.69
405.988	149.69
406.212	238.69
406.436	332.69
406.66	206.69
406.883	108.69
407.107	110.69
407.331	117.69
407.555	106.69
407.778	103.69
408.002	96.69
408.226	88.69
408.449	82.69
408.673	82.69
408.896	112.69
409.12	95.69
409.344	104.69
409.567	103.69
409.791	99.69
410.014	104.69
410.238	95.69
410.461	92.69
410.685	94.69
410.908	97.69
411.132	117.69
411.355	101.69
411.578	88.69
411.802	82.69
412.025	96.69
412.249	102.69
412.472	132.69
412.695	156.69
412.919	123.69
413.142	99.69
413.365	99.69
413.589	89.69
413.812	94.69
414.035	110.69
414.258	121.69
414.482	109.69
414.705	102.69
414.928	109.69
415.151	117.69
415.374	89.69
415.597	88.69
415.821	97.69
416.044	103.69
416.267	87.69
416.49	90.69
416.713	98.69
416.936	74.69
417.159	90.69
417.382	113.69
417.605	134.69
417.828	138.69
418.051	107.69
418.274	87.69
418.497	98.69
418.72	84.69
418.943	90.69
419.166	82.69
419.389	94.69
419.611	112.69
419.834	107.69
420.057	108.69
420.28	104.69
420.503	94.69
420.726	91.69
420.948	95.69
421.171	126.69
421.394	101.69
421.617	101.69
421.839	84.69
422.062	80.69
422.285	89.69
422.507	93.69
422.73	111.69
422.953	97.69
423.175	95.69
423.398	89.69
423.621	106.69
423.843	96.69
424.066	97.69
424.288	93.69
424.511	103.69
424.733	104.69
424.956	110.69
425.178	121.69
425.401	116.69
425.623	116.69
425.846	94.69
426.068	107.69
426.291	112.69
426.513	91.69
426.735	101.69
426.958	112.69
427.18	124.69
427.402	189.69
427.625	299.69
427.847	244.69
428.069	216.69
428.292	160.69
428.514	104.69
428.736	107.69
428.958	85.69
429.181	93.69
429.403	97.69
429.625	91.69
429.847	104.69
430.069	109.69
430.292	96.69
430.514	86.69
430.736	92.69
430.958	87.69
431.18	70.69
431.402	88.69
431.624	90.69
431.846	92.69
432.068	96.69
432.29	112.69
432.512	104.69
432.734	96.69
432.956	89.69
433.178	115.69
433.4	108.69
433.622	97.69
433.844	74.69
434.066	97.69
434.287	86.69
434.509	85.69
434.731	96.69
434.953	90.69
435.175	107.69
435.397	95.69
435.618	102.69
435.84	116.69
436.062	133.69
436.284	114.69
436.505	102.69
436.727	107.69
436.949	94.69
437.17	92.69
437.392	96.69
437.614	99.69
437.835	133.69
438.057	149.69
438.278	119.69
438.5	114.69
438.721	144.69
438.943	122.69
439.165	92.69
439.386	93.69
439.608	103.69
439.829	108.69
440.05	145.69
440.272	189.69
440.493	116.69
440.715	86.69
440.936	102.69
441.158	82.69
441.379	97.69
441.6	101.69
441.822	117.69
442.043	101.69
442.264	115.69
442.486	122.69
442.707	103.69
442.928	126.69
443.149	179.69
443.371	179.69
443.592	148.69
443.813	134.69
444.034	106.69
444.255	109.69
444.476	94.69
444.698	87.69
444.919	102.69
445.14	124.69
445.361	114.69
445.582	122.69
445.803	165.69
446.024	158.69
446.245	163.69
446.466	120.69
446.687	93.69
446.908	89.69
447.129	99.69
447.35	94.69
447.571	93.69
447.792	95.69
448.013	115.69
448.234	135.69
448.455	130.69
448.675	114.69
448.896	127.69
449.117	116.69
449.338	111.69
449.559	152.69
449.779	149.69
450	98.69
450.221	105.69
450.442	88.69
450.662	116.69
450.883	129.69
451.104	137.69
451.324	107.69
451.545	109.69
451.766	89.69
451.986	88.69
452.207	96.69
452.428	105.69
452.648	114.69
452.869	152.69
453.089	147.69
453.31	160.69
453.53	109.69
453.751	102.69
453.971	109.69
454.192	143.69
454.412	111.69
454.633	99.69
454.853	91.69
455.073	91.69
455.294	102.69
455.514	124.69
455.734	96.69
455.955	82.69
456.175	94.69
456.395	84.69
456.616	92.69
456.836	87.69
457.056	100.69
457.276	80.69
457.497	85.69
457.717	103.69
457.937	95.69
458.157	97.69
458.377	98.69
458.598	128.69
458.818	222.69
459.038	241.69
459.258	144.69
459.478	99.69
459.698	93.69
459.918	100.69
460.138	83.69
460.358	86.69
460.578	104.69
460.798	103.69
461.018	95.69
461.238	91.69
461.458	87.69
461.678	96.69
461.898	96.69
462.118	109.69
462.338	98.69
462.558	88.69
462.777	92.69
462.997	115.69
463.217	141.69
463.437	122.69
463.657	100.69
463.876	89.69
464.096	101.69
464.316	109.69
464.536	106.69
464.755	105.69
464.975	144.69
465.195	258.69
465.414	251.69
465.634	107.69
465.854	103.69
466.073	103.69
466.293	110.69
466.512	91.69
466.732	102.69
466.951	103.69
467.171	122.69
467.391	131.69
467.61	213.69
467.829	373.69
468.049	1301.69
468.268	2083.69
468.488	438.69
468.707	148.69
468.927	121.69
469.146	120.69
469.365	120.69
469.585	106.69
469.804	121.69
470.023	104.69
470.243	112.69
470.462	129.69
470.681	145.69
470.901	130.69
471.12	124.69
471.339	125.69
471.558	173.69
471.777	232.69
471.997	554.69
472.216	2413.69
472.435	5712.69
472.654	1150.69
472.873	268.69
473.092	150.69
473.311	124.69
473.53	118.69
473.749	95.69
473.968	99.69
474.187	137.69
474.406	113.69
474.625	101.69
474.844	94.69
475.063	105.69
475.282	100.69
475.501	90.69
475.72	111.69
475.939	98.69
476.158	87.69
476.377	97.69
476.596	93.69
476.814	116.69
477.033	112.69
477.252	93.69
477.471	106.69
477.69	103.69
477.908	103.69
478.127	97.69
478.346	118.69
478.564	116.69
478.783	120.69
479.002	127.69
479.22	125.69
479.439	153.69
479.658	157.69
479.876	147.69
480.095	165.69
480.313	179.69
480.532	259.69
480.751	480.69
480.969	1960.69
481.188	9220.69
481.406	5208.69
481.624	646.69
481.843	210.69
482.061	144.69
482.28	122.69
482.498	121.69
482.717	112.69
482.935	110.69
483.153	94.69
483.372	108.69
483.59	101.69
483.808	105.69
484.027	103.69
484.245	101.69
484.463	112.69
484.681	112.69
484.9	96.69
485.118	113.69
485.336	104.69
485.554	114.69
485.772	103.69
485.99	113.69
486.209	123.69
486.427	116.69
486.645	129.69
486.863	128.69
487.081	106.69
487.299	117.69
487.517	111.69
487.735	99.69
487.953	96.69
488.171	98.69
488.389	96.69
488.607	101.69
488.825	96.69
489.043	96.69
489.261	99.69
489.479	102.69
489.696	109.69
489.914	85.69
490.132	87.69
490.35	84.69
490.568	101.69
490.786	94.69
491.003	102.69
491.221	98.69
491.439	108.69
491.657	102.69
491.874	100.69
492.092	110.69
492.31	103.69
492.527	117.69
492.745	127.69
492.963	100.69
493.18	102.69
493.398	101.69
493.615	103.69
493.833	101.69
494.05	99.69
494.268	102.69
494.485	89.69
494.703	98.69
494.92	90.69
495.138	92.69
495.355	101.69
495.573	82.69
495.79	88.69
496.008	95.69
496.225	93.69
496.442	91.69
496.66	89.69
496.877	103.69
497.094	111.69
497.312	87.69
497.529	96.69
497.746	91.69
497.963	91.69
498.181	97.69
498.398	97.69
498.615	126.69
498.832	105.69
499.049	100.69
499.267	97.69
499.484	94.69
499.701	94.69
499.918	97.69
500.135	100.69
500.352	105.69
500.569	113.69
500.786	104.69
501.003	88.69
501.22	88.69
501.437	85.69
501.654	114.69
501.871	112.69
502.088	128.69
502.305	96.69
502.522	109.69
502.739	98.69
502.956	102.69
503.172	99.69
503.389	113.69
503.606	124.69
503.823	118.69
504.04	92.69
504.256	95.69
504.473	81.69
504.69	73.69
504.907	96.69
505.123	85.69
505.34	96.69
505.557	96.69
505.773	94.69
505.99	85.69
506.207	90.69
506.423	112.69
506.64	97.69
506.856	95.69
507.073	89.69
507.289	115.69
507.506	118.69
507.722	144.69
507.939	130.69
508.155	97.69
508.372	100.69
508.588	110.69
508.805	90.69
509.021	99.69
509.238	113.69
509.454	109.69
509.67	111.69
509.887	123.69
510.103	141.69
510.319	272.69
510.536	1074.69
510.752	3895.69
510.968	1021.69
