Data from Circ_1988_H10_HRD10591_00090.txt Node
Date: Wed Jan 03 12:05:52 EST 2024
User: Yrep
Spectrometer: HR+D1059
Trigger mode: 1
Integration Time (sec): 1.000000E-1
Scans to average: 1
Electric dark correction enabled: true
Nonlinearity correction enabled: false
Boxcar width: 0
XAxis mode: Wavelengths
Number of Pixels in Spectrum: 2048
>>>>>Begin Spectral Data<<<<<
223.165	-24.81
223.4	-24.81
223.635	-24.81
223.869	-28.81
224.104	-25.81
224.338	-12.81
224.573	2.19
224.808	-23.81
225.042	-6.81
225.277	-14.81
225.511	1.19
225.746	4.19
225.98	8.19
226.215	25.19
226.449	23.19
226.683	29.19
226.918	23.19
227.152	21.19
227.387	20.19
227.621	32.19
227.856	43.19
228.09	46.19
228.324	41.19
228.559	61.19
228.793	52.19
229.027	57.19
229.262	57.19
229.496	67.19
229.73	103.19
229.964	99.19
230.199	79.19
230.433	89.19
230.667	81.19
230.901	64.19
231.136	77.19
231.37	77.19
231.604	83.19
231.838	97.19
232.072	72.19
232.306	69.19
232.541	83.19
232.775	72.19
233.009	87.19
233.243	88.19
233.477	89.19
233.711	78.19
233.945	88.19
234.179	70.19
234.413	93.19
234.647	90.19
234.881	91.19
235.115	93.19
235.349	82.19
235.583	85.19
235.817	78.19
236.051	87.19
236.285	77.19
236.519	89.19
236.753	77.19
236.987	79.19
237.221	72.19
237.455	88.19
237.689	93.19
237.922	90.19
238.156	75.19
238.39	67.19
238.624	71.19
238.858	81.19
239.091	86.19
239.325	81.19
239.559	87.19
239.793	90.19
240.027	94.19
240.26	79.19
240.494	86.19
240.728	79.19
240.961	80.19
241.195	93.19
241.429	77.19
241.662	82.19
241.896	78.19
242.13	89.19
242.363	86.19
242.597	75.19
242.83	83.19
243.064	74.19
243.298	85.19
243.531	85.19
243.765	65.19
243.998	85.19
244.232	84.19
244.465	98.19
244.699	82.19
244.932	81.19
245.166	78.19
245.399	77.19
245.633	77.19
245.866	89.19
246.099	69.19
246.333	86.19
246.566	78.19
246.8	96.19
247.033	92.19
247.266	81.19
247.5	72.19
247.733	76.19
247.966	82.19
248.2	74.19
248.433	87.19
248.666	83.19
248.899	79.19
249.133	90.19
249.366	101.19
249.599	117.19
249.832	97.19
250.066	101.19
250.299	89.19
250.532	94.19
250.765	90.19
250.998	87.19
251.231	86.19
251.465	105.19
251.698	95.19
251.931	98.19
252.164	99.19
252.397	82.19
252.63	86.19
252.863	101.19
253.096	74.19
253.329	69.19
253.562	72.19
253.795	89.19
254.028	83.19
254.261	77.19
254.494	82.19
254.727	87.19
254.96	76.19
255.193	83.19
255.426	89.19
255.659	94.19
255.892	111.19
256.124	128.19
256.357	93.19
256.59	96.19
256.823	93.19
257.056	90.19
257.289	103.19
257.521	95.19
257.754	94.19
257.987	83.19
258.22	107.19
258.452	107.19
258.685	118.19
258.918	101.19
259.151	86.19
259.383	85.19
259.616	87.19
259.849	90.19
260.081	89.19
260.314	101.19
260.547	105.19
260.779	114.19
261.012	144.19
261.244	152.19
261.477	117.19
261.71	117.19
261.942	121.19
262.175	145.19
262.407	105.19
262.64	87.19
262.872	99.19
263.105	82.19
263.337	96.19
263.57	94.19
263.802	97.19
264.035	96.19
264.267	83.19
264.499	93.19
264.732	100.19
264.964	93.19
265.197	82.19
265.429	102.19
265.661	91.19
265.894	74.19
266.126	79.19
266.358	73.19
266.591	89.19
266.823	89.19
267.055	97.19
267.287	85.19
267.52	81.19
267.752	80.19
267.984	86.19
268.216	94.19
268.448	104.19
268.681	98.19
268.913	98.19
269.145	85.19
269.377	82.19
269.609	77.19
269.841	88.19
270.073	74.19
270.306	95.19
270.538	73.19
270.77	83.19
271.002	85.19
271.234	110.19
271.466	94.19
271.698	102.19
271.93	88.19
272.162	83.19
272.394	90.19
272.626	97.19
272.858	82.19
273.09	93.19
273.322	88.19
273.553	89.19
273.785	97.19
274.017	84.19
274.249	81.19
274.481	93.19
274.713	108.19
274.945	101.19
275.176	119.19
275.408	124.19
275.64	149.19
275.872	175.19
276.104	145.19
276.335	127.19
276.567	134.19
276.799	164.19
277.031	256.19
277.262	322.19
277.494	240.19
277.726	121.19
277.957	97.19
278.189	105.19
278.421	83.19
278.652	96.19
278.884	99.19
279.115	88.19
279.347	115.19
279.579	114.19
279.81	209.19
280.042	349.19
280.273	522.19
280.505	323.19
280.736	134.19
280.968	111.19
281.199	90.19
281.431	102.19
281.662	91.19
281.894	95.19
282.125	107.19
282.356	147.19
282.588	183.19
282.819	143.19
283.051	106.19
283.282	85.19
283.513	101.19
283.745	94.19
283.976	81.19
284.207	101.19
284.439	92.19
284.67	92.19
284.901	78.19
285.132	91.19
285.364	88.19
285.595	95.19
285.826	96.19
286.057	87.19
286.288	70.19
286.52	81.19
286.751	94.19
286.982	93.19
287.213	87.19
287.444	92.19
287.675	100.19
287.906	98.19
288.138	90.19
288.369	100.19
288.6	96.19
288.831	94.19
289.062	84.19
289.293	87.19
289.524	93.19
289.755	85.19
289.986	86.19
290.217	82.19
290.448	70.19
290.679	95.19
290.91	81.19
291.141	79.19
291.371	82.19
291.602	94.19
291.833	73.19
292.064	115.19
292.295	86.19
292.526	99.19
292.757	101.19
292.987	102.19
293.218	98.19
293.449	94.19
293.68	106.19
293.91	107.19
294.141	100.19
294.372	99.19
294.603	90.19
294.833	85.19
295.064	98.19
295.295	101.19
295.525	108.19
295.756	107.19
295.987	141.19
296.217	175.19
296.448	167.19
296.679	123.19
296.909	74.19
297.14	101.19
297.37	89.19
297.601	85.19
297.831	95.19
298.062	109.19
298.292	96.19
298.523	90.19
298.753	90.19
298.984	96.19
299.214	103.19
299.445	94.19
299.675	104.19
299.905	94.19
300.136	102.19
300.366	100.19
300.597	86.19
300.827	86.19
301.057	108.19
301.288	108.19
301.518	113.19
301.748	107.19
301.979	124.19
302.209	104.19
302.439	101.19
302.669	90.19
302.9	90.19
303.13	90.19
303.36	132.19
303.59	170.19
303.82	185.19
304.051	133.19
304.281	83.19
304.511	101.19
304.741	86.19
304.971	95.19
305.201	99.19
305.431	101.19
305.661	107.19
305.891	117.19
306.121	107.19
306.352	111.19
306.582	126.19
306.812	131.19
307.042	168.19
307.272	259.19
307.502	288.19
307.731	262.19
307.961	181.19
308.191	117.19
308.421	105.19
308.651	101.19
308.881	93.19
309.111	101.19
309.341	98.19
309.571	113.19
309.8	104.19
310.03	111.19
310.26	121.19
310.49	106.19
310.72	102.19
310.949	109.19
311.179	109.19
311.409	113.19
311.639	117.19
311.868	103.19
312.098	110.19
312.328	103.19
312.557	107.19
312.787	122.19
313.017	122.19
313.246	106.19
313.476	89.19
313.706	107.19
313.935	103.19
314.165	133.19
314.394	119.19
314.624	105.19
314.853	109.19
315.083	92.19
315.312	96.19
315.542	94.19
315.771	86.19
316.001	99.19
316.23	88.19
316.46	104.19
316.689	99.19
316.919	98.19
317.148	112.19
317.377	97.19
317.607	119.19
317.836	110.19
318.065	100.19
318.295	91.19
318.524	103.19
318.753	95.19
318.983	105.19
319.212	99.19
319.441	122.19
319.67	119.19
319.9	89.19
320.129	90.19
320.358	111.19
320.587	101.19
320.816	95.19
321.046	108.19
321.275	122.19
321.504	93.19
321.733	109.19
321.962	109.19
322.191	106.19
322.42	109.19
322.649	137.19
322.878	138.19
323.108	138.19
323.337	154.19
323.566	147.19
323.795	182.19
324.024	221.19
324.253	419.19
324.482	836.19
324.71	1629.19
324.939	2203.19
325.168	883.19
325.397	281.19
325.626	155.19
325.855	147.19
326.084	166.19
326.313	147.19
326.542	169.19
326.77	241.19
326.999	442.19
327.228	868.19
327.457	1541.19
327.686	1302.19
327.914	659.19
328.143	878.19
328.372	1317.19
328.6	677.19
328.829	248.19
329.058	233.19
329.287	234.19
329.515	265.19
329.744	409.19
329.972	896.19
330.201	1988.19
330.43	3046.19
330.658	1221.19
330.887	411.19
331.115	228.19
331.344	138.19
331.572	139.19
331.801	138.19
332.03	144.19
332.258	134.19
332.486	130.19
332.715	130.19
332.943	122.19
333.172	145.19
333.4	167.19
333.629	215.19
333.857	326.19
334.085	735.19
334.314	1694.19
334.542	3487.19
334.771	3433.19
334.999	787.19
335.227	270.19
335.455	175.19
335.684	146.19
335.912	136.19
336.14	137.19
336.369	98.19
336.597	118.19
336.825	122.19
337.053	97.19
337.281	117.19
337.51	102.19
337.738	111.19
337.966	97.19
338.194	118.19
338.422	117.19
338.65	111.19
338.878	95.19
339.106	98.19
339.334	101.19
339.562	104.19
339.79	86.19
340.018	101.19
340.246	105.19
340.474	100.19
340.702	113.19
340.93	99.19
341.158	97.19
341.386	103.19
341.614	106.19
341.842	95.19
342.07	104.19
342.298	110.19
342.526	112.19
342.754	105.19
342.981	95.19
343.209	81.19
343.437	106.19
343.665	92.19
343.893	88.19
344.12	97.19
344.348	102.19
344.576	87.19
344.804	107.19
345.031	103.19
345.259	106.19
345.487	105.19
345.714	122.19
345.942	99.19
346.17	113.19
346.397	103.19
346.625	98.19
346.853	106.19
347.08	108.19
347.308	117.19
347.535	115.19
347.763	108.19
347.99	105.19
348.218	108.19
348.445	117.19
348.673	109.19
348.9	105.19
349.128	99.19
349.355	98.19
349.583	98.19
349.81	98.19
350.037	107.19
350.265	110.19
350.492	97.19
350.72	103.19
350.947	110.19
351.174	121.19
351.402	107.19
351.629	107.19
351.856	107.19
352.083	118.19
352.311	126.19
352.538	121.19
352.765	139.19
352.992	122.19
353.22	115.19
353.447	103.19
353.674	106.19
353.901	101.19
354.128	103.19
354.355	106.19
354.583	98.19
354.81	102.19
355.037	113.19
355.264	94.19
355.491	98.19
355.718	97.19
355.945	105.19
356.172	82.19
356.399	112.19
356.626	106.19
356.853	94.19
357.08	89.19
357.307	75.19
357.534	92.19
357.761	106.19
357.988	102.19
358.215	101.19
358.441	98.19
358.668	102.19
358.895	103.19
359.122	106.19
359.349	88.19
359.576	99.19
359.802	125.19
360.029	141.19
360.256	148.19
360.483	105.19
360.709	100.19
360.936	90.19
361.163	94.19
361.39	95.19
361.616	82.19
361.843	92.19
362.07	106.19
362.296	113.19
362.523	90.19
362.749	100.19
362.976	104.19
363.203	87.19
363.429	89.19
363.656	93.19
363.882	94.19
364.109	93.19
364.335	91.19
364.562	104.19
364.788	93.19
365.015	101.19
365.241	114.19
365.468	117.19
365.694	111.19
365.92	99.19
366.147	113.19
366.373	107.19
366.599	104.19
366.826	105.19
367.052	85.19
367.278	94.19
367.505	100.19
367.731	95.19
367.957	102.19
368.184	101.19
368.41	107.19
368.636	130.19
368.862	143.19
369.089	144.19
369.315	102.19
369.541	104.19
369.767	92.19
369.993	100.19
370.219	100.19
370.445	102.19
370.672	85.19
370.898	90.19
371.124	111.19
371.35	89.19
371.576	85.19
371.802	92.19
372.028	91.19
372.254	87.19
372.48	89.19
372.706	92.19
372.932	84.19
373.158	78.19
373.384	87.19
373.61	77.19
373.835	80.19
374.061	89.19
374.287	90.19
374.513	94.19
374.739	104.19
374.965	85.19
375.191	89.19
375.416	95.19
375.642	95.19
375.868	99.19
376.094	100.19
376.319	96.19
376.545	101.19
376.771	104.19
376.997	85.19
377.222	109.19
377.448	88.19
377.674	102.19
377.899	98.19
378.125	85.19
378.35	112.19
378.576	99.19
378.802	92.19
379.027	94.19
379.253	100.19
379.478	91.19
379.704	97.19
379.929	96.19
380.155	105.19
380.38	94.19
380.606	88.19
380.831	116.19
381.057	98.19
381.282	106.19
381.507	97.19
381.733	105.19
381.958	92.19
382.184	95.19
382.409	106.19
382.634	119.19
382.86	87.19
383.085	105.19
383.31	95.19
383.535	100.19
383.761	95.19
383.986	101.19
384.211	102.19
384.436	99.19
384.662	101.19
384.887	116.19
385.112	110.19
385.337	115.19
385.562	109.19
385.787	104.19
386.013	124.19
386.238	120.19
386.463	114.19
386.688	115.19
386.913	112.19
387.138	105.19
387.363	93.19
387.588	88.19
387.813	96.19
388.038	120.19
388.263	121.19
388.488	115.19
388.713	106.19
388.938	101.19
389.163	101.19
389.387	97.19
389.612	101.19
389.837	91.19
390.062	104.19
390.287	78.19
390.512	100.19
390.736	80.19
390.961	95.19
391.186	75.19
391.411	98.19
391.636	93.19
391.86	100.19
392.085	88.19
392.31	94.19
392.534	84.19
392.759	86.19
392.984	80.19
393.208	97.19
393.433	96.19
393.658	95.19
393.882	94.19
394.107	87.19
394.331	79.19
394.556	90.19
394.78	95.19
395.005	95.19
395.229	94.19
395.454	89.19
395.678	105.19
395.903	84.19
396.127	102.19
396.352	91.19
396.576	74.19
396.801	85.19
397.025	98.19
397.249	85.19
397.474	74.19
397.698	91.19
397.922	87.19
398.147	95.19
398.371	91.19
398.595	90.19
398.82	98.19
399.044	90.19
399.268	96.19
399.492	91.19
399.717	81.19
399.941	96.19
400.165	99.19
400.389	98.19
400.613	93.19
400.837	92.19
401.062	84.19
401.286	93.19
401.51	95.19
401.734	93.19
401.958	109.19
402.182	136.19
402.406	208.19
402.63	158.19
402.854	109.19
403.078	90.19
403.302	108.19
403.526	96.19
403.75	106.19
403.974	87.19
404.198	95.19
404.422	89.19
404.645	104.19
404.869	109.19
405.093	117.19
405.317	160.19
405.541	167.19
405.765	130.19
405.988	150.19
406.212	224.19
406.436	317.19
406.66	237.19
406.883	115.19
407.107	102.19
407.331	105.19
407.555	111.19
407.778	113.19
408.002	100.19
408.226	103.19
408.449	115.19
408.673	93.19
408.896	83.19
409.12	107.19
409.344	102.19
409.567	94.19
409.791	107.19
410.014	95.19
410.238	94.19
410.461	96.19
410.685	104.19
410.908	103.19
411.132	104.19
411.355	120.19
411.578	89.19
411.802	91.19
412.025	93.19
412.249	111.19
412.472	148.19
412.695	152.19
412.919	135.19
413.142	105.19
413.365	84.19
413.589	77.19
413.812	89.19
414.035	107.19
414.258	95.19
414.482	93.19
414.705	106.19
414.928	101.19
415.151	105.19
415.374	91.19
415.597	98.19
415.821	93.19
416.044	118.19
416.267	110.19
416.49	99.19
416.713	103.19
416.936	99.19
417.159	81.19
417.382	108.19
417.605	142.19
417.828	142.19
418.051	114.19
418.274	108.19
418.497	89.19
418.72	89.19
418.943	104.19
419.166	90.19
419.389	103.19
419.611	104.19
419.834	104.19
420.057	109.19
420.28	111.19
420.503	86.19
420.726	101.19
420.948	96.19
421.171	105.19
421.394	106.19
421.617	107.19
421.839	94.19
422.062	89.19
422.285	84.19
422.507	109.19
422.73	110.19
422.953	107.19
423.175	102.19
423.398	97.19
423.621	94.19
423.843	97.19
424.066	89.19
424.288	107.19
424.511	95.19
424.733	111.19
424.956	122.19
425.178	118.19
425.401	120.19
425.623	121.19
425.846	94.19
426.068	85.19
426.291	101.19
426.513	96.19
426.735	81.19
426.958	101.19
427.18	124.19
427.402	185.19
427.625	259.19
427.847	254.19
428.069	213.19
428.292	147.19
428.514	105.19
428.736	101.19
428.958	97.19
429.181	88.19
429.403	94.19
429.625	98.19
429.847	95.19
430.069	121.19
430.292	103.19
430.514	93.19
430.736	81.19
430.958	96.19
431.18	86.19
431.402	89.19
431.624	89.19
431.846	94.19
432.068	96.19
432.29	100.19
432.512	86.19
432.734	85.19
432.956	93.19
433.178	106.19
433.4	110.19
433.622	93.19
433.844	97.19
434.066	100.19
434.287	107.19
434.509	88.19
434.731	79.19
434.953	96.19
435.175	87.19
435.397	105.19
435.618	104.19
435.84	105.19
436.062	118.19
436.284	122.19
436.505	114.19
436.727	105.19
436.949	98.19
437.17	87.19
437.392	105.19
437.614	111.19
437.835	131.19
438.057	149.19
438.278	127.19
438.5	105.19
438.721	144.19
438.943	104.19
439.165	102.19
439.386	92.19
439.608	90.19
439.829	102.19
440.05	130.19
440.272	186.19
440.493	99.19
440.715	94.19
440.936	96.19
441.158	82.19
441.379	94.19
441.6	93.19
441.822	109.19
442.043	113.19
442.264	119.19
442.486	125.19
442.707	110.19
442.928	133.19
443.149	193.19
443.371	186.19
443.592	143.19
443.813	137.19
444.034	118.19
444.255	93.19
444.476	93.19
444.698	105.19
444.919	84.19
445.14	138.19
445.361	143.19
445.582	145.19
445.803	178.19
446.024	174.19
446.245	153.19
446.466	104.19
446.687	98.19
446.908	87.19
447.129	93.19
447.35	79.19
447.571	101.19
447.792	103.19
448.013	97.19
448.234	126.19
448.455	128.19
448.675	131.19
448.896	139.19
449.117	113.19
449.338	106.19
449.559	138.19
449.779	155.19
450	107.19
450.221	104.19
450.442	95.19
450.662	97.19
450.883	117.19
451.104	128.19
451.324	115.19
451.545	95.19
451.766	92.19
451.986	89.19
452.207	94.19
452.428	101.19
452.648	107.19
452.869	132.19
453.089	148.19
453.31	134.19
453.53	113.19
453.751	88.19
453.971	129.19
454.192	120.19
454.412	100.19
454.633	97.19
454.853	98.19
455.073	96.19
455.294	99.19
455.514	113.19
455.734	93.19
455.955	90.19
456.175	83.19
456.395	73.19
456.616	90.19
456.836	91.19
457.056	101.19
457.276	91.19
457.497	85.19
457.717	98.19
457.937	89.19
458.157	87.19
458.377	87.19
458.598	130.19
458.818	205.19
459.038	233.19
459.258	151.19
459.478	96.19
459.698	88.19
459.918	82.19
460.138	93.19
460.358	96.19
460.578	106.19
460.798	96.19
461.018	98.19
461.238	92.19
461.458	85.19
461.678	93.19
461.898	82.19
462.118	85.19
462.338	96.19
462.558	86.19
462.777	103.19
462.997	111.19
463.217	147.19
463.437	99.19
463.657	93.19
463.876	89.19
464.096	88.19
464.316	85.19
464.536	112.19
464.755	101.19
464.975	125.19
465.195	225.19
465.414	226.19
465.634	119.19
465.854	99.19
466.073	90.19
466.293	95.19
466.512	125.19
466.732	113.19
466.951	114.19
467.171	116.19
467.391	134.19
467.61	210.19
467.829	367.19
468.049	1285.19
468.268	2042.19
468.488	424.19
468.707	154.19
468.927	104.19
469.146	103.19
469.365	101.19
469.585	102.19
469.804	113.19
470.023	120.19
470.243	112.19
470.462	129.19
470.681	157.19
470.901	123.19
471.12	103.19
471.339	131.19
471.558	176.19
471.777	246.19
471.997	541.19
472.216	2373.19
472.435	5636.19
472.654	1145.19
472.873	257.19
473.092	143.19
473.311	115.19
473.53	105.19
473.749	98.19
473.968	103.19
474.187	131.19
474.406	122.19
474.625	99.19
474.844	97.19
475.063	95.19
475.282	87.19
475.501	100.19
475.72	110.19
475.939	100.19
476.158	95.19
476.377	102.19
476.596	104.19
476.814	106.19
477.033	99.19
477.252	111.19
477.471	94.19
477.69	109.19
477.908	104.19
478.127	97.19
478.346	94.19
478.564	118.19
478.783	118.19
479.002	118.19
479.22	93.19
479.439	136.19
479.658	156.19
479.876	143.19
480.095	152.19
480.313	188.19
480.532	229.19
480.751	494.19
480.969	1962.19
481.188	9138.19
481.406	5063.19
481.624	630.19
481.843	199.19
482.061	141.19
482.28	111.19
482.498	110.19
482.717	99.19
482.935	93.19
483.153	107.19
483.372	83.19
483.59	98.19
483.808	105.19
484.027	105.19
484.245	109.19
484.463	102.19
484.681	106.19
484.9	99.19
485.118	107.19
485.336	115.19
485.554	105.19
485.772	103.19
485.99	115.19
486.209	115.19
486.427	111.19
486.645	137.19
486.863	137.19
487.081	113.19
487.299	125.19
487.517	106.19
487.735	95.19
487.953	102.19
488.171	93.19
488.389	112.19
488.607	96.19
488.825	87.19
489.043	95.19
489.261	82.19
489.479	82.19
489.696	102.19
489.914	99.19
490.132	96.19
490.35	95.19
490.568	103.19
490.786	96.19
491.003	99.19
491.221	108.19
491.439	106.19
491.657	93.19
491.874	95.19
492.092	98.19
492.31	95.19
492.527	92.19
492.745	103.19
492.963	90.19
493.18	91.19
493.398	100.19
493.615	100.19
493.833	105.19
494.05	92.19
494.268	98.19
494.485	99.19
494.703	84.19
494.92	96.19
495.138	87.19
495.355	102.19
495.573	93.19
495.79	98.19
496.008	108.19
496.225	93.19
496.442	103.19
496.66	101.19
496.877	102.19
497.094	96.19
497.312	77.19
497.529	85.19
497.746	93.19
497.963	99.19
498.181	102.19
498.398	89.19
498.615	124.19
498.832	97.19
499.049	107.19
499.267	99.19
499.484	97.19
499.701	104.19
499.918	106.19
500.135	87.19
500.352	84.19
500.569	105.19
500.786	107.19
501.003	99.19
501.22	102.19
501.437	105.19
501.654	108.19
501.871	133.19
502.088	96.19
502.305	94.19
502.522	99.19
502.739	90.19
502.956	95.19
503.172	107.19
503.389	113.19
503.606	133.19
503.823	94.19
504.04	108.19
504.256	101.19
504.473	89.19
504.69	101.19
504.907	98.19
505.123	89.19
505.34	89.19
505.557	101.19
505.773	94.19
505.99	97.19
506.207	99.19
506.423	87.19
506.64	95.19
506.856	95.19
507.073	93.19
507.289	93.19
507.506	96.19
507.722	118.19
507.939	114.19
508.155	117.19
508.372	96.19
508.588	99.19
508.805	115.19
509.021	94.19
509.238	102.19
509.454	102.19
509.67	105.19
509.887	112.19
510.103	160.19
510.319	248.19
510.536	986.19
510.752	3620.19
