Data from Circ_1988_H10_HRD10591_00023.txt Node
Date: Wed Jan 03 12:05:39 EST 2024
User: Yrep
Spectrometer: HR+D1059
Trigger mode: 1
Integration Time (sec): 1.000000E-1
Scans to average: 1
Electric dark correction enabled: true
Nonlinearity correction enabled: false
Boxcar width: 0
XAxis mode: Wavelengths
Number of Pixels in Spectrum: 2048
>>>>>Begin Spectral Data<<<<<
223.165	-17.62
223.4	-17.62
223.635	-17.62
223.869	-13.62
224.104	-28.62
224.338	-20.62
224.573	-17.62
224.808	-9.62
225.042	0.38
225.277	-6.62
225.511	-9.62
225.746	18.38
225.98	21.38
226.215	11.38
226.449	22.38
226.683	6.38
226.918	14.38
227.152	29.38
227.387	35.38
227.621	42.38
227.856	39.38
228.09	43.38
228.324	48.38
228.559	57.38
228.793	48.38
229.027	78.38
229.262	71.38
229.496	85.38
229.73	102.38
229.964	102.38
230.199	85.38
230.433	85.38
230.667	71.38
230.901	78.38
231.136	63.38
231.37	81.38
231.604	90.38
231.838	78.38
232.072	79.38
232.306	79.38
232.541	89.38
232.775	82.38
233.009	89.38
233.243	102.38
233.477	87.38
233.711	70.38
233.945	65.38
234.179	91.38
234.413	78.38
234.647	71.38
234.881	83.38
235.115	80.38
235.349	73.38
235.583	84.38
235.817	94.38
236.051	83.38
236.285	90.38
236.519	89.38
236.753	77.38
236.987	73.38
237.221	81.38
237.455	96.38
237.689	84.38
237.922	83.38
238.156	75.38
238.39	94.38
238.624	74.38
238.858	74.38
239.091	89.38
239.325	81.38
239.559	92.38
239.793	76.38
240.027	105.38
240.26	71.38
240.494	81.38
240.728	76.38
240.961	82.38
241.195	67.38
241.429	75.38
241.662	76.38
241.896	83.38
242.13	69.38
242.363	59.38
242.597	77.38
242.83	86.38
243.064	79.38
243.298	78.38
243.531	76.38
243.765	87.38
243.998	78.38
244.232	85.38
244.465	98.38
244.699	84.38
244.932	81.38
245.166	97.38
245.399	84.38
245.633	78.38
245.866	90.38
246.099	90.38
246.333	75.38
246.566	80.38
246.8	84.38
247.033	86.38
247.266	83.38
247.5	90.38
247.733	82.38
247.966	81.38
248.2	89.38
248.433	88.38
248.666	80.38
248.899	81.38
249.133	99.38
249.366	111.38
249.599	121.38
249.832	95.38
250.066	87.38
250.299	86.38
250.532	99.38
250.765	94.38
250.998	85.38
251.231	86.38
251.465	89.38
251.698	95.38
251.931	87.38
252.164	91.38
252.397	83.38
252.63	107.38
252.863	84.38
253.096	101.38
253.329	92.38
253.562	94.38
253.795	91.38
254.028	81.38
254.261	80.38
254.494	72.38
254.727	86.38
254.96	87.38
255.193	98.38
255.426	100.38
255.659	88.38
255.892	113.38
256.124	118.38
256.357	98.38
256.59	98.38
256.823	84.38
257.056	80.38
257.289	110.38
257.521	107.38
257.754	98.38
257.987	87.38
258.22	108.38
258.452	138.38
258.685	117.38
258.918	95.38
259.151	99.38
259.383	89.38
259.616	78.38
259.849	93.38
260.081	91.38
260.314	94.38
260.547	105.38
260.779	116.38
261.012	156.38
261.244	156.38
261.477	135.38
261.71	124.38
261.942	151.38
262.175	155.38
262.407	102.38
262.64	101.38
262.872	81.38
263.105	81.38
263.337	94.38
263.57	82.38
263.802	80.38
264.035	81.38
264.267	78.38
264.499	84.38
264.732	103.38
264.964	89.38
265.197	83.38
265.429	91.38
265.661	97.38
265.894	78.38
266.126	91.38
266.358	73.38
266.591	85.38
266.823	89.38
267.055	95.38
267.287	97.38
267.52	82.38
267.752	100.38
267.984	82.38
268.216	88.38
268.448	99.38
268.681	94.38
268.913	98.38
269.145	94.38
269.377	89.38
269.609	80.38
269.841	82.38
270.073	88.38
270.306	87.38
270.538	96.38
270.77	91.38
271.002	106.38
271.234	92.38
271.466	106.38
271.698	92.38
271.93	85.38
272.162	91.38
272.394	101.38
272.626	98.38
272.858	93.38
273.09	94.38
273.322	85.38
273.553	91.38
273.785	114.38
274.017	92.38
274.249	99.38
274.481	95.38
274.713	91.38
274.945	98.38
275.176	111.38
275.408	132.38
275.64	165.38
275.872	215.38
276.104	145.38
276.335	115.38
276.567	127.38
276.799	193.38
277.031	306.38
277.262	424.38
277.494	286.38
277.726	135.38
277.957	123.38
278.189	114.38
278.421	102.38
278.652	113.38
278.884	108.38
279.115	98.38
279.347	112.38
279.579	147.38
279.81	225.38
280.042	429.38
280.273	623.38
280.505	389.38
280.736	173.38
280.968	128.38
281.199	101.38
281.431	99.38
281.662	96.38
281.894	105.38
282.125	115.38
282.356	158.38
282.588	196.38
282.819	146.38
283.051	104.38
283.282	86.38
283.513	106.38
283.745	96.38
283.976	94.38
284.207	93.38
284.439	99.38
284.67	103.38
284.901	84.38
285.132	95.38
285.364	92.38
285.595	90.38
285.826	105.38
286.057	101.38
286.288	81.38
286.52	92.38
286.751	89.38
286.982	97.38
287.213	97.38
287.444	100.38
287.675	90.38
287.906	96.38
288.138	106.38
288.369	98.38
288.6	97.38
288.831	94.38
289.062	94.38
289.293	97.38
289.524	91.38
289.755	82.38
289.986	105.38
290.217	85.38
290.448	94.38
290.679	101.38
290.91	88.38
291.141	105.38
291.371	85.38
291.602	95.38
291.833	72.38
292.064	103.38
292.295	82.38
292.526	87.38
292.757	96.38
292.987	94.38
293.218	91.38
293.449	82.38
293.68	105.38
293.91	93.38
294.141	111.38
294.372	87.38
294.603	92.38
294.833	99.38
295.064	107.38
295.295	100.38
295.525	98.38
295.756	109.38
295.987	146.38
296.217	174.38
296.448	155.38
296.679	99.38
296.909	103.38
297.14	96.38
297.37	85.38
297.601	87.38
297.831	88.38
298.062	102.38
298.292	95.38
298.523	95.38
298.753	106.38
298.984	93.38
299.214	100.38
299.445	95.38
299.675	91.38
299.905	103.38
300.136	102.38
300.366	97.38
300.597	101.38
300.827	94.38
301.057	95.38
301.288	116.38
301.518	117.38
301.748	115.38
301.979	122.38
302.209	107.38
302.439	102.38
302.669	90.38
302.9	98.38
303.13	119.38
303.36	113.38
303.59	189.38
303.82	218.38
304.051	114.38
304.281	103.38
304.511	102.38
304.741	89.38
304.971	108.38
305.201	106.38
305.431	91.38
305.661	103.38
305.891	112.38
306.121	99.38
306.352	121.38
306.582	128.38
306.812	147.38
307.042	187.38
307.272	289.38
307.502	335.38
307.731	279.38
307.961	189.38
308.191	114.38
308.421	109.38
308.651	103.38
308.881	107.38
309.111	117.38
309.341	100.38
309.571	108.38
309.8	104.38
310.03	107.38
310.26	126.38
310.49	106.38
310.72	107.38
310.949	113.38
311.179	124.38
311.409	102.38
311.639	103.38
311.868	121.38
312.098	112.38
312.328	108.38
312.557	119.38
312.787	130.38
313.017	131.38
313.246	111.38
313.476	96.38
313.706	101.38
313.935	109.38
314.165	111.38
314.394	122.38
314.624	130.38
314.853	115.38
315.083	108.38
315.312	103.38
315.542	80.38
315.771	104.38
316.001	92.38
316.23	91.38
316.46	112.38
316.689	107.38
316.919	105.38
317.148	111.38
317.377	115.38
317.607	108.38
317.836	103.38
318.065	118.38
318.295	98.38
318.524	100.38
318.753	104.38
318.983	102.38
319.212	115.38
319.441	111.38
319.67	122.38
319.9	113.38
320.129	100.38
320.358	97.38
320.587	103.38
320.816	113.38
321.046	110.38
321.275	119.38
321.504	88.38
321.733	122.38
321.962	105.38
322.191	99.38
322.42	121.38
322.649	117.38
322.878	136.38
323.108	147.38
323.337	159.38
323.566	172.38
323.795	187.38
324.024	261.38
324.253	477.38
324.482	994.38
324.71	2080.38
324.939	2770.38
325.168	1008.38
325.397	313.38
325.626	170.38
325.855	156.38
326.084	155.38
326.313	174.38
326.542	196.38
326.77	257.38
326.999	526.38
327.228	1036.38
327.457	1923.38
327.686	1631.38
327.914	791.38
328.143	1076.38
328.372	1550.38
328.6	767.38
328.829	283.38
329.058	236.38
329.287	256.38
329.515	289.38
329.744	503.38
329.972	1114.38
330.201	2482.38
330.43	3612.38
330.658	1401.38
330.887	454.38
331.115	266.38
331.344	160.38
331.572	157.38
331.801	174.38
332.03	148.38
332.258	146.38
332.486	133.38
332.715	132.38
332.943	139.38
333.172	167.38
333.4	185.38
333.629	231.38
333.857	400.38
334.085	896.38
334.314	2128.38
334.542	4407.38
334.771	3974.38
334.999	894.38
335.227	308.38
335.455	170.38
335.684	129.38
335.912	127.38
336.14	129.38
336.369	137.38
336.597	143.38
336.825	122.38
337.053	113.38
337.281	114.38
337.51	118.38
337.738	96.38
337.966	122.38
338.194	115.38
338.422	100.38
338.65	112.38
338.878	109.38
339.106	92.38
339.334	108.38
339.562	108.38
339.79	112.38
340.018	107.38
340.246	95.38
340.474	111.38
340.702	109.38
340.93	97.38
341.158	116.38
341.386	107.38
341.614	106.38
341.842	100.38
342.07	102.38
342.298	90.38
342.526	107.38
342.754	100.38
342.981	82.38
343.209	90.38
343.437	104.38
343.665	97.38
343.893	98.38
344.12	105.38
344.348	100.38
344.576	103.38
344.804	108.38
345.031	108.38
345.259	123.38
345.487	104.38
345.714	107.38
345.942	89.38
346.17	91.38
346.397	87.38
346.625	105.38
346.853	103.38
347.08	95.38
347.308	106.38
347.535	114.38
347.763	108.38
347.99	101.38
348.218	121.38
348.445	119.38
348.673	111.38
348.9	98.38
349.128	108.38
349.355	95.38
349.583	92.38
349.81	94.38
350.037	95.38
350.265	97.38
350.492	100.38
350.72	105.38
350.947	105.38
351.174	129.38
351.402	118.38
351.629	109.38
351.856	119.38
352.083	116.38
352.311	117.38
352.538	124.38
352.765	116.38
352.992	127.38
353.22	137.38
353.447	122.38
353.674	108.38
353.901	98.38
354.128	107.38
354.355	92.38
354.583	111.38
354.81	104.38
355.037	90.38
355.264	94.38
355.491	104.38
355.718	94.38
355.945	99.38
356.172	102.38
356.399	95.38
356.626	94.38
356.853	103.38
357.08	99.38
357.307	95.38
357.534	91.38
357.761	92.38
357.988	87.38
358.215	103.38
358.441	127.38
358.668	111.38
358.895	91.38
359.122	95.38
359.349	96.38
359.576	106.38
359.802	120.38
360.029	140.38
360.256	144.38
360.483	123.38
360.709	100.38
360.936	106.38
361.163	96.38
361.39	101.38
361.616	102.38
361.843	103.38
362.07	112.38
362.296	112.38
362.523	97.38
362.749	90.38
362.976	87.38
363.203	99.38
363.429	102.38
363.656	93.38
363.882	90.38
364.109	96.38
364.335	97.38
364.562	113.38
364.788	89.38
365.015	103.38
365.241	113.38
365.468	127.38
365.694	142.38
365.92	119.38
366.147	112.38
366.373	93.38
366.599	91.38
366.826	100.38
367.052	110.38
367.278	90.38
367.505	87.38
367.731	103.38
367.957	108.38
368.184	92.38
368.41	117.38
368.636	144.38
368.862	129.38
369.089	121.38
369.315	115.38
369.541	94.38
369.767	108.38
369.993	97.38
370.219	106.38
370.445	91.38
370.672	94.38
370.898	89.38
371.124	103.38
371.35	96.38
371.576	90.38
371.802	94.38
372.028	83.38
372.254	82.38
372.48	104.38
372.706	106.38
372.932	101.38
373.158	95.38
373.384	92.38
373.61	83.38
373.835	99.38
374.061	90.38
374.287	89.38
374.513	83.38
374.739	88.38
374.965	103.38
375.191	104.38
375.416	97.38
375.642	89.38
375.868	110.38
376.094	98.38
376.319	93.38
376.545	102.38
376.771	100.38
376.997	99.38
377.222	99.38
377.448	100.38
377.674	82.38
377.899	86.38
378.125	99.38
378.35	113.38
378.576	109.38
378.802	108.38
379.027	98.38
379.253	85.38
379.478	112.38
379.704	110.38
379.929	97.38
380.155	108.38
380.38	111.38
380.606	108.38
380.831	105.38
381.057	101.38
381.282	104.38
381.507	110.38
381.733	108.38
381.958	120.38
382.184	114.38
382.409	113.38
382.634	121.38
382.86	132.38
383.085	98.38
383.31	116.38
383.535	121.38
383.761	106.38
383.986	125.38
384.211	114.38
384.436	112.38
384.662	102.38
384.887	136.38
385.112	145.38
385.337	142.38
385.562	142.38
385.787	119.38
386.013	140.38
386.238	147.38
386.463	134.38
386.688	132.38
386.913	137.38
387.138	162.38
387.363	126.38
387.588	113.38
387.813	120.38
388.038	139.38
388.263	150.38
388.488	139.38
388.713	111.38
388.938	109.38
389.163	93.38
389.387	90.38
389.612	91.38
389.837	94.38
390.062	87.38
390.287	101.38
390.512	90.38
390.736	83.38
390.961	86.38
391.186	82.38
391.411	91.38
391.636	101.38
391.86	81.38
392.085	90.38
392.31	89.38
392.534	95.38
392.759	92.38
392.984	93.38
393.208	95.38
393.433	111.38
393.658	104.38
393.882	94.38
394.107	87.38
394.331	91.38
394.556	91.38
394.78	84.38
395.005	94.38
395.229	109.38
395.454	78.38
395.678	78.38
395.903	99.38
396.127	92.38
396.352	98.38
396.576	99.38
396.801	91.38
397.025	104.38
397.249	83.38
397.474	90.38
397.698	87.38
397.922	97.38
398.147	96.38
398.371	100.38
398.595	86.38
398.82	98.38
399.044	91.38
399.268	107.38
399.492	94.38
399.717	84.38
399.941	95.38
400.165	89.38
400.389	103.38
400.613	87.38
400.837	99.38
401.062	84.38
401.286	90.38
401.51	100.38
401.734	105.38
401.958	115.38
402.182	156.38
402.406	191.38
402.63	177.38
402.854	118.38
403.078	102.38
403.302	86.38
403.526	94.38
403.75	105.38
403.974	90.38
404.198	97.38
404.422	86.38
404.645	99.38
404.869	118.38
405.093	134.38
405.317	172.38
405.541	158.38
405.765	147.38
405.988	159.38
406.212	217.38
406.436	306.38
406.66	210.38
406.883	123.38
407.107	116.38
407.331	108.38
407.555	111.38
407.778	112.38
408.002	106.38
408.226	104.38
408.449	97.38
408.673	105.38
408.896	102.38
409.12	94.38
409.344	98.38
409.567	88.38
409.791	104.38
410.014	95.38
410.238	99.38
410.461	113.38
410.685	110.38
410.908	101.38
411.132	111.38
411.355	112.38
411.578	100.38
411.802	110.38
412.025	115.38
412.249	113.38
412.472	128.38
412.695	183.38
412.919	137.38
413.142	111.38
413.365	92.38
413.589	94.38
413.812	85.38
414.035	92.38
414.258	114.38
414.482	107.38
414.705	103.38
414.928	105.38
415.151	96.38
415.374	101.38
415.597	100.38
415.821	103.38
416.044	119.38
416.267	108.38
416.49	107.38
416.713	101.38
416.936	111.38
417.159	101.38
417.382	123.38
417.605	139.38
417.828	138.38
418.051	130.38
418.274	111.38
418.497	107.38
418.72	92.38
418.943	95.38
419.166	89.38
419.389	103.38
419.611	106.38
419.834	100.38
420.057	94.38
420.28	103.38
420.503	104.38
420.726	94.38
420.948	112.38
421.171	108.38
421.394	102.38
421.617	91.38
421.839	97.38
422.062	107.38
422.285	91.38
422.507	101.38
422.73	114.38
422.953	106.38
423.175	92.38
423.398	96.38
423.621	101.38
423.843	84.38
424.066	93.38
424.288	98.38
424.511	108.38
424.733	108.38
424.956	118.38
425.178	105.38
425.401	114.38
425.623	124.38
425.846	104.38
426.068	111.38
426.291	106.38
426.513	100.38
426.735	83.38
426.958	97.38
427.18	115.38
427.402	196.38
427.625	283.38
427.847	303.38
428.069	271.38
428.292	169.38
428.514	124.38
428.736	114.38
428.958	94.38
429.181	90.38
429.403	96.38
429.625	110.38
429.847	94.38
430.069	136.38
430.292	99.38
430.514	89.38
430.736	76.38
430.958	86.38
431.18	82.38
431.402	91.38
431.624	86.38
431.846	100.38
432.068	99.38
432.29	101.38
432.512	94.38
432.734	89.38
432.956	96.38
433.178	109.38
433.4	106.38
433.622	106.38
433.844	104.38
434.066	88.38
434.287	95.38
434.509	84.38
434.731	86.38
434.953	93.38
435.175	82.38
435.397	89.38
435.618	105.38
435.84	111.38
436.062	138.38
436.284	131.38
436.505	98.38
436.727	110.38
436.949	100.38
437.17	87.38
437.392	111.38
437.614	111.38
437.835	143.38
438.057	156.38
438.278	134.38
438.5	133.38
438.721	144.38
438.943	107.38
439.165	92.38
439.386	91.38
439.608	109.38
439.829	125.38
440.05	155.38
440.272	194.38
440.493	123.38
440.715	98.38
440.936	102.38
441.158	97.38
441.379	92.38
441.6	94.38
441.822	119.38
442.043	102.38
442.264	114.38
442.486	131.38
442.707	89.38
442.928	118.38
443.149	184.38
443.371	208.38
443.592	143.38
443.813	117.38
444.034	121.38
444.255	96.38
444.476	92.38
444.698	91.38
444.919	98.38
445.14	138.38
445.361	144.38
445.582	135.38
445.803	194.38
446.024	174.38
446.245	163.38
446.466	139.38
446.687	96.38
446.908	90.38
447.129	104.38
447.35	83.38
447.571	104.38
447.792	106.38
448.013	116.38
448.234	127.38
448.455	116.38
448.675	121.38
448.896	126.38
449.117	107.38
449.338	114.38
449.559	138.38
449.779	136.38
450	111.38
450.221	92.38
450.442	99.38
450.662	107.38
450.883	125.38
451.104	154.38
451.324	118.38
451.545	101.38
451.766	94.38
451.986	94.38
452.207	85.38
452.428	94.38
452.648	107.38
452.869	144.38
453.089	153.38
453.31	161.38
453.53	106.38
453.751	101.38
453.971	119.38
454.192	140.38
454.412	94.38
454.633	112.38
454.853	91.38
455.073	83.38
455.294	85.38
455.514	119.38
455.734	96.38
455.955	90.38
456.175	86.38
456.395	91.38
456.616	86.38
456.836	81.38
457.056	98.38
457.276	98.38
457.497	94.38
457.717	96.38
457.937	98.38
458.157	91.38
458.377	95.38
458.598	133.38
458.818	206.38
459.038	227.38
459.258	166.38
459.478	102.38
459.698	83.38
459.918	97.38
460.138	98.38
460.358	90.38
460.578	92.38
460.798	104.38
461.018	104.38
461.238	89.38
461.458	105.38
461.678	90.38
461.898	103.38
462.118	104.38
462.338	86.38
462.558	98.38
462.777	105.38
462.997	123.38
463.217	169.38
463.437	129.38
463.657	103.38
463.876	100.38
464.096	106.38
464.316	99.38
464.536	122.38
464.755	104.38
464.975	137.38
465.195	254.38
465.414	249.38
465.634	117.38
465.854	100.38
466.073	105.38
466.293	102.38
466.512	96.38
466.732	110.38
466.951	99.38
467.171	119.38
467.391	145.38
467.61	197.38
467.829	396.38
468.049	1410.38
468.268	2288.38
468.488	481.38
468.707	168.38
468.927	124.38
469.146	115.38
469.365	102.38
469.585	103.38
469.804	129.38
470.023	123.38
470.243	116.38
470.462	141.38
470.681	154.38
470.901	134.38
471.12	120.38
471.339	144.38
471.558	166.38
471.777	258.38
471.997	603.38
472.216	2647.38
472.435	6288.38
472.654	1296.38
472.873	293.38
473.092	147.38
473.311	120.38
473.53	109.38
473.749	113.38
473.968	113.38
474.187	143.38
474.406	124.38
474.625	106.38
474.844	107.38
475.063	88.38
475.282	102.38
475.501	101.38
475.72	107.38
475.939	103.38
476.158	89.38
476.377	98.38
476.596	118.38
476.814	111.38
477.033	113.38
477.252	103.38
477.471	96.38
477.69	107.38
477.908	111.38
478.127	108.38
478.346	106.38
478.564	106.38
478.783	136.38
479.002	122.38
479.22	132.38
479.439	170.38
479.658	165.38
479.876	166.38
480.095	145.38
480.313	195.38
480.532	276.38
480.751	540.38
480.969	2262.38
481.188	10124.38
481.406	5593.38
481.624	707.38
481.843	216.38
482.061	146.38
482.28	135.38
482.498	123.38
482.717	111.38
482.935	99.38
483.153	110.38
483.372	104.38
483.59	90.38
483.808	112.38
484.027	107.38
484.245	105.38
484.463	106.38
484.681	101.38
484.9	101.38
485.118	97.38
485.336	109.38
485.554	116.38
485.772	116.38
485.99	120.38
486.209	113.38
486.427	112.38
486.645	143.38
486.863	138.38
487.081	114.38
487.299	103.38
487.517	95.38
487.735	95.38
487.953	101.38
488.171	97.38
488.389	105.38
488.607	112.38
488.825	98.38
489.043	104.38
489.261	108.38
489.479	96.38
489.696	103.38
489.914	106.38
490.132	83.38
490.35	98.38
490.568	100.38
490.786	99.38
491.003	98.38
491.221	92.38
491.439	118.38
491.657	107.38
491.874	99.38
492.092	101.38
492.31	93.38
492.527	108.38
492.745	107.38
492.963	94.38
493.18	99.38
493.398	89.38
493.615	99.38
493.833	104.38
494.05	100.38
494.268	98.38
494.485	94.38
494.703	106.38
494.92	92.38
495.138	97.38
495.355	99.38
495.573	99.38
495.79	95.38
496.008	95.38
496.225	107.38
496.442	98.38
496.66	106.38
496.877	102.38
497.094	102.38
497.312	94.38
497.529	98.38
497.746	95.38
497.963	95.38
498.181	104.38
498.398	110.38
498.615	113.38
498.832	122.38
499.049	99.38
499.267	94.38
499.484	94.38
499.701	100.38
499.918	102.38
500.135	104.38
500.352	102.38
500.569	96.38
500.786	106.38
501.003	106.38
501.22	83.38
501.437	96.38
501.654	105.38
501.871	133.38
502.088	101.38
502.305	104.38
502.522	87.38
502.739	96.38
502.956	94.38
503.172	103.38
503.389	106.38
503.606	134.38
503.823	99.38
504.04	104.38
504.256	104.38
504.473	102.38
504.69	106.38
504.907	107.38
505.123	109.38
505.34	90.38
505.557	90.38
505.773	91.38
505.99	89.38
506.207	75.38
506.423	96.38
506.64	90.38
506.856	102.38
507.073	101.38
507.289	93.38
507.506	95.38
507.722	133.38
507.939	133.38
508.155	107.38
508.372	107.38
508.588	85.38
508.805	95.38
509.021	92.38
509.238	95.38
509.454	115.38
