Data from Circ_1988_H10_HRD10591_00061.txt Node
Date: Wed Jan 03 12:05:47 EST 2024
User: Yrep
Spectrometer: HR+D1059
Trigger mode: 1
Integration Time (sec): 1.000000E-1
Scans to average: 1
Electric dark correction enabled: true
Nonlinearity correction enabled: false
Boxcar width: 0
XAxis mode: Wavelengths
Number of Pixels in Spectrum: 2048
>>>>>Begin Spectral Data<<<<<
223.165	-25.75
223.4	-25.75
223.635	-25.75
223.869	-17.75
224.104	-31.75
224.338	-23.75
224.573	-26.75
224.808	-15.75
225.042	5.25
225.277	2.25
225.511	-13.75
225.746	-3.75
225.98	21.25
226.215	28.25
226.449	5.25
226.683	40.25
226.918	22.25
227.152	34.25
227.387	29.25
227.621	39.25
227.856	47.25
228.09	40.25
228.324	52.25
228.559	59.25
228.793	67.25
229.027	62.25
229.262	66.25
229.496	85.25
229.73	106.25
229.964	95.25
230.199	83.25
230.433	74.25
230.667	90.25
230.901	93.25
231.136	77.25
231.37	88.25
231.604	75.25
231.838	65.25
232.072	84.25
232.306	82.25
232.541	73.25
232.775	71.25
233.009	92.25
233.243	81.25
233.477	86.25
233.711	74.25
233.945	94.25
234.179	84.25
234.413	81.25
234.647	74.25
234.881	69.25
235.115	84.25
235.349	78.25
235.583	86.25
235.817	82.25
236.051	78.25
236.285	88.25
236.519	76.25
236.753	76.25
236.987	90.25
237.221	90.25
237.455	84.25
237.689	91.25
237.922	69.25
238.156	67.25
238.39	70.25
238.624	64.25
238.858	71.25
239.091	86.25
239.325	89.25
239.559	86.25
239.793	77.25
240.027	88.25
240.26	83.25
240.494	81.25
240.728	72.25
240.961	78.25
241.195	88.25
241.429	79.25
241.662	79.25
241.896	90.25
242.13	73.25
242.363	73.25
242.597	80.25
242.83	90.25
243.064	85.25
243.298	76.25
243.531	75.25
243.765	85.25
243.998	75.25
244.232	92.25
244.465	76.25
244.699	76.25
244.932	70.25
245.166	88.25
245.399	72.25
245.633	73.25
245.866	75.25
246.099	75.25
246.333	77.25
246.566	88.25
246.8	74.25
247.033	75.25
247.266	82.25
247.5	74.25
247.733	86.25
247.966	79.25
248.2	70.25
248.433	97.25
248.666	84.25
248.899	70.25
249.133	90.25
249.366	111.25
249.599	98.25
249.832	76.25
250.066	83.25
250.299	93.25
250.532	80.25
250.765	83.25
250.998	89.25
251.231	84.25
251.465	97.25
251.698	66.25
251.931	92.25
252.164	105.25
252.397	92.25
252.63	84.25
252.863	77.25
253.096	72.25
253.329	80.25
253.562	82.25
253.795	73.25
254.028	72.25
254.261	61.25
254.494	79.25
254.727	94.25
254.96	80.25
255.193	88.25
255.426	67.25
255.659	93.25
255.892	95.25
256.124	112.25
256.357	95.25
256.59	98.25
256.823	83.25
257.056	83.25
257.289	95.25
257.521	89.25
257.754	76.25
257.987	101.25
258.22	101.25
258.452	116.25
258.685	113.25
258.918	104.25
259.151	98.25
259.383	83.25
259.616	98.25
259.849	101.25
260.081	103.25
260.314	85.25
260.547	97.25
260.779	114.25
261.012	143.25
261.244	136.25
261.477	112.25
261.71	103.25
261.942	143.25
262.175	146.25
262.407	100.25
262.64	86.25
262.872	74.25
263.105	88.25
263.337	85.25
263.57	88.25
263.802	84.25
264.035	88.25
264.267	88.25
264.499	73.25
264.732	77.25
264.964	75.25
265.197	78.25
265.429	74.25
265.661	74.25
265.894	86.25
266.126	76.25
266.358	72.25
266.591	88.25
266.823	91.25
267.055	86.25
267.287	82.25
267.52	88.25
267.752	88.25
267.984	89.25
268.216	95.25
268.448	96.25
268.681	105.25
268.913	94.25
269.145	92.25
269.377	97.25
269.609	100.25
269.841	81.25
270.073	89.25
270.306	83.25
270.538	85.25
270.77	83.25
271.002	91.25
271.234	90.25
271.466	88.25
271.698	93.25
271.93	100.25
272.162	95.25
272.394	96.25
272.626	90.25
272.858	73.25
273.09	83.25
273.322	88.25
273.553	93.25
273.785	91.25
274.017	94.25
274.249	84.25
274.481	86.25
274.713	92.25
274.945	102.25
275.176	93.25
275.408	125.25
275.64	150.25
275.872	181.25
276.104	139.25
276.335	112.25
276.567	139.25
276.799	194.25
277.031	267.25
277.262	362.25
277.494	240.25
277.726	126.25
277.957	105.25
278.189	107.25
278.421	98.25
278.652	93.25
278.884	98.25
279.115	109.25
279.347	101.25
279.579	122.25
279.81	178.25
280.042	335.25
280.273	468.25
280.505	329.25
280.736	139.25
280.968	112.25
281.199	105.25
281.431	101.25
281.662	96.25
281.894	106.25
282.125	97.25
282.356	145.25
282.588	178.25
282.819	122.25
283.051	115.25
283.282	82.25
283.513	102.25
283.745	84.25
283.976	82.25
284.207	94.25
284.439	102.25
284.67	87.25
284.901	92.25
285.132	101.25
285.364	80.25
285.595	89.25
285.826	87.25
286.057	92.25
286.288	85.25
286.52	90.25
286.751	85.25
286.982	82.25
287.213	78.25
287.444	76.25
287.675	86.25
287.906	91.25
288.138	92.25
288.369	86.25
288.6	100.25
288.831	97.25
289.062	92.25
289.293	93.25
289.524	88.25
289.755	74.25
289.986	94.25
290.217	91.25
290.448	83.25
290.679	93.25
290.91	85.25
291.141	84.25
291.371	93.25
291.602	87.25
291.833	77.25
292.064	96.25
292.295	88.25
292.526	82.25
292.757	93.25
292.987	79.25
293.218	91.25
293.449	74.25
293.68	88.25
293.91	91.25
294.141	78.25
294.372	93.25
294.603	91.25
294.833	89.25
295.064	81.25
295.295	98.25
295.525	86.25
295.756	102.25
295.987	119.25
296.217	170.25
296.448	155.25
296.679	83.25
296.909	83.25
297.14	96.25
297.37	106.25
297.601	96.25
297.831	98.25
298.062	89.25
298.292	76.25
298.523	87.25
298.753	98.25
298.984	81.25
299.214	88.25
299.445	81.25
299.675	76.25
299.905	97.25
300.136	73.25
300.366	90.25
300.597	88.25
300.827	97.25
301.057	94.25
301.288	121.25
301.518	100.25
301.748	106.25
301.979	125.25
302.209	105.25
302.439	93.25
302.669	84.25
302.9	85.25
303.13	108.25
303.36	118.25
303.59	175.25
303.82	200.25
304.051	123.25
304.281	89.25
304.511	97.25
304.741	94.25
304.971	74.25
305.201	89.25
305.431	77.25
305.661	105.25
305.891	94.25
306.121	98.25
306.352	112.25
306.582	119.25
306.812	123.25
307.042	156.25
307.272	244.25
307.502	283.25
307.731	236.25
307.961	158.25
308.191	102.25
308.421	81.25
308.651	80.25
308.881	92.25
309.111	100.25
309.341	89.25
309.571	107.25
309.8	115.25
310.03	109.25
310.26	106.25
310.49	115.25
310.72	111.25
310.949	124.25
311.179	126.25
311.409	98.25
311.639	110.25
311.868	95.25
312.098	104.25
312.328	101.25
312.557	99.25
312.787	119.25
313.017	111.25
313.246	85.25
313.476	106.25
313.706	104.25
313.935	89.25
314.165	106.25
314.394	108.25
314.624	103.25
314.853	99.25
315.083	95.25
315.312	93.25
315.542	87.25
315.771	92.25
316.001	84.25
316.23	81.25
316.46	97.25
316.689	101.25
316.919	90.25
317.148	89.25
317.377	97.25
317.607	83.25
317.836	91.25
318.065	99.25
318.295	98.25
318.524	81.25
318.753	106.25
318.983	98.25
319.212	102.25
319.441	130.25
319.67	106.25
319.9	100.25
320.129	94.25
320.358	78.25
320.587	86.25
320.816	101.25
321.046	102.25
321.275	119.25
321.504	108.25
321.733	97.25
321.962	101.25
322.191	114.25
322.42	123.25
322.649	114.25
322.878	124.25
323.108	136.25
323.337	142.25
323.566	151.25
323.795	171.25
324.024	208.25
324.253	394.25
324.482	861.25
324.71	1681.25
324.939	2224.25
325.168	889.25
325.397	268.25
325.626	158.25
325.855	125.25
326.084	144.25
326.313	134.25
326.542	167.25
326.77	235.25
326.999	425.25
327.228	853.25
327.457	1546.25
327.686	1318.25
327.914	626.25
328.143	858.25
328.372	1261.25
328.6	617.25
328.829	236.25
329.058	217.25
329.287	235.25
329.515	215.25
329.744	398.25
329.972	835.25
330.201	1892.25
330.43	2816.25
330.658	1138.25
330.887	404.25
331.115	237.25
331.344	151.25
331.572	135.25
331.801	138.25
332.03	128.25
332.258	122.25
332.486	117.25
332.715	123.25
332.943	124.25
333.172	148.25
333.4	162.25
333.629	204.25
333.857	319.25
334.085	724.25
334.314	1608.25
334.542	3330.25
334.771	3153.25
334.999	751.25
335.227	255.25
335.455	159.25
335.684	137.25
335.912	132.25
336.14	95.25
336.369	107.25
336.597	118.25
336.825	119.25
337.053	100.25
337.281	103.25
337.51	105.25
337.738	96.25
337.966	90.25
338.194	114.25
338.422	107.25
338.65	92.25
338.878	91.25
339.106	84.25
339.334	104.25
339.562	78.25
339.79	102.25
340.018	90.25
340.246	105.25
340.474	106.25
340.702	100.25
340.93	97.25
341.158	87.25
341.386	101.25
341.614	96.25
341.842	97.25
342.07	90.25
342.298	92.25
342.526	77.25
342.754	78.25
342.981	80.25
343.209	100.25
343.437	95.25
343.665	93.25
343.893	88.25
344.12	103.25
344.348	99.25
344.576	90.25
344.804	94.25
345.031	99.25
345.259	102.25
345.487	110.25
345.714	93.25
345.942	104.25
346.17	84.25
346.397	91.25
346.625	79.25
346.853	102.25
347.08	106.25
347.308	106.25
347.535	101.25
347.763	117.25
347.99	93.25
348.218	106.25
348.445	121.25
348.673	108.25
348.9	104.25
349.128	91.25
349.355	85.25
349.583	87.25
349.81	99.25
350.037	94.25
350.265	103.25
350.492	97.25
350.72	102.25
350.947	107.25
351.174	116.25
351.402	121.25
351.629	102.25
351.856	108.25
352.083	105.25
352.311	101.25
352.538	120.25
352.765	120.25
352.992	129.25
353.22	116.25
353.447	102.25
353.674	105.25
353.901	78.25
354.128	90.25
354.355	101.25
354.583	97.25
354.81	90.25
355.037	97.25
355.264	90.25
355.491	82.25
355.718	85.25
355.945	96.25
356.172	95.25
356.399	93.25
356.626	94.25
356.853	94.25
357.08	85.25
357.307	88.25
357.534	101.25
357.761	96.25
357.988	90.25
358.215	83.25
358.441	87.25
358.668	104.25
358.895	104.25
359.122	94.25
359.349	91.25
359.576	90.25
359.802	104.25
360.029	123.25
360.256	146.25
360.483	99.25
360.709	91.25
360.936	101.25
361.163	94.25
361.39	99.25
361.616	109.25
361.843	79.25
362.07	90.25
362.296	103.25
362.523	92.25
362.749	101.25
362.976	89.25
363.203	92.25
363.429	82.25
363.656	86.25
363.882	90.25
364.109	85.25
364.335	82.25
364.562	88.25
364.788	85.25
365.015	91.25
365.241	103.25
365.468	120.25
365.694	104.25
365.92	101.25
366.147	92.25
366.373	76.25
366.599	81.25
366.826	79.25
367.052	85.25
367.278	86.25
367.505	97.25
367.731	92.25
367.957	98.25
368.184	89.25
368.41	116.25
368.636	129.25
368.862	123.25
369.089	129.25
369.315	106.25
369.541	99.25
369.767	92.25
369.993	103.25
370.219	82.25
370.445	85.25
370.672	98.25
370.898	86.25
371.124	88.25
371.35	90.25
371.576	85.25
371.802	62.25
372.028	76.25
372.254	85.25
372.48	100.25
372.706	90.25
372.932	80.25
373.158	82.25
373.384	88.25
373.61	113.25
373.835	92.25
374.061	89.25
374.287	85.25
374.513	89.25
374.739	88.25
374.965	92.25
375.191	95.25
375.416	93.25
375.642	93.25
375.868	100.25
376.094	93.25
376.319	80.25
376.545	86.25
376.771	84.25
376.997	85.25
377.222	90.25
377.448	79.25
377.674	84.25
377.899	81.25
378.125	93.25
378.35	94.25
378.576	96.25
378.802	78.25
379.027	87.25
379.253	92.25
379.478	94.25
379.704	85.25
379.929	99.25
380.155	89.25
380.38	88.25
380.606	87.25
380.831	85.25
381.057	106.25
381.282	98.25
381.507	100.25
381.733	90.25
381.958	105.25
382.184	92.25
382.409	106.25
382.634	119.25
382.86	109.25
383.085	99.25
383.31	90.25
383.535	100.25
383.761	100.25
383.986	84.25
384.211	90.25
384.436	97.25
384.662	98.25
384.887	98.25
385.112	107.25
385.337	101.25
385.562	114.25
385.787	111.25
386.013	116.25
386.238	114.25
386.463	132.25
386.688	114.25
386.913	99.25
387.138	117.25
387.363	103.25
387.588	98.25
387.813	99.25
388.038	90.25
388.263	121.25
388.488	123.25
388.713	103.25
388.938	106.25
389.163	75.25
389.387	97.25
389.612	89.25
389.837	81.25
390.062	80.25
390.287	88.25
390.512	82.25
390.736	86.25
390.961	69.25
391.186	102.25
391.411	83.25
391.636	92.25
391.86	85.25
392.085	79.25
392.31	84.25
392.534	97.25
392.759	90.25
392.984	88.25
393.208	83.25
393.433	84.25
393.658	79.25
393.882	88.25
394.107	75.25
394.331	88.25
394.556	75.25
394.78	76.25
395.005	70.25
395.229	90.25
395.454	79.25
395.678	77.25
395.903	88.25
396.127	91.25
396.352	93.25
396.576	82.25
396.801	74.25
397.025	80.25
397.249	84.25
397.474	89.25
397.698	91.25
397.922	93.25
398.147	82.25
398.371	76.25
398.595	93.25
398.82	96.25
399.044	100.25
399.268	87.25
399.492	79.25
399.717	90.25
399.941	82.25
400.165	77.25
400.389	93.25
400.613	94.25
400.837	88.25
401.062	88.25
401.286	81.25
401.51	80.25
401.734	89.25
401.958	115.25
402.182	141.25
402.406	182.25
402.63	154.25
402.854	107.25
403.078	93.25
403.302	88.25
403.526	102.25
403.75	98.25
403.974	81.25
404.198	86.25
404.422	100.25
404.645	113.25
404.869	106.25
405.093	118.25
405.317	144.25
405.541	144.25
405.765	121.25
405.988	132.25
406.212	218.25
406.436	309.25
406.66	218.25
406.883	132.25
407.107	105.25
407.331	97.25
407.555	94.25
407.778	101.25
408.002	97.25
408.226	98.25
408.449	82.25
408.673	92.25
408.896	87.25
409.12	85.25
409.344	97.25
409.567	89.25
409.791	81.25
410.014	76.25
410.238	93.25
410.461	84.25
410.685	94.25
410.908	108.25
411.132	108.25
411.355	101.25
411.578	92.25
411.802	95.25
412.025	94.25
412.249	105.25
412.472	102.25
412.695	141.25
412.919	118.25
413.142	105.25
413.365	97.25
413.589	75.25
413.812	82.25
414.035	92.25
414.258	99.25
414.482	101.25
414.705	90.25
414.928	97.25
415.151	98.25
415.374	103.25
415.597	99.25
415.821	100.25
416.044	88.25
416.267	93.25
416.49	92.25
416.713	99.25
416.936	89.25
417.159	97.25
417.382	114.25
417.605	128.25
417.828	131.25
418.051	107.25
418.274	88.25
418.497	82.25
418.72	84.25
418.943	105.25
419.166	82.25
419.389	80.25
419.611	92.25
419.834	76.25
420.057	95.25
420.28	101.25
420.503	105.25
420.726	82.25
420.948	94.25
421.171	108.25
421.394	91.25
421.617	94.25
421.839	102.25
422.062	91.25
422.285	104.25
422.507	93.25
422.73	110.25
422.953	107.25
423.175	91.25
423.398	84.25
423.621	80.25
423.843	76.25
424.066	100.25
424.288	88.25
424.511	107.25
424.733	122.25
424.956	125.25
425.178	115.25
425.401	104.25
425.623	94.25
425.846	102.25
426.068	92.25
426.291	105.25
426.513	95.25
426.735	91.25
426.958	96.25
427.18	127.25
427.402	167.25
427.625	253.25
427.847	237.25
428.069	205.25
428.292	146.25
428.514	106.25
428.736	98.25
428.958	91.25
429.181	92.25
429.403	77.25
429.625	101.25
429.847	104.25
430.069	116.25
430.292	85.25
430.514	106.25
430.736	95.25
430.958	83.25
431.18	79.25
431.402	99.25
431.624	77.25
431.846	75.25
432.068	93.25
432.29	74.25
432.512	83.25
432.734	86.25
432.956	85.25
433.178	101.25
433.4	94.25
433.622	72.25
433.844	94.25
434.066	83.25
434.287	94.25
434.509	97.25
434.731	81.25
434.953	93.25
435.175	78.25
435.397	75.25
435.618	88.25
435.84	103.25
436.062	117.25
436.284	117.25
436.505	96.25
436.727	94.25
436.949	90.25
437.17	86.25
437.392	84.25
437.614	102.25
437.835	123.25
438.057	136.25
438.278	113.25
438.5	100.25
438.721	139.25
438.943	108.25
439.165	98.25
439.386	88.25
439.608	91.25
439.829	106.25
440.05	140.25
440.272	170.25
440.493	121.25
440.715	89.25
440.936	78.25
441.158	90.25
441.379	90.25
441.6	94.25
441.822	89.25
442.043	93.25
442.264	109.25
442.486	106.25
442.707	106.25
442.928	122.25
443.149	171.25
443.371	152.25
443.592	133.25
443.813	117.25
444.034	110.25
444.255	86.25
444.476	82.25
444.698	77.25
444.919	78.25
445.14	132.25
445.361	121.25
445.582	124.25
445.803	182.25
446.024	181.25
446.245	151.25
446.466	107.25
446.687	84.25
446.908	84.25
447.129	99.25
447.35	82.25
447.571	89.25
447.792	100.25
448.013	105.25
448.234	122.25
448.455	107.25
448.675	118.25
448.896	122.25
449.117	108.25
449.338	106.25
449.559	129.25
449.779	134.25
450	102.25
450.221	91.25
450.442	95.25
450.662	104.25
450.883	128.25
451.104	132.25
451.324	96.25
451.545	80.25
451.766	83.25
451.986	89.25
452.207	94.25
452.428	94.25
452.648	116.25
452.869	110.25
453.089	121.25
453.31	132.25
453.53	102.25
453.751	93.25
453.971	101.25
454.192	129.25
454.412	91.25
454.633	85.25
454.853	90.25
455.073	82.25
455.294	90.25
455.514	110.25
455.734	88.25
455.955	92.25
456.175	92.25
456.395	94.25
456.616	77.25
456.836	78.25
457.056	65.25
457.276	78.25
457.497	96.25
457.717	84.25
457.937	85.25
458.157	89.25
458.377	93.25
458.598	126.25
458.818	202.25
459.038	236.25
459.258	141.25
459.478	89.25
459.698	76.25
459.918	80.25
460.138	89.25
460.358	84.25
460.578	93.25
460.798	90.25
461.018	104.25
461.238	90.25
461.458	98.25
461.678	95.25
461.898	92.25
462.118	92.25
462.338	84.25
462.558	101.25
462.777	85.25
462.997	102.25
463.217	141.25
463.437	124.25
463.657	97.25
463.876	98.25
464.096	88.25
464.316	82.25
464.536	94.25
464.755	101.25
464.975	126.25
465.195	245.25
465.414	232.25
465.634	108.25
465.854	109.25
466.073	90.25
466.293	83.25
466.512	91.25
466.732	85.25
466.951	88.25
467.171	102.25
467.391	134.25
467.61	182.25
467.829	347.25
468.049	1196.25
468.268	1909.25
468.488	398.25
468.707	144.25
468.927	112.25
469.146	94.25
469.365	76.25
469.585	108.25
469.804	112.25
470.023	100.25
470.243	108.25
470.462	133.25
470.681	157.25
470.901	108.25
471.12	116.25
471.339	133.25
471.558	145.25
471.777	219.25
471.997	525.25
472.216	2219.25
472.435	5225.25
472.654	1082.25
472.873	255.25
473.092	141.25
473.311	112.25
473.53	109.25
473.749	91.25
473.968	102.25
474.187	126.25
474.406	89.25
474.625	84.25
474.844	88.25
475.063	93.25
475.282	108.25
475.501	89.25
475.72	74.25
475.939	84.25
476.158	94.25
476.377	101.25
476.596	96.25
476.814	106.25
477.033	103.25
477.252	92.25
477.471	97.25
477.69	97.25
477.908	87.25
478.127	106.25
478.346	96.25
478.564	112.25
478.783	116.25
479.002	119.25
479.22	124.25
479.439	140.25
479.658	154.25
479.876	128.25
480.095	141.25
480.313	178.25
480.532	229.25
480.751	462.25
480.969	1832.25
481.188	8312.25
481.406	4638.25
481.624	607.25
481.843	185.25
482.061	131.25
482.28	121.25
482.498	126.25
482.717	108.25
482.935	108.25
483.153	100.25
483.372	98.25
483.59	101.25
483.808	94.25
484.027	83.25
484.245	102.25
484.463	97.25
484.681	84.25
484.9	90.25
485.118	102.25
485.336	99.25
485.554	106.25
485.772	115.25
485.99	99.25
486.209	102.25
486.427	95.25
486.645	139.25
486.863	145.25
487.081	105.25
487.299	100.25
487.517	111.25
487.735	104.25
487.953	92.25
488.171	90.25
488.389	119.25
488.607	110.25
488.825	99.25
489.043	96.25
489.261	77.25
489.479	84.25
489.696	90.25
489.914	80.25
490.132	97.25
490.35	100.25
490.568	87.25
490.786	94.25
491.003	94.25
491.221	90.25
491.439	108.25
491.657	84.25
491.874	109.25
492.092	103.25
492.31	96.25
492.527	112.25
492.745	94.25
492.963	100.25
493.18	90.25
493.398	100.25
493.615	96.25
493.833	106.25
494.05	82.25
494.268	98.25
494.485	88.25
494.703	84.25
494.92	98.25
495.138	87.25
495.355	89.25
495.573	87.25
495.79	105.25
496.008	101.25
496.225	110.25
496.442	98.25
496.66	92.25
496.877	77.25
497.094	80.25
497.312	95.25
497.529	80.25
497.746	88.25
497.963	89.25
498.181	98.25
498.398	107.25
498.615	102.25
498.832	102.25
499.049	103.25
499.267	92.25
499.484	84.25
499.701	89.25
499.918	85.25
500.135	88.25
500.352	88.25
500.569	89.25
500.786	91.25
501.003	105.25
501.22	94.25
501.437	92.25
501.654	93.25
501.871	129.25
502.088	102.25
502.305	92.25
502.522	88.25
502.739	84.25
502.956	88.25
503.172	96.25
503.389	108.25
503.606	124.25
503.823	104.25
504.04	107.25
504.256	96.25
504.473	101.25
504.69	79.25
504.907	94.25
505.123	90.25
505.34	97.25
505.557	98.25
505.773	97.25
505.99	100.25
506.207	95.25
506.423	102.25
506.64	86.25
506.856	90.25
507.073	79.25
507.289	91.25
507.506	115.25
507.722	126.25
507.939	123.25
508.155	105.25
508.372	96.25
508.588	106.25
508.805	109.25
509.021	90.25
509.238	90.25
509.454	95.25
509.67	104.25
509.887	120.25
510.103	153.25
510.319	246.25
510.536	998.25
510.752	3599.25
510.968	922.25
511.184	196.25
511.401	135.25
511.617	117.25
511.833	126.25
512.049	114.25
512.265	96.25
512.481	102.25
