Data from Circ_1988_H10_HRD10591_00094.txt Node
Date: Wed Jan 03 12:05:53 EST 2024
User: Yrep
Spectrometer: HR+D1059
Trigger mode: 1
Integration Time (sec): 1.000000E-1
Scans to average: 1
Electric dark correction enabled: true
Nonlinearity correction enabled: false
Boxcar width: 0
XAxis mode: Wavelengths
Number of Pixels in Spectrum: 2048
>>>>>Begin Spectral Data<<<<<
223.165	-13.81
223.4	-13.81
223.635	-13.81
223.869	-17.81
224.104	-17.81
224.338	-11.81
224.573	-27.81
224.808	-19.81
225.042	-7.81
225.277	-4.81
225.511	2.19
225.746	16.19
225.98	9.19
226.215	1.19
226.449	12.19
226.683	17.19
226.918	26.19
227.152	37.19
227.387	41.19
227.621	48.19
227.856	52.19
228.09	52.19
228.324	44.19
228.559	65.19
228.793	48.19
229.027	62.19
229.262	76.19
229.496	88.19
229.73	99.19
229.964	97.19
230.199	73.19
230.433	84.19
230.667	89.19
230.901	88.19
231.136	96.19
231.37	80.19
231.604	95.19
231.838	91.19
232.072	93.19
232.306	84.19
232.541	85.19
232.775	84.19
233.009	69.19
233.243	87.19
233.477	91.19
233.711	99.19
233.945	73.19
234.179	88.19
234.413	90.19
234.647	76.19
234.881	86.19
235.115	76.19
235.349	71.19
235.583	95.19
235.817	76.19
236.051	81.19
236.285	88.19
236.519	89.19
236.753	84.19
236.987	95.19
237.221	104.19
237.455	89.19
237.689	75.19
237.922	79.19
238.156	81.19
238.39	80.19
238.624	73.19
238.858	78.19
239.091	81.19
239.325	90.19
239.559	81.19
239.793	95.19
240.027	70.19
240.26	88.19
240.494	85.19
240.728	76.19
240.961	74.19
241.195	90.19
241.429	89.19
241.662	74.19
241.896	79.19
242.13	83.19
242.363	93.19
242.597	83.19
242.83	78.19
243.064	88.19
243.298	91.19
243.531	88.19
243.765	91.19
243.998	85.19
244.232	84.19
244.465	92.19
244.699	92.19
244.932	89.19
245.166	92.19
245.399	93.19
245.633	75.19
245.866	74.19
246.099	84.19
246.333	90.19
246.566	82.19
246.8	89.19
247.033	91.19
247.266	82.19
247.5	75.19
247.733	103.19
247.966	82.19
248.2	99.19
248.433	85.19
248.666	82.19
248.899	97.19
249.133	79.19
249.366	108.19
249.599	103.19
249.832	90.19
250.066	105.19
250.299	97.19
250.532	109.19
250.765	86.19
250.998	100.19
251.231	86.19
251.465	96.19
251.698	93.19
251.931	100.19
252.164	93.19
252.397	85.19
252.63	96.19
252.863	93.19
253.096	71.19
253.329	83.19
253.562	91.19
253.795	81.19
254.028	92.19
254.261	85.19
254.494	95.19
254.727	84.19
254.96	73.19
255.193	76.19
255.426	81.19
255.659	92.19
255.892	115.19
256.124	118.19
256.357	97.19
256.59	90.19
256.823	103.19
257.056	102.19
257.289	86.19
257.521	100.19
257.754	106.19
257.987	99.19
258.22	111.19
258.452	116.19
258.685	117.19
258.918	98.19
259.151	80.19
259.383	80.19
259.616	92.19
259.849	101.19
260.081	85.19
260.314	108.19
260.547	96.19
260.779	112.19
261.012	148.19
261.244	160.19
261.477	118.19
261.71	99.19
261.942	134.19
262.175	158.19
262.407	111.19
262.64	94.19
262.872	83.19
263.105	92.19
263.337	89.19
263.57	87.19
263.802	82.19
264.035	78.19
264.267	81.19
264.499	94.19
264.732	90.19
264.964	100.19
265.197	79.19
265.429	91.19
265.661	88.19
265.894	90.19
266.126	81.19
266.358	108.19
266.591	98.19
266.823	93.19
267.055	91.19
267.287	92.19
267.52	94.19
267.752	87.19
267.984	95.19
268.216	86.19
268.448	91.19
268.681	108.19
268.913	92.19
269.145	80.19
269.377	91.19
269.609	89.19
269.841	96.19
270.073	87.19
270.306	96.19
270.538	101.19
270.77	94.19
271.002	99.19
271.234	87.19
271.466	118.19
271.698	95.19
271.93	95.19
272.162	100.19
272.394	96.19
272.626	87.19
272.858	96.19
273.09	93.19
273.322	85.19
273.553	93.19
273.785	92.19
274.017	92.19
274.249	94.19
274.481	92.19
274.713	100.19
274.945	109.19
275.176	111.19
275.408	104.19
275.64	149.19
275.872	181.19
276.104	139.19
276.335	104.19
276.567	125.19
276.799	193.19
277.031	272.19
277.262	347.19
277.494	246.19
277.726	133.19
277.957	104.19
278.189	103.19
278.421	102.19
278.652	92.19
278.884	97.19
279.115	102.19
279.347	101.19
279.579	136.19
279.81	198.19
280.042	348.19
280.273	535.19
280.505	336.19
280.736	146.19
280.968	107.19
281.199	103.19
281.431	96.19
281.662	93.19
281.894	94.19
282.125	123.19
282.356	151.19
282.588	197.19
282.819	152.19
283.051	89.19
283.282	91.19
283.513	102.19
283.745	87.19
283.976	103.19
284.207	94.19
284.439	105.19
284.67	95.19
284.901	102.19
285.132	104.19
285.364	95.19
285.595	94.19
285.826	95.19
286.057	90.19
286.288	76.19
286.52	87.19
286.751	89.19
286.982	81.19
287.213	92.19
287.444	98.19
287.675	105.19
287.906	95.19
288.138	103.19
288.369	102.19
288.6	113.19
288.831	103.19
289.062	96.19
289.293	86.19
289.524	77.19
289.755	83.19
289.986	97.19
290.217	100.19
290.448	92.19
290.679	102.19
290.91	91.19
291.141	99.19
291.371	93.19
291.602	107.19
291.833	100.19
292.064	91.19
292.295	82.19
292.526	99.19
292.757	99.19
292.987	91.19
293.218	86.19
293.449	91.19
293.68	83.19
293.91	94.19
294.141	97.19
294.372	104.19
294.603	99.19
294.833	88.19
295.064	90.19
295.295	94.19
295.525	104.19
295.756	107.19
295.987	144.19
296.217	181.19
296.448	148.19
296.679	110.19
296.909	96.19
297.14	85.19
297.37	87.19
297.601	99.19
297.831	103.19
298.062	108.19
298.292	100.19
298.523	91.19
298.753	107.19
298.984	103.19
299.214	84.19
299.445	90.19
299.675	109.19
299.905	105.19
300.136	99.19
300.366	103.19
300.597	104.19
300.827	107.19
301.057	116.19
301.288	120.19
301.518	108.19
301.748	117.19
301.979	131.19
302.209	113.19
302.439	115.19
302.669	113.19
302.9	99.19
303.13	100.19
303.36	139.19
303.59	183.19
303.82	199.19
304.051	124.19
304.281	103.19
304.511	87.19
304.741	102.19
304.971	97.19
305.201	101.19
305.431	107.19
305.661	96.19
305.891	103.19
306.121	89.19
306.352	127.19
306.582	137.19
306.812	128.19
307.042	171.19
307.272	268.19
307.502	315.19
307.731	262.19
307.961	188.19
308.191	112.19
308.421	109.19
308.651	103.19
308.881	101.19
309.111	103.19
309.341	101.19
309.571	98.19
309.8	116.19
310.03	107.19
310.26	126.19
310.49	109.19
310.72	100.19
310.949	117.19
311.179	136.19
311.409	98.19
311.639	101.19
311.868	108.19
312.098	107.19
312.328	107.19
312.557	115.19
312.787	126.19
313.017	131.19
313.246	108.19
313.476	119.19
313.706	109.19
313.935	100.19
314.165	115.19
314.394	119.19
314.624	120.19
314.853	103.19
315.083	101.19
315.312	103.19
315.542	91.19
315.771	102.19
316.001	95.19
316.23	91.19
316.46	90.19
316.689	97.19
316.919	106.19
317.148	106.19
317.377	98.19
317.607	102.19
317.836	120.19
318.065	105.19
318.295	106.19
318.524	100.19
318.753	90.19
318.983	101.19
319.212	114.19
319.441	121.19
319.67	123.19
319.9	113.19
320.129	116.19
320.358	97.19
320.587	97.19
320.816	104.19
321.046	116.19
321.275	117.19
321.504	97.19
321.733	112.19
321.962	101.19
322.191	118.19
322.42	116.19
322.649	117.19
322.878	127.19
323.108	131.19
323.337	138.19
323.566	164.19
323.795	172.19
324.024	207.19
324.253	411.19
324.482	869.19
324.71	1762.19
324.939	2349.19
325.168	906.19
325.397	292.19
325.626	168.19
325.855	147.19
326.084	135.19
326.313	139.19
326.542	176.19
326.77	245.19
326.999	443.19
327.228	876.19
327.457	1602.19
327.686	1374.19
327.914	676.19
328.143	865.19
328.372	1321.19
328.6	685.19
328.829	264.19
329.058	236.19
329.287	235.19
329.515	239.19
329.744	403.19
329.972	860.19
330.201	1992.19
330.43	3031.19
330.658	1217.19
330.887	425.19
331.115	224.19
331.344	153.19
331.572	138.19
331.801	134.19
332.03	153.19
332.258	138.19
332.486	118.19
332.715	121.19
332.943	148.19
333.172	144.19
333.4	162.19
333.629	224.19
333.857	335.19
334.085	739.19
334.314	1711.19
334.542	3575.19
334.771	3442.19
334.999	797.19
335.227	256.19
335.455	152.19
335.684	139.19
335.912	130.19
336.14	111.19
336.369	133.19
336.597	132.19
336.825	123.19
337.053	105.19
337.281	95.19
337.51	89.19
337.738	98.19
337.966	99.19
338.194	120.19
338.422	121.19
338.65	99.19
338.878	131.19
339.106	97.19
339.334	102.19
339.562	113.19
339.79	105.19
340.018	98.19
340.246	107.19
340.474	118.19
340.702	102.19
340.93	93.19
341.158	95.19
341.386	103.19
341.614	111.19
341.842	106.19
342.07	99.19
342.298	97.19
342.526	107.19
342.754	114.19
342.981	91.19
343.209	99.19
343.437	104.19
343.665	87.19
343.893	72.19
344.12	95.19
344.348	92.19
344.576	103.19
344.804	114.19
345.031	109.19
345.259	123.19
345.487	107.19
345.714	98.19
345.942	98.19
346.17	102.19
346.397	104.19
346.625	112.19
346.853	91.19
347.08	95.19
347.308	113.19
347.535	118.19
347.763	123.19
347.99	101.19
348.218	114.19
348.445	124.19
348.673	127.19
348.9	101.19
349.128	112.19
349.355	92.19
349.583	102.19
349.81	99.19
350.037	106.19
350.265	101.19
350.492	97.19
350.72	105.19
350.947	96.19
351.174	126.19
351.402	116.19
351.629	113.19
351.856	115.19
352.083	106.19
352.311	115.19
352.538	128.19
352.765	129.19
352.992	137.19
353.22	108.19
353.447	110.19
353.674	112.19
353.901	111.19
354.128	114.19
354.355	101.19
354.583	103.19
354.81	105.19
355.037	103.19
355.264	105.19
355.491	109.19
355.718	105.19
355.945	100.19
356.172	91.19
356.399	104.19
356.626	101.19
356.853	107.19
357.08	90.19
357.307	99.19
357.534	85.19
357.761	95.19
357.988	99.19
358.215	105.19
358.441	105.19
358.668	91.19
358.895	92.19
359.122	95.19
359.349	98.19
359.576	97.19
359.802	111.19
360.029	144.19
360.256	136.19
360.483	112.19
360.709	100.19
360.936	113.19
361.163	109.19
361.39	115.19
361.616	101.19
361.843	100.19
362.07	107.19
362.296	112.19
362.523	113.19
362.749	120.19
362.976	92.19
363.203	106.19
363.429	105.19
363.656	97.19
363.882	103.19
364.109	101.19
364.335	90.19
364.562	91.19
364.788	112.19
365.015	118.19
365.241	132.19
365.468	117.19
365.694	114.19
365.92	114.19
366.147	99.19
366.373	89.19
366.599	104.19
366.826	106.19
367.052	100.19
367.278	100.19
367.505	94.19
367.731	96.19
367.957	101.19
368.184	96.19
368.41	120.19
368.636	123.19
368.862	132.19
369.089	129.19
369.315	101.19
369.541	103.19
369.767	89.19
369.993	91.19
370.219	108.19
370.445	96.19
370.672	85.19
370.898	96.19
371.124	88.19
371.35	88.19
371.576	102.19
371.802	89.19
372.028	86.19
372.254	83.19
372.48	87.19
372.706	89.19
372.932	97.19
373.158	95.19
373.384	101.19
373.61	110.19
373.835	99.19
374.061	95.19
374.287	98.19
374.513	95.19
374.739	106.19
374.965	99.19
375.191	95.19
375.416	91.19
375.642	91.19
375.868	96.19
376.094	92.19
376.319	88.19
376.545	100.19
376.771	98.19
376.997	85.19
377.222	111.19
377.448	105.19
377.674	95.19
377.899	104.19
378.125	106.19
378.35	89.19
378.576	87.19
378.802	103.19
379.027	90.19
379.253	100.19
379.478	89.19
379.704	83.19
379.929	88.19
380.155	88.19
380.38	102.19
380.606	96.19
380.831	106.19
381.057	115.19
381.282	102.19
381.507	99.19
381.733	88.19
381.958	101.19
382.184	104.19
382.409	99.19
382.634	101.19
382.86	103.19
383.085	108.19
383.31	113.19
383.535	115.19
383.761	86.19
383.986	112.19
384.211	109.19
384.436	100.19
384.662	100.19
384.887	112.19
385.112	97.19
385.337	128.19
385.562	98.19
385.787	102.19
386.013	135.19
386.238	123.19
386.463	114.19
386.688	127.19
386.913	115.19
387.138	116.19
387.363	120.19
387.588	109.19
387.813	106.19
388.038	112.19
388.263	123.19
388.488	129.19
388.713	108.19
388.938	88.19
389.163	93.19
389.387	101.19
389.612	105.19
389.837	97.19
390.062	96.19
390.287	100.19
390.512	101.19
390.736	88.19
390.961	84.19
391.186	94.19
391.411	88.19
391.636	83.19
391.86	87.19
392.085	86.19
392.31	97.19
392.534	102.19
392.759	88.19
392.984	90.19
393.208	81.19
393.433	98.19
393.658	91.19
393.882	101.19
394.107	87.19
394.331	104.19
394.556	97.19
394.78	89.19
395.005	95.19
395.229	93.19
395.454	97.19
395.678	97.19
395.903	98.19
396.127	97.19
396.352	100.19
396.576	86.19
396.801	81.19
397.025	96.19
397.249	84.19
397.474	91.19
397.698	95.19
397.922	95.19
398.147	100.19
398.371	101.19
398.595	107.19
398.82	98.19
399.044	101.19
399.268	96.19
399.492	90.19
399.717	93.19
399.941	95.19
400.165	89.19
400.389	103.19
400.613	104.19
400.837	89.19
401.062	94.19
401.286	105.19
401.51	104.19
401.734	106.19
401.958	111.19
402.182	144.19
402.406	219.19
402.63	156.19
402.854	107.19
403.078	105.19
403.302	103.19
403.526	96.19
403.75	87.19
403.974	90.19
404.198	93.19
404.422	98.19
404.645	115.19
404.869	111.19
405.093	131.19
405.317	169.19
405.541	159.19
405.765	115.19
405.988	143.19
406.212	246.19
406.436	337.19
406.66	226.19
406.883	148.19
407.107	105.19
407.331	97.19
407.555	99.19
407.778	100.19
408.002	98.19
408.226	99.19
408.449	105.19
408.673	103.19
408.896	95.19
409.12	105.19
409.344	100.19
409.567	95.19
409.791	88.19
410.014	106.19
410.238	99.19
410.461	108.19
410.685	102.19
410.908	94.19
411.132	104.19
411.355	114.19
411.578	101.19
411.802	97.19
412.025	103.19
412.249	113.19
412.472	135.19
412.695	137.19
412.919	116.19
413.142	108.19
413.365	100.19
413.589	97.19
413.812	102.19
414.035	103.19
414.258	104.19
414.482	108.19
414.705	89.19
414.928	100.19
415.151	84.19
415.374	90.19
415.597	87.19
415.821	104.19
416.044	110.19
416.267	101.19
416.49	107.19
416.713	80.19
416.936	93.19
417.159	105.19
417.382	106.19
417.605	112.19
417.828	134.19
418.051	109.19
418.274	96.19
418.497	97.19
418.72	105.19
418.943	93.19
419.166	103.19
419.389	94.19
419.611	102.19
419.834	106.19
420.057	97.19
420.28	111.19
420.503	100.19
420.726	101.19
420.948	99.19
421.171	110.19
421.394	96.19
421.617	106.19
421.839	90.19
422.062	88.19
422.285	84.19
422.507	101.19
422.73	120.19
422.953	99.19
423.175	89.19
423.398	94.19
423.621	98.19
423.843	96.19
424.066	98.19
424.288	96.19
424.511	95.19
424.733	112.19
424.956	123.19
425.178	115.19
425.401	119.19
425.623	117.19
425.846	104.19
426.068	108.19
426.291	95.19
426.513	105.19
426.735	112.19
426.958	101.19
427.18	120.19
427.402	189.19
427.625	271.19
427.847	260.19
428.069	238.19
428.292	122.19
428.514	104.19
428.736	98.19
428.958	100.19
429.181	82.19
429.403	89.19
429.625	99.19
429.847	98.19
430.069	125.19
430.292	106.19
430.514	86.19
430.736	97.19
430.958	94.19
431.18	71.19
431.402	90.19
431.624	99.19
431.846	81.19
432.068	102.19
432.29	89.19
432.512	97.19
432.734	106.19
432.956	101.19
433.178	81.19
433.4	105.19
433.622	101.19
433.844	91.19
434.066	95.19
434.287	98.19
434.509	103.19
434.731	110.19
434.953	106.19
435.175	86.19
435.397	88.19
435.618	105.19
435.84	119.19
436.062	139.19
436.284	123.19
436.505	109.19
436.727	102.19
436.949	104.19
437.17	96.19
437.392	99.19
437.614	115.19
437.835	135.19
438.057	147.19
438.278	121.19
438.5	117.19
438.721	149.19
438.943	114.19
439.165	99.19
439.386	90.19
439.608	99.19
439.829	121.19
440.05	153.19
440.272	183.19
440.493	104.19
440.715	107.19
440.936	90.19
441.158	99.19
441.379	113.19
441.6	114.19
441.822	105.19
442.043	87.19
442.264	128.19
442.486	117.19
442.707	88.19
442.928	121.19
443.149	182.19
443.371	191.19
443.592	139.19
443.813	143.19
444.034	115.19
444.255	112.19
444.476	88.19
444.698	102.19
444.919	89.19
445.14	125.19
445.361	127.19
445.582	132.19
445.803	178.19
446.024	170.19
446.245	155.19
446.466	137.19
446.687	97.19
446.908	108.19
447.129	98.19
447.35	82.19
447.571	103.19
447.792	91.19
448.013	115.19
448.234	139.19
448.455	130.19
448.675	127.19
448.896	136.19
449.117	118.19
449.338	107.19
449.559	153.19
449.779	147.19
450	102.19
450.221	88.19
450.442	89.19
450.662	106.19
450.883	121.19
451.104	161.19
451.324	121.19
451.545	103.19
451.766	99.19
451.986	97.19
452.207	91.19
452.428	97.19
452.648	107.19
452.869	140.19
453.089	126.19
453.31	163.19
453.53	107.19
453.751	133.19
453.971	109.19
454.192	158.19
454.412	104.19
454.633	103.19
454.853	88.19
455.073	103.19
455.294	111.19
455.514	170.19
455.734	143.19
455.955	101.19
456.175	85.19
456.395	101.19
456.616	84.19
456.836	100.19
457.056	101.19
457.276	82.19
457.497	95.19
457.717	89.19
457.937	103.19
458.157	87.19
458.377	99.19
458.598	125.19
458.818	217.19
459.038	239.19
459.258	162.19
459.478	101.19
459.698	95.19
459.918	99.19
460.138	95.19
460.358	105.19
460.578	109.19
460.798	98.19
461.018	97.19
461.238	96.19
461.458	92.19
461.678	98.19
461.898	95.19
462.118	84.19
462.338	92.19
462.558	106.19
462.777	109.19
462.997	127.19
463.217	156.19
463.437	119.19
463.657	104.19
463.876	93.19
464.096	109.19
464.316	113.19
464.536	121.19
464.755	105.19
464.975	142.19
465.195	250.19
465.414	251.19
465.634	119.19
465.854	105.19
466.073	97.19
466.293	92.19
466.512	106.19
466.732	109.19
466.951	106.19
467.171	117.19
467.391	145.19
467.61	192.19
467.829	370.19
468.049	1240.19
468.268	2081.19
468.488	425.19
468.707	148.19
468.927	117.19
469.146	116.19
469.365	97.19
469.585	105.19
469.804	116.19
470.023	117.19
470.243	120.19
470.462	122.19
470.681	135.19
470.901	126.19
471.12	136.19
471.339	140.19
471.558	178.19
471.777	253.19
471.997	547.19
472.216	2315.19
472.435	5691.19
472.654	1173.19
472.873	265.19
473.092	148.19
473.311	114.19
473.53	111.19
473.749	103.19
473.968	109.19
474.187	137.19
474.406	112.19
474.625	91.19
474.844	99.19
475.063	107.19
475.282	106.19
475.501	94.19
475.72	108.19
475.939	103.19
476.158	88.19
476.377	107.19
476.596	94.19
476.814	112.19
477.033	122.19
477.252	111.19
477.471	103.19
477.69	101.19
477.908	103.19
478.127	103.19
478.346	108.19
478.564	122.19
478.783	116.19
479.002	140.19
479.22	118.19
479.439	132.19
479.658	148.19
479.876	172.19
480.095	146.19
480.313	173.19
480.532	243.19
480.751	494.19
480.969	1971.19
481.188	9093.19
481.406	5135.19
481.624	635.19
481.843	201.19
482.061	145.19
482.28	118.19
482.498	106.19
482.717	98.19
482.935	113.19
483.153	109.19
483.372	103.19
483.59	98.19
483.808	82.19
484.027	108.19
484.245	113.19
484.463	103.19
484.681	109.19
484.9	110.19
485.118	92.19
485.336	101.19
485.554	110.19
485.772	116.19
485.99	130.19
486.209	115.19
486.427	124.19
486.645	143.19
486.863	142.19
487.081	126.19
487.299	99.19
487.517	117.19
487.735	108.19
487.953	106.19
488.171	98.19
488.389	106.19
488.607	114.19
488.825	101.19
489.043	102.19
489.261	98.19
489.479	101.19
489.696	118.19
489.914	99.19
490.132	110.19
490.35	95.19
490.568	103.19
490.786	100.19
491.003	88.19
491.221	80.19
491.439	117.19
491.657	101.19
491.874	104.19
492.092	95.19
492.31	109.19
492.527	109.19
492.745	120.19
492.963	114.19
493.18	105.19
493.398	125.19
493.615	177.19
493.833	119.19
494.05	99.19
494.268	101.19
494.485	105.19
494.703	83.19
494.92	101.19
495.138	90.19
495.355	86.19
495.573	102.19
495.79	93.19
496.008	105.19
496.225	102.19
496.442	96.19
496.66	109.19
496.877	87.19
497.094	92.19
497.312	93.19
497.529	100.19
497.746	115.19
497.963	88.19
498.181	86.19
498.398	105.19
498.615	120.19
498.832	112.19
499.049	103.19
499.267	101.19
499.484	113.19
499.701	100.19
499.918	97.19
500.135	108.19
500.352	99.19
500.569	103.19
500.786	112.19
501.003	91.19
501.22	104.19
501.437	87.19
501.654	99.19
501.871	135.19
502.088	115.19
502.305	107.19
502.522	103.19
502.739	105.19
502.956	111.19
503.172	108.19
503.389	118.19
503.606	132.19
503.823	124.19
504.04	112.19
504.256	91.19
504.473	93.19
504.69	96.19
504.907	109.19
505.123	85.19
505.34	104.19
505.557	116.19
505.773	82.19
505.99	95.19
506.207	86.19
506.423	98.19
506.64	86.19
506.856	105.19
507.073	108.19
507.289	104.19
507.506	115.19
507.722	131.19
507.939	138.19
508.155	111.19
508.372	104.19
508.588	120.19
508.805	114.19
509.021	123.19
509.238	103.19
