Data from Circ_1988_H10_HRD10591_00007.txt Node
Date: Wed Jan 03 12:05:36 EST 2024
User: Yrep
Spectrometer: HR+D1059
Trigger mode: 1
Integration Time (sec): 1.000000E-1
Scans to average: 1
Electric dark correction enabled: true
Nonlinearity correction enabled: false
Boxcar width: 0
XAxis mode: Wavelengths
Number of Pixels in Spectrum: 2048
>>>>>Begin Spectral Data<<<<<
223.165	-22.56
223.4	-22.56
223.635	-22.56
223.869	-16.56
224.104	-15.56
224.338	-23.56
224.573	-18.56
224.808	-12.56
225.042	-14.56
225.277	-4.56
225.511	-2.56
225.746	6.44
225.98	13.44
226.215	15.44
226.449	17.44
226.683	24.44
226.918	23.44
227.152	30.44
227.387	36.44
227.621	35.44
227.856	30.44
228.09	47.44
228.324	46.44
228.559	48.44
228.793	53.44
229.027	79.44
229.262	78.44
229.496	68.44
229.73	93.44
229.964	81.44
230.199	62.44
230.433	70.44
230.667	82.44
230.901	63.44
231.136	63.44
231.37	74.44
231.604	79.44
231.838	72.44
232.072	92.44
232.306	70.44
232.541	72.44
232.775	81.44
233.009	84.44
233.243	83.44
233.477	85.44
233.711	85.44
233.945	80.44
234.179	69.44
234.413	85.44
234.647	79.44
234.881	83.44
235.115	87.44
235.349	79.44
235.583	79.44
235.817	71.44
236.051	79.44
236.285	72.44
236.519	79.44
236.753	70.44
236.987	79.44
237.221	89.44
237.455	82.44
237.689	86.44
237.922	87.44
238.156	72.44
238.39	78.44
238.624	78.44
238.858	76.44
239.091	78.44
239.325	83.44
239.559	70.44
239.793	79.44
240.027	97.44
240.26	79.44
240.494	90.44
240.728	76.44
240.961	67.44
241.195	79.44
241.429	73.44
241.662	72.44
241.896	81.44
242.13	75.44
242.363	77.44
242.597	72.44
242.83	81.44
243.064	71.44
243.298	66.44
243.531	93.44
243.765	91.44
243.998	75.44
244.232	81.44
244.465	92.44
244.699	97.44
244.932	84.44
245.166	77.44
245.399	82.44
245.633	84.44
245.866	88.44
246.099	88.44
246.333	68.44
246.566	84.44
246.8	84.44
247.033	95.44
247.266	82.44
247.5	85.44
247.733	77.44
247.966	62.44
248.2	88.44
248.433	87.44
248.666	84.44
248.899	90.44
249.133	97.44
249.366	102.44
249.599	105.44
249.832	85.44
250.066	82.44
250.299	87.44
250.532	94.44
250.765	79.44
250.998	73.44
251.231	80.44
251.465	95.44
251.698	85.44
251.931	97.44
252.164	88.44
252.397	77.44
252.63	92.44
252.863	67.44
253.096	80.44
253.329	75.44
253.562	76.44
253.795	75.44
254.028	97.44
254.261	90.44
254.494	81.44
254.727	80.44
254.96	80.44
255.193	75.44
255.426	88.44
255.659	90.44
255.892	104.44
256.124	111.44
256.357	92.44
256.59	97.44
256.823	85.44
257.056	110.44
257.289	111.44
257.521	97.44
257.754	97.44
257.987	92.44
258.22	97.44
258.452	126.44
258.685	116.44
258.918	82.44
259.151	88.44
259.383	80.44
259.616	93.44
259.849	88.44
260.081	96.44
260.314	95.44
260.547	98.44
260.779	132.44
261.012	152.44
261.244	143.44
261.477	121.44
261.71	101.44
261.942	129.44
262.175	141.44
262.407	97.44
262.64	84.44
262.872	95.44
263.105	83.44
263.337	69.44
263.57	77.44
263.802	86.44
264.035	96.44
264.267	79.44
264.499	100.44
264.732	77.44
264.964	89.44
265.197	78.44
265.429	94.44
265.661	86.44
265.894	87.44
266.126	80.44
266.358	79.44
266.591	84.44
266.823	78.44
267.055	82.44
267.287	85.44
267.52	88.44
267.752	83.44
267.984	82.44
268.216	81.44
268.448	85.44
268.681	89.44
268.913	107.44
269.145	88.44
269.377	92.44
269.609	68.44
269.841	87.44
270.073	86.44
270.306	87.44
270.538	79.44
270.77	81.44
271.002	93.44
271.234	89.44
271.466	100.44
271.698	96.44
271.93	88.44
272.162	106.44
272.394	100.44
272.626	83.44
272.858	89.44
273.09	88.44
273.322	81.44
273.553	86.44
273.785	87.44
274.017	91.44
274.249	85.44
274.481	87.44
274.713	98.44
274.945	113.44
275.176	92.44
275.408	130.44
275.64	174.44
275.872	188.44
276.104	128.44
276.335	125.44
276.567	132.44
276.799	181.44
277.031	283.44
277.262	365.44
277.494	254.44
277.726	123.44
277.957	101.44
278.189	109.44
278.421	111.44
278.652	94.44
278.884	98.44
279.115	109.44
279.347	104.44
279.579	132.44
279.81	196.44
280.042	391.44
280.273	563.44
280.505	346.44
280.736	155.44
280.968	99.44
281.199	95.44
281.431	103.44
281.662	103.44
281.894	105.44
282.125	107.44
282.356	143.44
282.588	170.44
282.819	152.44
283.051	108.44
283.282	96.44
283.513	102.44
283.745	99.44
283.976	91.44
284.207	91.44
284.439	107.44
284.67	77.44
284.901	88.44
285.132	96.44
285.364	88.44
285.595	94.44
285.826	89.44
286.057	84.44
286.288	85.44
286.52	93.44
286.751	69.44
286.982	100.44
287.213	70.44
287.444	92.44
287.675	101.44
287.906	89.44
288.138	101.44
288.369	109.44
288.6	87.44
288.831	91.44
289.062	89.44
289.293	71.44
289.524	83.44
289.755	70.44
289.986	90.44
290.217	88.44
290.448	87.44
290.679	100.44
290.91	81.44
291.141	83.44
291.371	82.44
291.602	93.44
291.833	101.44
292.064	88.44
292.295	95.44
292.526	89.44
292.757	93.44
292.987	87.44
293.218	90.44
293.449	89.44
293.68	105.44
293.91	87.44
294.141	109.44
294.372	97.44
294.603	84.44
294.833	84.44
295.064	84.44
295.295	83.44
295.525	100.44
295.756	114.44
295.987	127.44
296.217	179.44
296.448	160.44
296.679	95.44
296.909	102.44
297.14	89.44
297.37	97.44
297.601	87.44
297.831	95.44
298.062	91.44
298.292	95.44
298.523	101.44
298.753	99.44
298.984	94.44
299.214	87.44
299.445	112.44
299.675	102.44
299.905	105.44
300.136	96.44
300.366	89.44
300.597	105.44
300.827	101.44
301.057	108.44
301.288	104.44
301.518	110.44
301.748	116.44
301.979	134.44
302.209	119.44
302.439	114.44
302.669	103.44
302.9	95.44
303.13	115.44
303.36	132.44
303.59	188.44
303.82	222.44
304.051	140.44
304.281	107.44
304.511	85.44
304.741	96.44
304.971	90.44
305.201	97.44
305.431	102.44
305.661	75.44
305.891	78.44
306.121	100.44
306.352	119.44
306.582	128.44
306.812	132.44
307.042	167.44
307.272	275.44
307.502	307.44
307.731	272.44
307.961	164.44
308.191	110.44
308.421	111.44
308.651	92.44
308.881	97.44
309.111	85.44
309.341	94.44
309.571	112.44
309.8	103.44
310.03	97.44
310.26	104.44
310.49	108.44
310.72	91.44
310.949	100.44
311.179	111.44
311.409	93.44
311.639	105.44
311.868	109.44
312.098	97.44
312.328	93.44
312.557	96.44
312.787	124.44
313.017	113.44
313.246	100.44
313.476	102.44
313.706	117.44
313.935	91.44
314.165	106.44
314.394	113.44
314.624	115.44
314.853	101.44
315.083	103.44
315.312	93.44
315.542	80.44
315.771	89.44
316.001	108.44
316.23	94.44
316.46	79.44
316.689	71.44
316.919	104.44
317.148	98.44
317.377	100.44
317.607	102.44
317.836	108.44
318.065	97.44
318.295	98.44
318.524	102.44
318.753	89.44
318.983	106.44
319.212	105.44
319.441	119.44
319.67	114.44
319.9	97.44
320.129	100.44
320.358	101.44
320.587	110.44
320.816	86.44
321.046	101.44
321.275	99.44
321.504	87.44
321.733	97.44
321.962	114.44
322.191	108.44
322.42	113.44
322.649	135.44
322.878	110.44
323.108	102.44
323.337	128.44
323.566	155.44
323.795	177.44
324.024	240.44
324.253	415.44
324.482	869.44
324.71	1805.44
324.939	2393.44
325.168	892.44
325.397	285.44
325.626	181.44
325.855	139.44
326.084	140.44
326.313	145.44
326.542	176.44
326.77	239.44
326.999	448.44
327.228	879.44
327.457	1661.44
327.686	1454.44
327.914	683.44
328.143	923.44
328.372	1309.44
328.6	679.44
328.829	243.44
329.058	221.44
329.287	243.44
329.515	239.44
329.744	390.44
329.972	886.44
330.201	2028.44
330.43	3092.44
330.658	1222.44
330.887	418.44
331.115	229.44
331.344	159.44
331.572	132.44
331.801	146.44
332.03	144.44
332.258	119.44
332.486	116.44
332.715	140.44
332.943	135.44
333.172	156.44
333.4	157.44
333.629	224.44
333.857	344.44
334.085	758.44
334.314	1709.44
334.542	3557.44
334.771	3378.44
334.999	799.44
335.227	263.44
335.455	181.44
335.684	148.44
335.912	117.44
336.14	120.44
336.369	111.44
336.597	122.44
336.825	109.44
337.053	108.44
337.281	96.44
337.51	105.44
337.738	102.44
337.966	101.44
338.194	116.44
338.422	118.44
338.65	88.44
338.878	89.44
339.106	111.44
339.334	95.44
339.562	94.44
339.79	95.44
340.018	93.44
340.246	105.44
340.474	98.44
340.702	96.44
340.93	106.44
341.158	115.44
341.386	85.44
341.614	104.44
341.842	103.44
342.07	99.44
342.298	99.44
342.526	97.44
342.754	105.44
342.981	89.44
343.209	96.44
343.437	93.44
343.665	78.44
343.893	99.44
344.12	101.44
344.348	94.44
344.576	92.44
344.804	101.44
345.031	97.44
345.259	101.44
345.487	102.44
345.714	107.44
345.942	103.44
346.17	103.44
346.397	86.44
346.625	104.44
346.853	99.44
347.08	96.44
347.308	92.44
347.535	104.44
347.763	105.44
347.99	115.44
348.218	103.44
348.445	122.44
348.673	105.44
348.9	97.44
349.128	86.44
349.355	85.44
349.583	84.44
349.81	106.44
350.037	99.44
350.265	110.44
350.492	89.44
350.72	103.44
350.947	98.44
351.174	111.44
351.402	103.44
351.629	103.44
351.856	105.44
352.083	120.44
352.311	118.44
352.538	128.44
352.765	121.44
352.992	108.44
353.22	118.44
353.447	119.44
353.674	104.44
353.901	113.44
354.128	96.44
354.355	99.44
354.583	92.44
354.81	100.44
355.037	99.44
355.264	95.44
355.491	97.44
355.718	89.44
355.945	85.44
356.172	101.44
356.399	99.44
356.626	110.44
356.853	93.44
357.08	92.44
357.307	97.44
357.534	94.44
357.761	108.44
357.988	102.44
358.215	113.44
358.441	117.44
358.668	110.44
358.895	111.44
359.122	99.44
359.349	105.44
359.576	96.44
359.802	111.44
360.029	142.44
360.256	133.44
360.483	121.44
360.709	92.44
360.936	93.44
361.163	103.44
361.39	100.44
361.616	110.44
361.843	106.44
362.07	102.44
362.296	109.44
362.523	99.44
362.749	107.44
362.976	95.44
363.203	92.44
363.429	103.44
363.656	90.44
363.882	87.44
364.109	84.44
364.335	110.44
364.562	107.44
364.788	98.44
365.015	105.44
365.241	109.44
365.468	120.44
365.694	120.44
365.92	112.44
366.147	100.44
366.373	106.44
366.599	97.44
366.826	98.44
367.052	104.44
367.278	84.44
367.505	96.44
367.731	91.44
367.957	85.44
368.184	96.44
368.41	108.44
368.636	124.44
368.862	139.44
369.089	115.44
369.315	97.44
369.541	88.44
369.767	97.44
369.993	106.44
370.219	102.44
370.445	85.44
370.672	82.44
370.898	78.44
371.124	91.44
371.35	77.44
371.576	94.44
371.802	103.44
372.028	87.44
372.254	94.44
372.48	100.44
372.706	93.44
372.932	94.44
373.158	93.44
373.384	80.44
373.61	95.44
373.835	79.44
374.061	99.44
374.287	111.44
374.513	104.44
374.739	81.44
374.965	95.44
375.191	83.44
375.416	83.44
375.642	97.44
375.868	94.44
376.094	81.44
376.319	98.44
376.545	107.44
376.771	94.44
376.997	110.44
377.222	111.44
377.448	115.44
377.674	103.44
377.899	113.44
378.125	88.44
378.35	95.44
378.576	111.44
378.802	104.44
379.027	104.44
379.253	107.44
379.478	103.44
379.704	114.44
379.929	126.44
380.155	115.44
380.38	117.44
380.606	130.44
380.831	107.44
381.057	115.44
381.282	126.44
381.507	111.44
381.733	126.44
381.958	131.44
382.184	142.44
382.409	145.44
382.634	147.44
382.86	116.44
383.085	120.44
383.31	130.44
383.535	141.44
383.761	133.44
383.986	146.44
384.211	155.44
384.436	132.44
384.662	157.44
384.887	164.44
385.112	174.44
385.337	190.44
385.562	180.44
385.787	155.44
386.013	191.44
386.238	188.44
386.463	173.44
386.688	163.44
386.913	171.44
387.138	187.44
387.363	187.44
387.588	140.44
387.813	154.44
388.038	167.44
388.263	196.44
388.488	187.44
388.713	105.44
388.938	103.44
389.163	111.44
389.387	89.44
389.612	82.44
389.837	88.44
390.062	86.44
390.287	85.44
390.512	87.44
390.736	72.44
390.961	77.44
391.186	100.44
391.411	86.44
391.636	84.44
391.86	85.44
392.085	97.44
392.31	97.44
392.534	89.44
392.759	98.44
392.984	84.44
393.208	102.44
393.433	121.44
393.658	108.44
393.882	89.44
394.107	81.44
394.331	81.44
394.556	71.44
394.78	79.44
395.005	88.44
395.229	99.44
395.454	79.44
395.678	84.44
395.903	88.44
396.127	93.44
396.352	99.44
396.576	92.44
396.801	101.44
397.025	94.44
397.249	79.44
397.474	91.44
397.698	80.44
397.922	89.44
398.147	92.44
398.371	87.44
398.595	75.44
398.82	91.44
399.044	91.44
399.268	90.44
399.492	93.44
399.717	93.44
399.941	89.44
400.165	110.44
400.389	100.44
400.613	81.44
400.837	75.44
401.062	96.44
401.286	89.44
401.51	108.44
401.734	100.44
401.958	106.44
402.182	147.44
402.406	182.44
402.63	158.44
402.854	110.44
403.078	93.44
403.302	85.44
403.526	70.44
403.75	84.44
403.974	86.44
404.198	92.44
404.422	83.44
404.645	87.44
404.869	105.44
405.093	124.44
405.317	133.44
405.541	139.44
405.765	123.44
405.988	140.44
406.212	203.44
406.436	310.44
406.66	213.44
406.883	130.44
407.107	107.44
407.331	100.44
407.555	113.44
407.778	103.44
408.002	84.44
408.226	96.44
408.449	102.44
408.673	107.44
408.896	94.44
409.12	101.44
409.344	89.44
409.567	89.44
409.791	120.44
410.014	92.44
410.238	89.44
410.461	98.44
410.685	84.44
410.908	86.44
411.132	103.44
411.355	101.44
411.578	100.44
411.802	96.44
412.025	93.44
412.249	104.44
412.472	127.44
412.695	139.44
412.919	118.44
413.142	97.44
413.365	94.44
413.589	101.44
413.812	100.44
414.035	96.44
414.258	115.44
414.482	96.44
414.705	105.44
414.928	105.44
415.151	95.44
415.374	97.44
415.597	99.44
415.821	100.44
416.044	100.44
416.267	82.44
416.49	107.44
416.713	99.44
416.936	101.44
417.159	96.44
417.382	112.44
417.605	152.44
417.828	133.44
418.051	113.44
418.274	102.44
418.497	87.44
418.72	93.44
418.943	99.44
419.166	102.44
419.389	99.44
419.611	103.44
419.834	103.44
420.057	97.44
420.28	102.44
420.503	91.44
420.726	79.44
420.948	107.44
421.171	100.44
421.394	104.44
421.617	97.44
421.839	102.44
422.062	92.44
422.285	81.44
422.507	104.44
422.73	109.44
422.953	97.44
423.175	94.44
423.398	85.44
423.621	96.44
423.843	85.44
424.066	81.44
424.288	91.44
424.511	88.44
424.733	102.44
424.956	108.44
425.178	113.44
425.401	104.44
425.623	98.44
425.846	93.44
426.068	107.44
426.291	94.44
426.513	97.44
426.735	86.44
426.958	88.44
427.18	118.44
427.402	180.44
427.625	256.44
427.847	232.44
428.069	214.44
428.292	148.44
428.514	102.44
428.736	89.44
428.958	108.44
429.181	95.44
429.403	94.44
429.625	95.44
429.847	99.44
430.069	97.44
430.292	111.44
430.514	91.44
430.736	79.44
430.958	78.44
431.18	88.44
431.402	85.44
431.624	88.44
431.846	87.44
432.068	73.44
432.29	82.44
432.512	82.44
432.734	85.44
432.956	108.44
433.178	98.44
433.4	96.44
433.622	84.44
433.844	80.44
434.066	93.44
434.287	93.44
434.509	98.44
434.731	85.44
434.953	100.44
435.175	81.44
435.397	93.44
435.618	102.44
435.84	96.44
436.062	123.44
436.284	112.44
436.505	90.44
436.727	101.44
436.949	79.44
437.17	98.44
437.392	87.44
437.614	98.44
437.835	128.44
438.057	157.44
438.278	132.44
438.5	114.44
438.721	120.44
438.943	93.44
439.165	86.44
439.386	90.44
439.608	89.44
439.829	108.44
440.05	153.44
440.272	167.44
440.493	126.44
440.715	102.44
440.936	95.44
441.158	91.44
441.379	78.44
441.6	110.44
441.822	104.44
442.043	93.44
442.264	105.44
442.486	116.44
442.707	93.44
442.928	123.44
443.149	171.44
443.371	163.44
443.592	111.44
443.813	114.44
444.034	112.44
444.255	104.44
444.476	95.44
444.698	92.44
444.919	82.44
445.14	139.44
445.361	122.44
445.582	128.44
445.803	172.44
446.024	155.44
446.245	143.44
446.466	122.44
446.687	96.44
446.908	81.44
447.129	79.44
447.35	80.44
447.571	79.44
447.792	98.44
448.013	103.44
448.234	98.44
448.455	95.44
448.675	116.44
448.896	124.44
449.117	119.44
449.338	97.44
449.559	134.44
449.779	135.44
450	102.44
450.221	101.44
450.442	100.44
450.662	92.44
450.883	131.44
451.104	151.44
451.324	115.44
451.545	113.44
451.766	97.44
451.986	81.44
452.207	81.44
452.428	120.44
452.648	118.44
452.869	124.44
453.089	131.44
453.31	145.44
453.53	103.44
453.751	105.44
453.971	123.44
454.192	127.44
454.412	108.44
454.633	92.44
454.853	90.44
455.073	76.44
455.294	99.44
455.514	107.44
455.734	100.44
455.955	88.44
456.175	86.44
456.395	82.44
456.616	92.44
456.836	97.44
457.056	91.44
457.276	85.44
457.497	96.44
457.717	96.44
457.937	86.44
458.157	82.44
458.377	85.44
458.598	116.44
458.818	194.44
459.038	225.44
459.258	135.44
459.478	97.44
459.698	102.44
459.918	97.44
460.138	101.44
460.358	83.44
460.578	76.44
460.798	104.44
461.018	87.44
461.238	105.44
461.458	85.44
461.678	78.44
461.898	99.44
462.118	87.44
462.338	95.44
462.558	90.44
462.777	108.44
462.997	114.44
463.217	141.44
463.437	129.44
463.657	103.44
463.876	98.44
464.096	107.44
464.316	84.44
464.536	112.44
464.755	95.44
464.975	129.44
465.195	239.44
465.414	222.44
465.634	106.44
465.854	96.44
466.073	107.44
466.293	103.44
466.512	114.44
466.732	111.44
466.951	92.44
467.171	101.44
467.391	137.44
467.61	175.44
467.829	385.44
468.049	1370.44
468.268	2139.44
468.488	461.44
468.707	145.44
468.927	94.44
469.146	104.44
469.365	115.44
469.585	99.44
469.804	110.44
470.023	112.44
470.243	118.44
470.462	127.44
470.681	152.44
470.901	130.44
471.12	120.44
471.339	133.44
471.558	140.44
471.777	238.44
471.997	540.44
472.216	2420.44
472.435	5760.44
472.654	1220.44
472.873	270.44
473.092	155.44
473.311	132.44
473.53	108.44
473.749	94.44
473.968	103.44
474.187	110.44
474.406	101.44
474.625	99.44
474.844	77.44
475.063	79.44
475.282	103.44
475.501	100.44
475.72	99.44
475.939	102.44
476.158	99.44
476.377	89.44
476.596	97.44
476.814	100.44
477.033	102.44
477.252	103.44
477.471	80.44
477.69	85.44
477.908	100.44
478.127	107.44
478.346	95.44
478.564	86.44
478.783	103.44
479.002	98.44
479.22	121.44
479.439	137.44
479.658	149.44
479.876	153.44
480.095	160.44
480.313	176.44
480.532	228.44
480.751	480.44
480.969	1987.44
481.188	9076.44
481.406	5090.44
481.624	649.44
481.843	198.44
482.061	158.44
482.28	122.44
482.498	109.44
482.717	113.44
482.935	116.44
483.153	101.44
483.372	98.44
483.59	86.44
483.808	95.44
484.027	101.44
484.245	100.44
484.463	103.44
484.681	107.44
484.9	96.44
485.118	99.44
485.336	105.44
485.554	101.44
485.772	110.44
485.99	117.44
486.209	103.44
486.427	123.44
486.645	136.44
486.863	150.44
487.081	98.44
487.299	103.44
487.517	79.44
487.735	95.44
487.953	98.44
488.171	93.44
488.389	104.44
488.607	97.44
488.825	85.44
489.043	100.44
489.261	83.44
489.479	96.44
489.696	90.44
489.914	75.44
490.132	95.44
490.35	87.44
490.568	91.44
490.786	96.44
491.003	87.44
491.221	99.44
491.439	91.44
491.657	108.44
491.874	85.44
492.092	87.44
492.31	94.44
492.527	103.44
492.745	102.44
492.963	109.44
493.18	93.44
493.398	95.44
493.615	111.44
493.833	86.44
494.05	94.44
494.268	100.44
494.485	102.44
494.703	98.44
494.92	105.44
495.138	101.44
495.355	103.44
495.573	87.44
495.79	83.44
496.008	97.44
496.225	109.44
496.442	88.44
496.66	87.44
496.877	94.44
497.094	93.44
497.312	81.44
497.529	100.44
497.746	100.44
497.963	99.44
498.181	113.44
498.398	113.44
498.615	113.44
498.832	104.44
499.049	97.44
499.267	87.44
499.484	79.44
499.701	89.44
499.918	104.44
500.135	86.44
500.352	85.44
500.569	113.44
500.786	102.44
501.003	104.44
501.22	90.44
501.437	87.44
501.654	99.44
501.871	136.44
502.088	95.44
502.305	89.44
502.522	99.44
502.739	83.44
502.956	104.44
503.172	102.44
503.389	102.44
503.606	123.44
503.823	120.44
504.04	95.44
504.256	95.44
504.473	89.44
504.69	84.44
504.907	90.44
505.123	92.44
505.34	102.44
505.557	106.44
505.773	84.44
505.99	102.44
506.207	91.44
506.423	93.44
506.64	82.44
506.856	83.44
507.073	99.44
507.289	102.44
507.506	113.44
507.722	123.44
507.939	128.44
508.155	112.44
508.372	97.44
508.588	95.44
508.805	99.44
509.021	95.44
509.238	103.44
509.454	94.44
509.67	105.44
509.887	125.44
510.103	139.44
510.319	245.44
510.536	1026.44
510.752	3656.44
510.968	960.44
