Data from Circ_1988_H10_HRD10591_00055.txt Node
Date: Wed Jan 03 12:05:45 EST 2024
User: Yrep
Spectrometer: HR+D1059
Trigger mode: 1
Integration Time (sec): 1.000000E-1
Scans to average: 1
Electric dark correction enabled: true
Nonlinearity correction enabled: false
Boxcar width: 0
XAxis mode: Wavelengths
Number of Pixels in Spectrum: 2048
>>>>>Begin Spectral Data<<<<<
223.165	-21.81
223.4	-21.81
223.635	-21.81
223.869	-10.81
224.104	-12.81
224.338	-4.81
224.573	-13.81
224.808	-22.81
225.042	-11.81
225.277	-14.81
225.511	-9.81
225.746	4.19
225.98	10.19
226.215	11.19
226.449	13.19
226.683	8.19
226.918	31.19
227.152	45.19
227.387	39.19
227.621	49.19
227.856	44.19
228.09	53.19
228.324	53.19
228.559	69.19
228.793	68.19
229.027	68.19
229.262	70.19
229.496	81.19
229.73	102.19
229.964	96.19
230.199	82.19
230.433	88.19
230.667	87.19
230.901	79.19
231.136	81.19
231.37	79.19
231.604	86.19
231.838	84.19
232.072	72.19
232.306	77.19
232.541	79.19
232.775	91.19
233.009	77.19
233.243	83.19
233.477	85.19
233.711	90.19
233.945	82.19
234.179	96.19
234.413	74.19
234.647	85.19
234.881	94.19
235.115	69.19
235.349	81.19
235.583	92.19
235.817	75.19
236.051	74.19
236.285	91.19
236.519	87.19
236.753	90.19
236.987	78.19
237.221	94.19
237.455	97.19
237.689	83.19
237.922	75.19
238.156	86.19
238.39	83.19
238.624	64.19
238.858	81.19
239.091	85.19
239.325	70.19
239.559	89.19
239.793	87.19
240.027	80.19
240.26	101.19
240.494	82.19
240.728	86.19
240.961	85.19
241.195	87.19
241.429	83.19
241.662	84.19
241.896	66.19
242.13	77.19
242.363	73.19
242.597	79.19
242.83	89.19
243.064	69.19
243.298	71.19
243.531	78.19
243.765	72.19
243.998	93.19
244.232	86.19
244.465	107.19
244.699	93.19
244.932	94.19
245.166	89.19
245.399	81.19
245.633	78.19
245.866	66.19
246.099	71.19
246.333	75.19
246.566	98.19
246.8	75.19
247.033	62.19
247.266	79.19
247.5	89.19
247.733	78.19
247.966	87.19
248.2	84.19
248.433	84.19
248.666	71.19
248.899	104.19
249.133	84.19
249.366	107.19
249.599	116.19
249.832	110.19
250.066	89.19
250.299	77.19
250.532	105.19
250.765	88.19
250.998	94.19
251.231	90.19
251.465	93.19
251.698	97.19
251.931	103.19
252.164	90.19
252.397	110.19
252.63	99.19
252.863	77.19
253.096	90.19
253.329	87.19
253.562	80.19
253.795	98.19
254.028	84.19
254.261	85.19
254.494	95.19
254.727	102.19
254.96	90.19
255.193	87.19
255.426	77.19
255.659	87.19
255.892	118.19
256.124	109.19
256.357	86.19
256.59	80.19
256.823	92.19
257.056	102.19
257.289	115.19
257.521	104.19
257.754	96.19
257.987	97.19
258.22	117.19
258.452	127.19
258.685	120.19
258.918	97.19
259.151	84.19
259.383	89.19
259.616	90.19
259.849	73.19
260.081	91.19
260.314	91.19
260.547	105.19
260.779	112.19
261.012	143.19
261.244	152.19
261.477	132.19
261.71	110.19
261.942	147.19
262.175	160.19
262.407	96.19
262.64	105.19
262.872	79.19
263.105	90.19
263.337	85.19
263.57	87.19
263.802	77.19
264.035	100.19
264.267	89.19
264.499	97.19
264.732	83.19
264.964	102.19
265.197	72.19
265.429	62.19
265.661	80.19
265.894	83.19
266.126	85.19
266.358	91.19
266.591	75.19
266.823	96.19
267.055	95.19
267.287	94.19
267.52	94.19
267.752	86.19
267.984	81.19
268.216	90.19
268.448	88.19
268.681	104.19
268.913	105.19
269.145	71.19
269.377	86.19
269.609	73.19
269.841	89.19
270.073	87.19
270.306	87.19
270.538	78.19
270.77	105.19
271.002	101.19
271.234	107.19
271.466	106.19
271.698	100.19
271.93	97.19
272.162	101.19
272.394	93.19
272.626	98.19
272.858	82.19
273.09	99.19
273.322	88.19
273.553	84.19
273.785	93.19
274.017	106.19
274.249	104.19
274.481	84.19
274.713	86.19
274.945	104.19
275.176	100.19
275.408	127.19
275.64	170.19
275.872	189.19
276.104	138.19
276.335	122.19
276.567	153.19
276.799	188.19
277.031	274.19
277.262	369.19
277.494	271.19
277.726	137.19
277.957	123.19
278.189	93.19
278.421	90.19
278.652	111.19
278.884	107.19
279.115	96.19
279.347	117.19
279.579	131.19
279.81	203.19
280.042	403.19
280.273	535.19
280.505	343.19
280.736	150.19
280.968	117.19
281.199	97.19
281.431	113.19
281.662	98.19
281.894	102.19
282.125	111.19
282.356	147.19
282.588	188.19
282.819	137.19
283.051	98.19
283.282	93.19
283.513	99.19
283.745	79.19
283.976	96.19
284.207	96.19
284.439	75.19
284.67	76.19
284.901	73.19
285.132	97.19
285.364	102.19
285.595	78.19
285.826	79.19
286.057	112.19
286.288	90.19
286.52	90.19
286.751	92.19
286.982	88.19
287.213	90.19
287.444	107.19
287.675	97.19
287.906	101.19
288.138	88.19
288.369	92.19
288.6	109.19
288.831	91.19
289.062	93.19
289.293	100.19
289.524	102.19
289.755	93.19
289.986	100.19
290.217	97.19
290.448	83.19
290.679	95.19
290.91	106.19
291.141	102.19
291.371	97.19
291.602	89.19
291.833	93.19
292.064	98.19
292.295	89.19
292.526	100.19
292.757	91.19
292.987	89.19
293.218	93.19
293.449	89.19
293.68	76.19
293.91	93.19
294.141	104.19
294.372	95.19
294.603	95.19
294.833	101.19
295.064	95.19
295.295	100.19
295.525	106.19
295.756	103.19
295.987	121.19
296.217	183.19
296.448	151.19
296.679	101.19
296.909	104.19
297.14	97.19
297.37	95.19
297.601	95.19
297.831	96.19
298.062	102.19
298.292	98.19
298.523	106.19
298.753	96.19
298.984	99.19
299.214	90.19
299.445	98.19
299.675	111.19
299.905	101.19
300.136	95.19
300.366	101.19
300.597	96.19
300.827	98.19
301.057	105.19
301.288	113.19
301.518	121.19
301.748	118.19
301.979	134.19
302.209	118.19
302.439	90.19
302.669	97.19
302.9	89.19
303.13	93.19
303.36	124.19
303.59	176.19
303.82	201.19
304.051	121.19
304.281	89.19
304.511	114.19
304.741	97.19
304.971	102.19
305.201	91.19
305.431	95.19
305.661	98.19
305.891	99.19
306.121	100.19
306.352	110.19
306.582	126.19
306.812	121.19
307.042	184.19
307.272	258.19
307.502	302.19
307.731	281.19
307.961	191.19
308.191	105.19
308.421	93.19
308.651	91.19
308.881	113.19
309.111	85.19
309.341	106.19
309.571	110.19
309.8	115.19
310.03	108.19
310.26	115.19
310.49	116.19
310.72	105.19
310.949	132.19
311.179	121.19
311.409	117.19
311.639	110.19
311.868	108.19
312.098	110.19
312.328	98.19
312.557	115.19
312.787	127.19
313.017	128.19
313.246	102.19
313.476	96.19
313.706	100.19
313.935	102.19
314.165	125.19
314.394	99.19
314.624	108.19
314.853	99.19
315.083	98.19
315.312	95.19
315.542	97.19
315.771	113.19
316.001	97.19
316.23	97.19
316.46	104.19
316.689	111.19
316.919	89.19
317.148	95.19
317.377	108.19
317.607	119.19
317.836	115.19
318.065	98.19
318.295	99.19
318.524	102.19
318.753	90.19
318.983	103.19
319.212	111.19
319.441	129.19
319.67	130.19
319.9	118.19
320.129	95.19
320.358	105.19
320.587	106.19
320.816	88.19
321.046	106.19
321.275	103.19
321.504	105.19
321.733	92.19
321.962	109.19
322.191	109.19
322.42	128.19
322.649	127.19
322.878	118.19
323.108	111.19
323.337	146.19
323.566	151.19
323.795	179.19
324.024	246.19
324.253	424.19
324.482	904.19
324.71	1823.19
324.939	2433.19
325.168	919.19
325.397	269.19
325.626	169.19
325.855	158.19
326.084	160.19
326.313	143.19
326.542	177.19
326.77	243.19
326.999	457.19
327.228	885.19
327.457	1646.19
327.686	1433.19
327.914	710.19
328.143	953.19
328.372	1352.19
328.6	681.19
328.829	262.19
329.058	237.19
329.287	238.19
329.515	251.19
329.744	451.19
329.972	947.19
330.201	2134.19
330.43	3096.19
330.658	1197.19
330.887	417.19
331.115	246.19
331.344	146.19
331.572	145.19
331.801	162.19
332.03	136.19
332.258	144.19
332.486	122.19
332.715	133.19
332.943	149.19
333.172	144.19
333.4	178.19
333.629	230.19
333.857	387.19
334.085	787.19
334.314	1779.19
334.542	3674.19
334.771	3485.19
334.999	805.19
335.227	276.19
335.455	170.19
335.684	128.19
335.912	133.19
336.14	119.19
336.369	130.19
336.597	139.19
336.825	115.19
337.053	115.19
337.281	101.19
337.51	100.19
337.738	107.19
337.966	96.19
338.194	102.19
338.422	107.19
338.65	111.19
338.878	104.19
339.106	89.19
339.334	101.19
339.562	101.19
339.79	91.19
340.018	107.19
340.246	117.19
340.474	115.19
340.702	102.19
340.93	97.19
341.158	95.19
341.386	93.19
341.614	105.19
341.842	97.19
342.07	105.19
342.298	89.19
342.526	104.19
342.754	102.19
342.981	101.19
343.209	94.19
343.437	105.19
343.665	82.19
343.893	92.19
344.12	99.19
344.348	94.19
344.576	93.19
344.804	111.19
345.031	106.19
345.259	104.19
345.487	112.19
345.714	105.19
345.942	99.19
346.17	97.19
346.397	99.19
346.625	97.19
346.853	100.19
347.08	87.19
347.308	89.19
347.535	126.19
347.763	116.19
347.99	105.19
348.218	117.19
348.445	134.19
348.673	116.19
348.9	102.19
349.128	102.19
349.355	94.19
349.583	95.19
349.81	89.19
350.037	101.19
350.265	97.19
350.492	82.19
350.72	102.19
350.947	114.19
351.174	121.19
351.402	141.19
351.629	108.19
351.856	113.19
352.083	105.19
352.311	107.19
352.538	132.19
352.765	110.19
352.992	138.19
353.22	127.19
353.447	114.19
353.674	108.19
353.901	103.19
354.128	98.19
354.355	99.19
354.583	103.19
354.81	91.19
355.037	104.19
355.264	98.19
355.491	86.19
355.718	90.19
355.945	95.19
356.172	97.19
356.399	103.19
356.626	90.19
356.853	85.19
357.08	82.19
357.307	99.19
357.534	85.19
357.761	93.19
357.988	93.19
358.215	107.19
358.441	102.19
358.668	102.19
358.895	91.19
359.122	106.19
359.349	97.19
359.576	113.19
359.802	110.19
360.029	146.19
360.256	138.19
360.483	126.19
360.709	97.19
360.936	81.19
361.163	111.19
361.39	126.19
361.616	107.19
361.843	97.19
362.07	120.19
362.296	101.19
362.523	77.19
362.749	92.19
362.976	91.19
363.203	103.19
363.429	83.19
363.656	108.19
363.882	105.19
364.109	104.19
364.335	100.19
364.562	95.19
364.788	101.19
365.015	103.19
365.241	103.19
365.468	120.19
365.694	117.19
365.92	108.19
366.147	107.19
366.373	79.19
366.599	88.19
366.826	98.19
367.052	89.19
367.278	97.19
367.505	93.19
367.731	91.19
367.957	97.19
368.184	100.19
368.41	112.19
368.636	114.19
368.862	136.19
369.089	109.19
369.315	108.19
369.541	107.19
369.767	114.19
369.993	93.19
370.219	100.19
370.445	85.19
370.672	92.19
370.898	81.19
371.124	93.19
371.35	96.19
371.576	95.19
371.802	85.19
372.028	90.19
372.254	90.19
372.48	82.19
372.706	75.19
372.932	99.19
373.158	98.19
373.384	102.19
373.61	104.19
373.835	108.19
374.061	100.19
374.287	93.19
374.513	102.19
374.739	82.19
374.965	104.19
375.191	84.19
375.416	89.19
375.642	91.19
375.868	96.19
376.094	85.19
376.319	83.19
376.545	100.19
376.771	93.19
376.997	94.19
377.222	91.19
377.448	81.19
377.674	103.19
377.899	93.19
378.125	81.19
378.35	83.19
378.576	81.19
378.802	93.19
379.027	109.19
379.253	97.19
379.478	104.19
379.704	112.19
379.929	101.19
380.155	91.19
380.38	95.19
380.606	89.19
380.831	92.19
381.057	104.19
381.282	96.19
381.507	91.19
381.733	96.19
381.958	105.19
382.184	100.19
382.409	105.19
382.634	109.19
382.86	98.19
383.085	110.19
383.31	106.19
383.535	93.19
383.761	95.19
383.986	97.19
384.211	105.19
384.436	107.19
384.662	108.19
384.887	97.19
385.112	114.19
385.337	100.19
385.562	111.19
385.787	117.19
386.013	133.19
386.238	130.19
386.463	106.19
386.688	114.19
386.913	123.19
387.138	115.19
387.363	103.19
387.588	103.19
387.813	84.19
388.038	115.19
388.263	125.19
388.488	120.19
388.713	104.19
388.938	88.19
389.163	89.19
389.387	99.19
389.612	97.19
389.837	86.19
390.062	88.19
390.287	97.19
390.512	85.19
390.736	95.19
390.961	82.19
391.186	84.19
391.411	96.19
391.636	94.19
391.86	79.19
392.085	92.19
392.31	93.19
392.534	82.19
392.759	90.19
392.984	89.19
393.208	86.19
393.433	93.19
393.658	85.19
393.882	82.19
394.107	94.19
394.331	96.19
394.556	73.19
394.78	100.19
395.005	96.19
395.229	86.19
395.454	83.19
395.678	80.19
395.903	83.19
396.127	82.19
396.352	91.19
396.576	90.19
396.801	80.19
397.025	81.19
397.249	93.19
397.474	88.19
397.698	83.19
397.922	85.19
398.147	95.19
398.371	86.19
398.595	91.19
398.82	97.19
399.044	82.19
399.268	99.19
399.492	95.19
399.717	90.19
399.941	86.19
400.165	105.19
400.389	101.19
400.613	91.19
400.837	102.19
401.062	97.19
401.286	80.19
401.51	100.19
401.734	94.19
401.958	106.19
402.182	161.19
402.406	215.19
402.63	143.19
402.854	108.19
403.078	98.19
403.302	97.19
403.526	88.19
403.75	106.19
403.974	95.19
404.198	90.19
404.422	104.19
404.645	92.19
404.869	117.19
405.093	141.19
405.317	175.19
405.541	154.19
405.765	120.19
405.988	126.19
406.212	208.19
406.436	306.19
406.66	205.19
406.883	141.19
407.107	120.19
407.331	111.19
407.555	103.19
407.778	108.19
408.002	93.19
408.226	112.19
408.449	93.19
408.673	96.19
408.896	103.19
409.12	101.19
409.344	85.19
409.567	97.19
409.791	87.19
410.014	94.19
410.238	107.19
410.461	97.19
410.685	101.19
410.908	102.19
411.132	109.19
411.355	111.19
411.578	109.19
411.802	100.19
412.025	98.19
412.249	99.19
412.472	129.19
412.695	162.19
412.919	117.19
413.142	108.19
413.365	109.19
413.589	86.19
413.812	102.19
414.035	113.19
414.258	109.19
414.482	104.19
414.705	100.19
414.928	98.19
415.151	105.19
415.374	98.19
415.597	90.19
415.821	86.19
416.044	107.19
416.267	109.19
416.49	91.19
416.713	97.19
416.936	93.19
417.159	95.19
417.382	106.19
417.605	134.19
417.828	151.19
418.051	109.19
418.274	89.19
418.497	85.19
418.72	90.19
418.943	96.19
419.166	103.19
419.389	101.19
419.611	106.19
419.834	113.19
420.057	83.19
420.28	106.19
420.503	111.19
420.726	99.19
420.948	90.19
421.171	108.19
421.394	105.19
421.617	96.19
421.839	81.19
422.062	79.19
422.285	86.19
422.507	117.19
422.73	115.19
422.953	83.19
423.175	92.19
423.398	82.19
423.621	81.19
423.843	99.19
424.066	86.19
424.288	96.19
424.511	96.19
424.733	103.19
424.956	116.19
425.178	106.19
425.401	109.19
425.623	117.19
425.846	87.19
426.068	113.19
426.291	99.19
426.513	98.19
426.735	97.19
426.958	115.19
427.18	121.19
427.402	181.19
427.625	279.19
427.847	270.19
428.069	218.19
428.292	155.19
428.514	111.19
428.736	92.19
428.958	84.19
429.181	99.19
429.403	96.19
429.625	102.19
429.847	95.19
430.069	122.19
430.292	104.19
430.514	90.19
430.736	82.19
430.958	96.19
431.18	77.19
431.402	85.19
431.624	89.19
431.846	91.19
432.068	88.19
432.29	94.19
432.512	99.19
432.734	95.19
432.956	100.19
433.178	107.19
433.4	110.19
433.622	102.19
433.844	92.19
434.066	78.19
434.287	102.19
434.509	99.19
434.731	83.19
434.953	92.19
435.175	89.19
435.397	99.19
435.618	93.19
435.84	108.19
436.062	133.19
436.284	121.19
436.505	106.19
436.727	98.19
436.949	110.19
437.17	113.19
437.392	93.19
437.614	100.19
437.835	122.19
438.057	154.19
438.278	118.19
438.5	123.19
438.721	131.19
438.943	125.19
439.165	87.19
439.386	88.19
439.608	101.19
439.829	112.19
440.05	161.19
440.272	181.19
440.493	113.19
440.715	80.19
440.936	96.19
441.158	88.19
441.379	89.19
441.6	110.19
441.822	105.19
442.043	98.19
442.264	114.19
442.486	108.19
442.707	94.19
442.928	134.19
443.149	176.19
443.371	176.19
443.592	123.19
443.813	124.19
444.034	113.19
444.255	97.19
444.476	86.19
444.698	85.19
444.919	90.19
445.14	128.19
445.361	147.19
445.582	135.19
445.803	188.19
446.024	169.19
446.245	166.19
446.466	151.19
446.687	92.19
446.908	89.19
447.129	85.19
447.35	91.19
447.571	95.19
447.792	101.19
448.013	115.19
448.234	118.19
448.455	116.19
448.675	134.19
448.896	129.19
449.117	103.19
449.338	101.19
449.559	141.19
449.779	142.19
450	102.19
450.221	96.19
450.442	114.19
450.662	112.19
450.883	129.19
451.104	143.19
451.324	109.19
451.545	94.19
451.766	96.19
451.986	89.19
452.207	90.19
452.428	104.19
452.648	118.19
452.869	134.19
453.089	148.19
453.31	158.19
453.53	97.19
453.751	115.19
453.971	120.19
454.192	141.19
454.412	121.19
454.633	88.19
454.853	87.19
455.073	85.19
455.294	103.19
455.514	107.19
455.734	83.19
455.955	105.19
456.175	80.19
456.395	101.19
456.616	97.19
456.836	99.19
457.056	82.19
457.276	84.19
457.497	90.19
457.717	91.19
457.937	118.19
458.157	99.19
458.377	99.19
458.598	131.19
458.818	216.19
459.038	222.19
459.258	169.19
459.478	107.19
459.698	99.19
459.918	93.19
460.138	87.19
460.358	93.19
460.578	100.19
460.798	99.19
461.018	96.19
461.238	86.19
461.458	91.19
461.678	96.19
461.898	79.19
462.118	93.19
462.338	81.19
462.558	86.19
462.777	87.19
462.997	104.19
463.217	134.19
463.437	112.19
463.657	102.19
463.876	100.19
464.096	96.19
464.316	106.19
464.536	107.19
464.755	94.19
464.975	132.19
465.195	256.19
465.414	232.19
465.634	92.19
465.854	109.19
466.073	99.19
466.293	105.19
466.512	97.19
466.732	91.19
466.951	107.19
467.171	113.19
467.391	124.19
467.61	196.19
467.829	377.19
468.049	1314.19
468.268	2039.19
468.488	419.19
468.707	151.19
468.927	121.19
469.146	103.19
469.365	113.19
469.585	108.19
469.804	113.19
470.023	116.19
470.243	124.19
470.462	132.19
470.681	162.19
470.901	128.19
471.12	114.19
471.339	126.19
471.558	152.19
471.777	239.19
471.997	541.19
472.216	2326.19
472.435	5513.19
472.654	1143.19
472.873	257.19
473.092	135.19
473.311	117.19
473.53	117.19
473.749	109.19
473.968	110.19
474.187	119.19
474.406	113.19
474.625	93.19
474.844	94.19
475.063	110.19
475.282	90.19
475.501	93.19
475.72	102.19
475.939	97.19
476.158	89.19
476.377	99.19
476.596	96.19
476.814	105.19
477.033	121.19
477.252	87.19
477.471	101.19
477.69	106.19
477.908	95.19
478.127	119.19
478.346	110.19
478.564	123.19
478.783	111.19
479.002	142.19
479.22	133.19
479.439	142.19
479.658	157.19
479.876	166.19
480.095	152.19
480.313	175.19
480.532	255.19
480.751	490.19
480.969	1993.19
481.188	8826.19
481.406	4909.19
481.624	615.19
481.843	195.19
482.061	134.19
482.28	115.19
482.498	109.19
482.717	103.19
482.935	105.19
483.153	118.19
483.372	109.19
483.59	98.19
483.808	97.19
484.027	102.19
484.245	96.19
484.463	117.19
484.681	99.19
484.9	99.19
485.118	116.19
485.336	95.19
485.554	93.19
485.772	114.19
485.99	118.19
486.209	111.19
486.427	105.19
486.645	125.19
486.863	133.19
487.081	101.19
487.299	107.19
487.517	95.19
487.735	98.19
487.953	102.19
488.171	88.19
488.389	98.19
488.607	110.19
488.825	97.19
489.043	109.19
489.261	94.19
489.479	91.19
489.696	84.19
489.914	88.19
490.132	90.19
490.35	96.19
490.568	91.19
490.786	110.19
491.003	84.19
491.221	114.19
491.439	118.19
491.657	100.19
491.874	106.19
492.092	93.19
492.31	107.19
492.527	114.19
492.745	121.19
492.963	108.19
493.18	101.19
493.398	94.19
493.615	112.19
493.833	100.19
494.05	102.19
494.268	106.19
494.485	104.19
494.703	98.19
494.92	101.19
495.138	104.19
495.355	89.19
495.573	102.19
495.79	105.19
496.008	99.19
496.225	94.19
496.442	92.19
496.66	87.19
496.877	86.19
497.094	89.19
497.312	85.19
497.529	106.19
497.746	100.19
497.963	77.19
498.181	98.19
498.398	107.19
498.615	124.19
498.832	105.19
499.049	91.19
499.267	93.19
499.484	94.19
499.701	78.19
499.918	83.19
500.135	109.19
500.352	89.19
500.569	116.19
500.786	112.19
501.003	98.19
501.22	89.19
501.437	101.19
501.654	114.19
501.871	135.19
502.088	98.19
502.305	99.19
502.522	91.19
502.739	92.19
502.956	105.19
503.172	95.19
503.389	104.19
503.606	147.19
503.823	110.19
504.04	119.19
504.256	99.19
504.473	87.19
504.69	102.19
504.907	95.19
505.123	92.19
505.34	94.19
505.557	101.19
505.773	91.19
505.99	101.19
506.207	88.19
506.423	98.19
506.64	101.19
506.856	88.19
507.073	97.19
507.289	97.19
507.506	99.19
507.722	137.19
507.939	145.19
508.155	112.19
508.372	83.19
508.588	97.19
508.805	100.19
509.021	104.19
509.238	108.19
509.454	109.19
509.67	102.19
509.887	123.19
510.103	158.19
510.319	250.19
510.536	934.19
