Data from Circ_1988_H10_HRD10591_00088.txt Node
Date: Wed Jan 03 12:05:52 EST 2024
User: Yrep
Spectrometer: HR+D1059
Trigger mode: 1
Integration Time (sec): 1.000000E-1
Scans to average: 1
Electric dark correction enabled: true
Nonlinearity correction enabled: false
Boxcar width: 0
XAxis mode: Wavelengths
Number of Pixels in Spectrum: 2048
>>>>>Begin Spectral Data<<<<<
223.165	-8.56
223.4	-8.56
223.635	-8.56
223.869	-25.56
224.104	-17.56
224.338	-17.56
224.573	-22.56
224.808	-17.56
225.042	-10.56
225.277	0.44
225.511	5.44
225.746	-5.56
225.98	16.44
226.215	12.44
226.449	14.44
226.683	15.44
226.918	13.44
227.152	47.44
227.387	33.44
227.621	30.44
227.856	38.44
228.09	43.44
228.324	53.44
228.559	50.44
228.793	57.44
229.027	67.44
229.262	65.44
229.496	86.44
229.73	114.44
229.964	87.44
230.199	83.44
230.433	76.44
230.667	82.44
230.901	80.44
231.136	78.44
231.37	84.44
231.604	86.44
231.838	84.44
232.072	75.44
232.306	75.44
232.541	73.44
232.775	85.44
233.009	87.44
233.243	83.44
233.477	77.44
233.711	87.44
233.945	80.44
234.179	75.44
234.413	96.44
234.647	71.44
234.881	82.44
235.115	86.44
235.349	93.44
235.583	85.44
235.817	89.44
236.051	83.44
236.285	60.44
236.519	83.44
236.753	69.44
236.987	77.44
237.221	92.44
237.455	84.44
237.689	79.44
237.922	79.44
238.156	73.44
238.39	77.44
238.624	83.44
238.858	76.44
239.091	67.44
239.325	73.44
239.559	77.44
239.793	73.44
240.027	78.44
240.26	81.44
240.494	72.44
240.728	83.44
240.961	77.44
241.195	80.44
241.429	84.44
241.662	78.44
241.896	81.44
242.13	88.44
242.363	81.44
242.597	70.44
242.83	60.44
243.064	53.44
243.298	82.44
243.531	85.44
243.765	83.44
243.998	80.44
244.232	82.44
244.465	87.44
244.699	73.44
244.932	67.44
245.166	70.44
245.399	80.44
245.633	77.44
245.866	77.44
246.099	80.44
246.333	96.44
246.566	91.44
246.8	76.44
247.033	82.44
247.266	82.44
247.5	72.44
247.733	78.44
247.966	72.44
248.2	87.44
248.433	104.44
248.666	86.44
248.899	83.44
249.133	72.44
249.366	99.44
249.599	112.44
249.832	86.44
250.066	88.44
250.299	84.44
250.532	86.44
250.765	98.44
250.998	89.44
251.231	76.44
251.465	93.44
251.698	83.44
251.931	80.44
252.164	85.44
252.397	81.44
252.63	72.44
252.863	94.44
253.096	72.44
253.329	98.44
253.562	69.44
253.795	95.44
254.028	93.44
254.261	93.44
254.494	83.44
254.727	77.44
254.96	76.44
255.193	77.44
255.426	93.44
255.659	94.44
255.892	96.44
256.124	109.44
256.357	96.44
256.59	88.44
256.823	97.44
257.056	80.44
257.289	92.44
257.521	89.44
257.754	79.44
257.987	77.44
258.22	98.44
258.452	109.44
258.685	115.44
258.918	81.44
259.151	89.44
259.383	88.44
259.616	93.44
259.849	84.44
260.081	93.44
260.314	83.44
260.547	97.44
260.779	100.44
261.012	128.44
261.244	119.44
261.477	90.44
261.71	108.44
261.942	130.44
262.175	129.44
262.407	103.44
262.64	110.44
262.872	89.44
263.105	82.44
263.337	86.44
263.57	81.44
263.802	89.44
264.035	71.44
264.267	83.44
264.499	81.44
264.732	89.44
264.964	89.44
265.197	84.44
265.429	78.44
265.661	86.44
265.894	79.44
266.126	76.44
266.358	83.44
266.591	86.44
266.823	87.44
267.055	94.44
267.287	85.44
267.52	63.44
267.752	81.44
267.984	81.44
268.216	88.44
268.448	100.44
268.681	97.44
268.913	101.44
269.145	79.44
269.377	70.44
269.609	86.44
269.841	92.44
270.073	83.44
270.306	81.44
270.538	81.44
270.77	96.44
271.002	78.44
271.234	99.44
271.466	98.44
271.698	89.44
271.93	100.44
272.162	93.44
272.394	83.44
272.626	91.44
272.858	84.44
273.09	66.44
273.322	76.44
273.553	83.44
273.785	88.44
274.017	101.44
274.249	93.44
274.481	88.44
274.713	89.44
274.945	95.44
275.176	92.44
275.408	107.44
275.64	121.44
275.872	155.44
276.104	135.44
276.335	104.44
276.567	131.44
276.799	159.44
277.031	234.44
277.262	313.44
277.494	213.44
277.726	113.44
277.957	93.44
278.189	97.44
278.421	103.44
278.652	92.44
278.884	104.44
279.115	85.44
279.347	103.44
279.579	126.44
279.81	190.44
280.042	319.44
280.273	473.44
280.505	282.44
280.736	136.44
280.968	106.44
281.199	103.44
281.431	88.44
281.662	92.44
281.894	85.44
282.125	96.44
282.356	118.44
282.588	174.44
282.819	118.44
283.051	87.44
283.282	95.44
283.513	82.44
283.745	90.44
283.976	77.44
284.207	84.44
284.439	85.44
284.67	80.44
284.901	96.44
285.132	92.44
285.364	91.44
285.595	77.44
285.826	79.44
286.057	89.44
286.288	77.44
286.52	95.44
286.751	81.44
286.982	98.44
287.213	77.44
287.444	80.44
287.675	93.44
287.906	79.44
288.138	90.44
288.369	94.44
288.6	77.44
288.831	88.44
289.062	92.44
289.293	83.44
289.524	106.44
289.755	86.44
289.986	99.44
290.217	75.44
290.448	90.44
290.679	87.44
290.91	91.44
291.141	80.44
291.371	97.44
291.602	93.44
291.833	92.44
292.064	74.44
292.295	89.44
292.526	87.44
292.757	92.44
292.987	95.44
293.218	91.44
293.449	84.44
293.68	83.44
293.91	95.44
294.141	89.44
294.372	99.44
294.603	87.44
294.833	91.44
295.064	88.44
295.295	95.44
295.525	96.44
295.756	90.44
295.987	115.44
296.217	170.44
296.448	139.44
296.679	96.44
296.909	101.44
297.14	77.44
297.37	94.44
297.601	91.44
297.831	89.44
298.062	89.44
298.292	95.44
298.523	93.44
298.753	90.44
298.984	91.44
299.214	88.44
299.445	96.44
299.675	91.44
299.905	112.44
300.136	102.44
300.366	86.44
300.597	104.44
300.827	91.44
301.057	98.44
301.288	119.44
301.518	100.44
301.748	110.44
301.979	126.44
302.209	114.44
302.439	93.44
302.669	89.44
302.9	86.44
303.13	94.44
303.36	109.44
303.59	170.44
303.82	166.44
304.051	113.44
304.281	101.44
304.511	98.44
304.741	94.44
304.971	78.44
305.201	87.44
305.431	86.44
305.661	97.44
305.891	99.44
306.121	100.44
306.352	117.44
306.582	118.44
306.812	128.44
307.042	167.44
307.272	227.44
307.502	276.44
307.731	239.44
307.961	164.44
308.191	97.44
308.421	107.44
308.651	107.44
308.881	93.44
309.111	102.44
309.341	90.44
309.571	108.44
309.8	115.44
310.03	102.44
310.26	100.44
310.49	99.44
310.72	119.44
310.949	112.44
311.179	111.44
311.409	90.44
311.639	103.44
311.868	85.44
312.098	97.44
312.328	91.44
312.557	123.44
312.787	119.44
313.017	113.44
313.246	94.44
313.476	86.44
313.706	88.44
313.935	95.44
314.165	105.44
314.394	107.44
314.624	114.44
314.853	111.44
315.083	111.44
315.312	84.44
315.542	89.44
315.771	91.44
316.001	103.44
316.23	98.44
316.46	86.44
316.689	102.44
316.919	96.44
317.148	108.44
317.377	116.44
317.607	84.44
317.836	81.44
318.065	95.44
318.295	83.44
318.524	89.44
318.753	101.44
318.983	112.44
319.212	93.44
319.441	107.44
319.67	116.44
319.9	101.44
320.129	105.44
320.358	96.44
320.587	103.44
320.816	104.44
321.046	101.44
321.275	96.44
321.504	102.44
321.733	96.44
321.962	102.44
322.191	117.44
322.42	104.44
322.649	104.44
322.878	132.44
323.108	119.44
323.337	133.44
323.566	155.44
323.795	164.44
324.024	212.44
324.253	364.44
324.482	765.44
324.71	1530.44
324.939	2031.44
325.168	787.44
325.397	265.44
325.626	156.44
325.855	152.44
326.084	136.44
326.313	143.44
326.542	157.44
326.77	222.44
326.999	401.44
327.228	767.44
327.457	1410.44
327.686	1221.44
327.914	589.44
328.143	796.44
328.372	1120.44
328.6	590.44
328.829	245.44
329.058	206.44
329.287	229.44
329.515	209.44
329.744	375.44
329.972	791.44
330.201	1738.44
330.43	2641.44
330.658	1071.44
330.887	360.44
331.115	203.44
331.344	147.44
331.572	124.44
331.801	131.44
332.03	139.44
332.258	120.44
332.486	97.44
332.715	120.44
332.943	127.44
333.172	129.44
333.4	162.44
333.629	203.44
333.857	307.44
334.085	657.44
334.314	1521.44
334.542	3158.44
334.771	3034.44
334.999	705.44
335.227	247.44
335.455	167.44
335.684	145.44
335.912	127.44
336.14	129.44
336.369	125.44
336.597	124.44
336.825	109.44
337.053	100.44
337.281	92.44
337.51	104.44
337.738	123.44
337.966	109.44
338.194	108.44
338.422	101.44
338.65	115.44
338.878	87.44
339.106	89.44
339.334	102.44
339.562	86.44
339.79	90.44
340.018	89.44
340.246	96.44
340.474	102.44
340.702	101.44
340.93	83.44
341.158	97.44
341.386	107.44
341.614	110.44
341.842	97.44
342.07	101.44
342.298	95.44
342.526	88.44
342.754	87.44
342.981	72.44
343.209	91.44
343.437	93.44
343.665	97.44
343.893	97.44
344.12	97.44
344.348	94.44
344.576	98.44
344.804	100.44
345.031	93.44
345.259	109.44
345.487	100.44
345.714	103.44
345.942	97.44
346.17	88.44
346.397	95.44
346.625	98.44
346.853	97.44
347.08	92.44
347.308	98.44
347.535	88.44
347.763	97.44
347.99	95.44
348.218	103.44
348.445	117.44
348.673	105.44
348.9	99.44
349.128	99.44
349.355	99.44
349.583	108.44
349.81	86.44
350.037	88.44
350.265	93.44
350.492	94.44
350.72	103.44
350.947	92.44
351.174	101.44
351.402	102.44
351.629	104.44
351.856	98.44
352.083	113.44
352.311	111.44
352.538	119.44
352.765	106.44
352.992	109.44
353.22	116.44
353.447	111.44
353.674	99.44
353.901	77.44
354.128	77.44
354.355	98.44
354.583	92.44
354.81	93.44
355.037	96.44
355.264	91.44
355.491	74.44
355.718	92.44
355.945	96.44
356.172	88.44
356.399	79.44
356.626	93.44
356.853	96.44
357.08	112.44
357.307	88.44
357.534	83.44
357.761	94.44
357.988	85.44
358.215	104.44
358.441	96.44
358.668	95.44
358.895	98.44
359.122	91.44
359.349	87.44
359.576	81.44
359.802	112.44
360.029	136.44
360.256	128.44
360.483	102.44
360.709	86.44
360.936	97.44
361.163	95.44
361.39	104.44
361.616	97.44
361.843	83.44
362.07	90.44
362.296	109.44
362.523	90.44
362.749	87.44
362.976	95.44
363.203	93.44
363.429	90.44
363.656	104.44
363.882	101.44
364.109	92.44
364.335	85.44
364.562	94.44
364.788	112.44
365.015	92.44
365.241	102.44
365.468	120.44
365.694	100.44
365.92	94.44
366.147	98.44
366.373	88.44
366.599	86.44
366.826	88.44
367.052	78.44
367.278	94.44
367.505	97.44
367.731	94.44
367.957	102.44
368.184	99.44
368.41	108.44
368.636	124.44
368.862	119.44
369.089	122.44
369.315	111.44
369.541	91.44
369.767	99.44
369.993	102.44
370.219	101.44
370.445	75.44
370.672	85.44
370.898	92.44
371.124	84.44
371.35	97.44
371.576	95.44
371.802	96.44
372.028	83.44
372.254	77.44
372.48	104.44
372.706	103.44
372.932	105.44
373.158	97.44
373.384	100.44
373.61	104.44
373.835	86.44
374.061	77.44
374.287	99.44
374.513	91.44
374.739	90.44
374.965	100.44
375.191	96.44
375.416	88.44
375.642	83.44
375.868	73.44
376.094	91.44
376.319	70.44
376.545	95.44
376.771	89.44
376.997	98.44
377.222	100.44
377.448	92.44
377.674	83.44
377.899	91.44
378.125	104.44
378.35	86.44
378.576	85.44
378.802	97.44
379.027	99.44
379.253	79.44
379.478	75.44
379.704	84.44
379.929	92.44
380.155	75.44
380.38	88.44
380.606	102.44
380.831	87.44
381.057	98.44
381.282	109.44
381.507	104.44
381.733	92.44
381.958	98.44
382.184	95.44
382.409	115.44
382.634	98.44
382.86	93.44
383.085	104.44
383.31	113.44
383.535	95.44
383.761	103.44
383.986	112.44
384.211	91.44
384.436	103.44
384.662	88.44
384.887	110.44
385.112	103.44
385.337	116.44
385.562	99.44
385.787	115.44
386.013	106.44
386.238	131.44
386.463	114.44
386.688	105.44
386.913	106.44
387.138	113.44
387.363	99.44
387.588	105.44
387.813	99.44
388.038	102.44
388.263	114.44
388.488	112.44
388.713	93.44
388.938	86.44
389.163	101.44
389.387	84.44
389.612	97.44
389.837	94.44
390.062	80.44
390.287	90.44
390.512	79.44
390.736	97.44
390.961	73.44
391.186	91.44
391.411	92.44
391.636	94.44
391.86	90.44
392.085	91.44
392.31	96.44
392.534	102.44
392.759	100.44
392.984	93.44
393.208	97.44
393.433	93.44
393.658	83.44
393.882	76.44
394.107	90.44
394.331	88.44
394.556	100.44
394.78	89.44
395.005	96.44
395.229	87.44
395.454	86.44
395.678	94.44
395.903	104.44
396.127	86.44
396.352	83.44
396.576	87.44
396.801	83.44
397.025	84.44
397.249	79.44
397.474	88.44
397.698	78.44
397.922	87.44
398.147	90.44
398.371	91.44
398.595	82.44
398.82	81.44
399.044	79.44
399.268	79.44
399.492	84.44
399.717	79.44
399.941	91.44
400.165	86.44
400.389	100.44
400.613	87.44
400.837	75.44
401.062	86.44
401.286	92.44
401.51	105.44
401.734	85.44
401.958	109.44
402.182	141.44
402.406	184.44
402.63	132.44
402.854	108.44
403.078	91.44
403.302	79.44
403.526	86.44
403.75	83.44
403.974	83.44
404.198	105.44
404.422	106.44
404.645	107.44
404.869	113.44
405.093	116.44
405.317	136.44
405.541	156.44
405.765	116.44
405.988	141.44
406.212	211.44
406.436	278.44
406.66	198.44
406.883	125.44
407.107	96.44
407.331	107.44
407.555	114.44
407.778	107.44
408.002	105.44
408.226	87.44
408.449	96.44
408.673	93.44
408.896	98.44
409.12	91.44
409.344	88.44
409.567	92.44
409.791	86.44
410.014	79.44
410.238	96.44
410.461	109.44
410.685	84.44
410.908	96.44
411.132	107.44
411.355	98.44
411.578	105.44
411.802	109.44
412.025	102.44
412.249	123.44
412.472	117.44
412.695	167.44
412.919	115.44
413.142	100.44
413.365	109.44
413.589	83.44
413.812	85.44
414.035	92.44
414.258	98.44
414.482	88.44
414.705	94.44
414.928	78.44
415.151	88.44
415.374	90.44
415.597	83.44
415.821	89.44
416.044	88.44
416.267	95.44
416.49	93.44
416.713	92.44
416.936	87.44
417.159	86.44
417.382	118.44
417.605	116.44
417.828	127.44
418.051	100.44
418.274	80.44
418.497	108.44
418.72	92.44
418.943	88.44
419.166	108.44
419.389	79.44
419.611	93.44
419.834	87.44
420.057	93.44
420.28	93.44
420.503	102.44
420.726	75.44
420.948	100.44
421.171	102.44
421.394	99.44
421.617	85.44
421.839	88.44
422.062	100.44
422.285	88.44
422.507	102.44
422.73	107.44
422.953	98.44
423.175	93.44
423.398	73.44
423.621	86.44
423.843	85.44
424.066	84.44
424.288	101.44
424.511	96.44
424.733	119.44
424.956	112.44
425.178	109.44
425.401	104.44
425.623	100.44
425.846	104.44
426.068	102.44
426.291	99.44
426.513	87.44
426.735	100.44
426.958	95.44
427.18	97.44
427.402	160.44
427.625	246.44
427.847	226.44
428.069	208.44
428.292	158.44
428.514	105.44
428.736	84.44
428.958	86.44
429.181	89.44
429.403	83.44
429.625	95.44
429.847	95.44
430.069	117.44
430.292	104.44
430.514	91.44
430.736	83.44
430.958	90.44
431.18	96.44
431.402	87.44
431.624	69.44
431.846	81.44
432.068	85.44
432.29	95.44
432.512	88.44
432.734	79.44
432.956	94.44
433.178	83.44
433.4	79.44
433.622	108.44
433.844	91.44
434.066	107.44
434.287	81.44
434.509	93.44
434.731	83.44
434.953	103.44
435.175	89.44
435.397	96.44
435.618	89.44
435.84	92.44
436.062	118.44
436.284	125.44
436.505	93.44
436.727	95.44
436.949	83.44
437.17	96.44
437.392	94.44
437.614	103.44
437.835	121.44
438.057	133.44
438.278	132.44
438.5	105.44
438.721	132.44
438.943	102.44
439.165	93.44
439.386	90.44
439.608	100.44
439.829	104.44
440.05	143.44
440.272	165.44
440.493	107.44
440.715	89.44
440.936	81.44
441.158	89.44
441.379	93.44
441.6	104.44
441.822	95.44
442.043	103.44
442.264	118.44
442.486	114.44
442.707	95.44
442.928	92.44
443.149	147.44
443.371	155.44
443.592	129.44
443.813	110.44
444.034	121.44
444.255	102.44
444.476	88.44
444.698	83.44
444.919	104.44
445.14	123.44
445.361	132.44
445.582	128.44
445.803	184.44
446.024	168.44
446.245	153.44
446.466	109.44
446.687	95.44
446.908	101.44
447.129	86.44
447.35	104.44
447.571	96.44
447.792	105.44
448.013	106.44
448.234	126.44
448.455	117.44
448.675	122.44
448.896	135.44
449.117	112.44
449.338	123.44
449.559	135.44
449.779	146.44
450	120.44
450.221	88.44
450.442	88.44
450.662	100.44
450.883	126.44
451.104	128.44
451.324	110.44
451.545	92.44
451.766	82.44
451.986	91.44
452.207	88.44
452.428	101.44
452.648	95.44
452.869	130.44
453.089	128.44
453.31	121.44
453.53	103.44
453.751	104.44
453.971	104.44
454.192	144.44
454.412	100.44
454.633	91.44
454.853	91.44
455.073	85.44
455.294	107.44
455.514	117.44
455.734	96.44
455.955	96.44
456.175	92.44
456.395	79.44
456.616	87.44
456.836	86.44
457.056	83.44
457.276	82.44
457.497	94.44
457.717	99.44
457.937	83.44
458.157	84.44
458.377	108.44
458.598	116.44
458.818	197.44
459.038	215.44
459.258	152.44
459.478	112.44
459.698	92.44
459.918	91.44
460.138	80.44
460.358	86.44
460.578	89.44
460.798	83.44
461.018	103.44
461.238	83.44
461.458	96.44
461.678	96.44
461.898	80.44
462.118	102.44
462.338	89.44
462.558	93.44
462.777	92.44
462.997	104.44
463.217	133.44
463.437	111.44
463.657	87.44
463.876	89.44
464.096	90.44
464.316	89.44
464.536	103.44
464.755	108.44
464.975	120.44
465.195	222.44
465.414	228.44
465.634	115.44
465.854	110.44
466.073	100.44
466.293	104.44
466.512	98.44
466.732	101.44
466.951	104.44
467.171	111.44
467.391	135.44
467.61	171.44
467.829	339.44
468.049	1135.44
468.268	1799.44
468.488	374.44
468.707	147.44
468.927	101.44
469.146	101.44
469.365	110.44
469.585	107.44
469.804	133.44
470.023	114.44
470.243	129.44
470.462	128.44
470.681	142.44
470.901	119.44
471.12	118.44
471.339	111.44
471.558	139.44
471.777	203.44
471.997	512.44
472.216	2050.44
472.435	4979.44
472.654	1039.44
472.873	239.44
473.092	135.44
473.311	116.44
473.53	98.44
473.749	108.44
473.968	108.44
474.187	117.44
474.406	107.44
474.625	98.44
474.844	112.44
475.063	96.44
475.282	105.44
475.501	90.44
475.72	96.44
475.939	86.44
476.158	93.44
476.377	93.44
476.596	114.44
476.814	109.44
477.033	105.44
477.252	104.44
477.471	98.44
477.69	108.44
477.908	91.44
478.127	100.44
478.346	96.44
478.564	104.44
478.783	125.44
479.002	108.44
479.22	106.44
479.439	138.44
479.658	149.44
479.876	143.44
480.095	120.44
480.313	177.44
480.532	226.44
480.751	469.44
480.969	1736.44
481.188	8027.44
481.406	4539.44
481.624	580.44
481.843	193.44
482.061	132.44
482.28	115.44
482.498	100.44
482.717	109.44
482.935	95.44
483.153	92.44
483.372	100.44
483.59	96.44
483.808	90.44
484.027	107.44
484.245	96.44
484.463	104.44
484.681	105.44
484.9	104.44
485.118	88.44
485.336	106.44
485.554	102.44
485.772	102.44
485.99	114.44
486.209	120.44
486.427	126.44
486.645	141.44
486.863	141.44
487.081	122.44
487.299	102.44
487.517	98.44
487.735	100.44
487.953	109.44
488.171	112.44
488.389	114.44
488.607	125.44
488.825	98.44
489.043	72.44
489.261	100.44
489.479	101.44
489.696	94.44
489.914	95.44
490.132	90.44
490.35	91.44
490.568	96.44
490.786	104.44
491.003	95.44
491.221	93.44
491.439	108.44
491.657	91.44
491.874	95.44
492.092	91.44
492.31	105.44
492.527	118.44
492.745	124.44
492.963	91.44
493.18	78.44
493.398	98.44
493.615	100.44
493.833	95.44
494.05	85.44
494.268	85.44
494.485	101.44
494.703	97.44
494.92	89.44
495.138	88.44
495.355	103.44
495.573	91.44
495.79	85.44
496.008	81.44
496.225	94.44
496.442	101.44
496.66	95.44
496.877	94.44
497.094	82.44
497.312	87.44
497.529	91.44
497.746	102.44
497.963	115.44
498.181	94.44
498.398	86.44
498.615	103.44
498.832	105.44
499.049	102.44
499.267	91.44
499.484	82.44
499.701	89.44
499.918	102.44
500.135	99.44
500.352	97.44
500.569	105.44
500.786	104.44
501.003	90.44
501.22	93.44
501.437	87.44
501.654	95.44
501.871	119.44
502.088	89.44
502.305	88.44
502.522	98.44
502.739	83.44
502.956	102.44
503.172	97.44
503.389	107.44
503.606	124.44
503.823	110.44
504.04	97.44
504.256	93.44
504.473	89.44
504.69	76.44
504.907	97.44
505.123	98.44
505.34	90.44
505.557	95.44
505.773	100.44
505.99	81.44
506.207	92.44
506.423	87.44
506.64	101.44
506.856	102.44
507.073	87.44
507.289	104.44
507.506	97.44
507.722	126.44
507.939	117.44
508.155	94.44
508.372	107.44
508.588	97.44
508.805	95.44
509.021	108.44
509.238	98.44
509.454	111.44
509.67	109.44
509.887	115.44
510.103	137.44
510.319	229.44
510.536	948.44
510.752	3283.44
510.968	894.44
511.184	200.44
511.401	128.44
511.617	112.44
511.833	109.44
512.049	114.44
512.265	98.44
