Data from Circ_1988_H10_HRD10591_00045.txt Node
Date: Wed Jan 03 12:05:43 EST 2024
User: Yrep
Spectrometer: HR+D1059
Trigger mode: 1
Integration Time (sec): 1.000000E-1
Scans to average: 1
Electric dark correction enabled: true
Nonlinearity correction enabled: false
Boxcar width: 0
XAxis mode: Wavelengths
Number of Pixels in Spectrum: 2048
>>>>>Begin Spectral Data<<<<<
223.165	-9.38
223.4	-9.38
223.635	-9.38
223.869	-11.38
224.104	-23.38
224.338	-23.38
224.573	-16.38
224.808	-4.38
225.042	-3.38
225.277	1.62
225.511	-9.38
225.746	1.62
225.98	10.62
226.215	17.62
226.449	5.62
226.683	13.62
226.918	21.62
227.152	28.62
227.387	38.62
227.621	40.62
227.856	32.62
228.09	60.62
228.324	55.62
228.559	78.62
228.793	75.62
229.027	74.62
229.262	84.62
229.496	90.62
229.73	104.62
229.964	91.62
230.199	75.62
230.433	91.62
230.667	90.62
230.901	83.62
231.136	76.62
231.37	78.62
231.604	66.62
231.838	79.62
232.072	76.62
232.306	90.62
232.541	91.62
232.775	98.62
233.009	95.62
233.243	98.62
233.477	83.62
233.711	81.62
233.945	80.62
234.179	73.62
234.413	69.62
234.647	81.62
234.881	78.62
235.115	103.62
235.349	83.62
235.583	72.62
235.817	67.62
236.051	90.62
236.285	88.62
236.519	84.62
236.753	84.62
236.987	82.62
237.221	86.62
237.455	94.62
237.689	86.62
237.922	78.62
238.156	92.62
238.39	79.62
238.624	84.62
238.858	79.62
239.091	94.62
239.325	81.62
239.559	107.62
239.793	92.62
240.027	86.62
240.26	94.62
240.494	90.62
240.728	89.62
240.961	69.62
241.195	92.62
241.429	72.62
241.662	93.62
241.896	88.62
242.13	87.62
242.363	90.62
242.597	70.62
242.83	83.62
243.064	84.62
243.298	86.62
243.531	82.62
243.765	87.62
243.998	82.62
244.232	87.62
244.465	88.62
244.699	99.62
244.932	80.62
245.166	81.62
245.399	80.62
245.633	86.62
245.866	84.62
246.099	82.62
246.333	81.62
246.566	87.62
246.8	106.62
247.033	85.62
247.266	88.62
247.5	82.62
247.733	87.62
247.966	95.62
248.2	86.62
248.433	78.62
248.666	91.62
248.899	92.62
249.133	96.62
249.366	112.62
249.599	115.62
249.832	97.62
250.066	82.62
250.299	104.62
250.532	118.62
250.765	97.62
250.998	101.62
251.231	90.62
251.465	80.62
251.698	91.62
251.931	96.62
252.164	89.62
252.397	92.62
252.63	75.62
252.863	92.62
253.096	90.62
253.329	96.62
253.562	79.62
253.795	74.62
254.028	89.62
254.261	75.62
254.494	87.62
254.727	92.62
254.96	85.62
255.193	82.62
255.426	87.62
255.659	98.62
255.892	124.62
256.124	117.62
256.357	101.62
256.59	87.62
256.823	95.62
257.056	89.62
257.289	104.62
257.521	104.62
257.754	103.62
257.987	91.62
258.22	119.62
258.452	124.62
258.685	125.62
258.918	95.62
259.151	87.62
259.383	91.62
259.616	82.62
259.849	97.62
260.081	92.62
260.314	101.62
260.547	96.62
260.779	136.62
261.012	161.62
261.244	144.62
261.477	113.62
261.71	117.62
261.942	139.62
262.175	165.62
262.407	108.62
262.64	86.62
262.872	87.62
263.105	81.62
263.337	83.62
263.57	81.62
263.802	101.62
264.035	82.62
264.267	92.62
264.499	87.62
264.732	80.62
264.964	91.62
265.197	80.62
265.429	97.62
265.661	92.62
265.894	79.62
266.126	74.62
266.358	91.62
266.591	82.62
266.823	81.62
267.055	96.62
267.287	98.62
267.52	83.62
267.752	86.62
267.984	88.62
268.216	81.62
268.448	102.62
268.681	108.62
268.913	99.62
269.145	86.62
269.377	86.62
269.609	78.62
269.841	90.62
270.073	89.62
270.306	83.62
270.538	89.62
270.77	80.62
271.002	93.62
271.234	107.62
271.466	84.62
271.698	104.62
271.93	94.62
272.162	94.62
272.394	92.62
272.626	75.62
272.858	99.62
273.09	87.62
273.322	89.62
273.553	94.62
273.785	95.62
274.017	95.62
274.249	90.62
274.481	84.62
274.713	92.62
274.945	105.62
275.176	103.62
275.408	125.62
275.64	172.62
275.872	180.62
276.104	155.62
276.335	135.62
276.567	141.62
276.799	214.62
277.031	279.62
277.262	406.62
277.494	274.62
277.726	142.62
277.957	107.62
278.189	96.62
278.421	96.62
278.652	105.62
278.884	101.62
279.115	108.62
279.347	123.62
279.579	141.62
279.81	220.62
280.042	401.62
280.273	599.62
280.505	375.62
280.736	142.62
280.968	107.62
281.199	110.62
281.431	92.62
281.662	98.62
281.894	85.62
282.125	104.62
282.356	153.62
282.588	191.62
282.819	137.62
283.051	91.62
283.282	101.62
283.513	92.62
283.745	86.62
283.976	77.62
284.207	90.62
284.439	82.62
284.67	83.62
284.901	80.62
285.132	92.62
285.364	95.62
285.595	86.62
285.826	95.62
286.057	88.62
286.288	86.62
286.52	106.62
286.751	98.62
286.982	73.62
287.213	86.62
287.444	100.62
287.675	91.62
287.906	93.62
288.138	74.62
288.369	105.62
288.6	88.62
288.831	89.62
289.062	78.62
289.293	90.62
289.524	75.62
289.755	97.62
289.986	95.62
290.217	87.62
290.448	96.62
290.679	87.62
290.91	90.62
291.141	89.62
291.371	93.62
291.602	89.62
291.833	90.62
292.064	93.62
292.295	100.62
292.526	82.62
292.757	91.62
292.987	94.62
293.218	100.62
293.449	96.62
293.68	96.62
293.91	81.62
294.141	96.62
294.372	91.62
294.603	103.62
294.833	90.62
295.064	74.62
295.295	95.62
295.525	96.62
295.756	116.62
295.987	122.62
296.217	180.62
296.448	142.62
296.679	117.62
296.909	84.62
297.14	92.62
297.37	92.62
297.601	96.62
297.831	104.62
298.062	108.62
298.292	105.62
298.523	99.62
298.753	98.62
298.984	91.62
299.214	94.62
299.445	115.62
299.675	108.62
299.905	100.62
300.136	99.62
300.366	97.62
300.597	100.62
300.827	100.62
301.057	110.62
301.288	130.62
301.518	131.62
301.748	123.62
301.979	145.62
302.209	108.62
302.439	98.62
302.669	113.62
302.9	101.62
303.13	112.62
303.36	117.62
303.59	188.62
303.82	214.62
304.051	138.62
304.281	103.62
304.511	92.62
304.741	76.62
304.971	87.62
305.201	107.62
305.431	97.62
305.661	99.62
305.891	105.62
306.121	115.62
306.352	131.62
306.582	132.62
306.812	138.62
307.042	186.62
307.272	282.62
307.502	317.62
307.731	263.62
307.961	182.62
308.191	101.62
308.421	99.62
308.651	109.62
308.881	117.62
309.111	110.62
309.341	98.62
309.571	113.62
309.8	104.62
310.03	110.62
310.26	123.62
310.49	106.62
310.72	119.62
310.949	122.62
311.179	116.62
311.409	100.62
311.639	121.62
311.868	119.62
312.098	102.62
312.328	111.62
312.557	119.62
312.787	137.62
313.017	128.62
313.246	87.62
313.476	90.62
313.706	108.62
313.935	108.62
314.165	127.62
314.394	131.62
314.624	120.62
314.853	116.62
315.083	90.62
315.312	94.62
315.542	104.62
315.771	93.62
316.001	94.62
316.23	94.62
316.46	109.62
316.689	94.62
316.919	106.62
317.148	99.62
317.377	98.62
317.607	104.62
317.836	101.62
318.065	98.62
318.295	90.62
318.524	85.62
318.753	111.62
318.983	94.62
319.212	116.62
319.441	121.62
319.67	127.62
319.9	107.62
320.129	87.62
320.358	106.62
320.587	105.62
320.816	114.62
321.046	113.62
321.275	114.62
321.504	103.62
321.733	99.62
321.962	102.62
322.191	111.62
322.42	123.62
322.649	132.62
322.878	139.62
323.108	129.62
323.337	162.62
323.566	158.62
323.795	171.62
324.024	244.62
324.253	446.62
324.482	960.62
324.71	1954.62
324.939	2633.62
325.168	967.62
325.397	300.62
325.626	166.62
325.855	144.62
326.084	144.62
326.313	145.62
326.542	181.62
326.77	279.62
326.999	484.62
327.228	966.62
327.457	1786.62
327.686	1551.62
327.914	760.62
328.143	1067.62
328.372	1508.62
328.6	746.62
328.829	281.62
329.058	262.62
329.287	266.62
329.515	284.62
329.744	468.62
329.972	1042.62
330.201	2348.62
330.43	3438.62
330.658	1344.62
330.887	448.62
331.115	272.62
331.344	153.62
331.572	149.62
331.801	171.62
332.03	162.62
332.258	127.62
332.486	124.62
332.715	137.62
332.943	147.62
333.172	168.62
333.4	178.62
333.629	249.62
333.857	392.62
334.085	870.62
334.314	1999.62
334.542	4138.62
334.771	3798.62
334.999	884.62
335.227	285.62
335.455	172.62
335.684	145.62
335.912	132.62
336.14	131.62
336.369	132.62
336.597	123.62
336.825	131.62
337.053	107.62
337.281	103.62
337.51	114.62
337.738	116.62
337.966	91.62
338.194	115.62
338.422	99.62
338.65	106.62
338.878	107.62
339.106	91.62
339.334	95.62
339.562	101.62
339.79	96.62
340.018	98.62
340.246	111.62
340.474	111.62
340.702	105.62
340.93	111.62
341.158	107.62
341.386	100.62
341.614	91.62
341.842	101.62
342.07	102.62
342.298	109.62
342.526	91.62
342.754	85.62
342.981	89.62
343.209	96.62
343.437	106.62
343.665	99.62
343.893	97.62
344.12	88.62
344.348	87.62
344.576	92.62
344.804	100.62
345.031	99.62
345.259	96.62
345.487	114.62
345.714	107.62
345.942	90.62
346.17	103.62
346.397	94.62
346.625	96.62
346.853	83.62
347.08	94.62
347.308	109.62
347.535	108.62
347.763	102.62
347.99	108.62
348.218	123.62
348.445	132.62
348.673	116.62
348.9	110.62
349.128	88.62
349.355	74.62
349.583	98.62
349.81	99.62
350.037	97.62
350.265	102.62
350.492	93.62
350.72	105.62
350.947	112.62
351.174	130.62
351.402	142.62
351.629	120.62
351.856	105.62
352.083	112.62
352.311	107.62
352.538	126.62
352.765	121.62
352.992	130.62
353.22	132.62
353.447	107.62
353.674	112.62
353.901	115.62
354.128	95.62
354.355	87.62
354.583	113.62
354.81	112.62
355.037	82.62
355.264	90.62
355.491	103.62
355.718	79.62
355.945	89.62
356.172	100.62
356.399	83.62
356.626	108.62
356.853	89.62
357.08	82.62
357.307	98.62
357.534	107.62
357.761	94.62
357.988	104.62
358.215	95.62
358.441	112.62
358.668	99.62
358.895	89.62
359.122	103.62
359.349	107.62
359.576	106.62
359.802	116.62
360.029	138.62
360.256	156.62
360.483	118.62
360.709	101.62
360.936	104.62
361.163	99.62
361.39	118.62
361.616	100.62
361.843	105.62
362.07	102.62
362.296	111.62
362.523	113.62
362.749	91.62
362.976	92.62
363.203	97.62
363.429	95.62
363.656	94.62
363.882	88.62
364.109	86.62
364.335	100.62
364.562	98.62
364.788	93.62
365.015	108.62
365.241	103.62
365.468	115.62
365.694	118.62
365.92	114.62
366.147	92.62
366.373	82.62
366.599	93.62
366.826	96.62
367.052	104.62
367.278	91.62
367.505	94.62
367.731	95.62
367.957	96.62
368.184	105.62
368.41	117.62
368.636	119.62
368.862	129.62
369.089	120.62
369.315	103.62
369.541	95.62
369.767	115.62
369.993	99.62
370.219	112.62
370.445	90.62
370.672	90.62
370.898	81.62
371.124	97.62
371.35	93.62
371.576	98.62
371.802	80.62
372.028	93.62
372.254	106.62
372.48	92.62
372.706	76.62
372.932	87.62
373.158	84.62
373.384	99.62
373.61	90.62
373.835	87.62
374.061	99.62
374.287	94.62
374.513	97.62
374.739	82.62
374.965	87.62
375.191	90.62
375.416	96.62
375.642	96.62
375.868	107.62
376.094	99.62
376.319	91.62
376.545	82.62
376.771	91.62
376.997	81.62
377.222	93.62
377.448	98.62
377.674	76.62
377.899	92.62
378.125	105.62
378.35	98.62
378.576	105.62
378.802	91.62
379.027	98.62
379.253	94.62
379.478	96.62
379.704	95.62
379.929	103.62
380.155	107.62
380.38	113.62
380.606	100.62
380.831	93.62
381.057	102.62
381.282	98.62
381.507	106.62
381.733	99.62
381.958	112.62
382.184	103.62
382.409	105.62
382.634	121.62
382.86	115.62
383.085	110.62
383.31	111.62
383.535	101.62
383.761	112.62
383.986	117.62
384.211	129.62
384.436	112.62
384.662	111.62
384.887	124.62
385.112	125.62
385.337	124.62
385.562	129.62
385.787	120.62
386.013	134.62
386.238	148.62
386.463	115.62
386.688	123.62
386.913	124.62
387.138	131.62
387.363	115.62
387.588	103.62
387.813	105.62
388.038	123.62
388.263	156.62
388.488	122.62
388.713	100.62
388.938	95.62
389.163	73.62
389.387	84.62
389.612	82.62
389.837	97.62
390.062	90.62
390.287	106.62
390.512	83.62
390.736	92.62
390.961	81.62
391.186	103.62
391.411	92.62
391.636	89.62
391.86	92.62
392.085	93.62
392.31	95.62
392.534	88.62
392.759	110.62
392.984	89.62
393.208	99.62
393.433	111.62
393.658	83.62
393.882	89.62
394.107	98.62
394.331	90.62
394.556	104.62
394.78	93.62
395.005	75.62
395.229	75.62
395.454	90.62
395.678	88.62
395.903	91.62
396.127	87.62
396.352	95.62
396.576	99.62
396.801	98.62
397.025	91.62
397.249	101.62
397.474	90.62
397.698	89.62
397.922	107.62
398.147	84.62
398.371	89.62
398.595	95.62
398.82	88.62
399.044	91.62
399.268	99.62
399.492	91.62
399.717	107.62
399.941	92.62
400.165	98.62
400.389	98.62
400.613	92.62
400.837	92.62
401.062	87.62
401.286	93.62
401.51	94.62
401.734	103.62
401.958	112.62
402.182	158.62
402.406	193.62
402.63	139.62
402.854	98.62
403.078	102.62
403.302	99.62
403.526	103.62
403.75	100.62
403.974	96.62
404.198	85.62
404.422	101.62
404.645	105.62
404.869	108.62
405.093	146.62
405.317	173.62
405.541	165.62
405.765	134.62
405.988	170.62
406.212	231.62
406.436	324.62
406.66	223.62
406.883	124.62
407.107	106.62
407.331	117.62
407.555	110.62
407.778	111.62
408.002	100.62
408.226	93.62
408.449	97.62
408.673	87.62
408.896	90.62
409.12	101.62
409.344	94.62
409.567	86.62
409.791	85.62
410.014	104.62
410.238	91.62
410.461	93.62
410.685	105.62
410.908	104.62
411.132	115.62
411.355	98.62
411.578	102.62
411.802	95.62
412.025	103.62
412.249	98.62
412.472	145.62
412.695	172.62
412.919	123.62
413.142	120.62
413.365	107.62
413.589	110.62
413.812	98.62
414.035	100.62
414.258	102.62
414.482	100.62
414.705	95.62
414.928	94.62
415.151	99.62
415.374	120.62
415.597	104.62
415.821	90.62
416.044	91.62
416.267	101.62
416.49	95.62
416.713	102.62
416.936	113.62
417.159	118.62
417.382	115.62
417.605	144.62
417.828	137.62
418.051	116.62
418.274	117.62
418.497	89.62
418.72	98.62
418.943	108.62
419.166	93.62
419.389	99.62
419.611	89.62
419.834	110.62
420.057	117.62
420.28	118.62
420.503	103.62
420.726	84.62
420.948	103.62
421.171	123.62
421.394	104.62
421.617	97.62
421.839	82.62
422.062	100.62
422.285	115.62
422.507	106.62
422.73	120.62
422.953	101.62
423.175	100.62
423.398	87.62
423.621	93.62
423.843	96.62
424.066	91.62
424.288	96.62
424.511	99.62
424.733	101.62
424.956	113.62
425.178	117.62
425.401	106.62
425.623	120.62
425.846	104.62
426.068	126.62
426.291	104.62
426.513	88.62
426.735	104.62
426.958	111.62
427.18	132.62
427.402	196.62
427.625	282.62
427.847	270.62
428.069	256.62
428.292	156.62
428.514	109.62
428.736	105.62
428.958	103.62
429.181	91.62
429.403	96.62
429.625	95.62
429.847	116.62
430.069	114.62
430.292	103.62
430.514	91.62
430.736	82.62
430.958	89.62
431.18	94.62
431.402	87.62
431.624	88.62
431.846	90.62
432.068	98.62
432.29	88.62
432.512	88.62
432.734	98.62
432.956	102.62
433.178	103.62
433.4	107.62
433.622	115.62
433.844	101.62
434.066	84.62
434.287	84.62
434.509	98.62
434.731	101.62
434.953	94.62
435.175	99.62
435.397	97.62
435.618	95.62
435.84	122.62
436.062	137.62
436.284	135.62
436.505	119.62
436.727	117.62
436.949	95.62
437.17	85.62
437.392	96.62
437.614	106.62
437.835	129.62
438.057	158.62
438.278	136.62
438.5	105.62
438.721	131.62
438.943	110.62
439.165	93.62
439.386	96.62
439.608	106.62
439.829	120.62
440.05	168.62
440.272	206.62
440.493	120.62
440.715	109.62
440.936	106.62
441.158	102.62
441.379	113.62
441.6	106.62
441.822	102.62
442.043	100.62
442.264	116.62
442.486	102.62
442.707	113.62
442.928	123.62
443.149	189.62
443.371	188.62
443.592	128.62
443.813	142.62
444.034	125.62
444.255	103.62
444.476	104.62
444.698	98.62
444.919	68.62
445.14	143.62
445.361	150.62
445.582	155.62
445.803	193.62
446.024	189.62
446.245	172.62
446.466	121.62
446.687	104.62
446.908	89.62
447.129	96.62
447.35	99.62
447.571	110.62
447.792	98.62
448.013	114.62
448.234	124.62
448.455	120.62
448.675	133.62
448.896	123.62
449.117	111.62
449.338	120.62
449.559	157.62
449.779	153.62
450	109.62
450.221	103.62
450.442	91.62
450.662	103.62
450.883	138.62
451.104	140.62
451.324	115.62
451.545	96.62
451.766	89.62
451.986	95.62
452.207	110.62
452.428	102.62
452.648	114.62
452.869	139.62
453.089	126.62
453.31	135.62
453.53	120.62
453.751	92.62
453.971	143.62
454.192	142.62
454.412	119.62
454.633	94.62
454.853	96.62
455.073	90.62
455.294	80.62
455.514	103.62
455.734	100.62
455.955	83.62
456.175	80.62
456.395	91.62
456.616	90.62
456.836	90.62
457.056	105.62
457.276	98.62
457.497	92.62
457.717	84.62
457.937	96.62
458.157	92.62
458.377	100.62
458.598	143.62
458.818	230.62
459.038	251.62
459.258	155.62
459.478	102.62
459.698	89.62
459.918	95.62
460.138	89.62
460.358	102.62
460.578	105.62
460.798	108.62
461.018	94.62
461.238	90.62
461.458	100.62
461.678	107.62
461.898	87.62
462.118	97.62
462.338	92.62
462.558	98.62
462.777	102.62
462.997	135.62
463.217	151.62
463.437	121.62
463.657	105.62
463.876	95.62
464.096	117.62
464.316	105.62
464.536	113.62
464.755	109.62
464.975	133.62
465.195	271.62
465.414	274.62
465.634	114.62
465.854	102.62
466.073	106.62
466.293	101.62
466.512	98.62
466.732	116.62
466.951	107.62
467.171	122.62
467.391	118.62
467.61	195.62
467.829	379.62
468.049	1374.62
468.268	2144.62
468.488	451.62
468.707	152.62
468.927	111.62
469.146	117.62
469.365	102.62
469.585	124.62
469.804	115.62
470.023	135.62
470.243	126.62
470.462	133.62
470.681	146.62
470.901	121.62
471.12	117.62
471.339	130.62
471.558	166.62
471.777	232.62
471.997	603.62
472.216	2549.62
472.435	5936.62
472.654	1243.62
472.873	264.62
473.092	158.62
473.311	115.62
473.53	120.62
473.749	116.62
473.968	121.62
474.187	118.62
474.406	118.62
474.625	102.62
474.844	101.62
475.063	87.62
475.282	109.62
475.501	103.62
475.72	98.62
475.939	98.62
476.158	108.62
476.377	88.62
476.596	106.62
476.814	118.62
477.033	113.62
477.252	99.62
477.471	107.62
477.69	112.62
477.908	102.62
478.127	116.62
478.346	106.62
478.564	119.62
478.783	128.62
479.002	130.62
479.22	129.62
479.439	168.62
479.658	172.62
479.876	177.62
480.095	144.62
480.313	218.62
480.532	262.62
480.751	527.62
480.969	2113.62
481.188	9664.62
481.406	5336.62
481.624	691.62
481.843	228.62
482.061	148.62
482.28	132.62
482.498	125.62
482.717	106.62
482.935	107.62
483.153	120.62
483.372	101.62
483.59	92.62
483.808	103.62
484.027	104.62
484.245	98.62
484.463	99.62
484.681	101.62
484.9	102.62
485.118	95.62
485.336	112.62
485.554	114.62
485.772	110.62
485.99	121.62
486.209	115.62
486.427	112.62
486.645	118.62
486.863	130.62
487.081	113.62
487.299	106.62
487.517	98.62
487.735	107.62
487.953	105.62
488.171	128.62
488.389	108.62
488.607	103.62
488.825	100.62
489.043	87.62
489.261	90.62
489.479	89.62
489.696	84.62
489.914	90.62
490.132	104.62
490.35	92.62
490.568	107.62
490.786	91.62
491.003	108.62
491.221	98.62
491.439	111.62
491.657	99.62
491.874	100.62
492.092	101.62
492.31	103.62
492.527	120.62
492.745	104.62
492.963	98.62
493.18	95.62
493.398	98.62
493.615	120.62
493.833	111.62
494.05	92.62
494.268	92.62
494.485	103.62
494.703	95.62
494.92	100.62
495.138	92.62
495.355	80.62
495.573	96.62
495.79	111.62
496.008	91.62
496.225	99.62
496.442	104.62
496.66	94.62
496.877	103.62
497.094	112.62
497.312	105.62
497.529	100.62
497.746	106.62
497.963	90.62
498.181	105.62
498.398	100.62
498.615	124.62
498.832	115.62
499.049	99.62
499.267	105.62
499.484	88.62
499.701	100.62
499.918	94.62
500.135	95.62
500.352	116.62
500.569	115.62
500.786	121.62
501.003	105.62
501.22	95.62
501.437	107.62
501.654	102.62
501.871	134.62
502.088	112.62
502.305	100.62
502.522	85.62
502.739	90.62
502.956	108.62
503.172	97.62
503.389	116.62
503.606	128.62
503.823	112.62
504.04	102.62
504.256	90.62
504.473	91.62
504.69	107.62
504.907	99.62
505.123	104.62
505.34	98.62
505.557	89.62
505.773	92.62
505.99	90.62
506.207	92.62
506.423	112.62
506.64	107.62
506.856	101.62
507.073	93.62
507.289	106.62
507.506	86.62
507.722	145.62
507.939	134.62
508.155	104.62
508.372	88.62
508.588	99.62
508.805	119.62
509.021	105.62
509.238	111.62
509.454	102.62
509.67	120.62
509.887	114.62
510.103	155.62
