Data from Circ_1988_H10_HRD10591_00050.txt Node
Date: Wed Jan 03 12:05:44 EST 2024
User: Yrep
Spectrometer: HR+D1059
Trigger mode: 1
Integration Time (sec): 1.000000E-1
Scans to average: 1
Electric dark correction enabled: true
Nonlinearity correction enabled: false
Boxcar width: 0
XAxis mode: Wavelengths
Number of Pixels in Spectrum: 2048
>>>>>Begin Spectral Data<<<<<
223.165	-11.94
223.4	-11.94
223.635	-11.94
223.869	-26.94
224.104	-21.94
224.338	-4.94
224.573	-10.94
224.808	-21.94
225.042	-12.94
225.277	-9.94
225.511	-3.94
225.746	5.06
225.98	-4.94
226.215	20.06
226.449	11.06
226.683	32.06
226.918	24.06
227.152	38.06
227.387	24.06
227.621	29.06
227.856	33.06
228.09	52.06
228.324	53.06
228.559	53.06
228.793	51.06
229.027	75.06
229.262	71.06
229.496	85.06
229.73	84.06
229.964	93.06
230.199	69.06
230.433	63.06
230.667	82.06
230.901	64.06
231.136	76.06
231.37	91.06
231.604	68.06
231.838	79.06
232.072	75.06
232.306	70.06
232.541	87.06
232.775	80.06
233.009	74.06
233.243	91.06
233.477	77.06
233.711	71.06
233.945	66.06
234.179	86.06
234.413	78.06
234.647	78.06
234.881	87.06
235.115	80.06
235.349	87.06
235.583	96.06
235.817	86.06
236.051	76.06
236.285	79.06
236.519	74.06
236.753	76.06
236.987	91.06
237.221	87.06
237.455	93.06
237.689	71.06
237.922	72.06
238.156	64.06
238.39	74.06
238.624	62.06
238.858	69.06
239.091	87.06
239.325	78.06
239.559	69.06
239.793	82.06
240.027	96.06
240.26	80.06
240.494	86.06
240.728	87.06
240.961	66.06
241.195	81.06
241.429	84.06
241.662	70.06
241.896	76.06
242.13	82.06
242.363	79.06
242.597	81.06
242.83	77.06
243.064	82.06
243.298	79.06
243.531	81.06
243.765	68.06
243.998	82.06
244.232	86.06
244.465	83.06
244.699	66.06
244.932	69.06
245.166	88.06
245.399	80.06
245.633	101.06
245.866	89.06
246.099	84.06
246.333	95.06
246.566	62.06
246.8	90.06
247.033	84.06
247.266	79.06
247.5	90.06
247.733	74.06
247.966	86.06
248.2	83.06
248.433	74.06
248.666	79.06
248.899	90.06
249.133	95.06
249.366	112.06
249.599	103.06
249.832	92.06
250.066	96.06
250.299	80.06
250.532	106.06
250.765	94.06
250.998	86.06
251.231	78.06
251.465	86.06
251.698	104.06
251.931	100.06
252.164	93.06
252.397	82.06
252.63	91.06
252.863	90.06
253.096	60.06
253.329	94.06
253.562	74.06
253.795	69.06
254.028	78.06
254.261	62.06
254.494	84.06
254.727	96.06
254.96	89.06
255.193	82.06
255.426	99.06
255.659	99.06
255.892	113.06
256.124	111.06
256.357	92.06
256.59	80.06
256.823	95.06
257.056	96.06
257.289	107.06
257.521	87.06
257.754	90.06
257.987	87.06
258.22	104.06
258.452	119.06
258.685	106.06
258.918	86.06
259.151	79.06
259.383	80.06
259.616	98.06
259.849	91.06
260.081	101.06
260.314	89.06
260.547	103.06
260.779	124.06
261.012	138.06
261.244	152.06
261.477	128.06
261.71	110.06
261.942	147.06
262.175	157.06
262.407	96.06
262.64	78.06
262.872	82.06
263.105	74.06
263.337	81.06
263.57	99.06
263.802	74.06
264.035	78.06
264.267	78.06
264.499	80.06
264.732	77.06
264.964	82.06
265.197	88.06
265.429	97.06
265.661	83.06
265.894	88.06
266.126	98.06
266.358	83.06
266.591	88.06
266.823	79.06
267.055	80.06
267.287	85.06
267.52	100.06
267.752	84.06
267.984	94.06
268.216	102.06
268.448	106.06
268.681	106.06
268.913	85.06
269.145	82.06
269.377	86.06
269.609	85.06
269.841	97.06
270.073	71.06
270.306	87.06
270.538	99.06
270.77	88.06
271.002	83.06
271.234	95.06
271.466	110.06
271.698	92.06
271.93	96.06
272.162	96.06
272.394	86.06
272.626	70.06
272.858	82.06
273.09	84.06
273.322	102.06
273.553	78.06
273.785	88.06
274.017	90.06
274.249	106.06
274.481	90.06
274.713	94.06
274.945	98.06
275.176	120.06
275.408	127.06
275.64	161.06
275.872	199.06
276.104	143.06
276.335	124.06
276.567	125.06
276.799	203.06
277.031	302.06
277.262	389.06
277.494	283.06
277.726	123.06
277.957	108.06
278.189	84.06
278.421	101.06
278.652	83.06
278.884	85.06
279.115	94.06
279.347	106.06
279.579	126.06
279.81	218.06
280.042	380.06
280.273	574.06
280.505	349.06
280.736	154.06
280.968	121.06
281.199	91.06
281.431	108.06
281.662	115.06
281.894	98.06
282.125	103.06
282.356	156.06
282.588	176.06
282.819	144.06
283.051	96.06
283.282	85.06
283.513	100.06
283.745	75.06
283.976	86.06
284.207	102.06
284.439	78.06
284.67	89.06
284.901	92.06
285.132	101.06
285.364	90.06
285.595	94.06
285.826	87.06
286.057	94.06
286.288	88.06
286.52	110.06
286.751	82.06
286.982	88.06
287.213	97.06
287.444	96.06
287.675	104.06
287.906	87.06
288.138	103.06
288.369	110.06
288.6	95.06
288.831	94.06
289.062	90.06
289.293	90.06
289.524	91.06
289.755	90.06
289.986	69.06
290.217	87.06
290.448	83.06
290.679	95.06
290.91	93.06
291.141	85.06
291.371	95.06
291.602	78.06
291.833	98.06
292.064	98.06
292.295	97.06
292.526	101.06
292.757	99.06
292.987	82.06
293.218	96.06
293.449	85.06
293.68	91.06
293.91	94.06
294.141	80.06
294.372	81.06
294.603	90.06
294.833	98.06
295.064	96.06
295.295	87.06
295.525	91.06
295.756	90.06
295.987	114.06
296.217	183.06
296.448	150.06
296.679	108.06
296.909	103.06
297.14	92.06
297.37	86.06
297.601	90.06
297.831	92.06
298.062	98.06
298.292	109.06
298.523	85.06
298.753	97.06
298.984	90.06
299.214	102.06
299.445	88.06
299.675	110.06
299.905	99.06
300.136	92.06
300.366	90.06
300.597	119.06
300.827	93.06
301.057	107.06
301.288	103.06
301.518	96.06
301.748	103.06
301.979	132.06
302.209	124.06
302.439	100.06
302.669	97.06
302.9	91.06
303.13	120.06
303.36	128.06
303.59	173.06
303.82	204.06
304.051	119.06
304.281	96.06
304.511	86.06
304.741	95.06
304.971	96.06
305.201	109.06
305.431	101.06
305.661	88.06
305.891	99.06
306.121	104.06
306.352	112.06
306.582	124.06
306.812	122.06
307.042	187.06
307.272	261.06
307.502	310.06
307.731	282.06
307.961	182.06
308.191	111.06
308.421	103.06
308.651	96.06
308.881	97.06
309.111	85.06
309.341	104.06
309.571	119.06
309.8	103.06
310.03	107.06
310.26	108.06
310.49	105.06
310.72	105.06
310.949	123.06
311.179	112.06
311.409	93.06
311.639	111.06
311.868	109.06
312.098	111.06
312.328	107.06
312.557	118.06
312.787	128.06
313.017	121.06
313.246	106.06
313.476	96.06
313.706	108.06
313.935	110.06
314.165	114.06
314.394	114.06
314.624	110.06
314.853	108.06
315.083	98.06
315.312	100.06
315.542	88.06
315.771	96.06
316.001	95.06
316.23	96.06
316.46	81.06
316.689	90.06
316.919	103.06
317.148	104.06
317.377	102.06
317.607	103.06
317.836	93.06
318.065	95.06
318.295	102.06
318.524	89.06
318.753	96.06
318.983	109.06
319.212	112.06
319.441	119.06
319.67	119.06
319.9	103.06
320.129	96.06
320.358	95.06
320.587	97.06
320.816	104.06
321.046	105.06
321.275	103.06
321.504	91.06
321.733	106.06
321.962	98.06
322.191	101.06
322.42	110.06
322.649	119.06
322.878	121.06
323.108	127.06
323.337	159.06
323.566	156.06
323.795	178.06
324.024	244.06
324.253	442.06
324.482	919.06
324.71	1886.06
324.939	2519.06
325.168	959.06
325.397	318.06
325.626	180.06
325.855	138.06
326.084	139.06
326.313	159.06
326.542	175.06
326.77	253.06
326.999	470.06
327.228	928.06
327.457	1735.06
327.686	1495.06
327.914	712.06
328.143	1011.06
328.372	1457.06
328.6	716.06
328.829	274.06
329.058	231.06
329.287	240.06
329.515	258.06
329.744	446.06
329.972	970.06
330.201	2186.06
330.43	3229.06
330.658	1302.06
330.887	422.06
331.115	229.06
331.344	154.06
331.572	143.06
331.801	147.06
332.03	148.06
332.258	130.06
332.486	125.06
332.715	132.06
332.943	130.06
333.172	154.06
333.4	184.06
333.629	234.06
333.857	373.06
334.085	821.06
334.314	1937.06
334.542	3861.06
334.771	3590.06
334.999	837.06
335.227	274.06
335.455	178.06
335.684	139.06
335.912	128.06
336.14	129.06
336.369	136.06
336.597	121.06
336.825	128.06
337.053	99.06
337.281	97.06
337.51	102.06
337.738	99.06
337.966	100.06
338.194	126.06
338.422	114.06
338.65	108.06
338.878	101.06
339.106	88.06
339.334	102.06
339.562	92.06
339.79	107.06
340.018	82.06
340.246	103.06
340.474	106.06
340.702	101.06
340.93	112.06
341.158	100.06
341.386	108.06
341.614	111.06
341.842	97.06
342.07	102.06
342.298	85.06
342.526	99.06
342.754	87.06
342.981	103.06
343.209	95.06
343.437	98.06
343.665	86.06
343.893	98.06
344.12	89.06
344.348	93.06
344.576	104.06
344.804	95.06
345.031	131.06
345.259	116.06
345.487	101.06
345.714	101.06
345.942	95.06
346.17	96.06
346.397	90.06
346.625	95.06
346.853	105.06
347.08	99.06
347.308	101.06
347.535	94.06
347.763	103.06
347.99	104.06
348.218	121.06
348.445	118.06
348.673	122.06
348.9	95.06
349.128	91.06
349.355	104.06
349.583	94.06
349.81	89.06
350.037	102.06
350.265	93.06
350.492	102.06
350.72	81.06
350.947	100.06
351.174	118.06
351.402	125.06
351.629	104.06
351.856	94.06
352.083	110.06
352.311	123.06
352.538	114.06
352.765	120.06
352.992	122.06
353.22	138.06
353.447	125.06
353.674	102.06
353.901	101.06
354.128	95.06
354.355	100.06
354.583	84.06
354.81	100.06
355.037	99.06
355.264	99.06
355.491	92.06
355.718	84.06
355.945	84.06
356.172	83.06
356.399	87.06
356.626	92.06
356.853	93.06
357.08	95.06
357.307	85.06
357.534	96.06
357.761	107.06
357.988	86.06
358.215	93.06
358.441	88.06
358.668	97.06
358.895	98.06
359.122	96.06
359.349	83.06
359.576	106.06
359.802	111.06
360.029	156.06
360.256	148.06
360.483	125.06
360.709	103.06
360.936	100.06
361.163	93.06
361.39	98.06
361.616	95.06
361.843	96.06
362.07	101.06
362.296	111.06
362.523	106.06
362.749	103.06
362.976	91.06
363.203	104.06
363.429	93.06
363.656	100.06
363.882	93.06
364.109	97.06
364.335	99.06
364.562	98.06
364.788	94.06
365.015	104.06
365.241	97.06
365.468	115.06
365.694	127.06
365.92	113.06
366.147	88.06
366.373	81.06
366.599	86.06
366.826	92.06
367.052	90.06
367.278	107.06
367.505	87.06
367.731	96.06
367.957	96.06
368.184	107.06
368.41	104.06
368.636	124.06
368.862	154.06
369.089	122.06
369.315	96.06
369.541	91.06
369.767	95.06
369.993	93.06
370.219	110.06
370.445	90.06
370.672	90.06
370.898	83.06
371.124	84.06
371.35	78.06
371.576	88.06
371.802	94.06
372.028	88.06
372.254	79.06
372.48	83.06
372.706	93.06
372.932	82.06
373.158	103.06
373.384	92.06
373.61	85.06
373.835	81.06
374.061	92.06
374.287	97.06
374.513	101.06
374.739	88.06
374.965	84.06
375.191	87.06
375.416	88.06
375.642	89.06
375.868	86.06
376.094	93.06
376.319	99.06
376.545	94.06
376.771	79.06
376.997	84.06
377.222	99.06
377.448	95.06
377.674	82.06
377.899	86.06
378.125	93.06
378.35	102.06
378.576	87.06
378.802	106.06
379.027	97.06
379.253	84.06
379.478	80.06
379.704	103.06
379.929	92.06
380.155	100.06
380.38	108.06
380.606	110.06
380.831	97.06
381.057	106.06
381.282	108.06
381.507	96.06
381.733	104.06
381.958	108.06
382.184	111.06
382.409	95.06
382.634	107.06
382.86	111.06
383.085	99.06
383.31	93.06
383.535	117.06
383.761	107.06
383.986	102.06
384.211	122.06
384.436	108.06
384.662	118.06
384.887	108.06
385.112	123.06
385.337	124.06
385.562	114.06
385.787	122.06
386.013	122.06
386.238	146.06
386.463	114.06
386.688	110.06
386.913	115.06
387.138	109.06
387.363	98.06
387.588	102.06
387.813	98.06
388.038	98.06
388.263	135.06
388.488	119.06
388.713	81.06
388.938	78.06
389.163	85.06
389.387	98.06
389.612	87.06
389.837	94.06
390.062	90.06
390.287	90.06
390.512	90.06
390.736	83.06
390.961	90.06
391.186	103.06
391.411	90.06
391.636	92.06
391.86	93.06
392.085	92.06
392.31	92.06
392.534	93.06
392.759	99.06
392.984	91.06
393.208	89.06
393.433	87.06
393.658	91.06
393.882	86.06
394.107	70.06
394.331	84.06
394.556	95.06
394.78	89.06
395.005	83.06
395.229	88.06
395.454	86.06
395.678	90.06
395.903	100.06
396.127	90.06
396.352	83.06
396.576	88.06
396.801	97.06
397.025	86.06
397.249	80.06
397.474	85.06
397.698	76.06
397.922	87.06
398.147	92.06
398.371	89.06
398.595	83.06
398.82	72.06
399.044	86.06
399.268	85.06
399.492	87.06
399.717	85.06
399.941	104.06
400.165	97.06
400.389	108.06
400.613	94.06
400.837	80.06
401.062	87.06
401.286	93.06
401.51	98.06
401.734	94.06
401.958	111.06
402.182	149.06
402.406	206.06
402.63	161.06
402.854	103.06
403.078	109.06
403.302	90.06
403.526	93.06
403.75	79.06
403.974	88.06
404.198	87.06
404.422	84.06
404.645	90.06
404.869	118.06
405.093	123.06
405.317	160.06
405.541	154.06
405.765	131.06
405.988	135.06
406.212	214.06
406.436	336.06
406.66	208.06
406.883	130.06
407.107	110.06
407.331	111.06
407.555	116.06
407.778	102.06
408.002	95.06
408.226	84.06
408.449	86.06
408.673	90.06
408.896	83.06
409.12	90.06
409.344	93.06
409.567	84.06
409.791	99.06
410.014	108.06
410.238	91.06
410.461	86.06
410.685	92.06
410.908	86.06
411.132	99.06
411.355	112.06
411.578	86.06
411.802	90.06
412.025	97.06
412.249	113.06
412.472	132.06
412.695	149.06
412.919	129.06
413.142	94.06
413.365	92.06
413.589	86.06
413.812	99.06
414.035	98.06
414.258	106.06
414.482	91.06
414.705	112.06
414.928	101.06
415.151	102.06
415.374	92.06
415.597	99.06
415.821	88.06
416.044	87.06
416.267	104.06
416.49	105.06
416.713	102.06
416.936	95.06
417.159	104.06
417.382	97.06
417.605	144.06
417.828	134.06
418.051	106.06
418.274	94.06
418.497	92.06
418.72	102.06
418.943	77.06
419.166	87.06
419.389	82.06
419.611	111.06
419.834	100.06
420.057	94.06
420.28	110.06
420.503	94.06
420.726	101.06
420.948	93.06
421.171	115.06
421.394	116.06
421.617	77.06
421.839	82.06
422.062	79.06
422.285	80.06
422.507	101.06
422.73	96.06
422.953	101.06
423.175	94.06
423.398	90.06
423.621	88.06
423.843	84.06
424.066	89.06
424.288	96.06
424.511	90.06
424.733	112.06
424.956	124.06
425.178	108.06
425.401	98.06
425.623	106.06
425.846	94.06
426.068	110.06
426.291	97.06
426.513	87.06
426.735	93.06
426.958	94.06
427.18	119.06
427.402	167.06
427.625	265.06
427.847	259.06
428.069	230.06
428.292	171.06
428.514	123.06
428.736	96.06
428.958	102.06
429.181	84.06
429.403	96.06
429.625	109.06
429.847	115.06
430.069	110.06
430.292	89.06
430.514	99.06
430.736	76.06
430.958	90.06
431.18	75.06
431.402	80.06
431.624	94.06
431.846	91.06
432.068	79.06
432.29	92.06
432.512	106.06
432.734	87.06
432.956	103.06
433.178	106.06
433.4	103.06
433.622	112.06
433.844	84.06
434.066	95.06
434.287	106.06
434.509	88.06
434.731	82.06
434.953	91.06
435.175	95.06
435.397	85.06
435.618	94.06
435.84	104.06
436.062	138.06
436.284	116.06
436.505	96.06
436.727	108.06
436.949	87.06
437.17	89.06
437.392	91.06
437.614	97.06
437.835	144.06
438.057	148.06
438.278	124.06
438.5	119.06
438.721	143.06
438.943	109.06
439.165	100.06
439.386	83.06
439.608	90.06
439.829	105.06
440.05	155.06
440.272	176.06
440.493	120.06
440.715	96.06
440.936	87.06
441.158	94.06
441.379	102.06
441.6	104.06
441.822	96.06
442.043	106.06
442.264	108.06
442.486	124.06
442.707	88.06
442.928	126.06
443.149	170.06
443.371	170.06
443.592	118.06
443.813	125.06
444.034	121.06
444.255	86.06
444.476	92.06
444.698	93.06
444.919	84.06
445.14	132.06
445.361	131.06
445.582	144.06
445.803	196.06
446.024	160.06
446.245	146.06
446.466	127.06
446.687	94.06
446.908	97.06
447.129	98.06
447.35	103.06
447.571	82.06
447.792	95.06
448.013	116.06
448.234	129.06
448.455	109.06
448.675	110.06
448.896	129.06
449.117	106.06
449.338	99.06
449.559	132.06
449.779	129.06
450	87.06
450.221	84.06
450.442	101.06
450.662	113.06
450.883	151.06
451.104	142.06
451.324	107.06
451.545	104.06
451.766	80.06
451.986	86.06
452.207	87.06
452.428	103.06
452.648	113.06
452.869	131.06
453.089	140.06
453.31	147.06
453.53	97.06
453.751	100.06
453.971	119.06
454.192	148.06
454.412	92.06
454.633	106.06
454.853	100.06
455.073	93.06
455.294	80.06
455.514	120.06
455.734	94.06
455.955	83.06
456.175	93.06
456.395	97.06
456.616	92.06
456.836	80.06
457.056	93.06
457.276	96.06
457.497	84.06
457.717	93.06
457.937	81.06
458.157	100.06
458.377	86.06
458.598	125.06
458.818	218.06
459.038	255.06
459.258	157.06
459.478	104.06
459.698	88.06
459.918	82.06
460.138	88.06
460.358	91.06
460.578	95.06
460.798	98.06
461.018	106.06
461.238	92.06
461.458	74.06
461.678	85.06
461.898	71.06
462.118	80.06
462.338	84.06
462.558	84.06
462.777	92.06
462.997	114.06
463.217	143.06
463.437	131.06
463.657	110.06
463.876	91.06
464.096	108.06
464.316	106.06
464.536	102.06
464.755	98.06
464.975	140.06
465.195	260.06
465.414	270.06
465.634	116.06
465.854	95.06
466.073	107.06
466.293	98.06
466.512	102.06
466.732	98.06
466.951	99.06
467.171	104.06
467.391	135.06
467.61	207.06
467.829	374.06
468.049	1353.06
468.268	2115.06
468.488	448.06
468.707	140.06
468.927	108.06
469.146	115.06
469.365	98.06
469.585	91.06
469.804	100.06
470.023	113.06
470.243	113.06
470.462	122.06
470.681	170.06
470.901	130.06
471.12	110.06
471.339	124.06
471.558	159.06
471.777	242.06
471.997	575.06
472.216	2470.06
472.435	5901.06
472.654	1238.06
472.873	259.06
473.092	134.06
473.311	118.06
473.53	104.06
473.749	106.06
473.968	114.06
474.187	132.06
474.406	115.06
474.625	88.06
474.844	81.06
475.063	79.06
475.282	87.06
475.501	85.06
475.72	103.06
475.939	94.06
476.158	96.06
476.377	95.06
476.596	108.06
476.814	107.06
477.033	101.06
477.252	107.06
477.471	99.06
477.69	90.06
477.908	87.06
478.127	95.06
478.346	103.06
478.564	115.06
478.783	127.06
479.002	128.06
479.22	127.06
479.439	144.06
479.658	158.06
479.876	150.06
480.095	152.06
480.313	180.06
480.532	252.06
480.751	524.06
480.969	2072.06
481.188	9278.06
481.406	5192.06
481.624	668.06
481.843	215.06
482.061	136.06
482.28	108.06
482.498	115.06
482.717	102.06
482.935	89.06
483.153	95.06
483.372	87.06
483.59	95.06
483.808	88.06
484.027	109.06
484.245	105.06
484.463	115.06
484.681	104.06
484.9	109.06
485.118	97.06
485.336	106.06
485.554	99.06
485.772	104.06
485.99	111.06
486.209	109.06
486.427	113.06
486.645	130.06
486.863	121.06
487.081	103.06
487.299	102.06
487.517	90.06
487.735	102.06
487.953	94.06
488.171	84.06
488.389	99.06
488.607	103.06
488.825	103.06
489.043	97.06
489.261	91.06
489.479	97.06
489.696	83.06
489.914	90.06
490.132	84.06
490.35	102.06
490.568	84.06
490.786	91.06
491.003	96.06
491.221	96.06
491.439	107.06
491.657	93.06
491.874	102.06
492.092	98.06
492.31	100.06
492.527	120.06
492.745	112.06
492.963	92.06
493.18	106.06
493.398	95.06
493.615	94.06
493.833	100.06
494.05	88.06
494.268	93.06
494.485	102.06
494.703	95.06
494.92	77.06
495.138	93.06
495.355	96.06
495.573	93.06
495.79	90.06
496.008	85.06
496.225	91.06
496.442	99.06
496.66	82.06
496.877	99.06
497.094	96.06
497.312	92.06
497.529	93.06
497.746	90.06
497.963	91.06
498.181	91.06
498.398	101.06
498.615	126.06
498.832	108.06
499.049	97.06
499.267	92.06
499.484	85.06
499.701	96.06
499.918	87.06
500.135	93.06
500.352	99.06
500.569	105.06
500.786	117.06
501.003	89.06
501.22	98.06
501.437	96.06
501.654	95.06
501.871	147.06
502.088	95.06
502.305	88.06
502.522	111.06
502.739	97.06
502.956	98.06
503.172	97.06
503.389	114.06
503.606	127.06
503.823	110.06
504.04	82.06
504.256	91.06
504.473	102.06
504.69	96.06
504.907	111.06
505.123	95.06
505.34	103.06
505.557	86.06
505.773	90.06
505.99	98.06
506.207	95.06
506.423	94.06
506.64	88.06
506.856	90.06
507.073	103.06
507.289	109.06
507.506	103.06
507.722	144.06
507.939	127.06
508.155	115.06
508.372	85.06
508.588	104.06
508.805	106.06
509.021	105.06
509.238	104.06
509.454	106.06
509.67	115.06
509.887	124.06
510.103	160.06
510.319	243.06
510.536	1026.06
510.752	3665.06
510.968	986.06
511.184	188.06
511.401	127.06
511.617	117.06
