Data from Circ_1988_H10_HRD10591_00051.txt Node
Date: Wed Jan 03 12:05:45 EST 2024
User: Yrep
Spectrometer: HR+D1059
Trigger mode: 1
Integration Time (sec): 1.000000E-1
Scans to average: 1
Electric dark correction enabled: true
Nonlinearity correction enabled: false
Boxcar width: 0
XAxis mode: Wavelengths
Number of Pixels in Spectrum: 2048
>>>>>Begin Spectral Data<<<<<
223.165	-16.88
223.4	-16.88
223.635	-16.88
223.869	-15.88
224.104	-24.88
224.338	-18.88
224.573	-18.88
224.808	-6.88
225.042	2.12
225.277	-1.88
225.511	-13.88
225.746	5.12
225.98	6.12
226.215	16.12
226.449	20.12
226.683	5.12
226.918	33.12
227.152	30.12
227.387	37.12
227.621	36.12
227.856	46.12
228.09	51.12
228.324	54.12
228.559	51.12
228.793	60.12
229.027	69.12
229.262	67.12
229.496	75.12
229.73	107.12
229.964	107.12
230.199	84.12
230.433	79.12
230.667	81.12
230.901	86.12
231.136	79.12
231.37	78.12
231.604	87.12
231.838	82.12
232.072	70.12
232.306	83.12
232.541	89.12
232.775	81.12
233.009	89.12
233.243	88.12
233.477	87.12
233.711	90.12
233.945	84.12
234.179	89.12
234.413	85.12
234.647	87.12
234.881	84.12
235.115	87.12
235.349	77.12
235.583	78.12
235.817	88.12
236.051	88.12
236.285	78.12
236.519	80.12
236.753	89.12
236.987	91.12
237.221	94.12
237.455	77.12
237.689	91.12
237.922	72.12
238.156	80.12
238.39	57.12
238.624	81.12
238.858	100.12
239.091	85.12
239.325	81.12
239.559	87.12
239.793	77.12
240.027	84.12
240.26	85.12
240.494	74.12
240.728	81.12
240.961	81.12
241.195	90.12
241.429	83.12
241.662	79.12
241.896	74.12
242.13	73.12
242.363	78.12
242.597	83.12
242.83	90.12
243.064	86.12
243.298	83.12
243.531	73.12
243.765	84.12
243.998	89.12
244.232	78.12
244.465	91.12
244.699	82.12
244.932	86.12
245.166	84.12
245.399	85.12
245.633	89.12
245.866	94.12
246.099	83.12
246.333	69.12
246.566	80.12
246.8	87.12
247.033	85.12
247.266	79.12
247.5	70.12
247.733	81.12
247.966	85.12
248.2	78.12
248.433	93.12
248.666	93.12
248.899	80.12
249.133	90.12
249.366	111.12
249.599	108.12
249.832	89.12
250.066	80.12
250.299	88.12
250.532	87.12
250.765	93.12
250.998	91.12
251.231	90.12
251.465	85.12
251.698	95.12
251.931	94.12
252.164	99.12
252.397	102.12
252.63	95.12
252.863	95.12
253.096	67.12
253.329	90.12
253.562	84.12
253.795	82.12
254.028	83.12
254.261	79.12
254.494	87.12
254.727	84.12
254.96	90.12
255.193	83.12
255.426	91.12
255.659	102.12
255.892	105.12
256.124	115.12
256.357	112.12
256.59	94.12
256.823	98.12
257.056	101.12
257.289	104.12
257.521	99.12
257.754	88.12
257.987	93.12
258.22	129.12
258.452	110.12
258.685	125.12
258.918	85.12
259.151	89.12
259.383	93.12
259.616	99.12
259.849	85.12
260.081	93.12
260.314	103.12
260.547	94.12
260.779	115.12
261.012	136.12
261.244	165.12
261.477	106.12
261.71	113.12
261.942	117.12
262.175	141.12
262.407	97.12
262.64	89.12
262.872	98.12
263.105	88.12
263.337	82.12
263.57	81.12
263.802	98.12
264.035	91.12
264.267	75.12
264.499	89.12
264.732	91.12
264.964	82.12
265.197	85.12
265.429	82.12
265.661	101.12
265.894	114.12
266.126	103.12
266.358	89.12
266.591	95.12
266.823	87.12
267.055	95.12
267.287	89.12
267.52	107.12
267.752	97.12
267.984	77.12
268.216	89.12
268.448	88.12
268.681	94.12
268.913	82.12
269.145	94.12
269.377	91.12
269.609	77.12
269.841	92.12
270.073	93.12
270.306	97.12
270.538	88.12
270.77	89.12
271.002	94.12
271.234	90.12
271.466	105.12
271.698	92.12
271.93	102.12
272.162	85.12
272.394	91.12
272.626	81.12
272.858	91.12
273.09	75.12
273.322	81.12
273.553	92.12
273.785	95.12
274.017	86.12
274.249	90.12
274.481	102.12
274.713	95.12
274.945	100.12
275.176	98.12
275.408	117.12
275.64	142.12
275.872	167.12
276.104	130.12
276.335	119.12
276.567	134.12
276.799	191.12
277.031	280.12
277.262	363.12
277.494	261.12
277.726	133.12
277.957	113.12
278.189	95.12
278.421	90.12
278.652	99.12
278.884	112.12
279.115	95.12
279.347	104.12
279.579	142.12
279.81	189.12
280.042	378.12
280.273	519.12
280.505	347.12
280.736	164.12
280.968	105.12
281.199	105.12
281.431	78.12
281.662	94.12
281.894	95.12
282.125	106.12
282.356	156.12
282.588	186.12
282.819	131.12
283.051	96.12
283.282	91.12
283.513	96.12
283.745	99.12
283.976	93.12
284.207	105.12
284.439	91.12
284.67	97.12
284.901	88.12
285.132	99.12
285.364	91.12
285.595	106.12
285.826	97.12
286.057	93.12
286.288	94.12
286.52	93.12
286.751	99.12
286.982	104.12
287.213	91.12
287.444	107.12
287.675	90.12
287.906	97.12
288.138	99.12
288.369	97.12
288.6	113.12
288.831	98.12
289.062	89.12
289.293	86.12
289.524	88.12
289.755	91.12
289.986	95.12
290.217	83.12
290.448	82.12
290.679	87.12
290.91	110.12
291.141	86.12
291.371	90.12
291.602	103.12
291.833	88.12
292.064	83.12
292.295	105.12
292.526	102.12
292.757	96.12
292.987	96.12
293.218	90.12
293.449	86.12
293.68	101.12
293.91	104.12
294.141	108.12
294.372	93.12
294.603	93.12
294.833	96.12
295.064	88.12
295.295	94.12
295.525	84.12
295.756	111.12
295.987	120.12
296.217	181.12
296.448	170.12
296.679	91.12
296.909	107.12
297.14	105.12
297.37	94.12
297.601	98.12
297.831	99.12
298.062	90.12
298.292	108.12
298.523	104.12
298.753	81.12
298.984	94.12
299.214	107.12
299.445	97.12
299.675	105.12
299.905	102.12
300.136	105.12
300.366	90.12
300.597	90.12
300.827	96.12
301.057	105.12
301.288	131.12
301.518	114.12
301.748	98.12
301.979	138.12
302.209	116.12
302.439	98.12
302.669	103.12
302.9	106.12
303.13	106.12
303.36	131.12
303.59	179.12
303.82	199.12
304.051	122.12
304.281	97.12
304.511	82.12
304.741	112.12
304.971	107.12
305.201	95.12
305.431	88.12
305.661	94.12
305.891	90.12
306.121	103.12
306.352	122.12
306.582	126.12
306.812	130.12
307.042	174.12
307.272	261.12
307.502	299.12
307.731	255.12
307.961	192.12
308.191	105.12
308.421	103.12
308.651	103.12
308.881	105.12
309.111	102.12
309.341	104.12
309.571	121.12
309.8	110.12
310.03	111.12
310.26	103.12
310.49	96.12
310.72	118.12
310.949	125.12
311.179	127.12
311.409	115.12
311.639	110.12
311.868	122.12
312.098	104.12
312.328	94.12
312.557	128.12
312.787	126.12
313.017	129.12
313.246	108.12
313.476	98.12
313.706	94.12
313.935	114.12
314.165	127.12
314.394	120.12
314.624	129.12
314.853	100.12
315.083	98.12
315.312	106.12
315.542	92.12
315.771	102.12
316.001	96.12
316.23	98.12
316.46	91.12
316.689	96.12
316.919	101.12
317.148	106.12
317.377	102.12
317.607	110.12
317.836	89.12
318.065	88.12
318.295	101.12
318.524	104.12
318.753	93.12
318.983	107.12
319.212	121.12
319.441	132.12
319.67	121.12
319.9	98.12
320.129	117.12
320.358	97.12
320.587	87.12
320.816	103.12
321.046	122.12
321.275	92.12
321.504	97.12
321.733	98.12
321.962	100.12
322.191	123.12
322.42	98.12
322.649	114.12
322.878	117.12
323.108	137.12
323.337	142.12
323.566	159.12
323.795	176.12
324.024	205.12
324.253	403.12
324.482	840.12
324.71	1709.12
324.939	2323.12
325.168	877.12
325.397	281.12
325.626	178.12
325.855	132.12
326.084	132.12
326.313	136.12
326.542	174.12
326.77	246.12
326.999	433.12
327.228	849.12
327.457	1610.12
327.686	1407.12
327.914	672.12
328.143	893.12
328.372	1280.12
328.6	669.12
328.829	254.12
329.058	222.12
329.287	244.12
329.515	241.12
329.744	406.12
329.972	866.12
330.201	1956.12
330.43	2873.12
330.658	1177.12
330.887	385.12
331.115	244.12
331.344	155.12
331.572	134.12
331.801	127.12
332.03	129.12
332.258	129.12
332.486	125.12
332.715	121.12
332.943	120.12
333.172	143.12
333.4	150.12
333.629	218.12
333.857	330.12
334.085	727.12
334.314	1661.12
334.542	3415.12
334.771	3166.12
334.999	784.12
335.227	257.12
335.455	161.12
335.684	142.12
335.912	125.12
336.14	121.12
336.369	130.12
336.597	126.12
336.825	97.12
337.053	122.12
337.281	103.12
337.51	112.12
337.738	96.12
337.966	111.12
338.194	122.12
338.422	107.12
338.65	104.12
338.878	89.12
339.106	91.12
339.334	98.12
339.562	98.12
339.79	100.12
340.018	84.12
340.246	94.12
340.474	115.12
340.702	111.12
340.93	96.12
341.158	106.12
341.386	101.12
341.614	88.12
341.842	94.12
342.07	73.12
342.298	103.12
342.526	98.12
342.754	86.12
342.981	117.12
343.209	79.12
343.437	106.12
343.665	89.12
343.893	100.12
344.12	88.12
344.348	101.12
344.576	85.12
344.804	97.12
345.031	115.12
345.259	105.12
345.487	109.12
345.714	98.12
345.942	96.12
346.17	92.12
346.397	94.12
346.625	105.12
346.853	100.12
347.08	106.12
347.308	121.12
347.535	98.12
347.763	124.12
347.99	112.12
348.218	100.12
348.445	120.12
348.673	105.12
348.9	104.12
349.128	102.12
349.355	95.12
349.583	102.12
349.81	93.12
350.037	90.12
350.265	93.12
350.492	98.12
350.72	103.12
350.947	111.12
351.174	135.12
351.402	122.12
351.629	109.12
351.856	111.12
352.083	115.12
352.311	115.12
352.538	125.12
352.765	110.12
352.992	115.12
353.22	117.12
353.447	107.12
353.674	117.12
353.901	85.12
354.128	96.12
354.355	95.12
354.583	88.12
354.81	98.12
355.037	88.12
355.264	99.12
355.491	85.12
355.718	91.12
355.945	93.12
356.172	99.12
356.399	96.12
356.626	90.12
356.853	85.12
357.08	97.12
357.307	89.12
357.534	109.12
357.761	98.12
357.988	96.12
358.215	113.12
358.441	94.12
358.668	97.12
358.895	94.12
359.122	83.12
359.349	105.12
359.576	104.12
359.802	114.12
360.029	140.12
360.256	136.12
360.483	107.12
360.709	112.12
360.936	96.12
361.163	103.12
361.39	90.12
361.616	108.12
361.843	96.12
362.07	99.12
362.296	113.12
362.523	97.12
362.749	95.12
362.976	99.12
363.203	91.12
363.429	104.12
363.656	98.12
363.882	79.12
364.109	86.12
364.335	100.12
364.562	104.12
364.788	100.12
365.015	100.12
365.241	109.12
365.468	120.12
365.694	113.12
365.92	120.12
366.147	95.12
366.373	93.12
366.599	90.12
366.826	105.12
367.052	87.12
367.278	104.12
367.505	101.12
367.731	102.12
367.957	89.12
368.184	93.12
368.41	121.12
368.636	115.12
368.862	131.12
369.089	130.12
369.315	98.12
369.541	102.12
369.767	102.12
369.993	94.12
370.219	83.12
370.445	85.12
370.672	110.12
370.898	93.12
371.124	92.12
371.35	86.12
371.576	83.12
371.802	96.12
372.028	102.12
372.254	100.12
372.48	90.12
372.706	94.12
372.932	80.12
373.158	97.12
373.384	88.12
373.61	85.12
373.835	90.12
374.061	93.12
374.287	105.12
374.513	100.12
374.739	99.12
374.965	93.12
375.191	90.12
375.416	97.12
375.642	92.12
375.868	83.12
376.094	96.12
376.319	91.12
376.545	90.12
376.771	87.12
376.997	97.12
377.222	86.12
377.448	93.12
377.674	82.12
377.899	97.12
378.125	94.12
378.35	91.12
378.576	79.12
378.802	102.12
379.027	105.12
379.253	93.12
379.478	103.12
379.704	94.12
379.929	84.12
380.155	90.12
380.38	94.12
380.606	93.12
380.831	95.12
381.057	105.12
381.282	93.12
381.507	106.12
381.733	107.12
381.958	111.12
382.184	105.12
382.409	108.12
382.634	109.12
382.86	126.12
383.085	103.12
383.31	112.12
383.535	101.12
383.761	103.12
383.986	104.12
384.211	109.12
384.436	108.12
384.662	104.12
384.887	113.12
385.112	113.12
385.337	114.12
385.562	108.12
385.787	112.12
386.013	110.12
386.238	128.12
386.463	119.12
386.688	130.12
386.913	102.12
387.138	112.12
387.363	102.12
387.588	103.12
387.813	93.12
388.038	115.12
388.263	127.12
388.488	115.12
388.713	81.12
388.938	81.12
389.163	92.12
389.387	93.12
389.612	92.12
389.837	86.12
390.062	95.12
390.287	94.12
390.512	90.12
390.736	89.12
390.961	94.12
391.186	90.12
391.411	100.12
391.636	96.12
391.86	93.12
392.085	91.12
392.31	85.12
392.534	85.12
392.759	92.12
392.984	82.12
393.208	94.12
393.433	96.12
393.658	104.12
393.882	79.12
394.107	94.12
394.331	87.12
394.556	94.12
394.78	86.12
395.005	90.12
395.229	91.12
395.454	87.12
395.678	87.12
395.903	82.12
396.127	99.12
396.352	97.12
396.576	97.12
396.801	79.12
397.025	94.12
397.249	95.12
397.474	87.12
397.698	95.12
397.922	94.12
398.147	91.12
398.371	89.12
398.595	92.12
398.82	82.12
399.044	87.12
399.268	86.12
399.492	94.12
399.717	101.12
399.941	88.12
400.165	109.12
400.389	94.12
400.613	102.12
400.837	86.12
401.062	102.12
401.286	97.12
401.51	103.12
401.734	95.12
401.958	118.12
402.182	139.12
402.406	195.12
402.63	148.12
402.854	112.12
403.078	95.12
403.302	102.12
403.526	94.12
403.75	79.12
403.974	93.12
404.198	95.12
404.422	101.12
404.645	106.12
404.869	123.12
405.093	113.12
405.317	155.12
405.541	160.12
405.765	125.12
405.988	139.12
406.212	201.12
406.436	302.12
406.66	207.12
406.883	131.12
407.107	117.12
407.331	91.12
407.555	111.12
407.778	112.12
408.002	87.12
408.226	99.12
408.449	99.12
408.673	106.12
408.896	93.12
409.12	77.12
409.344	99.12
409.567	89.12
409.791	105.12
410.014	96.12
410.238	94.12
410.461	86.12
410.685	109.12
410.908	92.12
411.132	111.12
411.355	101.12
411.578	97.12
411.802	84.12
412.025	97.12
412.249	107.12
412.472	131.12
412.695	155.12
412.919	120.12
413.142	110.12
413.365	105.12
413.589	106.12
413.812	94.12
414.035	99.12
414.258	115.12
414.482	112.12
414.705	93.12
414.928	105.12
415.151	103.12
415.374	90.12
415.597	101.12
415.821	97.12
416.044	100.12
416.267	93.12
416.49	104.12
416.713	98.12
416.936	97.12
417.159	91.12
417.382	107.12
417.605	134.12
417.828	138.12
418.051	103.12
418.274	104.12
418.497	95.12
418.72	83.12
418.943	91.12
419.166	93.12
419.389	87.12
419.611	93.12
419.834	89.12
420.057	104.12
420.28	103.12
420.503	91.12
420.726	84.12
420.948	98.12
421.171	122.12
421.394	99.12
421.617	91.12
421.839	85.12
422.062	87.12
422.285	92.12
422.507	109.12
422.73	97.12
422.953	104.12
423.175	88.12
423.398	99.12
423.621	87.12
423.843	83.12
424.066	84.12
424.288	83.12
424.511	91.12
424.733	114.12
424.956	126.12
425.178	116.12
425.401	110.12
425.623	103.12
425.846	88.12
426.068	95.12
426.291	97.12
426.513	95.12
426.735	96.12
426.958	118.12
427.18	133.12
427.402	178.12
427.625	248.12
427.847	257.12
428.069	211.12
428.292	147.12
428.514	115.12
428.736	98.12
428.958	96.12
429.181	97.12
429.403	90.12
429.625	87.12
429.847	93.12
430.069	107.12
430.292	92.12
430.514	97.12
430.736	98.12
430.958	84.12
431.18	86.12
431.402	82.12
431.624	90.12
431.846	90.12
432.068	82.12
432.29	78.12
432.512	93.12
432.734	94.12
432.956	90.12
433.178	96.12
433.4	98.12
433.622	94.12
433.844	102.12
434.066	88.12
434.287	91.12
434.509	93.12
434.731	110.12
434.953	91.12
435.175	89.12
435.397	89.12
435.618	91.12
435.84	103.12
436.062	119.12
436.284	130.12
436.505	100.12
436.727	100.12
436.949	98.12
437.17	92.12
437.392	90.12
437.614	92.12
437.835	116.12
438.057	152.12
438.278	112.12
438.5	111.12
438.721	134.12
438.943	121.12
439.165	89.12
439.386	87.12
439.608	93.12
439.829	97.12
440.05	148.12
440.272	177.12
440.493	99.12
440.715	87.12
440.936	95.12
441.158	102.12
441.379	89.12
441.6	100.12
441.822	109.12
442.043	97.12
442.264	115.12
442.486	109.12
442.707	106.12
442.928	116.12
443.149	186.12
443.371	189.12
443.592	147.12
443.813	122.12
444.034	117.12
444.255	91.12
444.476	94.12
444.698	90.12
444.919	95.12
445.14	122.12
445.361	130.12
445.582	144.12
445.803	166.12
446.024	160.12
446.245	161.12
446.466	112.12
446.687	111.12
446.908	94.12
447.129	101.12
447.35	94.12
447.571	106.12
447.792	94.12
448.013	114.12
448.234	112.12
448.455	118.12
448.675	125.12
448.896	125.12
449.117	110.12
449.338	117.12
449.559	143.12
449.779	143.12
450	114.12
450.221	101.12
450.442	104.12
450.662	118.12
450.883	116.12
451.104	138.12
451.324	105.12
451.545	107.12
451.766	99.12
451.986	96.12
452.207	98.12
452.428	93.12
452.648	113.12
452.869	131.12
453.089	136.12
453.31	148.12
453.53	114.12
453.751	103.12
453.971	125.12
454.192	149.12
454.412	101.12
454.633	99.12
454.853	81.12
455.073	96.12
455.294	83.12
455.514	107.12
455.734	100.12
455.955	85.12
456.175	83.12
456.395	93.12
456.616	94.12
456.836	89.12
457.056	89.12
457.276	95.12
457.497	91.12
457.717	85.12
457.937	102.12
458.157	91.12
458.377	95.12
458.598	125.12
458.818	194.12
459.038	228.12
459.258	156.12
459.478	103.12
459.698	102.12
459.918	99.12
460.138	85.12
460.358	77.12
460.578	96.12
460.798	93.12
461.018	100.12
461.238	97.12
461.458	91.12
461.678	97.12
461.898	92.12
462.118	95.12
462.338	94.12
462.558	110.12
462.777	97.12
462.997	111.12
463.217	133.12
463.437	124.12
463.657	103.12
463.876	91.12
464.096	99.12
464.316	86.12
464.536	103.12
464.755	114.12
464.975	122.12
465.195	234.12
465.414	246.12
465.634	117.12
465.854	96.12
466.073	103.12
466.293	101.12
466.512	102.12
466.732	102.12
466.951	103.12
467.171	112.12
467.391	135.12
467.61	182.12
467.829	361.12
468.049	1212.12
468.268	1941.12
468.488	421.12
468.707	147.12
468.927	109.12
469.146	102.12
469.365	99.12
469.585	97.12
469.804	119.12
470.023	115.12
470.243	104.12
470.462	132.12
470.681	153.12
470.901	120.12
471.12	105.12
471.339	127.12
471.558	163.12
471.777	233.12
471.997	526.12
472.216	2215.12
472.435	5309.12
472.654	1083.12
472.873	239.12
473.092	159.12
473.311	120.12
473.53	103.12
473.749	110.12
473.968	106.12
474.187	121.12
474.406	109.12
474.625	109.12
474.844	99.12
475.063	100.12
475.282	107.12
475.501	97.12
475.72	92.12
475.939	101.12
476.158	89.12
476.377	91.12
476.596	105.12
476.814	116.12
477.033	106.12
477.252	96.12
477.471	93.12
477.69	98.12
477.908	90.12
478.127	110.12
478.346	98.12
478.564	110.12
478.783	112.12
479.002	113.12
479.22	121.12
479.439	130.12
479.658	150.12
479.876	160.12
480.095	143.12
480.313	178.12
480.532	251.12
480.751	456.12
480.969	1872.12
481.188	8410.12
481.406	4709.12
481.624	593.12
481.843	197.12
482.061	130.12
482.28	113.12
482.498	102.12
482.717	106.12
482.935	98.12
483.153	104.12
483.372	102.12
483.59	94.12
483.808	93.12
484.027	91.12
484.245	73.12
484.463	94.12
484.681	102.12
484.9	87.12
485.118	105.12
485.336	99.12
485.554	106.12
485.772	105.12
485.99	118.12
486.209	109.12
486.427	106.12
486.645	129.12
486.863	139.12
487.081	119.12
487.299	99.12
487.517	91.12
487.735	92.12
487.953	101.12
488.171	106.12
488.389	95.12
488.607	106.12
488.825	94.12
489.043	97.12
489.261	90.12
489.479	89.12
489.696	89.12
489.914	97.12
490.132	86.12
490.35	90.12
490.568	89.12
490.786	88.12
491.003	109.12
491.221	87.12
491.439	110.12
491.657	101.12
491.874	105.12
492.092	95.12
492.31	89.12
492.527	118.12
492.745	106.12
492.963	101.12
493.18	86.12
493.398	103.12
493.615	98.12
493.833	96.12
494.05	106.12
494.268	96.12
494.485	77.12
494.703	94.12
494.92	88.12
495.138	96.12
495.355	99.12
495.573	119.12
495.79	106.12
496.008	98.12
496.225	95.12
496.442	107.12
496.66	96.12
496.877	95.12
497.094	98.12
497.312	87.12
497.529	97.12
497.746	93.12
497.963	100.12
498.181	117.12
498.398	95.12
498.615	121.12
498.832	122.12
499.049	103.12
499.267	115.12
499.484	90.12
499.701	98.12
499.918	93.12
500.135	99.12
500.352	105.12
500.569	111.12
500.786	113.12
501.003	94.12
501.22	108.12
501.437	98.12
501.654	106.12
501.871	119.12
502.088	103.12
502.305	106.12
502.522	96.12
502.739	79.12
502.956	97.12
503.172	98.12
503.389	116.12
503.606	134.12
503.823	114.12
504.04	91.12
504.256	95.12
504.473	98.12
504.69	95.12
504.907	106.12
505.123	103.12
505.34	99.12
505.557	100.12
505.773	92.12
505.99	102.12
506.207	93.12
506.423	90.12
506.64	98.12
506.856	95.12
507.073	92.12
507.289	95.12
507.506	98.12
507.722	153.12
507.939	137.12
508.155	105.12
508.372	103.12
508.588	102.12
508.805	100.12
509.021	99.12
509.238	112.12
509.454	113.12
509.67	122.12
509.887	108.12
510.103	142.12
510.319	249.12
510.536	935.12
510.752	3426.12
510.968	894.12
511.184	207.12
