Data from Circ_1988_H10_HRD10591_00059.txt Node
Date: Wed Jan 03 12:05:46 EST 2024
User: Yrep
Spectrometer: HR+D1059
Trigger mode: 1
Integration Time (sec): 1.000000E-1
Scans to average: 1
Electric dark correction enabled: true
Nonlinearity correction enabled: false
Boxcar width: 0
XAxis mode: Wavelengths
Number of Pixels in Spectrum: 2048
>>>>>Begin Spectral Data<<<<<
223.165	-30.25
223.4	-30.25
223.635	-30.25
223.869	-8.25
224.104	-23.25
224.338	-19.25
224.573	-3.25
224.808	-12.25
225.042	-18.25
225.277	-14.25
225.511	-9.25
225.746	4.75
225.98	16.75
226.215	28.75
226.449	22.75
226.683	16.75
226.918	21.75
227.152	26.75
227.387	34.75
227.621	34.75
227.856	36.75
228.09	48.75
228.324	52.75
228.559	50.75
228.793	40.75
229.027	62.75
229.262	69.75
229.496	76.75
229.73	94.75
229.964	88.75
230.199	71.75
230.433	90.75
230.667	87.75
230.901	74.75
231.136	84.75
231.37	84.75
231.604	71.75
231.838	95.75
232.072	78.75
232.306	68.75
232.541	82.75
232.775	78.75
233.009	84.75
233.243	89.75
233.477	89.75
233.711	85.75
233.945	83.75
234.179	90.75
234.413	85.75
234.647	79.75
234.881	88.75
235.115	68.75
235.349	86.75
235.583	88.75
235.817	87.75
236.051	83.75
236.285	88.75
236.519	65.75
236.753	85.75
236.987	95.75
237.221	77.75
237.455	89.75
237.689	81.75
237.922	87.75
238.156	77.75
238.39	84.75
238.624	71.75
238.858	71.75
239.091	85.75
239.325	85.75
239.559	93.75
239.793	83.75
240.027	70.75
240.26	70.75
240.494	88.75
240.728	67.75
240.961	89.75
241.195	89.75
241.429	79.75
241.662	86.75
241.896	89.75
242.13	87.75
242.363	72.75
242.597	83.75
242.83	68.75
243.064	74.75
243.298	99.75
243.531	76.75
243.765	81.75
243.998	80.75
244.232	84.75
244.465	98.75
244.699	90.75
244.932	79.75
245.166	79.75
245.399	81.75
245.633	80.75
245.866	79.75
246.099	77.75
246.333	88.75
246.566	88.75
246.8	64.75
247.033	96.75
247.266	76.75
247.5	93.75
247.733	90.75
247.966	73.75
248.2	82.75
248.433	81.75
248.666	78.75
248.899	90.75
249.133	91.75
249.366	115.75
249.599	118.75
249.832	89.75
250.066	95.75
250.299	97.75
250.532	98.75
250.765	92.75
250.998	85.75
251.231	79.75
251.465	94.75
251.698	98.75
251.931	91.75
252.164	97.75
252.397	95.75
252.63	88.75
252.863	77.75
253.096	92.75
253.329	82.75
253.562	76.75
253.795	73.75
254.028	92.75
254.261	92.75
254.494	78.75
254.727	81.75
254.96	71.75
255.193	75.75
255.426	99.75
255.659	87.75
255.892	99.75
256.124	109.75
256.357	93.75
256.59	100.75
256.823	86.75
257.056	95.75
257.289	90.75
257.521	74.75
257.754	87.75
257.987	99.75
258.22	110.75
258.452	116.75
258.685	124.75
258.918	102.75
259.151	90.75
259.383	68.75
259.616	93.75
259.849	77.75
260.081	80.75
260.314	102.75
260.547	88.75
260.779	122.75
261.012	141.75
261.244	123.75
261.477	101.75
261.71	111.75
261.942	134.75
262.175	128.75
262.407	104.75
262.64	85.75
262.872	86.75
263.105	88.75
263.337	91.75
263.57	83.75
263.802	89.75
264.035	86.75
264.267	101.75
264.499	86.75
264.732	100.75
264.964	89.75
265.197	87.75
265.429	89.75
265.661	79.75
265.894	89.75
266.126	90.75
266.358	93.75
266.591	84.75
266.823	85.75
267.055	93.75
267.287	92.75
267.52	93.75
267.752	85.75
267.984	81.75
268.216	84.75
268.448	103.75
268.681	94.75
268.913	92.75
269.145	95.75
269.377	77.75
269.609	80.75
269.841	79.75
270.073	93.75
270.306	86.75
270.538	94.75
270.77	87.75
271.002	82.75
271.234	93.75
271.466	89.75
271.698	102.75
271.93	81.75
272.162	94.75
272.394	101.75
272.626	86.75
272.858	92.75
273.09	92.75
273.322	87.75
273.553	94.75
273.785	90.75
274.017	85.75
274.249	81.75
274.481	100.75
274.713	99.75
274.945	106.75
275.176	96.75
275.408	115.75
275.64	135.75
275.872	165.75
276.104	126.75
276.335	102.75
276.567	126.75
276.799	191.75
277.031	266.75
277.262	343.75
277.494	238.75
277.726	129.75
277.957	106.75
278.189	103.75
278.421	106.75
278.652	103.75
278.884	100.75
279.115	108.75
279.347	100.75
279.579	129.75
279.81	182.75
280.042	312.75
280.273	482.75
280.505	315.75
280.736	132.75
280.968	127.75
281.199	101.75
281.431	101.75
281.662	88.75
281.894	100.75
282.125	98.75
282.356	127.75
282.588	166.75
282.819	147.75
283.051	105.75
283.282	84.75
283.513	103.75
283.745	87.75
283.976	72.75
284.207	84.75
284.439	100.75
284.67	83.75
284.901	84.75
285.132	90.75
285.364	78.75
285.595	88.75
285.826	79.75
286.057	77.75
286.288	90.75
286.52	79.75
286.751	86.75
286.982	80.75
287.213	80.75
287.444	80.75
287.675	70.75
287.906	106.75
288.138	83.75
288.369	91.75
288.6	92.75
288.831	99.75
289.062	96.75
289.293	94.75
289.524	84.75
289.755	94.75
289.986	88.75
290.217	94.75
290.448	78.75
290.679	81.75
290.91	87.75
291.141	97.75
291.371	92.75
291.602	90.75
291.833	98.75
292.064	85.75
292.295	91.75
292.526	83.75
292.757	91.75
292.987	93.75
293.218	96.75
293.449	84.75
293.68	89.75
293.91	88.75
294.141	112.75
294.372	95.75
294.603	92.75
294.833	85.75
295.064	97.75
295.295	89.75
295.525	94.75
295.756	107.75
295.987	140.75
296.217	173.75
296.448	149.75
296.679	101.75
296.909	82.75
297.14	85.75
297.37	92.75
297.601	94.75
297.831	90.75
298.062	92.75
298.292	89.75
298.523	107.75
298.753	99.75
298.984	99.75
299.214	92.75
299.445	101.75
299.675	84.75
299.905	112.75
300.136	104.75
300.366	89.75
300.597	99.75
300.827	97.75
301.057	120.75
301.288	111.75
301.518	113.75
301.748	121.75
301.979	128.75
302.209	103.75
302.439	103.75
302.669	105.75
302.9	98.75
303.13	102.75
303.36	143.75
303.59	186.75
303.82	205.75
304.051	106.75
304.281	94.75
304.511	104.75
304.741	100.75
304.971	96.75
305.201	87.75
305.431	105.75
305.661	92.75
305.891	93.75
306.121	111.75
306.352	115.75
306.582	128.75
306.812	111.75
307.042	158.75
307.272	258.75
307.502	288.75
307.731	255.75
307.961	183.75
308.191	105.75
308.421	92.75
308.651	97.75
308.881	99.75
309.111	89.75
309.341	98.75
309.571	111.75
309.8	96.75
310.03	91.75
310.26	96.75
310.49	96.75
310.72	113.75
310.949	113.75
311.179	110.75
311.409	108.75
311.639	126.75
311.868	101.75
312.098	97.75
312.328	109.75
312.557	121.75
312.787	114.75
313.017	126.75
313.246	97.75
313.476	96.75
313.706	108.75
313.935	110.75
314.165	107.75
314.394	99.75
314.624	96.75
314.853	112.75
315.083	101.75
315.312	100.75
315.542	106.75
315.771	102.75
316.001	88.75
316.23	86.75
316.46	89.75
316.689	99.75
316.919	92.75
317.148	94.75
317.377	90.75
317.607	105.75
317.836	104.75
318.065	97.75
318.295	82.75
318.524	89.75
318.753	93.75
318.983	90.75
319.212	116.75
319.441	111.75
319.67	132.75
319.9	97.75
320.129	95.75
320.358	95.75
320.587	101.75
320.816	91.75
321.046	94.75
321.275	94.75
321.504	97.75
321.733	105.75
321.962	117.75
322.191	104.75
322.42	108.75
322.649	116.75
322.878	121.75
323.108	129.75
323.337	128.75
323.566	152.75
323.795	173.75
324.024	221.75
324.253	378.75
324.482	816.75
324.71	1620.75
324.939	2189.75
325.168	862.75
325.397	261.75
325.626	170.75
325.855	125.75
326.084	140.75
326.313	144.75
326.542	145.75
326.77	232.75
326.999	424.75
327.228	833.75
327.457	1512.75
327.686	1278.75
327.914	609.75
328.143	841.75
328.372	1202.75
328.6	608.75
328.829	237.75
329.058	216.75
329.287	225.75
329.515	225.75
329.744	392.75
329.972	821.75
330.201	1806.75
330.43	2757.75
330.658	1115.75
330.887	397.75
331.115	228.75
331.344	151.75
331.572	132.75
331.801	140.75
332.03	126.75
332.258	120.75
332.486	131.75
332.715	134.75
332.943	126.75
333.172	146.75
333.4	160.75
333.629	203.75
333.857	338.75
334.085	681.75
334.314	1602.75
334.542	3157.75
334.771	3044.75
334.999	720.75
335.227	245.75
335.455	164.75
335.684	144.75
335.912	129.75
336.14	122.75
336.369	123.75
336.597	103.75
336.825	125.75
337.053	116.75
337.281	106.75
337.51	88.75
337.738	108.75
337.966	114.75
338.194	105.75
338.422	109.75
338.65	104.75
338.878	102.75
339.106	102.75
339.334	99.75
339.562	99.75
339.79	94.75
340.018	102.75
340.246	110.75
340.474	99.75
340.702	104.75
340.93	86.75
341.158	92.75
341.386	97.75
341.614	98.75
341.842	102.75
342.07	101.75
342.298	102.75
342.526	85.75
342.754	78.75
342.981	101.75
343.209	97.75
343.437	102.75
343.665	94.75
343.893	103.75
344.12	102.75
344.348	89.75
344.576	97.75
344.804	91.75
345.031	120.75
345.259	122.75
345.487	103.75
345.714	102.75
345.942	100.75
346.17	99.75
346.397	92.75
346.625	101.75
346.853	96.75
347.08	98.75
347.308	112.75
347.535	115.75
347.763	114.75
347.99	102.75
348.218	113.75
348.445	105.75
348.673	109.75
348.9	104.75
349.128	102.75
349.355	86.75
349.583	95.75
349.81	106.75
350.037	98.75
350.265	110.75
350.492	102.75
350.72	103.75
350.947	98.75
351.174	117.75
351.402	116.75
351.629	98.75
351.856	123.75
352.083	118.75
352.311	113.75
352.538	125.75
352.765	131.75
352.992	133.75
353.22	119.75
353.447	110.75
353.674	105.75
353.901	105.75
354.128	101.75
354.355	94.75
354.583	100.75
354.81	86.75
355.037	101.75
355.264	92.75
355.491	88.75
355.718	79.75
355.945	95.75
356.172	103.75
356.399	100.75
356.626	92.75
356.853	103.75
357.08	90.75
357.307	96.75
357.534	101.75
357.761	99.75
357.988	105.75
358.215	85.75
358.441	88.75
358.668	99.75
358.895	109.75
359.122	103.75
359.349	97.75
359.576	100.75
359.802	117.75
360.029	149.75
360.256	136.75
360.483	117.75
360.709	102.75
360.936	116.75
361.163	100.75
361.39	112.75
361.616	114.75
361.843	88.75
362.07	101.75
362.296	108.75
362.523	98.75
362.749	93.75
362.976	93.75
363.203	97.75
363.429	85.75
363.656	104.75
363.882	111.75
364.109	87.75
364.335	88.75
364.562	86.75
364.788	98.75
365.015	105.75
365.241	115.75
365.468	126.75
365.694	115.75
365.92	115.75
366.147	81.75
366.373	74.75
366.599	104.75
366.826	96.75
367.052	90.75
367.278	93.75
367.505	89.75
367.731	96.75
367.957	111.75
368.184	99.75
368.41	104.75
368.636	132.75
368.862	134.75
369.089	112.75
369.315	99.75
369.541	96.75
369.767	86.75
369.993	101.75
370.219	97.75
370.445	102.75
370.672	90.75
370.898	92.75
371.124	68.75
371.35	79.75
371.576	96.75
371.802	88.75
372.028	87.75
372.254	94.75
372.48	98.75
372.706	82.75
372.932	90.75
373.158	85.75
373.384	71.75
373.61	98.75
373.835	86.75
374.061	106.75
374.287	87.75
374.513	95.75
374.739	96.75
374.965	96.75
375.191	80.75
375.416	77.75
375.642	83.75
375.868	85.75
376.094	92.75
376.319	90.75
376.545	104.75
376.771	83.75
376.997	87.75
377.222	96.75
377.448	95.75
377.674	97.75
377.899	106.75
378.125	89.75
378.35	77.75
378.576	88.75
378.802	92.75
379.027	95.75
379.253	95.75
379.478	86.75
379.704	84.75
379.929	103.75
380.155	97.75
380.38	116.75
380.606	104.75
380.831	94.75
381.057	92.75
381.282	105.75
381.507	99.75
381.733	105.75
381.958	103.75
382.184	99.75
382.409	111.75
382.634	105.75
382.86	112.75
383.085	100.75
383.31	93.75
383.535	91.75
383.761	96.75
383.986	114.75
384.211	106.75
384.436	109.75
384.662	117.75
384.887	122.75
385.112	110.75
385.337	98.75
385.562	104.75
385.787	120.75
386.013	114.75
386.238	121.75
386.463	117.75
386.688	99.75
386.913	97.75
387.138	110.75
387.363	119.75
387.588	112.75
387.813	103.75
388.038	114.75
388.263	123.75
388.488	111.75
388.713	96.75
388.938	93.75
389.163	76.75
389.387	93.75
389.612	96.75
389.837	80.75
390.062	96.75
390.287	91.75
390.512	78.75
390.736	92.75
390.961	89.75
391.186	85.75
391.411	106.75
391.636	85.75
391.86	73.75
392.085	89.75
392.31	82.75
392.534	89.75
392.759	76.75
392.984	90.75
393.208	103.75
393.433	91.75
393.658	97.75
393.882	91.75
394.107	95.75
394.331	79.75
394.556	99.75
394.78	82.75
395.005	79.75
395.229	87.75
395.454	98.75
395.678	79.75
395.903	94.75
396.127	95.75
396.352	96.75
396.576	83.75
396.801	100.75
397.025	101.75
397.249	101.75
397.474	89.75
397.698	105.75
397.922	102.75
398.147	85.75
398.371	92.75
398.595	88.75
398.82	86.75
399.044	92.75
399.268	86.75
399.492	79.75
399.717	99.75
399.941	90.75
400.165	81.75
400.389	96.75
400.613	108.75
400.837	91.75
401.062	81.75
401.286	104.75
401.51	89.75
401.734	106.75
401.958	108.75
402.182	132.75
402.406	204.75
402.63	142.75
402.854	92.75
403.078	111.75
403.302	97.75
403.526	102.75
403.75	91.75
403.974	93.75
404.198	90.75
404.422	92.75
404.645	90.75
404.869	112.75
405.093	115.75
405.317	144.75
405.541	147.75
405.765	114.75
405.988	146.75
406.212	212.75
406.436	317.75
406.66	213.75
406.883	130.75
407.107	100.75
407.331	105.75
407.555	114.75
407.778	112.75
408.002	110.75
408.226	86.75
408.449	95.75
408.673	90.75
408.896	98.75
409.12	97.75
409.344	109.75
409.567	82.75
409.791	84.75
410.014	86.75
410.238	87.75
410.461	84.75
410.685	90.75
410.908	90.75
411.132	104.75
411.355	104.75
411.578	88.75
411.802	91.75
412.025	101.75
412.249	118.75
412.472	125.75
412.695	147.75
412.919	115.75
413.142	110.75
413.365	86.75
413.589	87.75
413.812	96.75
414.035	106.75
414.258	100.75
414.482	110.75
414.705	99.75
414.928	88.75
415.151	77.75
415.374	96.75
415.597	90.75
415.821	82.75
416.044	99.75
416.267	110.75
416.49	94.75
416.713	85.75
416.936	95.75
417.159	97.75
417.382	103.75
417.605	120.75
417.828	114.75
418.051	101.75
418.274	83.75
418.497	86.75
418.72	100.75
418.943	100.75
419.166	83.75
419.389	96.75
419.611	96.75
419.834	94.75
420.057	104.75
420.28	115.75
420.503	96.75
420.726	86.75
420.948	112.75
421.171	102.75
421.394	103.75
421.617	102.75
421.839	93.75
422.062	95.75
422.285	101.75
422.507	102.75
422.73	129.75
422.953	103.75
423.175	92.75
423.398	98.75
423.621	87.75
423.843	82.75
424.066	80.75
424.288	90.75
424.511	101.75
424.733	94.75
424.956	118.75
425.178	89.75
425.401	123.75
425.623	110.75
425.846	103.75
426.068	102.75
426.291	103.75
426.513	79.75
426.735	94.75
426.958	105.75
427.18	105.75
427.402	165.75
427.625	248.75
427.847	238.75
428.069	200.75
428.292	134.75
428.514	112.75
428.736	97.75
428.958	95.75
429.181	85.75
429.403	80.75
429.625	104.75
429.847	104.75
430.069	119.75
430.292	114.75
430.514	90.75
430.736	84.75
430.958	99.75
431.18	96.75
431.402	76.75
431.624	81.75
431.846	84.75
432.068	97.75
432.29	86.75
432.512	94.75
432.734	99.75
432.956	101.75
433.178	101.75
433.4	104.75
433.622	92.75
433.844	95.75
434.066	105.75
434.287	98.75
434.509	101.75
434.731	96.75
434.953	84.75
435.175	92.75
435.397	65.75
435.618	96.75
435.84	111.75
436.062	128.75
436.284	125.75
436.505	112.75
436.727	89.75
436.949	110.75
437.17	95.75
437.392	85.75
437.614	103.75
437.835	120.75
438.057	144.75
438.278	120.75
438.5	128.75
438.721	134.75
438.943	115.75
439.165	107.75
439.386	98.75
439.608	102.75
439.829	111.75
440.05	137.75
440.272	157.75
440.493	111.75
440.715	95.75
440.936	86.75
441.158	88.75
441.379	105.75
441.6	101.75
441.822	98.75
442.043	111.75
442.264	112.75
442.486	124.75
442.707	102.75
442.928	124.75
443.149	179.75
443.371	170.75
443.592	146.75
443.813	121.75
444.034	121.75
444.255	105.75
444.476	96.75
444.698	90.75
444.919	90.75
445.14	133.75
445.361	132.75
445.582	130.75
445.803	175.75
446.024	153.75
446.245	142.75
446.466	133.75
446.687	110.75
446.908	88.75
447.129	100.75
447.35	104.75
447.571	100.75
447.792	106.75
448.013	102.75
448.234	132.75
448.455	110.75
448.675	124.75
448.896	130.75
449.117	99.75
449.338	109.75
449.559	147.75
449.779	149.75
450	105.75
450.221	108.75
450.442	78.75
450.662	117.75
450.883	136.75
451.104	131.75
451.324	117.75
451.545	80.75
451.766	96.75
451.986	90.75
452.207	96.75
452.428	98.75
452.648	101.75
452.869	123.75
453.089	117.75
453.31	140.75
453.53	95.75
453.751	99.75
453.971	124.75
454.192	130.75
454.412	102.75
454.633	103.75
454.853	112.75
455.073	78.75
455.294	80.75
455.514	111.75
455.734	105.75
455.955	98.75
456.175	88.75
456.395	88.75
456.616	88.75
456.836	74.75
457.056	93.75
457.276	98.75
457.497	94.75
457.717	88.75
457.937	91.75
458.157	95.75
458.377	104.75
458.598	125.75
458.818	204.75
459.038	223.75
459.258	176.75
459.478	101.75
459.698	84.75
459.918	79.75
460.138	101.75
460.358	86.75
460.578	100.75
460.798	95.75
461.018	106.75
461.238	85.75
461.458	91.75
461.678	92.75
461.898	86.75
462.118	81.75
462.338	86.75
462.558	86.75
462.777	102.75
462.997	117.75
463.217	143.75
463.437	105.75
463.657	93.75
463.876	114.75
464.096	104.75
464.316	103.75
464.536	113.75
464.755	96.75
464.975	121.75
465.195	233.75
465.414	230.75
465.634	108.75
465.854	100.75
466.073	101.75
466.293	93.75
466.512	93.75
466.732	106.75
466.951	113.75
467.171	114.75
467.391	124.75
467.61	181.75
467.829	339.75
468.049	1168.75
468.268	1855.75
468.488	398.75
468.707	152.75
468.927	104.75
469.146	104.75
469.365	97.75
469.585	103.75
469.804	110.75
470.023	110.75
470.243	117.75
470.462	124.75
470.681	134.75
470.901	114.75
471.12	120.75
471.339	120.75
471.558	150.75
471.777	230.75
471.997	514.75
472.216	2094.75
472.435	5159.75
472.654	1078.75
472.873	255.75
473.092	134.75
473.311	112.75
473.53	112.75
473.749	88.75
473.968	116.75
474.187	124.75
474.406	111.75
474.625	92.75
474.844	103.75
475.063	107.75
475.282	89.75
475.501	100.75
475.72	94.75
475.939	103.75
476.158	85.75
476.377	92.75
476.596	113.75
476.814	119.75
477.033	95.75
477.252	100.75
477.471	96.75
477.69	99.75
477.908	90.75
478.127	94.75
478.346	101.75
478.564	115.75
478.783	119.75
479.002	105.75
479.22	119.75
479.439	143.75
479.658	149.75
479.876	124.75
480.095	134.75
480.313	175.75
480.532	216.75
480.751	447.75
480.969	1812.75
481.188	8168.75
481.406	4530.75
481.624	590.75
481.843	176.75
482.061	121.75
482.28	102.75
482.498	119.75
482.717	109.75
482.935	102.75
483.153	101.75
483.372	83.75
483.59	101.75
483.808	98.75
484.027	97.75
484.245	98.75
484.463	109.75
484.681	116.75
484.9	104.75
485.118	106.75
485.336	116.75
485.554	97.75
485.772	109.75
485.99	124.75
486.209	95.75
486.427	120.75
486.645	128.75
486.863	146.75
487.081	121.75
487.299	108.75
487.517	93.75
487.735	95.75
487.953	106.75
488.171	99.75
488.389	109.75
488.607	110.75
488.825	104.75
489.043	99.75
489.261	104.75
489.479	92.75
489.696	96.75
489.914	108.75
490.132	100.75
490.35	100.75
490.568	98.75
490.786	90.75
491.003	100.75
491.221	94.75
491.439	96.75
491.657	101.75
491.874	96.75
492.092	87.75
492.31	104.75
492.527	120.75
492.745	115.75
492.963	105.75
493.18	92.75
493.398	106.75
493.615	92.75
493.833	101.75
494.05	103.75
494.268	95.75
494.485	104.75
494.703	91.75
494.92	99.75
495.138	94.75
495.355	92.75
495.573	103.75
495.79	88.75
496.008	94.75
496.225	96.75
496.442	90.75
496.66	79.75
496.877	94.75
497.094	88.75
497.312	98.75
497.529	90.75
497.746	94.75
497.963	103.75
498.181	101.75
498.398	97.75
498.615	118.75
498.832	106.75
499.049	104.75
499.267	94.75
499.484	92.75
499.701	93.75
499.918	98.75
500.135	105.75
500.352	105.75
500.569	105.75
500.786	105.75
501.003	91.75
501.22	90.75
501.437	94.75
501.654	103.75
501.871	133.75
502.088	94.75
502.305	91.75
502.522	93.75
502.739	98.75
502.956	111.75
503.172	94.75
503.389	121.75
503.606	129.75
503.823	112.75
504.04	99.75
504.256	108.75
504.473	86.75
504.69	108.75
504.907	97.75
505.123	90.75
505.34	95.75
505.557	93.75
505.773	79.75
505.99	93.75
506.207	83.75
506.423	109.75
506.64	78.75
506.856	105.75
507.073	93.75
507.289	99.75
507.506	99.75
507.722	131.75
507.939	146.75
508.155	113.75
508.372	86.75
508.588	77.75
508.805	105.75
509.021	88.75
509.238	102.75
509.454	106.75
509.67	106.75
509.887	111.75
510.103	152.75
510.319	265.75
510.536	999.75
510.752	3542.75
510.968	952.75
511.184	180.75
