Data from Circ_1988_H10_HRD10591_00015.txt Node
Date: Wed Jan 03 12:05:37 EST 2024
User: Yrep
Spectrometer: HR+D1059
Trigger mode: 1
Integration Time (sec): 1.000000E-1
Scans to average: 1
Electric dark correction enabled: true
Nonlinearity correction enabled: false
Boxcar width: 0
XAxis mode: Wavelengths
Number of Pixels in Spectrum: 2048
>>>>>Begin Spectral Data<<<<<
223.165	-12.38
223.4	-12.38
223.635	-12.38
223.869	-28.38
224.104	-25.38
224.338	-31.38
224.573	-4.38
224.808	-8.38
225.042	-4.38
225.277	-16.38
225.511	9.62
225.746	16.62
225.98	1.62
226.215	-1.38
226.449	14.62
226.683	23.62
226.918	32.62
227.152	33.62
227.387	40.62
227.621	46.62
227.856	54.62
228.09	40.62
228.324	54.62
228.559	57.62
228.793	54.62
229.027	70.62
229.262	63.62
229.496	94.62
229.73	98.62
229.964	95.62
230.199	66.62
230.433	86.62
230.667	90.62
230.901	87.62
231.136	71.62
231.37	80.62
231.604	92.62
231.838	70.62
232.072	88.62
232.306	84.62
232.541	83.62
232.775	81.62
233.009	87.62
233.243	95.62
233.477	73.62
233.711	80.62
233.945	79.62
234.179	84.62
234.413	78.62
234.647	103.62
234.881	85.62
235.115	89.62
235.349	81.62
235.583	76.62
235.817	67.62
236.051	78.62
236.285	90.62
236.519	83.62
236.753	96.62
236.987	76.62
237.221	80.62
237.455	94.62
237.689	78.62
237.922	90.62
238.156	83.62
238.39	72.62
238.624	78.62
238.858	83.62
239.091	77.62
239.325	84.62
239.559	96.62
239.793	91.62
240.027	83.62
240.26	78.62
240.494	85.62
240.728	80.62
240.961	73.62
241.195	94.62
241.429	81.62
241.662	94.62
241.896	84.62
242.13	83.62
242.363	83.62
242.597	93.62
242.83	84.62
243.064	78.62
243.298	89.62
243.531	84.62
243.765	87.62
243.998	92.62
244.232	99.62
244.465	100.62
244.699	79.62
244.932	70.62
245.166	91.62
245.399	93.62
245.633	64.62
245.866	76.62
246.099	86.62
246.333	80.62
246.566	72.62
246.8	100.62
247.033	90.62
247.266	93.62
247.5	71.62
247.733	76.62
247.966	92.62
248.2	95.62
248.433	78.62
248.666	90.62
248.899	105.62
249.133	90.62
249.366	121.62
249.599	106.62
249.832	96.62
250.066	87.62
250.299	77.62
250.532	99.62
250.765	96.62
250.998	99.62
251.231	98.62
251.465	89.62
251.698	99.62
251.931	97.62
252.164	99.62
252.397	82.62
252.63	97.62
252.863	83.62
253.096	93.62
253.329	92.62
253.562	82.62
253.795	86.62
254.028	88.62
254.261	86.62
254.494	82.62
254.727	95.62
254.96	72.62
255.193	80.62
255.426	88.62
255.659	89.62
255.892	116.62
256.124	123.62
256.357	101.62
256.59	92.62
256.823	87.62
257.056	107.62
257.289	99.62
257.521	104.62
257.754	98.62
257.987	101.62
258.22	105.62
258.452	119.62
258.685	118.62
258.918	88.62
259.151	97.62
259.383	102.62
259.616	95.62
259.849	92.62
260.081	95.62
260.314	96.62
260.547	93.62
260.779	116.62
261.012	160.62
261.244	151.62
261.477	119.62
261.71	114.62
261.942	144.62
262.175	160.62
262.407	86.62
262.64	78.62
262.872	88.62
263.105	92.62
263.337	81.62
263.57	82.62
263.802	83.62
264.035	84.62
264.267	82.62
264.499	83.62
264.732	91.62
264.964	86.62
265.197	79.62
265.429	76.62
265.661	94.62
265.894	90.62
266.126	79.62
266.358	100.62
266.591	74.62
266.823	84.62
267.055	87.62
267.287	111.62
267.52	96.62
267.752	73.62
267.984	95.62
268.216	89.62
268.448	83.62
268.681	120.62
268.913	95.62
269.145	98.62
269.377	89.62
269.609	79.62
269.841	84.62
270.073	89.62
270.306	107.62
270.538	94.62
270.77	72.62
271.002	83.62
271.234	102.62
271.466	115.62
271.698	104.62
271.93	106.62
272.162	118.62
272.394	104.62
272.626	83.62
272.858	109.62
273.09	90.62
273.322	86.62
273.553	96.62
273.785	88.62
274.017	95.62
274.249	94.62
274.481	84.62
274.713	89.62
274.945	94.62
275.176	115.62
275.408	134.62
275.64	166.62
275.872	196.62
276.104	155.62
276.335	105.62
276.567	139.62
276.799	199.62
277.031	299.62
277.262	390.62
277.494	276.62
277.726	139.62
277.957	86.62
278.189	108.62
278.421	111.62
278.652	104.62
278.884	102.62
279.115	112.62
279.347	112.62
279.579	139.62
279.81	212.62
280.042	404.62
280.273	575.62
280.505	355.62
280.736	145.62
280.968	109.62
281.199	116.62
281.431	103.62
281.662	88.62
281.894	108.62
282.125	108.62
282.356	135.62
282.588	179.62
282.819	145.62
283.051	101.62
283.282	100.62
283.513	90.62
283.745	90.62
283.976	97.62
284.207	102.62
284.439	87.62
284.67	90.62
284.901	103.62
285.132	103.62
285.364	77.62
285.595	91.62
285.826	90.62
286.057	99.62
286.288	78.62
286.52	85.62
286.751	76.62
286.982	87.62
287.213	94.62
287.444	103.62
287.675	88.62
287.906	97.62
288.138	100.62
288.369	105.62
288.6	99.62
288.831	92.62
289.062	85.62
289.293	98.62
289.524	83.62
289.755	98.62
289.986	93.62
290.217	91.62
290.448	92.62
290.679	98.62
290.91	102.62
291.141	97.62
291.371	82.62
291.602	92.62
291.833	92.62
292.064	98.62
292.295	87.62
292.526	94.62
292.757	96.62
292.987	92.62
293.218	102.62
293.449	79.62
293.68	87.62
293.91	89.62
294.141	100.62
294.372	101.62
294.603	86.62
294.833	86.62
295.064	92.62
295.295	86.62
295.525	105.62
295.756	127.62
295.987	135.62
296.217	167.62
296.448	138.62
296.679	110.62
296.909	103.62
297.14	91.62
297.37	98.62
297.601	83.62
297.831	96.62
298.062	96.62
298.292	94.62
298.523	98.62
298.753	86.62
298.984	99.62
299.214	90.62
299.445	97.62
299.675	111.62
299.905	114.62
300.136	90.62
300.366	95.62
300.597	94.62
300.827	112.62
301.057	115.62
301.288	122.62
301.518	103.62
301.748	114.62
301.979	129.62
302.209	122.62
302.439	98.62
302.669	86.62
302.9	93.62
303.13	107.62
303.36	115.62
303.59	186.62
303.82	230.62
304.051	137.62
304.281	90.62
304.511	99.62
304.741	87.62
304.971	89.62
305.201	95.62
305.431	96.62
305.661	78.62
305.891	93.62
306.121	107.62
306.352	116.62
306.582	122.62
306.812	146.62
307.042	184.62
307.272	281.62
307.502	313.62
307.731	281.62
307.961	158.62
308.191	112.62
308.421	107.62
308.651	98.62
308.881	97.62
309.111	107.62
309.341	121.62
309.571	110.62
309.8	127.62
310.03	127.62
310.26	107.62
310.49	98.62
310.72	111.62
310.949	131.62
311.179	110.62
311.409	108.62
311.639	110.62
311.868	115.62
312.098	113.62
312.328	102.62
312.557	114.62
312.787	120.62
313.017	103.62
313.246	102.62
313.476	107.62
313.706	97.62
313.935	111.62
314.165	105.62
314.394	115.62
314.624	101.62
314.853	119.62
315.083	103.62
315.312	107.62
315.542	98.62
315.771	105.62
316.001	101.62
316.23	99.62
316.46	99.62
316.689	102.62
316.919	94.62
317.148	92.62
317.377	98.62
317.607	118.62
317.836	107.62
318.065	102.62
318.295	106.62
318.524	90.62
318.753	107.62
318.983	98.62
319.212	105.62
319.441	127.62
319.67	127.62
319.9	96.62
320.129	99.62
320.358	95.62
320.587	105.62
320.816	109.62
321.046	103.62
321.275	99.62
321.504	107.62
321.733	119.62
321.962	107.62
322.191	100.62
322.42	117.62
322.649	129.62
322.878	124.62
323.108	135.62
323.337	151.62
323.566	153.62
323.795	160.62
324.024	241.62
324.253	424.62
324.482	895.62
324.71	1849.62
324.939	2518.62
325.168	982.62
325.397	302.62
325.626	176.62
325.855	163.62
326.084	143.62
326.313	154.62
326.542	174.62
326.77	233.62
326.999	449.62
327.228	924.62
327.457	1742.62
327.686	1492.62
327.914	696.62
328.143	970.62
328.372	1412.62
328.6	712.62
328.829	251.62
329.058	227.62
329.287	247.62
329.515	260.62
329.744	424.62
329.972	905.62
330.201	2057.62
330.43	3143.62
330.658	1274.62
330.887	412.62
331.115	247.62
331.344	155.62
331.572	143.62
331.801	147.62
332.03	125.62
332.258	136.62
332.486	124.62
332.715	119.62
332.943	135.62
333.172	144.62
333.4	174.62
333.629	209.62
333.857	357.62
334.085	756.62
334.314	1778.62
334.542	3770.62
334.771	3535.62
334.999	835.62
335.227	294.62
335.455	183.62
335.684	149.62
335.912	141.62
336.14	121.62
336.369	129.62
336.597	130.62
336.825	125.62
337.053	97.62
337.281	105.62
337.51	120.62
337.738	108.62
337.966	105.62
338.194	95.62
338.422	100.62
338.65	111.62
338.878	102.62
339.106	86.62
339.334	111.62
339.562	91.62
339.79	115.62
340.018	105.62
340.246	103.62
340.474	104.62
340.702	105.62
340.93	94.62
341.158	102.62
341.386	105.62
341.614	112.62
341.842	115.62
342.07	95.62
342.298	108.62
342.526	91.62
342.754	83.62
342.981	92.62
343.209	90.62
343.437	114.62
343.665	110.62
343.893	86.62
344.12	98.62
344.348	97.62
344.576	90.62
344.804	110.62
345.031	95.62
345.259	106.62
345.487	84.62
345.714	108.62
345.942	97.62
346.17	116.62
346.397	98.62
346.625	106.62
346.853	93.62
347.08	108.62
347.308	104.62
347.535	99.62
347.763	113.62
347.99	127.62
348.218	113.62
348.445	119.62
348.673	101.62
348.9	108.62
349.128	90.62
349.355	100.62
349.583	110.62
349.81	91.62
350.037	104.62
350.265	109.62
350.492	104.62
350.72	89.62
350.947	100.62
351.174	116.62
351.402	116.62
351.629	125.62
351.856	116.62
352.083	138.62
352.311	125.62
352.538	127.62
352.765	121.62
352.992	111.62
353.22	121.62
353.447	105.62
353.674	103.62
353.901	103.62
354.128	103.62
354.355	108.62
354.583	95.62
354.81	117.62
355.037	95.62
355.264	109.62
355.491	93.62
355.718	95.62
355.945	91.62
356.172	104.62
356.399	104.62
356.626	91.62
356.853	106.62
357.08	96.62
357.307	92.62
357.534	86.62
357.761	118.62
357.988	118.62
358.215	110.62
358.441	107.62
358.668	114.62
358.895	101.62
359.122	104.62
359.349	95.62
359.576	113.62
359.802	124.62
360.029	150.62
360.256	126.62
360.483	126.62
360.709	99.62
360.936	101.62
361.163	89.62
361.39	106.62
361.616	97.62
361.843	82.62
362.07	96.62
362.296	101.62
362.523	104.62
362.749	97.62
362.976	106.62
363.203	104.62
363.429	106.62
363.656	97.62
363.882	96.62
364.109	105.62
364.335	104.62
364.562	107.62
364.788	94.62
365.015	105.62
365.241	112.62
365.468	112.62
365.694	134.62
365.92	114.62
366.147	89.62
366.373	106.62
366.599	102.62
366.826	95.62
367.052	95.62
367.278	102.62
367.505	96.62
367.731	98.62
367.957	89.62
368.184	91.62
368.41	110.62
368.636	132.62
368.862	125.62
369.089	119.62
369.315	101.62
369.541	111.62
369.767	104.62
369.993	98.62
370.219	101.62
370.445	86.62
370.672	96.62
370.898	94.62
371.124	91.62
371.35	98.62
371.576	87.62
371.802	94.62
372.028	99.62
372.254	97.62
372.48	93.62
372.706	73.62
372.932	94.62
373.158	96.62
373.384	96.62
373.61	113.62
373.835	107.62
374.061	92.62
374.287	104.62
374.513	100.62
374.739	102.62
374.965	88.62
375.191	110.62
375.416	99.62
375.642	111.62
375.868	107.62
376.094	102.62
376.319	83.62
376.545	113.62
376.771	89.62
376.997	86.62
377.222	85.62
377.448	106.62
377.674	97.62
377.899	109.62
378.125	98.62
378.35	101.62
378.576	100.62
378.802	101.62
379.027	104.62
379.253	105.62
379.478	113.62
379.704	114.62
379.929	116.62
380.155	119.62
380.38	120.62
380.606	110.62
380.831	115.62
381.057	118.62
381.282	110.62
381.507	124.62
381.733	126.62
381.958	131.62
382.184	123.62
382.409	119.62
382.634	135.62
382.86	135.62
383.085	138.62
383.31	120.62
383.535	132.62
383.761	128.62
383.986	116.62
384.211	150.62
384.436	156.62
384.662	147.62
384.887	143.62
385.112	162.62
385.337	176.62
385.562	161.62
385.787	164.62
386.013	161.62
386.238	182.62
386.463	164.62
386.688	166.62
386.913	167.62
387.138	179.62
387.363	164.62
387.588	133.62
387.813	154.62
388.038	169.62
388.263	172.62
388.488	170.62
388.713	114.62
388.938	102.62
389.163	98.62
389.387	82.62
389.612	94.62
389.837	96.62
390.062	99.62
390.287	91.62
390.512	97.62
390.736	97.62
390.961	80.62
391.186	101.62
391.411	100.62
391.636	84.62
391.86	101.62
392.085	89.62
392.31	80.62
392.534	100.62
392.759	76.62
392.984	91.62
393.208	94.62
393.433	115.62
393.658	104.62
393.882	96.62
394.107	99.62
394.331	92.62
394.556	98.62
394.78	95.62
395.005	96.62
395.229	90.62
395.454	83.62
395.678	86.62
395.903	86.62
396.127	104.62
396.352	92.62
396.576	106.62
396.801	113.62
397.025	99.62
397.249	94.62
397.474	92.62
397.698	94.62
397.922	85.62
398.147	81.62
398.371	99.62
398.595	86.62
398.82	90.62
399.044	86.62
399.268	85.62
399.492	88.62
399.717	105.62
399.941	86.62
400.165	96.62
400.389	99.62
400.613	83.62
400.837	96.62
401.062	93.62
401.286	82.62
401.51	91.62
401.734	101.62
401.958	103.62
402.182	149.62
402.406	215.62
402.63	132.62
402.854	108.62
403.078	88.62
403.302	97.62
403.526	98.62
403.75	101.62
403.974	88.62
404.198	89.62
404.422	98.62
404.645	104.62
404.869	118.62
405.093	120.62
405.317	153.62
405.541	152.62
405.765	118.62
405.988	142.62
406.212	217.62
406.436	324.62
406.66	213.62
406.883	134.62
407.107	106.62
407.331	121.62
407.555	116.62
407.778	125.62
408.002	103.62
408.226	100.62
408.449	90.62
408.673	98.62
408.896	96.62
409.12	105.62
409.344	111.62
409.567	95.62
409.791	91.62
410.014	97.62
410.238	98.62
410.461	105.62
410.685	96.62
410.908	87.62
411.132	109.62
411.355	102.62
411.578	98.62
411.802	102.62
412.025	104.62
412.249	119.62
412.472	135.62
412.695	160.62
412.919	123.62
413.142	108.62
413.365	102.62
413.589	105.62
413.812	96.62
414.035	108.62
414.258	113.62
414.482	96.62
414.705	106.62
414.928	112.62
415.151	101.62
415.374	100.62
415.597	104.62
415.821	102.62
416.044	101.62
416.267	91.62
416.49	96.62
416.713	92.62
416.936	108.62
417.159	100.62
417.382	107.62
417.605	117.62
417.828	144.62
418.051	114.62
418.274	109.62
418.497	103.62
418.72	94.62
418.943	90.62
419.166	98.62
419.389	93.62
419.611	107.62
419.834	115.62
420.057	85.62
420.28	113.62
420.503	105.62
420.726	97.62
420.948	107.62
421.171	109.62
421.394	103.62
421.617	96.62
421.839	93.62
422.062	100.62
422.285	89.62
422.507	99.62
422.73	113.62
422.953	108.62
423.175	88.62
423.398	93.62
423.621	82.62
423.843	89.62
424.066	92.62
424.288	103.62
424.511	99.62
424.733	119.62
424.956	124.62
425.178	106.62
425.401	101.62
425.623	106.62
425.846	84.62
426.068	102.62
426.291	111.62
426.513	91.62
426.735	98.62
426.958	104.62
427.18	123.62
427.402	181.62
427.625	283.62
427.847	283.62
428.069	236.62
428.292	154.62
428.514	115.62
428.736	103.62
428.958	104.62
429.181	108.62
429.403	100.62
429.625	91.62
429.847	101.62
430.069	132.62
430.292	91.62
430.514	99.62
430.736	89.62
430.958	92.62
431.18	86.62
431.402	98.62
431.624	86.62
431.846	100.62
432.068	84.62
432.29	96.62
432.512	96.62
432.734	105.62
432.956	102.62
433.178	102.62
433.4	113.62
433.622	104.62
433.844	101.62
434.066	102.62
434.287	98.62
434.509	90.62
434.731	103.62
434.953	98.62
435.175	96.62
435.397	98.62
435.618	106.62
435.84	100.62
436.062	114.62
436.284	124.62
436.505	97.62
436.727	100.62
436.949	111.62
437.17	102.62
437.392	98.62
437.614	109.62
437.835	120.62
438.057	150.62
438.278	135.62
438.5	110.62
438.721	119.62
438.943	113.62
439.165	97.62
439.386	100.62
439.608	101.62
439.829	115.62
440.05	171.62
440.272	179.62
440.493	106.62
440.715	90.62
440.936	82.62
441.158	85.62
441.379	104.62
441.6	106.62
441.822	117.62
442.043	115.62
442.264	118.62
442.486	116.62
442.707	94.62
442.928	119.62
443.149	172.62
443.371	162.62
443.592	137.62
443.813	129.62
444.034	114.62
444.255	100.62
444.476	98.62
444.698	85.62
444.919	112.62
445.14	143.62
445.361	114.62
445.582	125.62
445.803	194.62
446.024	178.62
446.245	167.62
446.466	130.62
446.687	104.62
446.908	103.62
447.129	102.62
447.35	98.62
447.571	95.62
447.792	93.62
448.013	109.62
448.234	111.62
448.455	110.62
448.675	126.62
448.896	150.62
449.117	115.62
449.338	107.62
449.559	135.62
449.779	146.62
450	103.62
450.221	100.62
450.442	112.62
450.662	124.62
450.883	122.62
451.104	145.62
451.324	93.62
451.545	96.62
451.766	95.62
451.986	108.62
452.207	94.62
452.428	94.62
452.648	107.62
452.869	136.62
453.089	145.62
453.31	166.62
453.53	114.62
453.751	107.62
453.971	119.62
454.192	135.62
454.412	109.62
454.633	103.62
454.853	111.62
455.073	94.62
455.294	92.62
455.514	110.62
455.734	91.62
455.955	74.62
456.175	90.62
456.395	88.62
456.616	94.62
456.836	92.62
457.056	84.62
457.276	95.62
457.497	81.62
457.717	106.62
457.937	96.62
458.157	93.62
458.377	103.62
458.598	124.62
458.818	226.62
459.038	236.62
459.258	147.62
459.478	95.62
459.698	102.62
459.918	98.62
460.138	100.62
460.358	88.62
460.578	75.62
460.798	95.62
461.018	89.62
461.238	84.62
461.458	96.62
461.678	100.62
461.898	95.62
462.118	92.62
462.338	108.62
462.558	90.62
462.777	105.62
462.997	124.62
463.217	147.62
463.437	131.62
463.657	106.62
463.876	112.62
464.096	94.62
464.316	107.62
464.536	109.62
464.755	96.62
464.975	117.62
465.195	238.62
465.414	252.62
465.634	124.62
465.854	99.62
466.073	83.62
466.293	99.62
466.512	100.62
466.732	99.62
466.951	108.62
467.171	118.62
467.391	146.62
467.61	216.62
467.829	388.62
468.049	1355.62
468.268	2195.62
468.488	454.62
468.707	148.62
468.927	120.62
469.146	106.62
469.365	105.62
469.585	107.62
469.804	122.62
470.023	123.62
470.243	104.62
470.462	125.62
470.681	161.62
470.901	114.62
471.12	110.62
471.339	136.62
471.558	158.62
471.777	234.62
471.997	557.62
472.216	2390.62
472.435	5764.62
472.654	1198.62
472.873	251.62
473.092	150.62
473.311	130.62
473.53	112.62
473.749	113.62
473.968	115.62
474.187	127.62
474.406	126.62
474.625	92.62
474.844	94.62
475.063	86.62
475.282	99.62
475.501	95.62
475.72	97.62
475.939	99.62
476.158	98.62
476.377	98.62
476.596	90.62
476.814	103.62
477.033	103.62
477.252	104.62
477.471	103.62
477.69	114.62
477.908	103.62
478.127	101.62
478.346	119.62
478.564	108.62
478.783	137.62
479.002	116.62
479.22	117.62
479.439	144.62
479.658	160.62
479.876	162.62
480.095	147.62
480.313	173.62
480.532	247.62
480.751	499.62
480.969	2008.62
481.188	9219.62
481.406	5168.62
481.624	662.62
481.843	214.62
482.061	155.62
482.28	126.62
482.498	97.62
482.717	112.62
482.935	107.62
483.153	108.62
483.372	97.62
483.59	106.62
483.808	100.62
484.027	98.62
484.245	107.62
484.463	98.62
484.681	112.62
484.9	101.62
485.118	110.62
485.336	117.62
485.554	127.62
485.772	116.62
485.99	117.62
486.209	128.62
486.427	118.62
486.645	124.62
486.863	143.62
487.081	105.62
487.299	96.62
487.517	104.62
487.735	105.62
487.953	106.62
488.171	92.62
488.389	106.62
488.607	111.62
488.825	118.62
489.043	97.62
489.261	101.62
489.479	99.62
489.696	101.62
489.914	88.62
490.132	87.62
490.35	112.62
490.568	94.62
490.786	100.62
491.003	106.62
491.221	92.62
491.439	116.62
491.657	91.62
491.874	88.62
492.092	95.62
492.31	99.62
492.527	109.62
492.745	121.62
492.963	105.62
493.18	104.62
493.398	112.62
493.615	115.62
493.833	109.62
494.05	95.62
494.268	98.62
494.485	102.62
494.703	110.62
494.92	93.62
495.138	91.62
495.355	94.62
495.573	93.62
495.79	86.62
496.008	113.62
496.225	90.62
496.442	93.62
496.66	92.62
496.877	88.62
497.094	94.62
497.312	90.62
497.529	99.62
497.746	89.62
497.963	92.62
498.181	108.62
498.398	102.62
498.615	116.62
498.832	118.62
499.049	95.62
499.267	90.62
499.484	114.62
499.701	92.62
499.918	92.62
500.135	97.62
500.352	104.62
500.569	103.62
500.786	113.62
501.003	111.62
501.22	99.62
501.437	97.62
501.654	107.62
501.871	132.62
502.088	107.62
502.305	87.62
502.522	86.62
502.739	109.62
502.956	95.62
503.172	78.62
503.389	98.62
503.606	131.62
503.823	124.62
504.04	107.62
504.256	105.62
504.473	104.62
504.69	100.62
504.907	91.62
505.123	97.62
505.34	96.62
505.557	99.62
505.773	101.62
505.99	117.62
506.207	98.62
506.423	96.62
506.64	83.62
506.856	91.62
507.073	98.62
507.289	101.62
507.506	109.62
507.722	145.62
507.939	133.62
508.155	116.62
508.372	95.62
508.588	101.62
508.805	99.62
509.021	119.62
509.238	116.62
509.454	128.62
509.67	112.62
