Data from Circ_1988_H10_HRD10591_00081.txt Node
Date: Wed Jan 03 12:05:51 EST 2024
User: Yrep
Spectrometer: HR+D1059
Trigger mode: 1
Integration Time (sec): 1.000000E-1
Scans to average: 1
Electric dark correction enabled: true
Nonlinearity correction enabled: false
Boxcar width: 0
XAxis mode: Wavelengths
Number of Pixels in Spectrum: 2048
>>>>>Begin Spectral Data<<<<<
223.165	-22.5
223.4	-22.5
223.635	-22.5
223.869	-20.5
224.104	-21.5
224.338	-22.5
224.573	-8.5
224.808	-33.5
225.042	6.5
225.277	-3.5
225.511	-2.5
225.746	3.5
225.98	4.5
226.215	27.5
226.449	16.5
226.683	20.5
226.918	30.5
227.152	25.5
227.387	33.5
227.621	47.5
227.856	42.5
228.09	59.5
228.324	53.5
228.559	54.5
228.793	55.5
229.027	79.5
229.262	71.5
229.496	81.5
229.73	98.5
229.964	86.5
230.199	82.5
230.433	73.5
230.667	77.5
230.901	80.5
231.136	91.5
231.37	88.5
231.604	83.5
231.838	86.5
232.072	100.5
232.306	90.5
232.541	86.5
232.775	91.5
233.009	94.5
233.243	72.5
233.477	84.5
233.711	88.5
233.945	90.5
234.179	83.5
234.413	88.5
234.647	78.5
234.881	85.5
235.115	78.5
235.349	71.5
235.583	74.5
235.817	82.5
236.051	75.5
236.285	78.5
236.519	65.5
236.753	95.5
236.987	74.5
237.221	86.5
237.455	88.5
237.689	81.5
237.922	89.5
238.156	78.5
238.39	65.5
238.624	86.5
238.858	82.5
239.091	78.5
239.325	83.5
239.559	87.5
239.793	83.5
240.027	81.5
240.26	71.5
240.494	82.5
240.728	62.5
240.961	75.5
241.195	70.5
241.429	76.5
241.662	80.5
241.896	84.5
242.13	74.5
242.363	70.5
242.597	80.5
242.83	89.5
243.064	96.5
243.298	81.5
243.531	90.5
243.765	89.5
243.998	88.5
244.232	91.5
244.465	82.5
244.699	90.5
244.932	86.5
245.166	100.5
245.399	79.5
245.633	88.5
245.866	82.5
246.099	80.5
246.333	79.5
246.566	79.5
246.8	76.5
247.033	86.5
247.266	86.5
247.5	97.5
247.733	73.5
247.966	83.5
248.2	85.5
248.433	85.5
248.666	84.5
248.899	81.5
249.133	91.5
249.366	118.5
249.599	102.5
249.832	92.5
250.066	89.5
250.299	88.5
250.532	91.5
250.765	96.5
250.998	92.5
251.231	78.5
251.465	103.5
251.698	86.5
251.931	101.5
252.164	95.5
252.397	83.5
252.63	75.5
252.863	80.5
253.096	88.5
253.329	73.5
253.562	85.5
253.795	82.5
254.028	95.5
254.261	95.5
254.494	71.5
254.727	80.5
254.96	88.5
255.193	74.5
255.426	78.5
255.659	87.5
255.892	102.5
256.124	107.5
256.357	98.5
256.59	88.5
256.823	88.5
257.056	99.5
257.289	95.5
257.521	79.5
257.754	81.5
257.987	95.5
258.22	99.5
258.452	107.5
258.685	108.5
258.918	89.5
259.151	95.5
259.383	104.5
259.616	67.5
259.849	90.5
260.081	82.5
260.314	92.5
260.547	87.5
260.779	112.5
261.012	144.5
261.244	151.5
261.477	117.5
261.71	102.5
261.942	128.5
262.175	148.5
262.407	115.5
262.64	80.5
262.872	101.5
263.105	90.5
263.337	86.5
263.57	80.5
263.802	94.5
264.035	76.5
264.267	82.5
264.499	96.5
264.732	88.5
264.964	75.5
265.197	88.5
265.429	84.5
265.661	94.5
265.894	87.5
266.126	92.5
266.358	77.5
266.591	96.5
266.823	85.5
267.055	75.5
267.287	94.5
267.52	91.5
267.752	97.5
267.984	90.5
268.216	86.5
268.448	111.5
268.681	83.5
268.913	90.5
269.145	101.5
269.377	99.5
269.609	88.5
269.841	98.5
270.073	86.5
270.306	75.5
270.538	100.5
270.77	94.5
271.002	100.5
271.234	101.5
271.466	103.5
271.698	103.5
271.93	96.5
272.162	83.5
272.394	91.5
272.626	87.5
272.858	93.5
273.09	104.5
273.322	88.5
273.553	76.5
273.785	82.5
274.017	84.5
274.249	88.5
274.481	100.5
274.713	97.5
274.945	102.5
275.176	104.5
275.408	116.5
275.64	136.5
275.872	165.5
276.104	123.5
276.335	111.5
276.567	115.5
276.799	175.5
277.031	210.5
277.262	298.5
277.494	226.5
277.726	125.5
277.957	87.5
278.189	89.5
278.421	101.5
278.652	90.5
278.884	98.5
279.115	117.5
279.347	111.5
279.579	139.5
279.81	168.5
280.042	286.5
280.273	437.5
280.505	276.5
280.736	126.5
280.968	83.5
281.199	82.5
281.431	88.5
281.662	105.5
281.894	100.5
282.125	106.5
282.356	156.5
282.588	172.5
282.819	131.5
283.051	111.5
283.282	92.5
283.513	87.5
283.745	87.5
283.976	80.5
284.207	96.5
284.439	97.5
284.67	101.5
284.901	80.5
285.132	94.5
285.364	100.5
285.595	88.5
285.826	102.5
286.057	105.5
286.288	90.5
286.52	75.5
286.751	84.5
286.982	90.5
287.213	87.5
287.444	97.5
287.675	86.5
287.906	94.5
288.138	93.5
288.369	97.5
288.6	99.5
288.831	88.5
289.062	80.5
289.293	78.5
289.524	94.5
289.755	95.5
289.986	93.5
290.217	91.5
290.448	84.5
290.679	106.5
290.91	89.5
291.141	100.5
291.371	101.5
291.602	105.5
291.833	85.5
292.064	74.5
292.295	91.5
292.526	86.5
292.757	94.5
292.987	112.5
293.218	87.5
293.449	91.5
293.68	92.5
293.91	96.5
294.141	101.5
294.372	88.5
294.603	93.5
294.833	96.5
295.064	105.5
295.295	90.5
295.525	80.5
295.756	99.5
295.987	156.5
296.217	166.5
296.448	152.5
296.679	88.5
296.909	82.5
297.14	102.5
297.37	87.5
297.601	90.5
297.831	84.5
298.062	99.5
298.292	94.5
298.523	107.5
298.753	92.5
298.984	94.5
299.214	89.5
299.445	91.5
299.675	96.5
299.905	95.5
300.136	107.5
300.366	86.5
300.597	105.5
300.827	90.5
301.057	112.5
301.288	118.5
301.518	111.5
301.748	104.5
301.979	127.5
302.209	106.5
302.439	95.5
302.669	92.5
302.9	107.5
303.13	112.5
303.36	127.5
303.59	165.5
303.82	184.5
304.051	113.5
304.281	106.5
304.511	95.5
304.741	107.5
304.971	97.5
305.201	82.5
305.431	86.5
305.661	85.5
305.891	108.5
306.121	113.5
306.352	99.5
306.582	113.5
306.812	123.5
307.042	143.5
307.272	230.5
307.502	257.5
307.731	233.5
307.961	147.5
308.191	116.5
308.421	111.5
308.651	91.5
308.881	91.5
309.111	110.5
309.341	101.5
309.571	107.5
309.8	111.5
310.03	107.5
310.26	102.5
310.49	85.5
310.72	112.5
310.949	124.5
311.179	125.5
311.409	100.5
311.639	108.5
311.868	107.5
312.098	98.5
312.328	87.5
312.557	111.5
312.787	118.5
313.017	110.5
313.246	107.5
313.476	98.5
313.706	93.5
313.935	109.5
314.165	104.5
314.394	108.5
314.624	104.5
314.853	113.5
315.083	120.5
315.312	91.5
315.542	91.5
315.771	99.5
316.001	93.5
316.23	99.5
316.46	102.5
316.689	99.5
316.919	96.5
317.148	111.5
317.377	91.5
317.607	115.5
317.836	96.5
318.065	99.5
318.295	86.5
318.524	84.5
318.753	99.5
318.983	95.5
319.212	108.5
319.441	123.5
319.67	134.5
319.9	103.5
320.129	107.5
320.358	86.5
320.587	96.5
320.816	107.5
321.046	98.5
321.275	106.5
321.504	106.5
321.733	102.5
321.962	107.5
322.191	103.5
322.42	132.5
322.649	104.5
322.878	114.5
323.108	111.5
323.337	130.5
323.566	146.5
323.795	186.5
324.024	207.5
324.253	354.5
324.482	768.5
324.71	1511.5
324.939	2019.5
325.168	776.5
325.397	250.5
325.626	162.5
325.855	129.5
326.084	126.5
326.313	132.5
326.542	171.5
326.77	235.5
326.999	396.5
327.228	769.5
327.457	1351.5
327.686	1177.5
327.914	565.5
328.143	732.5
328.372	1096.5
328.6	546.5
328.829	226.5
329.058	210.5
329.287	194.5
329.515	216.5
329.744	342.5
329.972	735.5
330.201	1631.5
330.43	2447.5
330.658	985.5
330.887	356.5
331.115	203.5
331.344	140.5
331.572	152.5
331.801	112.5
332.03	140.5
332.258	119.5
332.486	124.5
332.715	117.5
332.943	112.5
333.172	129.5
333.4	159.5
333.629	197.5
333.857	299.5
334.085	624.5
334.314	1406.5
334.542	2856.5
334.771	2766.5
334.999	656.5
335.227	226.5
335.455	127.5
335.684	123.5
335.912	131.5
336.14	128.5
336.369	118.5
336.597	103.5
336.825	108.5
337.053	111.5
337.281	115.5
337.51	110.5
337.738	98.5
337.966	111.5
338.194	112.5
338.422	104.5
338.65	113.5
338.878	99.5
339.106	123.5
339.334	102.5
339.562	110.5
339.79	96.5
340.018	101.5
340.246	90.5
340.474	100.5
340.702	105.5
340.93	97.5
341.158	96.5
341.386	102.5
341.614	105.5
341.842	99.5
342.07	101.5
342.298	100.5
342.526	102.5
342.754	83.5
342.981	98.5
343.209	92.5
343.437	113.5
343.665	86.5
343.893	102.5
344.12	96.5
344.348	98.5
344.576	98.5
344.804	94.5
345.031	107.5
345.259	102.5
345.487	99.5
345.714	102.5
345.942	113.5
346.17	99.5
346.397	95.5
346.625	99.5
346.853	94.5
347.08	82.5
347.308	100.5
347.535	110.5
347.763	98.5
347.99	107.5
348.218	98.5
348.445	112.5
348.673	115.5
348.9	105.5
349.128	100.5
349.355	99.5
349.583	94.5
349.81	98.5
350.037	99.5
350.265	95.5
350.492	105.5
350.72	102.5
350.947	97.5
351.174	120.5
351.402	121.5
351.629	100.5
351.856	111.5
352.083	111.5
352.311	123.5
352.538	135.5
352.765	109.5
352.992	120.5
353.22	110.5
353.447	104.5
353.674	94.5
353.901	90.5
354.128	98.5
354.355	111.5
354.583	95.5
354.81	98.5
355.037	96.5
355.264	97.5
355.491	99.5
355.718	100.5
355.945	90.5
356.172	104.5
356.399	101.5
356.626	104.5
356.853	90.5
357.08	109.5
357.307	98.5
357.534	88.5
357.761	87.5
357.988	104.5
358.215	103.5
358.441	95.5
358.668	90.5
358.895	88.5
359.122	92.5
359.349	94.5
359.576	114.5
359.802	115.5
360.029	134.5
360.256	135.5
360.483	113.5
360.709	96.5
360.936	101.5
361.163	102.5
361.39	98.5
361.616	100.5
361.843	85.5
362.07	106.5
362.296	104.5
362.523	106.5
362.749	94.5
362.976	102.5
363.203	83.5
363.429	91.5
363.656	104.5
363.882	104.5
364.109	100.5
364.335	88.5
364.562	101.5
364.788	96.5
365.015	96.5
365.241	105.5
365.468	111.5
365.694	102.5
365.92	115.5
366.147	102.5
366.373	90.5
366.599	100.5
366.826	87.5
367.052	94.5
367.278	100.5
367.505	104.5
367.731	115.5
367.957	80.5
368.184	94.5
368.41	103.5
368.636	101.5
368.862	127.5
369.089	107.5
369.315	99.5
369.541	93.5
369.767	88.5
369.993	102.5
370.219	97.5
370.445	108.5
370.672	73.5
370.898	85.5
371.124	92.5
371.35	107.5
371.576	91.5
371.802	87.5
372.028	88.5
372.254	84.5
372.48	80.5
372.706	87.5
372.932	94.5
373.158	91.5
373.384	101.5
373.61	84.5
373.835	86.5
374.061	97.5
374.287	95.5
374.513	97.5
374.739	82.5
374.965	101.5
375.191	90.5
375.416	85.5
375.642	79.5
375.868	91.5
376.094	87.5
376.319	82.5
376.545	89.5
376.771	93.5
376.997	104.5
377.222	101.5
377.448	95.5
377.674	98.5
377.899	105.5
378.125	83.5
378.35	89.5
378.576	93.5
378.802	93.5
379.027	101.5
379.253	92.5
379.478	96.5
379.704	102.5
379.929	84.5
380.155	103.5
380.38	103.5
380.606	98.5
380.831	105.5
381.057	106.5
381.282	92.5
381.507	108.5
381.733	107.5
381.958	109.5
382.184	86.5
382.409	103.5
382.634	105.5
382.86	102.5
383.085	96.5
383.31	108.5
383.535	106.5
383.761	116.5
383.986	96.5
384.211	95.5
384.436	108.5
384.662	106.5
384.887	100.5
385.112	105.5
385.337	104.5
385.562	116.5
385.787	114.5
386.013	109.5
386.238	106.5
386.463	115.5
386.688	108.5
386.913	119.5
387.138	113.5
387.363	100.5
387.588	110.5
387.813	104.5
388.038	105.5
388.263	103.5
388.488	119.5
388.713	91.5
388.938	93.5
389.163	95.5
389.387	98.5
389.612	90.5
389.837	100.5
390.062	98.5
390.287	84.5
390.512	91.5
390.736	107.5
390.961	96.5
391.186	78.5
391.411	96.5
391.636	95.5
391.86	88.5
392.085	101.5
392.31	76.5
392.534	83.5
392.759	94.5
392.984	90.5
393.208	72.5
393.433	98.5
393.658	99.5
393.882	84.5
394.107	107.5
394.331	92.5
394.556	90.5
394.78	104.5
395.005	111.5
395.229	91.5
395.454	95.5
395.678	100.5
395.903	104.5
396.127	82.5
396.352	90.5
396.576	89.5
396.801	87.5
397.025	84.5
397.249	97.5
397.474	104.5
397.698	82.5
397.922	95.5
398.147	83.5
398.371	88.5
398.595	97.5
398.82	80.5
399.044	88.5
399.268	94.5
399.492	85.5
399.717	85.5
399.941	93.5
400.165	95.5
400.389	104.5
400.613	97.5
400.837	87.5
401.062	86.5
401.286	91.5
401.51	91.5
401.734	100.5
401.958	105.5
402.182	135.5
402.406	191.5
402.63	150.5
402.854	92.5
403.078	92.5
403.302	99.5
403.526	98.5
403.75	101.5
403.974	104.5
404.198	97.5
404.422	97.5
404.645	106.5
404.869	100.5
405.093	116.5
405.317	144.5
405.541	134.5
405.765	118.5
405.988	146.5
406.212	211.5
406.436	309.5
406.66	199.5
406.883	130.5
407.107	97.5
407.331	89.5
407.555	103.5
407.778	104.5
408.002	106.5
408.226	84.5
408.449	114.5
408.673	99.5
408.896	85.5
409.12	96.5
409.344	76.5
409.567	91.5
409.791	101.5
410.014	105.5
410.238	92.5
410.461	94.5
410.685	90.5
410.908	108.5
411.132	117.5
411.355	116.5
411.578	115.5
411.802	103.5
412.025	81.5
412.249	105.5
412.472	110.5
412.695	176.5
412.919	122.5
413.142	105.5
413.365	92.5
413.589	92.5
413.812	99.5
414.035	87.5
414.258	87.5
414.482	76.5
414.705	89.5
414.928	93.5
415.151	101.5
415.374	100.5
415.597	94.5
415.821	86.5
416.044	98.5
416.267	87.5
416.49	86.5
416.713	97.5
416.936	85.5
417.159	97.5
417.382	112.5
417.605	128.5
417.828	111.5
418.051	125.5
418.274	95.5
418.497	84.5
418.72	91.5
418.943	81.5
419.166	86.5
419.389	107.5
419.611	105.5
419.834	110.5
420.057	105.5
420.28	112.5
420.503	96.5
420.726	108.5
420.948	101.5
421.171	108.5
421.394	104.5
421.617	84.5
421.839	92.5
422.062	93.5
422.285	96.5
422.507	104.5
422.73	100.5
422.953	94.5
423.175	88.5
423.398	91.5
423.621	95.5
423.843	101.5
424.066	96.5
424.288	96.5
424.511	111.5
424.733	98.5
424.956	120.5
425.178	107.5
425.401	108.5
425.623	113.5
425.846	91.5
426.068	108.5
426.291	87.5
426.513	93.5
426.735	103.5
426.958	97.5
427.18	110.5
427.402	161.5
427.625	243.5
427.847	229.5
428.069	196.5
428.292	150.5
428.514	102.5
428.736	111.5
428.958	89.5
429.181	98.5
429.403	99.5
429.625	80.5
429.847	98.5
430.069	102.5
430.292	91.5
430.514	107.5
430.736	84.5
430.958	93.5
431.18	83.5
431.402	91.5
431.624	69.5
431.846	94.5
432.068	94.5
432.29	98.5
432.512	90.5
432.734	89.5
432.956	93.5
433.178	91.5
433.4	99.5
433.622	95.5
433.844	102.5
434.066	91.5
434.287	99.5
434.509	97.5
434.731	105.5
434.953	105.5
435.175	90.5
435.397	90.5
435.618	98.5
435.84	94.5
436.062	122.5
436.284	114.5
436.505	99.5
436.727	110.5
436.949	96.5
437.17	88.5
437.392	91.5
437.614	83.5
437.835	119.5
438.057	124.5
438.278	128.5
438.5	113.5
438.721	158.5
438.943	103.5
439.165	97.5
439.386	82.5
439.608	86.5
439.829	106.5
440.05	131.5
440.272	154.5
440.493	105.5
440.715	90.5
440.936	102.5
441.158	97.5
441.379	100.5
441.6	91.5
441.822	108.5
442.043	100.5
442.264	113.5
442.486	124.5
442.707	106.5
442.928	121.5
443.149	164.5
443.371	175.5
443.592	125.5
443.813	120.5
444.034	108.5
444.255	98.5
444.476	78.5
444.698	99.5
444.919	87.5
445.14	136.5
445.361	123.5
445.582	127.5
445.803	151.5
446.024	150.5
446.245	136.5
446.466	111.5
446.687	92.5
446.908	96.5
447.129	80.5
447.35	92.5
447.571	95.5
447.792	92.5
448.013	102.5
448.234	108.5
448.455	102.5
448.675	133.5
448.896	132.5
449.117	110.5
449.338	121.5
449.559	143.5
449.779	135.5
450	118.5
450.221	82.5
450.442	100.5
450.662	100.5
450.883	130.5
451.104	135.5
451.324	107.5
451.545	79.5
451.766	104.5
451.986	98.5
452.207	94.5
452.428	89.5
452.648	105.5
452.869	124.5
453.089	125.5
453.31	140.5
453.53	103.5
453.751	98.5
453.971	111.5
454.192	124.5
454.412	109.5
454.633	91.5
454.853	94.5
455.073	106.5
455.294	87.5
455.514	94.5
455.734	102.5
455.955	87.5
456.175	74.5
456.395	88.5
456.616	83.5
456.836	82.5
457.056	90.5
457.276	84.5
457.497	89.5
457.717	91.5
457.937	99.5
458.157	86.5
458.377	105.5
458.598	137.5
458.818	203.5
459.038	212.5
459.258	148.5
459.478	116.5
459.698	100.5
459.918	94.5
460.138	83.5
460.358	75.5
460.578	78.5
460.798	95.5
461.018	111.5
461.238	85.5
461.458	91.5
461.678	100.5
461.898	93.5
462.118	88.5
462.338	94.5
462.558	106.5
462.777	100.5
462.997	128.5
463.217	139.5
463.437	118.5
463.657	98.5
463.876	88.5
464.096	99.5
464.316	104.5
464.536	89.5
464.755	114.5
464.975	121.5
465.195	235.5
465.414	222.5
465.634	115.5
465.854	87.5
466.073	96.5
466.293	103.5
466.512	95.5
466.732	103.5
466.951	113.5
467.171	109.5
467.391	129.5
467.61	175.5
467.829	316.5
468.049	1035.5
468.268	1675.5
468.488	366.5
468.707	138.5
468.927	121.5
469.146	118.5
469.365	112.5
469.585	103.5
469.804	120.5
470.023	123.5
470.243	121.5
470.462	114.5
470.681	136.5
470.901	132.5
471.12	103.5
471.339	128.5
471.558	149.5
471.777	203.5
471.997	469.5
472.216	1950.5
472.435	4684.5
472.654	978.5
472.873	227.5
473.092	150.5
473.311	123.5
473.53	114.5
473.749	91.5
473.968	102.5
474.187	112.5
474.406	115.5
474.625	93.5
474.844	97.5
475.063	98.5
475.282	101.5
475.501	104.5
475.72	101.5
475.939	83.5
476.158	91.5
476.377	99.5
476.596	99.5
476.814	91.5
477.033	102.5
477.252	98.5
477.471	103.5
477.69	85.5
477.908	102.5
478.127	108.5
478.346	87.5
478.564	105.5
478.783	119.5
479.002	119.5
479.22	121.5
479.439	139.5
479.658	151.5
479.876	130.5
480.095	145.5
480.313	162.5
480.532	211.5
480.751	438.5
480.969	1672.5
481.188	7542.5
481.406	4177.5
481.624	543.5
481.843	168.5
482.061	132.5
482.28	105.5
482.498	120.5
482.717	109.5
482.935	107.5
483.153	103.5
483.372	100.5
483.59	116.5
483.808	99.5
484.027	97.5
484.245	111.5
484.463	106.5
484.681	102.5
484.9	107.5
485.118	104.5
485.336	107.5
485.554	107.5
485.772	108.5
485.99	122.5
486.209	132.5
486.427	132.5
486.645	133.5
486.863	152.5
487.081	108.5
487.299	102.5
487.517	101.5
487.735	91.5
487.953	108.5
488.171	103.5
488.389	91.5
488.607	121.5
488.825	127.5
489.043	98.5
489.261	106.5
489.479	92.5
489.696	87.5
489.914	98.5
490.132	89.5
490.35	88.5
490.568	75.5
490.786	103.5
491.003	87.5
491.221	111.5
491.439	112.5
491.657	108.5
491.874	114.5
492.092	106.5
492.31	114.5
492.527	99.5
492.745	109.5
492.963	118.5
493.18	98.5
493.398	85.5
493.615	91.5
493.833	94.5
494.05	96.5
494.268	86.5
494.485	95.5
494.703	94.5
494.92	106.5
495.138	82.5
495.355	100.5
495.573	95.5
495.79	87.5
496.008	91.5
496.225	94.5
496.442	89.5
496.66	96.5
496.877	90.5
497.094	99.5
497.312	96.5
497.529	94.5
497.746	89.5
497.963	102.5
498.181	96.5
498.398	107.5
498.615	121.5
498.832	116.5
499.049	95.5
499.267	103.5
499.484	68.5
499.701	94.5
499.918	86.5
500.135	92.5
500.352	90.5
500.569	108.5
500.786	94.5
501.003	94.5
501.22	90.5
501.437	107.5
501.654	90.5
501.871	121.5
502.088	93.5
502.305	101.5
502.522	97.5
502.739	87.5
502.956	99.5
503.172	98.5
503.389	112.5
503.606	114.5
503.823	103.5
504.04	105.5
504.256	108.5
504.473	106.5
504.69	97.5
504.907	90.5
505.123	98.5
505.34	105.5
505.557	91.5
505.773	108.5
505.99	105.5
506.207	88.5
506.423	92.5
506.64	100.5
506.856	89.5
507.073	95.5
507.289	104.5
507.506	103.5
507.722	138.5
507.939	129.5
508.155	118.5
508.372	111.5
508.588	118.5
508.805	106.5
509.021	98.5
509.238	100.5
509.454	96.5
509.67	105.5
509.887	124.5
510.103	139.5
510.319	242.5
510.536	930.5
510.752	3339.5
510.968	880.5
511.184	176.5
511.401	122.5
511.617	131.5
511.833	142.5
512.049	110.5
512.265	93.5
512.481	100.5
512.698	107.5
512.914	94.5
513.13	102.5
513.346	91.5
513.562	105.5
513.778	104.5
513.994	99.5
514.21	130.5
514.426	135.5
514.642	162.5
514.858	161.5
515.074	215.5
515.29	688.5
515.506	2399.5
515.721	848.5
515.937	191.5
516.153	129.5
516.369	110.5
516.585	93.5
516.801	127.5
517.016	114.5
517.232	100.5
517.448	98.5
517.664	84.5
517.879	94.5
518.095	110.5
518.311	131.5
518.527	118.5
518.742	100.5
518.958	98.5
519.173	100.5
519.389	98.5
519.605	101.5
519.82	99.5
520.036	108.5
520.251	147.5
520.467	133.5
520.682	122.5
520.898	115.5
521.113	129.5
521.329	159.5
521.544	318.5
521.76	867.5
521.975	4084.5
522.19	2393.5
522.406	460.5
522.621	161.5
522.836	106.5
523.052	120.5
523.267	110.5
523.482	112.5
523.698	116.5
523.913	146.5
524.128	126.5
524.343	114.5
524.559	106.5
524.774	105.5
524.989	99.5
525.204	108.5
525.419	102.5
525.634	101.5
525.849	104.5
526.064	104.5
526.28	115.5
526.495	93.5
526.71	94.5
526.925	100.5
527.14	96.5
527.355	96.5
527.57	95.5
527.785	80.5
527.999	95.5
528.214	92.5
528.429	93.5
528.644	96.5
528.859	89.5
529.074	97.5
529.289	162.5
529.503	248.5
529.718	124.5
