Data from Circ_1988_H10_HRD10591_00079.txt Node
Date: Wed Jan 03 12:05:50 EST 2024
User: Yrep
Spectrometer: HR+D1059
Trigger mode: 1
Integration Time (sec): 1.000000E-1
Scans to average: 1
Electric dark correction enabled: true
Nonlinearity correction enabled: false
Boxcar width: 0
XAxis mode: Wavelengths
Number of Pixels in Spectrum: 2048
>>>>>Begin Spectral Data<<<<<
223.165	-17.69
223.4	-17.69
223.635	-17.69
223.869	-11.69
224.104	-15.69
224.338	-22.69
224.573	-12.69
224.808	-21.69
225.042	-9.69
225.277	2.31
225.511	5.31
225.746	7.31
225.98	2.31
226.215	12.31
226.449	16.31
226.683	23.31
226.918	22.31
227.152	20.31
227.387	38.31
227.621	31.31
227.856	38.31
228.09	46.31
228.324	56.31
228.559	49.31
228.793	62.31
229.027	76.31
229.262	61.31
229.496	71.31
229.73	88.31
229.964	82.31
230.199	71.31
230.433	71.31
230.667	74.31
230.901	81.31
231.136	102.31
231.37	84.31
231.604	70.31
231.838	74.31
232.072	77.31
232.306	71.31
232.541	94.31
232.775	76.31
233.009	65.31
233.243	74.31
233.477	87.31
233.711	83.31
233.945	67.31
234.179	82.31
234.413	90.31
234.647	68.31
234.881	70.31
235.115	67.31
235.349	96.31
235.583	87.31
235.817	63.31
236.051	82.31
236.285	83.31
236.519	74.31
236.753	72.31
236.987	90.31
237.221	85.31
237.455	96.31
237.689	78.31
237.922	83.31
238.156	74.31
238.39	64.31
238.624	68.31
238.858	60.31
239.091	65.31
239.325	84.31
239.559	78.31
239.793	84.31
240.027	64.31
240.26	74.31
240.494	77.31
240.728	66.31
240.961	78.31
241.195	77.31
241.429	74.31
241.662	86.31
241.896	69.31
242.13	77.31
242.363	69.31
242.597	80.31
242.83	83.31
243.064	78.31
243.298	66.31
243.531	75.31
243.765	77.31
243.998	84.31
244.232	94.31
244.465	88.31
244.699	80.31
244.932	72.31
245.166	88.31
245.399	98.31
245.633	89.31
245.866	96.31
246.099	70.31
246.333	77.31
246.566	96.31
246.8	85.31
247.033	85.31
247.266	67.31
247.5	74.31
247.733	72.31
247.966	78.31
248.2	93.31
248.433	83.31
248.666	78.31
248.899	94.31
249.133	96.31
249.366	96.31
249.599	98.31
249.832	80.31
250.066	100.31
250.299	93.31
250.532	94.31
250.765	77.31
250.998	83.31
251.231	82.31
251.465	85.31
251.698	91.31
251.931	92.31
252.164	83.31
252.397	79.31
252.63	78.31
252.863	91.31
253.096	80.31
253.329	79.31
253.562	75.31
253.795	92.31
254.028	81.31
254.261	79.31
254.494	75.31
254.727	93.31
254.96	78.31
255.193	71.31
255.426	92.31
255.659	87.31
255.892	108.31
256.124	112.31
256.357	87.31
256.59	82.31
256.823	76.31
257.056	90.31
257.289	87.31
257.521	92.31
257.754	84.31
257.987	84.31
258.22	110.31
258.452	110.31
258.685	104.31
258.918	107.31
259.151	84.31
259.383	89.31
259.616	93.31
259.849	79.31
260.081	92.31
260.314	98.31
260.547	92.31
260.779	116.31
261.012	142.31
261.244	141.31
261.477	100.31
261.71	82.31
261.942	138.31
262.175	137.31
262.407	98.31
262.64	79.31
262.872	103.31
263.105	91.31
263.337	67.31
263.57	93.31
263.802	85.31
264.035	82.31
264.267	86.31
264.499	81.31
264.732	88.31
264.964	72.31
265.197	89.31
265.429	78.31
265.661	76.31
265.894	91.31
266.126	87.31
266.358	81.31
266.591	85.31
266.823	87.31
267.055	71.31
267.287	74.31
267.52	83.31
267.752	78.31
267.984	85.31
268.216	91.31
268.448	103.31
268.681	96.31
268.913	85.31
269.145	82.31
269.377	78.31
269.609	87.31
269.841	68.31
270.073	90.31
270.306	81.31
270.538	102.31
270.77	88.31
271.002	88.31
271.234	83.31
271.466	107.31
271.698	102.31
271.93	90.31
272.162	94.31
272.394	87.31
272.626	83.31
272.858	88.31
273.09	89.31
273.322	83.31
273.553	90.31
273.785	92.31
274.017	88.31
274.249	87.31
274.481	87.31
274.713	95.31
274.945	91.31
275.176	92.31
275.408	111.31
275.64	126.31
275.872	159.31
276.104	121.31
276.335	113.31
276.567	147.31
276.799	167.31
277.031	256.31
277.262	318.31
277.494	237.31
277.726	131.31
277.957	89.31
278.189	98.31
278.421	94.31
278.652	76.31
278.884	93.31
279.115	92.31
279.347	110.31
279.579	112.31
279.81	176.31
280.042	335.31
280.273	462.31
280.505	289.31
280.736	110.31
280.968	97.31
281.199	98.31
281.431	95.31
281.662	96.31
281.894	87.31
282.125	102.31
282.356	128.31
282.588	172.31
282.819	132.31
283.051	92.31
283.282	104.31
283.513	94.31
283.745	97.31
283.976	92.31
284.207	75.31
284.439	94.31
284.67	90.31
284.901	80.31
285.132	78.31
285.364	83.31
285.595	86.31
285.826	96.31
286.057	76.31
286.288	94.31
286.52	90.31
286.751	88.31
286.982	94.31
287.213	80.31
287.444	78.31
287.675	91.31
287.906	91.31
288.138	88.31
288.369	91.31
288.6	102.31
288.831	88.31
289.062	103.31
289.293	84.31
289.524	90.31
289.755	83.31
289.986	94.31
290.217	101.31
290.448	86.31
290.679	93.31
290.91	88.31
291.141	87.31
291.371	76.31
291.602	64.31
291.833	77.31
292.064	90.31
292.295	92.31
292.526	87.31
292.757	95.31
292.987	94.31
293.218	82.31
293.449	93.31
293.68	85.31
293.91	78.31
294.141	92.31
294.372	83.31
294.603	84.31
294.833	96.31
295.064	90.31
295.295	79.31
295.525	92.31
295.756	116.31
295.987	131.31
296.217	158.31
296.448	159.31
296.679	99.31
296.909	94.31
297.14	95.31
297.37	79.31
297.601	97.31
297.831	86.31
298.062	81.31
298.292	97.31
298.523	87.31
298.753	106.31
298.984	85.31
299.214	87.31
299.445	86.31
299.675	95.31
299.905	95.31
300.136	93.31
300.366	87.31
300.597	100.31
300.827	114.31
301.057	96.31
301.288	103.31
301.518	91.31
301.748	113.31
301.979	138.31
302.209	116.31
302.439	97.31
302.669	80.31
302.9	98.31
303.13	100.31
303.36	114.31
303.59	167.31
303.82	192.31
304.051	119.31
304.281	83.31
304.511	89.31
304.741	88.31
304.971	96.31
305.201	86.31
305.431	101.31
305.661	85.31
305.891	95.31
306.121	99.31
306.352	120.31
306.582	119.31
306.812	128.31
307.042	166.31
307.272	242.31
307.502	280.31
307.731	251.31
307.961	169.31
308.191	108.31
308.421	102.31
308.651	92.31
308.881	103.31
309.111	96.31
309.341	102.31
309.571	106.31
309.8	106.31
310.03	116.31
310.26	93.31
310.49	102.31
310.72	103.31
310.949	118.31
311.179	129.31
311.409	97.31
311.639	98.31
311.868	94.31
312.098	92.31
312.328	103.31
312.557	109.31
312.787	109.31
313.017	116.31
313.246	101.31
313.476	83.31
313.706	96.31
313.935	111.31
314.165	116.31
314.394	108.31
314.624	109.31
314.853	100.31
315.083	104.31
315.312	96.31
315.542	98.31
315.771	115.31
316.001	87.31
316.23	86.31
316.46	96.31
316.689	92.31
316.919	93.31
317.148	93.31
317.377	96.31
317.607	88.31
317.836	104.31
318.065	102.31
318.295	80.31
318.524	91.31
318.753	96.31
318.983	90.31
319.212	102.31
319.441	131.31
319.67	127.31
319.9	101.31
320.129	99.31
320.358	91.31
320.587	88.31
320.816	98.31
321.046	111.31
321.275	114.31
321.504	101.31
321.733	91.31
321.962	110.31
322.191	98.31
322.42	100.31
322.649	104.31
322.878	122.31
323.108	120.31
323.337	132.31
323.566	141.31
323.795	177.31
324.024	208.31
324.253	406.31
324.482	788.31
324.71	1615.31
324.939	2140.31
325.168	854.31
325.397	273.31
325.626	160.31
325.855	129.31
326.084	131.31
326.313	121.31
326.542	157.31
326.77	239.31
326.999	416.31
327.228	802.31
327.457	1478.31
327.686	1268.31
327.914	612.31
328.143	814.31
328.372	1166.31
328.6	614.31
328.829	242.31
329.058	208.31
329.287	226.31
329.515	220.31
329.744	369.31
329.972	789.31
330.201	1760.31
330.43	2703.31
330.658	1081.31
330.887	373.31
331.115	204.31
331.344	126.31
331.572	108.31
331.801	129.31
332.03	123.31
332.258	107.31
332.486	115.31
332.715	119.31
332.943	133.31
333.172	143.31
333.4	149.31
333.629	195.31
333.857	304.31
334.085	666.31
334.314	1470.31
334.542	3112.31
334.771	3044.31
334.999	707.31
335.227	251.31
335.455	158.31
335.684	150.31
335.912	133.31
336.14	112.31
336.369	115.31
336.597	130.31
336.825	108.31
337.053	83.31
337.281	92.31
337.51	100.31
337.738	114.31
337.966	97.31
338.194	92.31
338.422	78.31
338.65	98.31
338.878	91.31
339.106	103.31
339.334	92.31
339.562	82.31
339.79	80.31
340.018	84.31
340.246	107.31
340.474	95.31
340.702	98.31
340.93	97.31
341.158	99.31
341.386	99.31
341.614	106.31
341.842	89.31
342.07	99.31
342.298	94.31
342.526	86.31
342.754	93.31
342.981	74.31
343.209	92.31
343.437	101.31
343.665	95.31
343.893	84.31
344.12	90.31
344.348	92.31
344.576	105.31
344.804	93.31
345.031	99.31
345.259	92.31
345.487	96.31
345.714	83.31
345.942	88.31
346.17	102.31
346.397	96.31
346.625	98.31
346.853	97.31
347.08	99.31
347.308	107.31
347.535	107.31
347.763	121.31
347.99	102.31
348.218	101.31
348.445	102.31
348.673	89.31
348.9	105.31
349.128	79.31
349.355	100.31
349.583	97.31
349.81	94.31
350.037	85.31
350.265	91.31
350.492	74.31
350.72	94.31
350.947	106.31
351.174	116.31
351.402	119.31
351.629	110.31
351.856	110.31
352.083	105.31
352.311	111.31
352.538	123.31
352.765	110.31
352.992	118.31
353.22	109.31
353.447	124.31
353.674	96.31
353.901	95.31
354.128	106.31
354.355	98.31
354.583	88.31
354.81	91.31
355.037	100.31
355.264	86.31
355.491	87.31
355.718	98.31
355.945	98.31
356.172	98.31
356.399	71.31
356.626	81.31
356.853	84.31
357.08	90.31
357.307	91.31
357.534	89.31
357.761	83.31
357.988	83.31
358.215	107.31
358.441	95.31
358.668	91.31
358.895	79.31
359.122	85.31
359.349	108.31
359.576	76.31
359.802	109.31
360.029	139.31
360.256	143.31
360.483	108.31
360.709	87.31
360.936	88.31
361.163	98.31
361.39	98.31
361.616	106.31
361.843	92.31
362.07	90.31
362.296	107.31
362.523	94.31
362.749	90.31
362.976	86.31
363.203	98.31
363.429	80.31
363.656	100.31
363.882	94.31
364.109	94.31
364.335	111.31
364.562	87.31
364.788	100.31
365.015	101.31
365.241	91.31
365.468	122.31
365.694	114.31
365.92	107.31
366.147	103.31
366.373	95.31
366.599	93.31
366.826	101.31
367.052	95.31
367.278	94.31
367.505	82.31
367.731	101.31
367.957	91.31
368.184	87.31
368.41	107.31
368.636	127.31
368.862	113.31
369.089	118.31
369.315	99.31
369.541	95.31
369.767	96.31
369.993	87.31
370.219	91.31
370.445	84.31
370.672	88.31
370.898	98.31
371.124	94.31
371.35	100.31
371.576	99.31
371.802	96.31
372.028	104.31
372.254	101.31
372.48	93.31
372.706	94.31
372.932	102.31
373.158	88.31
373.384	87.31
373.61	94.31
373.835	73.31
374.061	102.31
374.287	86.31
374.513	94.31
374.739	92.31
374.965	79.31
375.191	86.31
375.416	97.31
375.642	100.31
375.868	82.31
376.094	87.31
376.319	93.31
376.545	78.31
376.771	82.31
376.997	86.31
377.222	86.31
377.448	88.31
377.674	77.31
377.899	107.31
378.125	99.31
378.35	94.31
378.576	83.31
378.802	97.31
379.027	84.31
379.253	103.31
379.478	87.31
379.704	103.31
379.929	101.31
380.155	89.31
380.38	104.31
380.606	86.31
380.831	96.31
381.057	104.31
381.282	90.31
381.507	94.31
381.733	91.31
381.958	87.31
382.184	91.31
382.409	108.31
382.634	106.31
382.86	97.31
383.085	99.31
383.31	97.31
383.535	108.31
383.761	103.31
383.986	100.31
384.211	102.31
384.436	111.31
384.662	99.31
384.887	108.31
385.112	115.31
385.337	95.31
385.562	106.31
385.787	104.31
386.013	116.31
386.238	130.31
386.463	115.31
386.688	122.31
386.913	105.31
387.138	102.31
387.363	115.31
387.588	87.31
387.813	92.31
388.038	103.31
388.263	117.31
388.488	104.31
388.713	91.31
388.938	90.31
389.163	85.31
389.387	77.31
389.612	87.31
389.837	86.31
390.062	108.31
390.287	90.31
390.512	89.31
390.736	92.31
390.961	89.31
391.186	83.31
391.411	85.31
391.636	92.31
391.86	79.31
392.085	98.31
392.31	98.31
392.534	77.31
392.759	86.31
392.984	79.31
393.208	87.31
393.433	95.31
393.658	94.31
393.882	74.31
394.107	84.31
394.331	92.31
394.556	83.31
394.78	84.31
395.005	87.31
395.229	86.31
395.454	83.31
395.678	79.31
395.903	80.31
396.127	94.31
396.352	106.31
396.576	92.31
396.801	92.31
397.025	101.31
397.249	85.31
397.474	94.31
397.698	87.31
397.922	80.31
398.147	89.31
398.371	96.31
398.595	95.31
398.82	88.31
399.044	82.31
399.268	83.31
399.492	84.31
399.717	89.31
399.941	94.31
400.165	83.31
400.389	87.31
400.613	74.31
400.837	104.31
401.062	84.31
401.286	103.31
401.51	89.31
401.734	106.31
401.958	108.31
402.182	155.31
402.406	209.31
402.63	135.31
402.854	92.31
403.078	91.31
403.302	88.31
403.526	88.31
403.75	76.31
403.974	88.31
404.198	83.31
404.422	106.31
404.645	94.31
404.869	104.31
405.093	116.31
405.317	156.31
405.541	144.31
405.765	134.31
405.988	130.31
406.212	229.31
406.436	307.31
406.66	210.31
406.883	122.31
407.107	101.31
407.331	110.31
407.555	110.31
407.778	100.31
408.002	105.31
408.226	88.31
408.449	85.31
408.673	87.31
408.896	80.31
409.12	106.31
409.344	98.31
409.567	97.31
409.791	96.31
410.014	103.31
410.238	98.31
410.461	79.31
410.685	85.31
410.908	96.31
411.132	98.31
411.355	98.31
411.578	89.31
411.802	80.31
412.025	92.31
412.249	104.31
412.472	122.31
412.695	147.31
412.919	120.31
413.142	99.31
413.365	101.31
413.589	101.31
413.812	85.31
414.035	108.31
414.258	101.31
414.482	92.31
414.705	94.31
414.928	101.31
415.151	89.31
415.374	97.31
415.597	91.31
415.821	90.31
416.044	102.31
416.267	103.31
416.49	92.31
416.713	78.31
416.936	97.31
417.159	95.31
417.382	99.31
417.605	109.31
417.828	115.31
418.051	117.31
418.274	91.31
418.497	98.31
418.72	90.31
418.943	89.31
419.166	78.31
419.389	92.31
419.611	106.31
419.834	88.31
420.057	85.31
420.28	103.31
420.503	95.31
420.726	90.31
420.948	97.31
421.171	118.31
421.394	91.31
421.617	81.31
421.839	88.31
422.062	94.31
422.285	84.31
422.507	97.31
422.73	114.31
422.953	97.31
423.175	102.31
423.398	70.31
423.621	68.31
423.843	104.31
424.066	83.31
424.288	87.31
424.511	88.31
424.733	103.31
424.956	118.31
425.178	112.31
425.401	99.31
425.623	103.31
425.846	99.31
426.068	105.31
426.291	97.31
426.513	87.31
426.735	90.31
426.958	84.31
427.18	97.31
427.402	175.31
427.625	261.31
427.847	229.31
428.069	207.31
428.292	135.31
428.514	107.31
428.736	90.31
428.958	96.31
429.181	101.31
429.403	88.31
429.625	84.31
429.847	101.31
430.069	102.31
430.292	105.31
430.514	94.31
430.736	82.31
430.958	90.31
431.18	94.31
431.402	95.31
431.624	84.31
431.846	76.31
432.068	98.31
432.29	92.31
432.512	91.31
432.734	87.31
432.956	95.31
433.178	104.31
433.4	101.31
433.622	94.31
433.844	99.31
434.066	104.31
434.287	92.31
434.509	87.31
434.731	89.31
434.953	80.31
435.175	99.31
435.397	85.31
435.618	89.31
435.84	110.31
436.062	128.31
436.284	120.31
436.505	88.31
436.727	103.31
436.949	99.31
437.17	103.31
437.392	85.31
437.614	95.31
437.835	103.31
438.057	138.31
438.278	131.31
438.5	118.31
438.721	130.31
438.943	101.31
439.165	90.31
439.386	69.31
439.608	92.31
439.829	111.31
440.05	140.31
440.272	164.31
440.493	116.31
440.715	97.31
440.936	97.31
441.158	92.31
441.379	94.31
441.6	98.31
441.822	106.31
442.043	92.31
442.264	122.31
442.486	116.31
442.707	92.31
442.928	129.31
443.149	169.31
443.371	160.31
443.592	123.31
443.813	133.31
444.034	116.31
444.255	104.31
444.476	92.31
444.698	101.31
444.919	84.31
445.14	118.31
445.361	136.31
445.582	114.31
445.803	159.31
446.024	158.31
446.245	146.31
446.466	116.31
446.687	86.31
446.908	87.31
447.129	86.31
447.35	93.31
447.571	89.31
447.792	100.31
448.013	98.31
448.234	130.31
448.455	110.31
448.675	120.31
448.896	126.31
449.117	111.31
449.338	98.31
449.559	141.31
449.779	166.31
450	97.31
450.221	86.31
450.442	95.31
450.662	110.31
450.883	127.31
451.104	129.31
451.324	111.31
451.545	84.31
451.766	87.31
451.986	84.31
452.207	92.31
452.428	117.31
452.648	111.31
452.869	126.31
453.089	122.31
453.31	145.31
453.53	110.31
453.751	99.31
453.971	133.31
454.192	147.31
454.412	103.31
454.633	72.31
454.853	103.31
455.073	97.31
455.294	98.31
455.514	122.31
455.734	83.31
455.955	89.31
456.175	93.31
456.395	84.31
456.616	72.31
456.836	82.31
457.056	87.31
457.276	84.31
457.497	83.31
457.717	79.31
457.937	82.31
458.157	78.31
458.377	107.31
458.598	120.31
458.818	200.31
459.038	232.31
459.258	147.31
459.478	86.31
459.698	74.31
459.918	92.31
460.138	79.31
460.358	80.31
460.578	93.31
460.798	91.31
461.018	82.31
461.238	89.31
461.458	79.31
461.678	90.31
461.898	94.31
462.118	76.31
462.338	85.31
462.558	90.31
462.777	84.31
462.997	110.31
463.217	120.31
463.437	116.31
463.657	89.31
463.876	96.31
464.096	106.31
464.316	100.31
464.536	115.31
464.755	108.31
464.975	132.31
465.195	244.31
465.414	233.31
465.634	111.31
465.854	106.31
466.073	101.31
466.293	97.31
466.512	90.31
466.732	100.31
466.951	98.31
467.171	107.31
467.391	125.31
467.61	194.31
467.829	328.31
468.049	1176.31
468.268	1808.31
468.488	388.31
468.707	147.31
468.927	104.31
469.146	82.31
469.365	92.31
469.585	100.31
469.804	123.31
470.023	109.31
470.243	102.31
470.462	131.31
470.681	140.31
470.901	106.31
471.12	104.31
471.339	112.31
471.558	140.31
471.777	211.31
471.997	503.31
472.216	2092.31
472.435	5054.31
472.654	1039.31
472.873	235.31
473.092	125.31
473.311	113.31
473.53	104.31
473.749	104.31
473.968	111.31
474.187	132.31
474.406	109.31
474.625	98.31
474.844	93.31
475.063	84.31
475.282	84.31
475.501	95.31
475.72	89.31
475.939	81.31
476.158	86.31
476.377	95.31
476.596	87.31
476.814	99.31
477.033	97.31
477.252	98.31
477.471	94.31
477.69	93.31
477.908	97.31
478.127	96.31
478.346	101.31
478.564	95.31
478.783	123.31
479.002	112.31
479.22	127.31
479.439	139.31
479.658	130.31
479.876	144.31
480.095	159.31
480.313	172.31
480.532	232.31
480.751	448.31
480.969	1797.31
481.188	8096.31
481.406	4551.31
481.624	583.31
481.843	190.31
482.061	129.31
482.28	111.31
482.498	114.31
482.717	112.31
482.935	100.31
483.153	101.31
483.372	95.31
483.59	99.31
483.808	105.31
484.027	82.31
484.245	107.31
484.463	110.31
484.681	113.31
484.9	106.31
485.118	104.31
485.336	95.31
485.554	97.31
485.772	111.31
485.99	116.31
486.209	124.31
486.427	118.31
486.645	136.31
486.863	148.31
487.081	118.31
487.299	94.31
487.517	100.31
487.735	100.31
487.953	104.31
488.171	103.31
488.389	114.31
488.607	113.31
488.825	86.31
489.043	102.31
489.261	93.31
489.479	89.31
489.696	102.31
489.914	85.31
490.132	95.31
490.35	83.31
490.568	89.31
490.786	86.31
491.003	106.31
491.221	98.31
491.439	96.31
491.657	88.31
491.874	100.31
492.092	88.31
492.31	100.31
492.527	104.31
492.745	102.31
492.963	104.31
493.18	95.31
493.398	99.31
493.615	97.31
493.833	94.31
494.05	82.31
494.268	96.31
494.485	84.31
494.703	80.31
494.92	87.31
495.138	87.31
495.355	90.31
495.573	90.31
495.79	102.31
496.008	92.31
496.225	90.31
496.442	95.31
496.66	102.31
496.877	76.31
497.094	102.31
497.312	77.31
497.529	99.31
497.746	93.31
497.963	87.31
498.181	94.31
498.398	100.31
498.615	132.31
498.832	110.31
499.049	113.31
499.267	92.31
499.484	98.31
499.701	98.31
499.918	90.31
500.135	93.31
500.352	95.31
500.569	86.31
500.786	112.31
501.003	109.31
501.22	96.31
501.437	88.31
501.654	87.31
501.871	142.31
502.088	97.31
502.305	99.31
502.522	92.31
502.739	99.31
502.956	104.31
503.172	108.31
503.389	106.31
503.606	117.31
503.823	112.31
504.04	102.31
504.256	90.31
504.473	96.31
504.69	94.31
504.907	92.31
505.123	84.31
505.34	83.31
505.557	105.31
505.773	99.31
505.99	103.31
506.207	83.31
506.423	84.31
506.64	98.31
506.856	89.31
507.073	96.31
507.289	93.31
507.506	103.31
507.722	133.31
507.939	128.31
508.155	102.31
508.372	98.31
508.588	85.31
508.805	116.31
509.021	99.31
509.238	113.31
509.454	106.31
509.67	114.31
509.887	120.31
510.103	144.31
510.319	260.31
510.536	1004.31
510.752	3511.31
510.968	917.31
511.184	188.31
511.401	145.31
511.617	102.31
511.833	138.31
512.049	97.31
512.265	92.31
512.481	84.31
