Data from Circ_1988_H10_HRD10591_00049.txt Node
Date: Wed Jan 03 12:05:44 EST 2024
User: Yrep
Spectrometer: HR+D1059
Trigger mode: 1
Integration Time (sec): 1.000000E-1
Scans to average: 1
Electric dark correction enabled: true
Nonlinearity correction enabled: false
Boxcar width: 0
XAxis mode: Wavelengths
Number of Pixels in Spectrum: 2048
>>>>>Begin Spectral Data<<<<<
223.165	-14.69
223.4	-14.69
223.635	-14.69
223.869	-16.69
224.104	-22.69
224.338	-20.69
224.573	-5.69
224.808	-14.69
225.042	-15.69
225.277	-1.69
225.511	0.31
225.746	-3.69
225.98	10.31
226.215	3.31
226.449	18.31
226.683	23.31
226.918	29.31
227.152	31.31
227.387	37.31
227.621	46.31
227.856	59.31
228.09	55.31
228.324	46.31
228.559	43.31
228.793	61.31
229.027	50.31
229.262	77.31
229.496	78.31
229.73	109.31
229.964	94.31
230.199	73.31
230.433	68.31
230.667	78.31
230.901	81.31
231.136	89.31
231.37	78.31
231.604	75.31
231.838	93.31
232.072	77.31
232.306	66.31
232.541	81.31
232.775	96.31
233.009	99.31
233.243	79.31
233.477	78.31
233.711	74.31
233.945	64.31
234.179	72.31
234.413	90.31
234.647	88.31
234.881	86.31
235.115	71.31
235.349	97.31
235.583	69.31
235.817	81.31
236.051	80.31
236.285	76.31
236.519	95.31
236.753	104.31
236.987	86.31
237.221	77.31
237.455	94.31
237.689	87.31
237.922	82.31
238.156	83.31
238.39	80.31
238.624	62.31
238.858	88.31
239.091	79.31
239.325	79.31
239.559	85.31
239.793	90.31
240.027	81.31
240.26	67.31
240.494	81.31
240.728	79.31
240.961	93.31
241.195	73.31
241.429	84.31
241.662	66.31
241.896	87.31
242.13	86.31
242.363	99.31
242.597	84.31
242.83	79.31
243.064	77.31
243.298	83.31
243.531	85.31
243.765	80.31
243.998	93.31
244.232	70.31
244.465	82.31
244.699	91.31
244.932	82.31
245.166	85.31
245.399	87.31
245.633	77.31
245.866	65.31
246.099	82.31
246.333	87.31
246.566	91.31
246.8	96.31
247.033	72.31
247.266	75.31
247.5	77.31
247.733	107.31
247.966	94.31
248.2	89.31
248.433	67.31
248.666	100.31
248.899	85.31
249.133	80.31
249.366	123.31
249.599	115.31
249.832	87.31
250.066	94.31
250.299	92.31
250.532	111.31
250.765	102.31
250.998	94.31
251.231	67.31
251.465	92.31
251.698	100.31
251.931	97.31
252.164	93.31
252.397	98.31
252.63	80.31
252.863	78.31
253.096	86.31
253.329	82.31
253.562	84.31
253.795	86.31
254.028	88.31
254.261	86.31
254.494	81.31
254.727	94.31
254.96	81.31
255.193	93.31
255.426	85.31
255.659	99.31
255.892	120.31
256.124	123.31
256.357	106.31
256.59	101.31
256.823	84.31
257.056	101.31
257.289	108.31
257.521	111.31
257.754	94.31
257.987	104.31
258.22	111.31
258.452	121.31
258.685	104.31
258.918	86.31
259.151	87.31
259.383	98.31
259.616	81.31
259.849	91.31
260.081	101.31
260.314	99.31
260.547	104.31
260.779	122.31
261.012	165.31
261.244	153.31
261.477	116.31
261.71	100.31
261.942	143.31
262.175	152.31
262.407	111.31
262.64	96.31
262.872	85.31
263.105	87.31
263.337	89.31
263.57	98.31
263.802	92.31
264.035	90.31
264.267	91.31
264.499	97.31
264.732	97.31
264.964	97.31
265.197	91.31
265.429	89.31
265.661	82.31
265.894	93.31
266.126	104.31
266.358	83.31
266.591	89.31
266.823	79.31
267.055	87.31
267.287	81.31
267.52	92.31
267.752	100.31
267.984	85.31
268.216	86.31
268.448	106.31
268.681	104.31
268.913	113.31
269.145	90.31
269.377	84.31
269.609	72.31
269.841	84.31
270.073	84.31
270.306	97.31
270.538	96.31
270.77	82.31
271.002	88.31
271.234	97.31
271.466	124.31
271.698	95.31
271.93	91.31
272.162	98.31
272.394	94.31
272.626	81.31
272.858	94.31
273.09	92.31
273.322	93.31
273.553	102.31
273.785	89.31
274.017	94.31
274.249	95.31
274.481	89.31
274.713	94.31
274.945	109.31
275.176	106.31
275.408	121.31
275.64	158.31
275.872	200.31
276.104	146.31
276.335	132.31
276.567	141.31
276.799	192.31
277.031	309.31
277.262	413.31
277.494	289.31
277.726	149.31
277.957	102.31
278.189	113.31
278.421	101.31
278.652	85.31
278.884	100.31
279.115	115.31
279.347	112.31
279.579	147.31
279.81	208.31
280.042	379.31
280.273	598.31
280.505	364.31
280.736	170.31
280.968	109.31
281.199	116.31
281.431	91.31
281.662	83.31
281.894	103.31
282.125	117.31
282.356	161.31
282.588	194.31
282.819	143.31
283.051	113.31
283.282	82.31
283.513	83.31
283.745	99.31
283.976	83.31
284.207	97.31
284.439	102.31
284.67	100.31
284.901	97.31
285.132	84.31
285.364	93.31
285.595	89.31
285.826	98.31
286.057	94.31
286.288	84.31
286.52	101.31
286.751	88.31
286.982	91.31
287.213	101.31
287.444	87.31
287.675	89.31
287.906	85.31
288.138	104.31
288.369	97.31
288.6	95.31
288.831	95.31
289.062	90.31
289.293	95.31
289.524	107.31
289.755	91.31
289.986	72.31
290.217	90.31
290.448	79.31
290.679	91.31
290.91	96.31
291.141	94.31
291.371	109.31
291.602	95.31
291.833	85.31
292.064	90.31
292.295	108.31
292.526	87.31
292.757	100.31
292.987	91.31
293.218	92.31
293.449	95.31
293.68	110.31
293.91	93.31
294.141	100.31
294.372	88.31
294.603	93.31
294.833	97.31
295.064	93.31
295.295	97.31
295.525	93.31
295.756	107.31
295.987	139.31
296.217	177.31
296.448	149.31
296.679	98.31
296.909	97.31
297.14	94.31
297.37	104.31
297.601	84.31
297.831	96.31
298.062	104.31
298.292	93.31
298.523	96.31
298.753	109.31
298.984	96.31
299.214	104.31
299.445	96.31
299.675	85.31
299.905	106.31
300.136	105.31
300.366	94.31
300.597	98.31
300.827	107.31
301.057	120.31
301.288	116.31
301.518	110.31
301.748	122.31
301.979	125.31
302.209	130.31
302.439	90.31
302.669	98.31
302.9	96.31
303.13	96.31
303.36	126.31
303.59	193.31
303.82	225.31
304.051	137.31
304.281	103.31
304.511	93.31
304.741	84.31
304.971	95.31
305.201	103.31
305.431	99.31
305.661	95.31
305.891	104.31
306.121	93.31
306.352	117.31
306.582	126.31
306.812	137.31
307.042	177.31
307.272	277.31
307.502	315.31
307.731	281.31
307.961	186.31
308.191	105.31
308.421	85.31
308.651	94.31
308.881	94.31
309.111	99.31
309.341	99.31
309.571	109.31
309.8	101.31
310.03	107.31
310.26	98.31
310.49	99.31
310.72	111.31
310.949	120.31
311.179	113.31
311.409	120.31
311.639	107.31
311.868	107.31
312.098	98.31
312.328	110.31
312.557	114.31
312.787	145.31
313.017	117.31
313.246	102.31
313.476	107.31
313.706	103.31
313.935	103.31
314.165	110.31
314.394	118.31
314.624	111.31
314.853	115.31
315.083	99.31
315.312	89.31
315.542	93.31
315.771	98.31
316.001	112.31
316.23	98.31
316.46	100.31
316.689	85.31
316.919	106.31
317.148	101.31
317.377	107.31
317.607	97.31
317.836	107.31
318.065	93.31
318.295	112.31
318.524	115.31
318.753	92.31
318.983	95.31
319.212	105.31
319.441	122.31
319.67	126.31
319.9	104.31
320.129	98.31
320.358	102.31
320.587	89.31
320.816	116.31
321.046	118.31
321.275	99.31
321.504	100.31
321.733	99.31
321.962	113.31
322.191	98.31
322.42	122.31
322.649	144.31
322.878	108.31
323.108	136.31
323.337	146.31
323.566	157.31
323.795	195.31
324.024	236.31
324.253	456.31
324.482	960.31
324.71	1979.31
324.939	2621.31
325.168	998.31
325.397	305.31
325.626	172.31
325.855	151.31
326.084	135.31
326.313	142.31
326.542	178.31
326.77	270.31
326.999	489.31
327.228	961.31
327.457	1809.31
327.686	1526.31
327.914	759.31
328.143	1020.31
328.372	1499.31
328.6	729.31
328.829	284.31
329.058	258.31
329.287	247.31
329.515	274.31
329.744	464.31
329.972	1028.31
330.201	2321.31
330.43	3398.31
330.658	1375.31
330.887	455.31
331.115	260.31
331.344	162.31
331.572	157.31
331.801	164.31
332.03	136.31
332.258	143.31
332.486	126.31
332.715	138.31
332.943	134.31
333.172	166.31
333.4	172.31
333.629	238.31
333.857	396.31
334.085	877.31
334.314	2022.31
334.542	4118.31
334.771	3847.31
334.999	884.31
335.227	277.31
335.455	177.31
335.684	157.31
335.912	128.31
336.14	133.31
336.369	123.31
336.597	123.31
336.825	117.31
337.053	97.31
337.281	121.31
337.51	106.31
337.738	103.31
337.966	107.31
338.194	106.31
338.422	101.31
338.65	109.31
338.878	102.31
339.106	112.31
339.334	103.31
339.562	98.31
339.79	101.31
340.018	101.31
340.246	97.31
340.474	121.31
340.702	111.31
340.93	88.31
341.158	87.31
341.386	111.31
341.614	105.31
341.842	110.31
342.07	89.31
342.298	97.31
342.526	100.31
342.754	82.31
342.981	85.31
343.209	85.31
343.437	101.31
343.665	85.31
343.893	105.31
344.12	112.31
344.348	82.31
344.576	98.31
344.804	94.31
345.031	118.31
345.259	115.31
345.487	107.31
345.714	94.31
345.942	104.31
346.17	86.31
346.397	105.31
346.625	101.31
346.853	101.31
347.08	96.31
347.308	101.31
347.535	98.31
347.763	109.31
347.99	113.31
348.218	118.31
348.445	128.31
348.673	116.31
348.9	102.31
349.128	99.31
349.355	94.31
349.583	88.31
349.81	110.31
350.037	107.31
350.265	97.31
350.492	86.31
350.72	97.31
350.947	120.31
351.174	110.31
351.402	123.31
351.629	111.31
351.856	123.31
352.083	114.31
352.311	112.31
352.538	134.31
352.765	111.31
352.992	117.31
353.22	114.31
353.447	114.31
353.674	114.31
353.901	99.31
354.128	95.31
354.355	111.31
354.583	112.31
354.81	89.31
355.037	93.31
355.264	105.31
355.491	104.31
355.718	86.31
355.945	81.31
356.172	100.31
356.399	94.31
356.626	86.31
356.853	97.31
357.08	97.31
357.307	108.31
357.534	93.31
357.761	106.31
357.988	99.31
358.215	77.31
358.441	101.31
358.668	94.31
358.895	86.31
359.122	101.31
359.349	93.31
359.576	103.31
359.802	117.31
360.029	167.31
360.256	137.31
360.483	114.31
360.709	83.31
360.936	90.31
361.163	114.31
361.39	108.31
361.616	106.31
361.843	107.31
362.07	109.31
362.296	128.31
362.523	104.31
362.749	111.31
362.976	105.31
363.203	106.31
363.429	90.31
363.656	102.31
363.882	89.31
364.109	97.31
364.335	87.31
364.562	98.31
364.788	113.31
365.015	107.31
365.241	114.31
365.468	128.31
365.694	114.31
365.92	122.31
366.147	110.31
366.373	87.31
366.599	103.31
366.826	96.31
367.052	87.31
367.278	85.31
367.505	91.31
367.731	102.31
367.957	96.31
368.184	102.31
368.41	100.31
368.636	143.31
368.862	142.31
369.089	127.31
369.315	109.31
369.541	97.31
369.767	97.31
369.993	101.31
370.219	83.31
370.445	80.31
370.672	88.31
370.898	90.31
371.124	83.31
371.35	90.31
371.576	96.31
371.802	96.31
372.028	88.31
372.254	84.31
372.48	85.31
372.706	97.31
372.932	91.31
373.158	83.31
373.384	88.31
373.61	102.31
373.835	95.31
374.061	75.31
374.287	93.31
374.513	98.31
374.739	88.31
374.965	107.31
375.191	94.31
375.416	95.31
375.642	103.31
375.868	96.31
376.094	91.31
376.319	93.31
376.545	97.31
376.771	92.31
376.997	91.31
377.222	95.31
377.448	97.31
377.674	93.31
377.899	83.31
378.125	105.31
378.35	111.31
378.576	89.31
378.802	95.31
379.027	110.31
379.253	100.31
379.478	86.31
379.704	100.31
379.929	98.31
380.155	103.31
380.38	92.31
380.606	101.31
380.831	90.31
381.057	99.31
381.282	118.31
381.507	85.31
381.733	90.31
381.958	87.31
382.184	104.31
382.409	109.31
382.634	97.31
382.86	99.31
383.085	107.31
383.31	100.31
383.535	100.31
383.761	101.31
383.986	109.31
384.211	98.31
384.436	107.31
384.662	126.31
384.887	106.31
385.112	120.31
385.337	123.31
385.562	108.31
385.787	125.31
386.013	123.31
386.238	135.31
386.463	115.31
386.688	134.31
386.913	111.31
387.138	118.31
387.363	109.31
387.588	120.31
387.813	106.31
388.038	135.31
388.263	130.31
388.488	134.31
388.713	99.31
388.938	96.31
389.163	84.31
389.387	91.31
389.612	99.31
389.837	104.31
390.062	92.31
390.287	82.31
390.512	101.31
390.736	83.31
390.961	92.31
391.186	88.31
391.411	96.31
391.636	82.31
391.86	81.31
392.085	77.31
392.31	99.31
392.534	86.31
392.759	93.31
392.984	95.31
393.208	95.31
393.433	112.31
393.658	83.31
393.882	88.31
394.107	90.31
394.331	70.31
394.556	84.31
394.78	89.31
395.005	93.31
395.229	85.31
395.454	93.31
395.678	93.31
395.903	105.31
396.127	98.31
396.352	99.31
396.576	97.31
396.801	81.31
397.025	98.31
397.249	102.31
397.474	77.31
397.698	102.31
397.922	97.31
398.147	95.31
398.371	79.31
398.595	96.31
398.82	101.31
399.044	84.31
399.268	92.31
399.492	84.31
399.717	103.31
399.941	93.31
400.165	98.31
400.389	100.31
400.613	91.31
400.837	93.31
401.062	95.31
401.286	90.31
401.51	101.31
401.734	102.31
401.958	107.31
402.182	137.31
402.406	210.31
402.63	159.31
402.854	113.31
403.078	95.31
403.302	87.31
403.526	95.31
403.75	104.31
403.974	96.31
404.198	85.31
404.422	87.31
404.645	102.31
404.869	112.31
405.093	125.31
405.317	171.31
405.541	163.31
405.765	139.31
405.988	144.31
406.212	217.31
406.436	338.31
406.66	227.31
406.883	118.31
407.107	110.31
407.331	103.31
407.555	103.31
407.778	99.31
408.002	93.31
408.226	101.31
408.449	78.31
408.673	91.31
408.896	108.31
409.12	110.31
409.344	89.31
409.567	105.31
409.791	93.31
410.014	92.31
410.238	98.31
410.461	100.31
410.685	90.31
410.908	91.31
411.132	114.31
411.355	106.31
411.578	89.31
411.802	110.31
412.025	89.31
412.249	106.31
412.472	133.31
412.695	178.31
412.919	149.31
413.142	103.31
413.365	95.31
413.589	97.31
413.812	91.31
414.035	100.31
414.258	106.31
414.482	101.31
414.705	107.31
414.928	94.31
415.151	85.31
415.374	107.31
415.597	97.31
415.821	103.31
416.044	105.31
416.267	114.31
416.49	97.31
416.713	97.31
416.936	98.31
417.159	102.31
417.382	120.31
417.605	141.31
417.828	156.31
418.051	112.31
418.274	84.31
418.497	93.31
418.72	93.31
418.943	91.31
419.166	83.31
419.389	95.31
419.611	105.31
419.834	104.31
420.057	102.31
420.28	109.31
420.503	81.31
420.726	94.31
420.948	87.31
421.171	122.31
421.394	117.31
421.617	107.31
421.839	86.31
422.062	85.31
422.285	77.31
422.507	110.31
422.73	119.31
422.953	88.31
423.175	104.31
423.398	83.31
423.621	104.31
423.843	87.31
424.066	93.31
424.288	90.31
424.511	96.31
424.733	107.31
424.956	136.31
425.178	111.31
425.401	111.31
425.623	110.31
425.846	99.31
426.068	106.31
426.291	101.31
426.513	106.31
426.735	105.31
426.958	95.31
427.18	136.31
427.402	189.31
427.625	282.31
427.847	293.31
428.069	243.31
428.292	170.31
428.514	114.31
428.736	115.31
428.958	114.31
429.181	102.31
429.403	87.31
429.625	83.31
429.847	114.31
430.069	128.31
430.292	102.31
430.514	77.31
430.736	85.31
430.958	89.31
431.18	87.31
431.402	112.31
431.624	88.31
431.846	86.31
432.068	96.31
432.29	77.31
432.512	77.31
432.734	91.31
432.956	99.31
433.178	94.31
433.4	83.31
433.622	78.31
433.844	103.31
434.066	112.31
434.287	89.31
434.509	98.31
434.731	94.31
434.953	94.31
435.175	87.31
435.397	92.31
435.618	93.31
435.84	113.31
436.062	146.31
436.284	127.31
436.505	104.31
436.727	115.31
436.949	96.31
437.17	104.31
437.392	86.31
437.614	103.31
437.835	128.31
438.057	162.31
438.278	141.31
438.5	129.31
438.721	138.31
438.943	115.31
439.165	93.31
439.386	95.31
439.608	93.31
439.829	117.31
440.05	148.31
440.272	199.31
440.493	111.31
440.715	99.31
440.936	94.31
441.158	117.31
441.379	112.31
441.6	104.31
441.822	105.31
442.043	106.31
442.264	132.31
442.486	119.31
442.707	105.31
442.928	118.31
443.149	176.31
443.371	187.31
443.592	142.31
443.813	137.31
444.034	135.31
444.255	106.31
444.476	87.31
444.698	93.31
444.919	87.31
445.14	142.31
445.361	142.31
445.582	137.31
445.803	197.31
446.024	181.31
446.245	186.31
446.466	128.31
446.687	104.31
446.908	85.31
447.129	102.31
447.35	90.31
447.571	97.31
447.792	107.31
448.013	112.31
448.234	133.31
448.455	119.31
448.675	132.31
448.896	146.31
449.117	111.31
449.338	102.31
449.559	140.31
449.779	137.31
450	103.31
450.221	97.31
450.442	99.31
450.662	106.31
450.883	127.31
451.104	138.31
451.324	115.31
451.545	94.31
451.766	89.31
451.986	87.31
452.207	98.31
452.428	117.31
452.648	121.31
452.869	125.31
453.089	145.31
453.31	140.31
453.53	90.31
453.751	114.31
453.971	125.31
454.192	137.31
454.412	103.31
454.633	85.31
454.853	97.31
455.073	83.31
455.294	103.31
455.514	113.31
455.734	96.31
455.955	102.31
456.175	91.31
456.395	97.31
456.616	109.31
456.836	94.31
457.056	85.31
457.276	83.31
457.497	104.31
457.717	106.31
457.937	92.31
458.157	104.31
458.377	106.31
458.598	141.31
458.818	222.31
459.038	237.31
459.258	157.31
459.478	118.31
459.698	101.31
459.918	90.31
460.138	90.31
460.358	102.31
460.578	81.31
460.798	101.31
461.018	89.31
461.238	104.31
461.458	80.31
461.678	94.31
461.898	85.31
462.118	88.31
462.338	93.31
462.558	101.31
462.777	96.31
462.997	118.31
463.217	138.31
463.437	129.31
463.657	114.31
463.876	85.31
464.096	97.31
464.316	118.31
464.536	100.31
464.755	88.31
464.975	116.31
465.195	251.31
465.414	265.31
465.634	110.31
465.854	98.31
466.073	92.31
466.293	87.31
466.512	102.31
466.732	92.31
466.951	101.31
467.171	115.31
467.391	127.31
467.61	194.31
467.829	397.31
468.049	1357.31
468.268	2160.31
468.488	451.31
468.707	159.31
468.927	117.31
469.146	115.31
469.365	107.31
469.585	121.31
469.804	125.31
470.023	108.31
470.243	129.31
470.462	127.31
470.681	163.31
470.901	129.31
471.12	113.31
471.339	138.31
471.558	162.31
471.777	232.31
471.997	618.31
472.216	2497.31
472.435	5984.31
472.654	1234.31
472.873	284.31
473.092	146.31
473.311	124.31
473.53	107.31
473.749	98.31
473.968	106.31
474.187	145.31
474.406	113.31
474.625	87.31
474.844	112.31
475.063	90.31
475.282	102.31
475.501	110.31
475.72	99.31
475.939	105.31
476.158	96.31
476.377	85.31
476.596	106.31
476.814	103.31
477.033	111.31
477.252	105.31
477.471	96.31
477.69	101.31
477.908	114.31
478.127	99.31
478.346	107.31
478.564	113.31
478.783	133.31
479.002	128.31
479.22	136.31
479.439	137.31
479.658	191.31
479.876	161.31
480.095	159.31
480.313	178.31
480.532	273.31
480.751	533.31
480.969	2123.31
481.188	9602.31
481.406	5382.31
481.624	675.31
481.843	203.31
482.061	160.31
482.28	138.31
482.498	110.31
482.717	101.31
482.935	97.31
483.153	104.31
483.372	110.31
483.59	97.31
483.808	88.31
484.027	110.31
484.245	102.31
484.463	104.31
484.681	113.31
484.9	85.31
485.118	103.31
485.336	100.31
485.554	106.31
485.772	115.31
485.99	114.31
486.209	111.31
486.427	112.31
486.645	130.31
486.863	131.31
487.081	108.31
487.299	102.31
487.517	114.31
487.735	109.31
487.953	90.31
488.171	87.31
488.389	99.31
488.607	117.31
488.825	97.31
489.043	98.31
489.261	98.31
489.479	111.31
489.696	90.31
489.914	81.31
490.132	89.31
490.35	90.31
490.568	104.31
490.786	89.31
491.003	101.31
491.221	118.31
491.439	106.31
491.657	96.31
491.874	96.31
492.092	100.31
492.31	105.31
492.527	113.31
492.745	122.31
492.963	102.31
493.18	81.31
493.398	93.31
493.615	98.31
493.833	99.31
494.05	90.31
494.268	86.31
494.485	104.31
494.703	100.31
494.92	87.31
495.138	91.31
495.355	99.31
495.573	74.31
495.79	97.31
496.008	89.31
496.225	88.31
496.442	93.31
496.66	109.31
496.877	89.31
497.094	95.31
497.312	93.31
497.529	83.31
497.746	105.31
497.963	95.31
498.181	96.31
498.398	104.31
498.615	137.31
498.832	101.31
499.049	104.31
499.267	93.31
499.484	82.31
499.701	82.31
499.918	103.31
500.135	93.31
500.352	99.31
500.569	120.31
500.786	119.31
501.003	91.31
501.22	105.31
501.437	98.31
501.654	118.31
501.871	132.31
502.088	106.31
502.305	93.31
502.522	101.31
502.739	112.31
502.956	100.31
503.172	110.31
503.389	117.31
503.606	138.31
503.823	110.31
504.04	106.31
504.256	102.31
504.473	100.31
504.69	102.31
504.907	102.31
505.123	108.31
505.34	103.31
505.557	99.31
505.773	110.31
505.99	105.31
506.207	87.31
506.423	96.31
506.64	89.31
506.856	103.31
507.073	85.31
507.289	110.31
507.506	109.31
507.722	128.31
507.939	130.31
508.155	122.31
508.372	103.31
508.588	106.31
508.805	101.31
509.021	111.31
509.238	106.31
509.454	106.31
509.67	110.31
509.887	119.31
510.103	148.31
