Data from Circ_1988_H10_HRD10591_00038.txt Node
Date: Wed Jan 03 12:05:42 EST 2024
User: Yrep
Spectrometer: HR+D1059
Trigger mode: 1
Integration Time (sec): 1.000000E-1
Scans to average: 1
Electric dark correction enabled: true
Nonlinearity correction enabled: false
Boxcar width: 0
XAxis mode: Wavelengths
Number of Pixels in Spectrum: 2048
>>>>>Begin Spectral Data<<<<<
223.165	-7.62
223.4	-7.62
223.635	-7.62
223.869	-15.62
224.104	-15.62
224.338	-8.62
224.573	-17.62
224.808	-21.62
225.042	8.38
225.277	-5.62
225.511	-14.62
225.746	-5.62
225.98	10.38
226.215	4.38
226.449	20.38
226.683	17.38
226.918	26.38
227.152	25.38
227.387	27.38
227.621	49.38
227.856	54.38
228.09	53.38
228.324	54.38
228.559	56.38
228.793	66.38
229.027	66.38
229.262	82.38
229.496	86.38
229.73	98.38
229.964	94.38
230.199	79.38
230.433	71.38
230.667	73.38
230.901	77.38
231.136	82.38
231.37	76.38
231.604	83.38
231.838	88.38
232.072	95.38
232.306	79.38
232.541	69.38
232.775	80.38
233.009	81.38
233.243	79.38
233.477	91.38
233.711	77.38
233.945	89.38
234.179	77.38
234.413	74.38
234.647	85.38
234.881	91.38
235.115	77.38
235.349	86.38
235.583	100.38
235.817	72.38
236.051	81.38
236.285	85.38
236.519	77.38
236.753	88.38
236.987	85.38
237.221	95.38
237.455	81.38
237.689	88.38
237.922	81.38
238.156	77.38
238.39	75.38
238.624	83.38
238.858	84.38
239.091	84.38
239.325	85.38
239.559	86.38
239.793	94.38
240.027	83.38
240.26	82.38
240.494	73.38
240.728	87.38
240.961	74.38
241.195	72.38
241.429	94.38
241.662	81.38
241.896	85.38
242.13	87.38
242.363	70.38
242.597	84.38
242.83	90.38
243.064	75.38
243.298	79.38
243.531	87.38
243.765	80.38
243.998	87.38
244.232	77.38
244.465	88.38
244.699	82.38
244.932	94.38
245.166	91.38
245.399	92.38
245.633	79.38
245.866	86.38
246.099	88.38
246.333	94.38
246.566	80.38
246.8	86.38
247.033	92.38
247.266	83.38
247.5	72.38
247.733	85.38
247.966	81.38
248.2	87.38
248.433	86.38
248.666	79.38
248.899	91.38
249.133	83.38
249.366	122.38
249.599	109.38
249.832	86.38
250.066	89.38
250.299	90.38
250.532	97.38
250.765	97.38
250.998	76.38
251.231	94.38
251.465	103.38
251.698	93.38
251.931	96.38
252.164	86.38
252.397	82.38
252.63	90.38
252.863	90.38
253.096	83.38
253.329	88.38
253.562	92.38
253.795	83.38
254.028	94.38
254.261	86.38
254.494	77.38
254.727	85.38
254.96	90.38
255.193	92.38
255.426	93.38
255.659	89.38
255.892	92.38
256.124	121.38
256.357	87.38
256.59	87.38
256.823	102.38
257.056	101.38
257.289	96.38
257.521	87.38
257.754	101.38
257.987	94.38
258.22	107.38
258.452	126.38
258.685	107.38
258.918	101.38
259.151	99.38
259.383	106.38
259.616	102.38
259.849	87.38
260.081	81.38
260.314	86.38
260.547	93.38
260.779	124.38
261.012	164.38
261.244	176.38
261.477	128.38
261.71	117.38
261.942	139.38
262.175	159.38
262.407	108.38
262.64	89.38
262.872	94.38
263.105	90.38
263.337	97.38
263.57	91.38
263.802	77.38
264.035	94.38
264.267	80.38
264.499	83.38
264.732	88.38
264.964	98.38
265.197	97.38
265.429	84.38
265.661	77.38
265.894	80.38
266.126	85.38
266.358	88.38
266.591	85.38
266.823	89.38
267.055	97.38
267.287	90.38
267.52	79.38
267.752	94.38
267.984	66.38
268.216	87.38
268.448	98.38
268.681	99.38
268.913	89.38
269.145	97.38
269.377	101.38
269.609	86.38
269.841	94.38
270.073	80.38
270.306	90.38
270.538	70.38
270.77	95.38
271.002	85.38
271.234	82.38
271.466	103.38
271.698	107.38
271.93	96.38
272.162	89.38
272.394	88.38
272.626	86.38
272.858	91.38
273.09	86.38
273.322	90.38
273.553	74.38
273.785	82.38
274.017	94.38
274.249	87.38
274.481	111.38
274.713	97.38
274.945	116.38
275.176	122.38
275.408	127.38
275.64	150.38
275.872	180.38
276.104	144.38
276.335	117.38
276.567	155.38
276.799	196.38
277.031	292.38
277.262	394.38
277.494	276.38
277.726	144.38
277.957	111.38
278.189	105.38
278.421	95.38
278.652	88.38
278.884	93.38
279.115	98.38
279.347	108.38
279.579	134.38
279.81	222.38
280.042	411.38
280.273	595.38
280.505	369.38
280.736	159.38
280.968	100.38
281.199	89.38
281.431	91.38
281.662	96.38
281.894	97.38
282.125	124.38
282.356	146.38
282.588	184.38
282.819	141.38
283.051	109.38
283.282	103.38
283.513	110.38
283.745	104.38
283.976	99.38
284.207	93.38
284.439	102.38
284.67	85.38
284.901	81.38
285.132	93.38
285.364	87.38
285.595	91.38
285.826	77.38
286.057	91.38
286.288	85.38
286.52	100.38
286.751	91.38
286.982	90.38
287.213	92.38
287.444	102.38
287.675	96.38
287.906	98.38
288.138	97.38
288.369	94.38
288.6	81.38
288.831	74.38
289.062	97.38
289.293	78.38
289.524	104.38
289.755	98.38
289.986	81.38
290.217	90.38
290.448	93.38
290.679	92.38
290.91	83.38
291.141	88.38
291.371	95.38
291.602	96.38
291.833	99.38
292.064	94.38
292.295	100.38
292.526	87.38
292.757	101.38
292.987	89.38
293.218	102.38
293.449	106.38
293.68	96.38
293.91	83.38
294.141	83.38
294.372	88.38
294.603	85.38
294.833	101.38
295.064	88.38
295.295	111.38
295.525	99.38
295.756	99.38
295.987	133.38
296.217	180.38
296.448	152.38
296.679	102.38
296.909	98.38
297.14	91.38
297.37	95.38
297.601	93.38
297.831	104.38
298.062	93.38
298.292	100.38
298.523	92.38
298.753	86.38
298.984	101.38
299.214	94.38
299.445	98.38
299.675	90.38
299.905	107.38
300.136	90.38
300.366	94.38
300.597	86.38
300.827	94.38
301.057	106.38
301.288	113.38
301.518	103.38
301.748	117.38
301.979	145.38
302.209	127.38
302.439	106.38
302.669	89.38
302.9	95.38
303.13	114.38
303.36	134.38
303.59	181.38
303.82	207.38
304.051	143.38
304.281	100.38
304.511	93.38
304.741	91.38
304.971	86.38
305.201	81.38
305.431	103.38
305.661	97.38
305.891	95.38
306.121	115.38
306.352	110.38
306.582	131.38
306.812	141.38
307.042	188.38
307.272	277.38
307.502	328.38
307.731	254.38
307.961	194.38
308.191	121.38
308.421	99.38
308.651	103.38
308.881	100.38
309.111	106.38
309.341	106.38
309.571	105.38
309.8	111.38
310.03	106.38
310.26	121.38
310.49	113.38
310.72	104.38
310.949	124.38
311.179	103.38
311.409	108.38
311.639	109.38
311.868	117.38
312.098	93.38
312.328	98.38
312.557	103.38
312.787	121.38
313.017	134.38
313.246	102.38
313.476	88.38
313.706	114.38
313.935	110.38
314.165	110.38
314.394	130.38
314.624	98.38
314.853	110.38
315.083	110.38
315.312	99.38
315.542	97.38
315.771	103.38
316.001	77.38
316.23	85.38
316.46	97.38
316.689	84.38
316.919	86.38
317.148	105.38
317.377	111.38
317.607	117.38
317.836	98.38
318.065	90.38
318.295	103.38
318.524	89.38
318.753	102.38
318.983	102.38
319.212	105.38
319.441	136.38
319.67	122.38
319.9	118.38
320.129	99.38
320.358	85.38
320.587	112.38
320.816	109.38
321.046	107.38
321.275	119.38
321.504	106.38
321.733	92.38
321.962	93.38
322.191	111.38
322.42	104.38
322.649	126.38
322.878	117.38
323.108	113.38
323.337	134.38
323.566	144.38
323.795	160.38
324.024	224.38
324.253	423.38
324.482	885.38
324.71	1819.38
324.939	2446.38
325.168	937.38
325.397	291.38
325.626	182.38
325.855	138.38
326.084	141.38
326.313	145.38
326.542	151.38
326.77	261.38
326.999	463.38
327.228	919.38
327.457	1658.38
327.686	1441.38
327.914	727.38
328.143	987.38
328.372	1433.38
328.6	705.38
328.829	282.38
329.058	234.38
329.287	248.38
329.515	271.38
329.744	477.38
329.972	1014.38
330.201	2189.38
330.43	3365.38
330.658	1326.38
330.887	428.38
331.115	258.38
331.344	170.38
331.572	136.38
331.801	144.38
332.03	144.38
332.258	129.38
332.486	129.38
332.715	122.38
332.943	139.38
333.172	163.38
333.4	180.38
333.629	242.38
333.857	371.38
334.085	851.38
334.314	1936.38
334.542	3984.38
334.771	3647.38
334.999	852.38
335.227	291.38
335.455	182.38
335.684	146.38
335.912	133.38
336.14	141.38
336.369	131.38
336.597	133.38
336.825	125.38
337.053	96.38
337.281	106.38
337.51	100.38
337.738	93.38
337.966	100.38
338.194	112.38
338.422	121.38
338.65	110.38
338.878	88.38
339.106	86.38
339.334	112.38
339.562	98.38
339.79	111.38
340.018	101.38
340.246	109.38
340.474	127.38
340.702	105.38
340.93	92.38
341.158	112.38
341.386	116.38
341.614	106.38
341.842	96.38
342.07	95.38
342.298	100.38
342.526	101.38
342.754	96.38
342.981	85.38
343.209	109.38
343.437	114.38
343.665	102.38
343.893	94.38
344.12	89.38
344.348	78.38
344.576	94.38
344.804	92.38
345.031	100.38
345.259	96.38
345.487	110.38
345.714	100.38
345.942	95.38
346.17	103.38
346.397	109.38
346.625	96.38
346.853	92.38
347.08	94.38
347.308	115.38
347.535	113.38
347.763	110.38
347.99	103.38
348.218	106.38
348.445	110.38
348.673	114.38
348.9	108.38
349.128	95.38
349.355	100.38
349.583	96.38
349.81	94.38
350.037	100.38
350.265	102.38
350.492	103.38
350.72	107.38
350.947	112.38
351.174	107.38
351.402	123.38
351.629	105.38
351.856	110.38
352.083	114.38
352.311	112.38
352.538	125.38
352.765	135.38
352.992	117.38
353.22	107.38
353.447	117.38
353.674	106.38
353.901	95.38
354.128	100.38
354.355	104.38
354.583	90.38
354.81	86.38
355.037	72.38
355.264	89.38
355.491	95.38
355.718	116.38
355.945	99.38
356.172	80.38
356.399	101.38
356.626	93.38
356.853	91.38
357.08	94.38
357.307	94.38
357.534	86.38
357.761	82.38
357.988	109.38
358.215	107.38
358.441	110.38
358.668	99.38
358.895	99.38
359.122	84.38
359.349	93.38
359.576	94.38
359.802	111.38
360.029	159.38
360.256	143.38
360.483	123.38
360.709	97.38
360.936	97.38
361.163	105.38
361.39	105.38
361.616	104.38
361.843	89.38
362.07	108.38
362.296	97.38
362.523	84.38
362.749	100.38
362.976	97.38
363.203	105.38
363.429	94.38
363.656	99.38
363.882	89.38
364.109	79.38
364.335	93.38
364.562	107.38
364.788	100.38
365.015	113.38
365.241	101.38
365.468	122.38
365.694	131.38
365.92	104.38
366.147	106.38
366.373	93.38
366.599	95.38
366.826	90.38
367.052	98.38
367.278	94.38
367.505	103.38
367.731	112.38
367.957	90.38
368.184	102.38
368.41	115.38
368.636	116.38
368.862	129.38
369.089	99.38
369.315	99.38
369.541	101.38
369.767	93.38
369.993	102.38
370.219	97.38
370.445	100.38
370.672	95.38
370.898	89.38
371.124	91.38
371.35	91.38
371.576	93.38
371.802	104.38
372.028	89.38
372.254	87.38
372.48	103.38
372.706	81.38
372.932	112.38
373.158	86.38
373.384	98.38
373.61	97.38
373.835	87.38
374.061	91.38
374.287	102.38
374.513	101.38
374.739	87.38
374.965	94.38
375.191	97.38
375.416	100.38
375.642	90.38
375.868	97.38
376.094	92.38
376.319	81.38
376.545	84.38
376.771	103.38
376.997	86.38
377.222	105.38
377.448	98.38
377.674	100.38
377.899	93.38
378.125	87.38
378.35	83.38
378.576	97.38
378.802	88.38
379.027	94.38
379.253	113.38
379.478	96.38
379.704	90.38
379.929	109.38
380.155	103.38
380.38	98.38
380.606	97.38
380.831	104.38
381.057	117.38
381.282	93.38
381.507	101.38
381.733	109.38
381.958	106.38
382.184	100.38
382.409	112.38
382.634	113.38
382.86	115.38
383.085	110.38
383.31	116.38
383.535	101.38
383.761	107.38
383.986	124.38
384.211	119.38
384.436	122.38
384.662	120.38
384.887	125.38
385.112	122.38
385.337	126.38
385.562	124.38
385.787	117.38
386.013	134.38
386.238	151.38
386.463	131.38
386.688	120.38
386.913	105.38
387.138	120.38
387.363	115.38
387.588	109.38
387.813	110.38
388.038	112.38
388.263	136.38
388.488	139.38
388.713	99.38
388.938	95.38
389.163	100.38
389.387	96.38
389.612	112.38
389.837	80.38
390.062	85.38
390.287	95.38
390.512	89.38
390.736	101.38
390.961	93.38
391.186	88.38
391.411	82.38
391.636	86.38
391.86	94.38
392.085	83.38
392.31	87.38
392.534	87.38
392.759	87.38
392.984	111.38
393.208	98.38
393.433	105.38
393.658	108.38
393.882	97.38
394.107	87.38
394.331	85.38
394.556	84.38
394.78	88.38
395.005	95.38
395.229	93.38
395.454	113.38
395.678	85.38
395.903	90.38
396.127	90.38
396.352	125.38
396.576	83.38
396.801	92.38
397.025	92.38
397.249	95.38
397.474	98.38
397.698	72.38
397.922	93.38
398.147	98.38
398.371	91.38
398.595	86.38
398.82	67.38
399.044	77.38
399.268	90.38
399.492	85.38
399.717	93.38
399.941	92.38
400.165	99.38
400.389	96.38
400.613	96.38
400.837	94.38
401.062	103.38
401.286	106.38
401.51	91.38
401.734	89.38
401.958	113.38
402.182	143.38
402.406	209.38
402.63	129.38
402.854	105.38
403.078	97.38
403.302	98.38
403.526	90.38
403.75	90.38
403.974	105.38
404.198	86.38
404.422	102.38
404.645	99.38
404.869	107.38
405.093	143.38
405.317	171.38
405.541	168.38
405.765	138.38
405.988	149.38
406.212	215.38
406.436	317.38
406.66	186.38
406.883	116.38
407.107	111.38
407.331	109.38
407.555	114.38
407.778	117.38
408.002	106.38
408.226	96.38
408.449	78.38
408.673	87.38
408.896	98.38
409.12	99.38
409.344	90.38
409.567	87.38
409.791	92.38
410.014	92.38
410.238	98.38
410.461	97.38
410.685	91.38
410.908	93.38
411.132	106.38
411.355	109.38
411.578	104.38
411.802	93.38
412.025	102.38
412.249	120.38
412.472	103.38
412.695	167.38
412.919	137.38
413.142	128.38
413.365	109.38
413.589	102.38
413.812	100.38
414.035	101.38
414.258	98.38
414.482	99.38
414.705	113.38
414.928	110.38
415.151	93.38
415.374	94.38
415.597	106.38
415.821	99.38
416.044	97.38
416.267	104.38
416.49	95.38
416.713	80.38
416.936	98.38
417.159	106.38
417.382	107.38
417.605	118.38
417.828	129.38
418.051	112.38
418.274	105.38
418.497	102.38
418.72	93.38
418.943	92.38
419.166	84.38
419.389	103.38
419.611	93.38
419.834	106.38
420.057	104.38
420.28	115.38
420.503	95.38
420.726	101.38
420.948	97.38
421.171	116.38
421.394	100.38
421.617	89.38
421.839	79.38
422.062	91.38
422.285	99.38
422.507	96.38
422.73	109.38
422.953	85.38
423.175	89.38
423.398	89.38
423.621	85.38
423.843	98.38
424.066	80.38
424.288	98.38
424.511	104.38
424.733	98.38
424.956	116.38
425.178	130.38
425.401	111.38
425.623	108.38
425.846	95.38
426.068	106.38
426.291	100.38
426.513	106.38
426.735	85.38
426.958	98.38
427.18	122.38
427.402	188.38
427.625	290.38
427.847	275.38
428.069	239.38
428.292	161.38
428.514	111.38
428.736	96.38
428.958	107.38
429.181	100.38
429.403	85.38
429.625	107.38
429.847	111.38
430.069	111.38
430.292	95.38
430.514	89.38
430.736	81.38
430.958	72.38
431.18	81.38
431.402	84.38
431.624	93.38
431.846	94.38
432.068	80.38
432.29	93.38
432.512	106.38
432.734	87.38
432.956	102.38
433.178	99.38
433.4	92.38
433.622	95.38
433.844	100.38
434.066	87.38
434.287	101.38
434.509	99.38
434.731	87.38
434.953	97.38
435.175	93.38
435.397	102.38
435.618	99.38
435.84	105.38
436.062	128.38
436.284	122.38
436.505	113.38
436.727	108.38
436.949	84.38
437.17	99.38
437.392	103.38
437.614	113.38
437.835	125.38
438.057	152.38
438.278	134.38
438.5	139.38
438.721	145.38
438.943	114.38
439.165	103.38
439.386	93.38
439.608	100.38
439.829	123.38
440.05	148.38
440.272	185.38
440.493	116.38
440.715	101.38
440.936	98.38
441.158	89.38
441.379	93.38
441.6	89.38
441.822	117.38
442.043	102.38
442.264	119.38
442.486	109.38
442.707	113.38
442.928	122.38
443.149	189.38
443.371	180.38
443.592	131.38
443.813	141.38
444.034	118.38
444.255	111.38
444.476	93.38
444.698	88.38
444.919	101.38
445.14	133.38
445.361	133.38
445.582	135.38
445.803	190.38
446.024	188.38
446.245	148.38
446.466	139.38
446.687	105.38
446.908	99.38
447.129	106.38
447.35	98.38
447.571	83.38
447.792	103.38
448.013	122.38
448.234	123.38
448.455	104.38
448.675	137.38
448.896	139.38
449.117	118.38
449.338	120.38
449.559	130.38
449.779	146.38
450	95.38
450.221	85.38
450.442	106.38
450.662	117.38
450.883	129.38
451.104	157.38
451.324	104.38
451.545	87.38
451.766	80.38
451.986	89.38
452.207	88.38
452.428	91.38
452.648	103.38
452.869	121.38
453.089	145.38
453.31	152.38
453.53	102.38
453.751	111.38
453.971	116.38
454.192	123.38
454.412	88.38
454.633	99.38
454.853	90.38
455.073	93.38
455.294	101.38
455.514	115.38
455.734	86.38
455.955	87.38
456.175	80.38
456.395	93.38
456.616	87.38
456.836	111.38
457.056	98.38
457.276	97.38
457.497	90.38
457.717	88.38
457.937	98.38
458.157	96.38
458.377	105.38
458.598	125.38
458.818	240.38
459.038	251.38
459.258	169.38
459.478	114.38
459.698	86.38
459.918	86.38
460.138	85.38
460.358	94.38
460.578	98.38
460.798	102.38
461.018	93.38
461.238	100.38
461.458	79.38
461.678	79.38
461.898	85.38
462.118	99.38
462.338	95.38
462.558	87.38
462.777	85.38
462.997	123.38
463.217	161.38
463.437	130.38
463.657	97.38
463.876	115.38
464.096	112.38
464.316	121.38
464.536	112.38
464.755	102.38
464.975	122.38
465.195	248.38
465.414	247.38
465.634	113.38
465.854	107.38
466.073	100.38
466.293	105.38
466.512	99.38
466.732	115.38
466.951	100.38
467.171	121.38
467.391	138.38
467.61	207.38
467.829	397.38
468.049	1399.38
468.268	2218.38
468.488	456.38
468.707	166.38
468.927	117.38
469.146	108.38
469.365	100.38
469.585	89.38
469.804	117.38
470.023	127.38
470.243	118.38
470.462	136.38
470.681	157.38
470.901	127.38
471.12	129.38
471.339	128.38
471.558	175.38
471.777	231.38
471.997	601.38
472.216	2518.38
472.435	5847.38
472.654	1221.38
472.873	262.38
473.092	149.38
473.311	114.38
473.53	121.38
473.749	98.38
473.968	115.38
474.187	129.38
474.406	107.38
474.625	109.38
474.844	97.38
475.063	104.38
475.282	94.38
475.501	86.38
475.72	107.38
475.939	94.38
476.158	116.38
476.377	105.38
476.596	98.38
476.814	122.38
477.033	105.38
477.252	97.38
477.471	99.38
477.69	110.38
477.908	111.38
478.127	103.38
478.346	107.38
478.564	120.38
478.783	105.38
479.002	115.38
479.22	134.38
479.439	129.38
479.658	160.38
479.876	153.38
480.095	172.38
480.313	198.38
480.532	271.38
480.751	521.38
480.969	2092.38
481.188	9445.38
481.406	5193.38
481.624	672.38
481.843	193.38
482.061	135.38
482.28	120.38
482.498	106.38
482.717	120.38
482.935	112.38
483.153	113.38
483.372	110.38
483.59	102.38
483.808	108.38
484.027	106.38
484.245	100.38
484.463	108.38
484.681	110.38
484.9	97.38
485.118	113.38
485.336	101.38
485.554	106.38
485.772	114.38
485.99	113.38
486.209	116.38
486.427	121.38
486.645	130.38
486.863	144.38
487.081	122.38
487.299	112.38
487.517	95.38
487.735	104.38
487.953	105.38
488.171	104.38
488.389	127.38
488.607	120.38
488.825	99.38
489.043	94.38
489.261	115.38
489.479	96.38
489.696	89.38
489.914	84.38
490.132	96.38
490.35	93.38
490.568	99.38
490.786	90.38
491.003	102.38
491.221	103.38
491.439	109.38
491.657	114.38
491.874	100.38
492.092	114.38
492.31	117.38
492.527	127.38
492.745	110.38
492.963	92.38
493.18	110.38
493.398	102.38
493.615	97.38
493.833	102.38
494.05	87.38
494.268	89.38
494.485	92.38
494.703	96.38
494.92	100.38
495.138	92.38
495.355	90.38
495.573	96.38
495.79	90.38
496.008	102.38
496.225	100.38
496.442	105.38
496.66	96.38
496.877	101.38
497.094	104.38
497.312	100.38
497.529	91.38
497.746	99.38
497.963	104.38
498.181	94.38
498.398	114.38
498.615	122.38
498.832	122.38
499.049	102.38
499.267	94.38
499.484	88.38
499.701	103.38
499.918	97.38
500.135	100.38
500.352	97.38
500.569	104.38
500.786	104.38
501.003	101.38
501.22	105.38
501.437	91.38
501.654	104.38
501.871	138.38
502.088	107.38
502.305	92.38
502.522	98.38
502.739	92.38
502.956	99.38
503.172	88.38
503.389	110.38
503.606	146.38
503.823	118.38
504.04	109.38
504.256	103.38
504.473	82.38
504.69	101.38
504.907	108.38
505.123	90.38
505.34	103.38
505.557	112.38
505.773	101.38
505.99	101.38
506.207	108.38
506.423	106.38
506.64	99.38
506.856	102.38
507.073	91.38
507.289	97.38
507.506	113.38
507.722	146.38
507.939	126.38
508.155	105.38
508.372	103.38
508.588	102.38
508.805	113.38
509.021	106.38
509.238	95.38
509.454	99.38
509.67	114.38
509.887	116.38
510.103	154.38
510.319	259.38
