Data from Circ_1988_H10_HRD10591_00041.txt Node
Date: Wed Jan 03 12:05:43 EST 2024
User: Yrep
Spectrometer: HR+D1059
Trigger mode: 1
Integration Time (sec): 1.000000E-1
Scans to average: 1
Electric dark correction enabled: true
Nonlinearity correction enabled: false
Boxcar width: 0
XAxis mode: Wavelengths
Number of Pixels in Spectrum: 2048
>>>>>Begin Spectral Data<<<<<
223.165	-16.25
223.4	-16.25
223.635	-16.25
223.869	-14.25
224.104	-16.25
224.338	-18.25
224.573	-7.25
224.808	-31.25
225.042	-9.25
225.277	-3.25
225.511	-3.25
225.746	0.75
225.98	6.75
226.215	8.75
226.449	9.75
226.683	24.75
226.918	25.75
227.152	42.75
227.387	49.75
227.621	21.75
227.856	35.75
228.09	50.75
228.324	64.75
228.559	47.75
228.793	56.75
229.027	59.75
229.262	70.75
229.496	78.75
229.73	108.75
229.964	95.75
230.199	77.75
230.433	70.75
230.667	78.75
230.901	77.75
231.136	83.75
231.37	75.75
231.604	69.75
231.838	76.75
232.072	72.75
232.306	84.75
232.541	75.75
232.775	75.75
233.009	84.75
233.243	89.75
233.477	69.75
233.711	72.75
233.945	70.75
234.179	84.75
234.413	81.75
234.647	98.75
234.881	75.75
235.115	71.75
235.349	75.75
235.583	82.75
235.817	75.75
236.051	97.75
236.285	83.75
236.519	79.75
236.753	74.75
236.987	79.75
237.221	91.75
237.455	93.75
237.689	61.75
237.922	77.75
238.156	75.75
238.39	70.75
238.624	74.75
238.858	88.75
239.091	70.75
239.325	81.75
239.559	91.75
239.793	100.75
240.027	87.75
240.26	84.75
240.494	87.75
240.728	80.75
240.961	84.75
241.195	75.75
241.429	68.75
241.662	75.75
241.896	59.75
242.13	80.75
242.363	84.75
242.597	71.75
242.83	87.75
243.064	75.75
243.298	82.75
243.531	76.75
243.765	85.75
243.998	89.75
244.232	81.75
244.465	94.75
244.699	95.75
244.932	101.75
245.166	92.75
245.399	65.75
245.633	90.75
245.866	77.75
246.099	93.75
246.333	84.75
246.566	81.75
246.8	93.75
247.033	97.75
247.266	61.75
247.5	97.75
247.733	77.75
247.966	73.75
248.2	98.75
248.433	77.75
248.666	80.75
248.899	87.75
249.133	96.75
249.366	100.75
249.599	119.75
249.832	97.75
250.066	89.75
250.299	100.75
250.532	95.75
250.765	96.75
250.998	84.75
251.231	83.75
251.465	90.75
251.698	98.75
251.931	100.75
252.164	86.75
252.397	86.75
252.63	88.75
252.863	70.75
253.096	96.75
253.329	89.75
253.562	87.75
253.795	95.75
254.028	81.75
254.261	86.75
254.494	84.75
254.727	99.75
254.96	80.75
255.193	87.75
255.426	94.75
255.659	85.75
255.892	106.75
256.124	126.75
256.357	83.75
256.59	80.75
256.823	83.75
257.056	107.75
257.289	113.75
257.521	93.75
257.754	88.75
257.987	88.75
258.22	91.75
258.452	126.75
258.685	106.75
258.918	109.75
259.151	103.75
259.383	91.75
259.616	79.75
259.849	80.75
260.081	87.75
260.314	88.75
260.547	97.75
260.779	102.75
261.012	143.75
261.244	145.75
261.477	136.75
261.71	114.75
261.942	127.75
262.175	147.75
262.407	112.75
262.64	85.75
262.872	83.75
263.105	82.75
263.337	100.75
263.57	103.75
263.802	82.75
264.035	94.75
264.267	77.75
264.499	67.75
264.732	85.75
264.964	81.75
265.197	93.75
265.429	101.75
265.661	80.75
265.894	76.75
266.126	79.75
266.358	61.75
266.591	94.75
266.823	83.75
267.055	91.75
267.287	73.75
267.52	84.75
267.752	89.75
267.984	98.75
268.216	84.75
268.448	102.75
268.681	97.75
268.913	83.75
269.145	77.75
269.377	110.75
269.609	88.75
269.841	94.75
270.073	82.75
270.306	94.75
270.538	88.75
270.77	83.75
271.002	72.75
271.234	91.75
271.466	101.75
271.698	86.75
271.93	71.75
272.162	95.75
272.394	86.75
272.626	103.75
272.858	62.75
273.09	89.75
273.322	88.75
273.553	85.75
273.785	84.75
274.017	96.75
274.249	91.75
274.481	85.75
274.713	87.75
274.945	99.75
275.176	100.75
275.408	121.75
275.64	172.75
275.872	193.75
276.104	143.75
276.335	127.75
276.567	132.75
276.799	204.75
277.031	272.75
277.262	386.75
277.494	253.75
277.726	122.75
277.957	106.75
278.189	104.75
278.421	107.75
278.652	95.75
278.884	95.75
279.115	95.75
279.347	112.75
279.579	156.75
279.81	209.75
280.042	400.75
280.273	565.75
280.505	337.75
280.736	159.75
280.968	105.75
281.199	97.75
281.431	93.75
281.662	86.75
281.894	82.75
282.125	114.75
282.356	141.75
282.588	173.75
282.819	132.75
283.051	95.75
283.282	83.75
283.513	99.75
283.745	88.75
283.976	89.75
284.207	88.75
284.439	111.75
284.67	89.75
284.901	84.75
285.132	79.75
285.364	82.75
285.595	91.75
285.826	91.75
286.057	90.75
286.288	82.75
286.52	85.75
286.751	77.75
286.982	69.75
287.213	89.75
287.444	91.75
287.675	87.75
287.906	87.75
288.138	108.75
288.369	99.75
288.6	107.75
288.831	101.75
289.062	106.75
289.293	97.75
289.524	77.75
289.755	91.75
289.986	85.75
290.217	77.75
290.448	93.75
290.679	109.75
290.91	98.75
291.141	91.75
291.371	82.75
291.602	95.75
291.833	85.75
292.064	94.75
292.295	106.75
292.526	85.75
292.757	89.75
292.987	85.75
293.218	90.75
293.449	91.75
293.68	90.75
293.91	75.75
294.141	93.75
294.372	97.75
294.603	93.75
294.833	103.75
295.064	85.75
295.295	88.75
295.525	93.75
295.756	97.75
295.987	136.75
296.217	181.75
296.448	148.75
296.679	112.75
296.909	94.75
297.14	96.75
297.37	95.75
297.601	102.75
297.831	98.75
298.062	92.75
298.292	92.75
298.523	86.75
298.753	113.75
298.984	89.75
299.214	103.75
299.445	95.75
299.675	96.75
299.905	124.75
300.136	104.75
300.366	104.75
300.597	90.75
300.827	100.75
301.057	120.75
301.288	124.75
301.518	101.75
301.748	110.75
301.979	127.75
302.209	113.75
302.439	97.75
302.669	103.75
302.9	101.75
303.13	114.75
303.36	133.75
303.59	191.75
303.82	218.75
304.051	125.75
304.281	103.75
304.511	113.75
304.741	96.75
304.971	105.75
305.201	97.75
305.431	94.75
305.661	105.75
305.891	95.75
306.121	113.75
306.352	124.75
306.582	110.75
306.812	131.75
307.042	185.75
307.272	260.75
307.502	288.75
307.731	255.75
307.961	163.75
308.191	110.75
308.421	104.75
308.651	90.75
308.881	98.75
309.111	103.75
309.341	105.75
309.571	99.75
309.8	108.75
310.03	105.75
310.26	97.75
310.49	92.75
310.72	114.75
310.949	121.75
311.179	105.75
311.409	95.75
311.639	104.75
311.868	103.75
312.098	105.75
312.328	100.75
312.557	130.75
312.787	125.75
313.017	126.75
313.246	95.75
313.476	99.75
313.706	87.75
313.935	98.75
314.165	119.75
314.394	112.75
314.624	112.75
314.853	108.75
315.083	99.75
315.312	100.75
315.542	92.75
315.771	117.75
316.001	97.75
316.23	97.75
316.46	76.75
316.689	88.75
316.919	99.75
317.148	102.75
317.377	104.75
317.607	98.75
317.836	107.75
318.065	81.75
318.295	91.75
318.524	103.75
318.753	95.75
318.983	116.75
319.212	113.75
319.441	112.75
319.67	100.75
319.9	89.75
320.129	100.75
320.358	88.75
320.587	109.75
320.816	107.75
321.046	105.75
321.275	106.75
321.504	91.75
321.733	95.75
321.962	100.75
322.191	111.75
322.42	130.75
322.649	124.75
322.878	128.75
323.108	130.75
323.337	132.75
323.566	153.75
323.795	163.75
324.024	219.75
324.253	422.75
324.482	864.75
324.71	1755.75
324.939	2318.75
325.168	879.75
325.397	280.75
325.626	175.75
325.855	139.75
326.084	143.75
326.313	153.75
326.542	169.75
326.77	237.75
326.999	451.75
327.228	901.75
327.457	1593.75
327.686	1396.75
327.914	699.75
328.143	961.75
328.372	1401.75
328.6	708.75
328.829	275.75
329.058	247.75
329.287	242.75
329.515	247.75
329.744	453.75
329.972	958.75
330.201	2118.75
330.43	3136.75
330.658	1259.75
330.887	428.75
331.115	230.75
331.344	143.75
331.572	135.75
331.801	139.75
332.03	145.75
332.258	130.75
332.486	121.75
332.715	128.75
332.943	132.75
333.172	136.75
333.4	167.75
333.629	210.75
333.857	374.75
334.085	789.75
334.314	1837.75
334.542	3742.75
334.771	3475.75
334.999	840.75
335.227	286.75
335.455	186.75
335.684	134.75
335.912	115.75
336.14	117.75
336.369	122.75
336.597	108.75
336.825	113.75
337.053	100.75
337.281	97.75
337.51	104.75
337.738	93.75
337.966	98.75
338.194	99.75
338.422	98.75
338.65	86.75
338.878	102.75
339.106	88.75
339.334	106.75
339.562	109.75
339.79	109.75
340.018	102.75
340.246	97.75
340.474	89.75
340.702	91.75
340.93	83.75
341.158	103.75
341.386	93.75
341.614	103.75
341.842	99.75
342.07	86.75
342.298	95.75
342.526	98.75
342.754	89.75
342.981	85.75
343.209	83.75
343.437	109.75
343.665	88.75
343.893	103.75
344.12	94.75
344.348	96.75
344.576	93.75
344.804	97.75
345.031	104.75
345.259	121.75
345.487	116.75
345.714	103.75
345.942	95.75
346.17	97.75
346.397	92.75
346.625	100.75
346.853	94.75
347.08	81.75
347.308	103.75
347.535	99.75
347.763	107.75
347.99	113.75
348.218	105.75
348.445	114.75
348.673	115.75
348.9	89.75
349.128	104.75
349.355	98.75
349.583	83.75
349.81	81.75
350.037	99.75
350.265	107.75
350.492	92.75
350.72	88.75
350.947	108.75
351.174	103.75
351.402	127.75
351.629	115.75
351.856	102.75
352.083	113.75
352.311	118.75
352.538	127.75
352.765	123.75
352.992	127.75
353.22	120.75
353.447	109.75
353.674	99.75
353.901	94.75
354.128	103.75
354.355	102.75
354.583	100.75
354.81	104.75
355.037	105.75
355.264	96.75
355.491	98.75
355.718	93.75
355.945	107.75
356.172	94.75
356.399	105.75
356.626	98.75
356.853	77.75
357.08	83.75
357.307	83.75
357.534	88.75
357.761	97.75
357.988	105.75
358.215	103.75
358.441	107.75
358.668	107.75
358.895	99.75
359.122	94.75
359.349	86.75
359.576	89.75
359.802	123.75
360.029	144.75
360.256	143.75
360.483	128.75
360.709	93.75
360.936	76.75
361.163	87.75
361.39	97.75
361.616	100.75
361.843	91.75
362.07	109.75
362.296	122.75
362.523	91.75
362.749	94.75
362.976	81.75
363.203	109.75
363.429	92.75
363.656	98.75
363.882	85.75
364.109	98.75
364.335	86.75
364.562	92.75
364.788	103.75
365.015	89.75
365.241	102.75
365.468	117.75
365.694	110.75
365.92	112.75
366.147	105.75
366.373	102.75
366.599	83.75
366.826	95.75
367.052	83.75
367.278	95.75
367.505	75.75
367.731	92.75
367.957	92.75
368.184	91.75
368.41	101.75
368.636	130.75
368.862	137.75
369.089	128.75
369.315	94.75
369.541	85.75
369.767	96.75
369.993	96.75
370.219	97.75
370.445	103.75
370.672	93.75
370.898	99.75
371.124	93.75
371.35	96.75
371.576	87.75
371.802	86.75
372.028	80.75
372.254	85.75
372.48	84.75
372.706	95.75
372.932	84.75
373.158	90.75
373.384	82.75
373.61	93.75
373.835	98.75
374.061	93.75
374.287	93.75
374.513	94.75
374.739	87.75
374.965	78.75
375.191	95.75
375.416	90.75
375.642	88.75
375.868	83.75
376.094	92.75
376.319	90.75
376.545	94.75
376.771	90.75
376.997	99.75
377.222	96.75
377.448	93.75
377.674	88.75
377.899	85.75
378.125	103.75
378.35	98.75
378.576	101.75
378.802	87.75
379.027	79.75
379.253	105.75
379.478	100.75
379.704	99.75
379.929	91.75
380.155	103.75
380.38	103.75
380.606	92.75
380.831	108.75
381.057	80.75
381.282	104.75
381.507	99.75
381.733	99.75
381.958	105.75
382.184	99.75
382.409	111.75
382.634	95.75
382.86	108.75
383.085	109.75
383.31	106.75
383.535	108.75
383.761	105.75
383.986	110.75
384.211	93.75
384.436	117.75
384.662	112.75
384.887	113.75
385.112	121.75
385.337	109.75
385.562	123.75
385.787	128.75
386.013	114.75
386.238	136.75
386.463	127.75
386.688	118.75
386.913	125.75
387.138	117.75
387.363	114.75
387.588	92.75
387.813	117.75
388.038	127.75
388.263	140.75
388.488	128.75
388.713	93.75
388.938	93.75
389.163	98.75
389.387	93.75
389.612	103.75
389.837	77.75
390.062	103.75
390.287	93.75
390.512	92.75
390.736	96.75
390.961	90.75
391.186	95.75
391.411	75.75
391.636	75.75
391.86	87.75
392.085	83.75
392.31	82.75
392.534	83.75
392.759	75.75
392.984	85.75
393.208	93.75
393.433	98.75
393.658	82.75
393.882	86.75
394.107	86.75
394.331	87.75
394.556	84.75
394.78	96.75
395.005	85.75
395.229	83.75
395.454	94.75
395.678	96.75
395.903	91.75
396.127	91.75
396.352	94.75
396.576	104.75
396.801	102.75
397.025	94.75
397.249	78.75
397.474	80.75
397.698	76.75
397.922	87.75
398.147	94.75
398.371	75.75
398.595	82.75
398.82	81.75
399.044	84.75
399.268	89.75
399.492	95.75
399.717	83.75
399.941	82.75
400.165	98.75
400.389	106.75
400.613	94.75
400.837	81.75
401.062	71.75
401.286	99.75
401.51	91.75
401.734	103.75
401.958	109.75
402.182	143.75
402.406	190.75
402.63	136.75
402.854	107.75
403.078	99.75
403.302	89.75
403.526	97.75
403.75	88.75
403.974	91.75
404.198	93.75
404.422	93.75
404.645	90.75
404.869	95.75
405.093	118.75
405.317	165.75
405.541	158.75
405.765	155.75
405.988	149.75
406.212	211.75
406.436	302.75
406.66	194.75
406.883	118.75
407.107	105.75
407.331	102.75
407.555	119.75
407.778	100.75
408.002	95.75
408.226	104.75
408.449	87.75
408.673	77.75
408.896	100.75
409.12	99.75
409.344	85.75
409.567	97.75
409.791	78.75
410.014	83.75
410.238	97.75
410.461	95.75
410.685	90.75
410.908	91.75
411.132	84.75
411.355	95.75
411.578	108.75
411.802	84.75
412.025	85.75
412.249	109.75
412.472	120.75
412.695	152.75
412.919	122.75
413.142	98.75
413.365	92.75
413.589	86.75
413.812	94.75
414.035	102.75
414.258	88.75
414.482	101.75
414.705	89.75
414.928	115.75
415.151	96.75
415.374	85.75
415.597	88.75
415.821	103.75
416.044	93.75
416.267	93.75
416.49	99.75
416.713	81.75
416.936	81.75
417.159	99.75
417.382	106.75
417.605	139.75
417.828	126.75
418.051	115.75
418.274	92.75
418.497	93.75
418.72	103.75
418.943	84.75
419.166	92.75
419.389	98.75
419.611	100.75
419.834	93.75
420.057	92.75
420.28	104.75
420.503	92.75
420.726	100.75
420.948	93.75
421.171	103.75
421.394	112.75
421.617	96.75
421.839	76.75
422.062	99.75
422.285	97.75
422.507	94.75
422.73	104.75
422.953	112.75
423.175	102.75
423.398	93.75
423.621	83.75
423.843	85.75
424.066	93.75
424.288	95.75
424.511	117.75
424.733	99.75
424.956	105.75
425.178	111.75
425.401	88.75
425.623	116.75
425.846	95.75
426.068	100.75
426.291	87.75
426.513	95.75
426.735	85.75
426.958	111.75
427.18	120.75
427.402	170.75
427.625	255.75
427.847	248.75
428.069	213.75
428.292	145.75
428.514	103.75
428.736	96.75
428.958	89.75
429.181	92.75
429.403	99.75
429.625	93.75
429.847	111.75
430.069	110.75
430.292	88.75
430.514	84.75
430.736	92.75
430.958	81.75
431.18	92.75
431.402	91.75
431.624	72.75
431.846	91.75
432.068	98.75
432.29	87.75
432.512	84.75
432.734	95.75
432.956	98.75
433.178	102.75
433.4	93.75
433.622	101.75
433.844	97.75
434.066	92.75
434.287	87.75
434.509	89.75
434.731	91.75
434.953	84.75
435.175	97.75
435.397	105.75
435.618	87.75
435.84	108.75
436.062	118.75
436.284	121.75
436.505	94.75
436.727	105.75
436.949	93.75
437.17	91.75
437.392	97.75
437.614	95.75
437.835	120.75
438.057	159.75
438.278	122.75
438.5	107.75
438.721	128.75
438.943	110.75
439.165	88.75
439.386	96.75
439.608	101.75
439.829	105.75
440.05	153.75
440.272	168.75
440.493	113.75
440.715	87.75
440.936	89.75
441.158	93.75
441.379	87.75
441.6	100.75
441.822	93.75
442.043	95.75
442.264	99.75
442.486	99.75
442.707	107.75
442.928	124.75
443.149	181.75
443.371	179.75
443.592	125.75
443.813	132.75
444.034	111.75
444.255	83.75
444.476	76.75
444.698	88.75
444.919	94.75
445.14	128.75
445.361	124.75
445.582	136.75
445.803	169.75
446.024	164.75
446.245	144.75
446.466	116.75
446.687	87.75
446.908	67.75
447.129	95.75
447.35	100.75
447.571	85.75
447.792	99.75
448.013	112.75
448.234	125.75
448.455	109.75
448.675	123.75
448.896	133.75
449.117	108.75
449.338	113.75
449.559	143.75
449.779	150.75
450	101.75
450.221	99.75
450.442	95.75
450.662	117.75
450.883	119.75
451.104	134.75
451.324	110.75
451.545	94.75
451.766	85.75
451.986	93.75
452.207	87.75
452.428	96.75
452.648	112.75
452.869	132.75
453.089	124.75
453.31	148.75
453.53	105.75
453.751	94.75
453.971	126.75
454.192	131.75
454.412	104.75
454.633	90.75
454.853	76.75
455.073	87.75
455.294	92.75
455.514	120.75
455.734	92.75
455.955	80.75
456.175	76.75
456.395	99.75
456.616	101.75
456.836	101.75
457.056	96.75
457.276	100.75
457.497	73.75
457.717	79.75
457.937	89.75
458.157	96.75
458.377	98.75
458.598	127.75
458.818	204.75
459.038	222.75
459.258	158.75
459.478	99.75
459.698	97.75
459.918	88.75
460.138	94.75
460.358	92.75
460.578	99.75
460.798	91.75
461.018	89.75
461.238	90.75
461.458	86.75
461.678	81.75
461.898	111.75
462.118	87.75
462.338	87.75
462.558	83.75
462.777	101.75
462.997	119.75
463.217	130.75
463.437	112.75
463.657	103.75
463.876	103.75
464.096	97.75
464.316	93.75
464.536	114.75
464.755	88.75
464.975	142.75
465.195	250.75
465.414	232.75
465.634	109.75
465.854	91.75
466.073	96.75
466.293	88.75
466.512	95.75
466.732	88.75
466.951	109.75
467.171	100.75
467.391	146.75
467.61	184.75
467.829	386.75
468.049	1327.75
468.268	2079.75
468.488	417.75
468.707	145.75
468.927	115.75
469.146	100.75
469.365	118.75
469.585	103.75
469.804	114.75
470.023	120.75
470.243	119.75
470.462	123.75
470.681	155.75
470.901	115.75
471.12	109.75
471.339	136.75
471.558	156.75
471.777	230.75
471.997	542.75
472.216	2361.75
472.435	5619.75
472.654	1189.75
472.873	270.75
473.092	134.75
473.311	115.75
473.53	95.75
473.749	103.75
473.968	118.75
474.187	119.75
474.406	103.75
474.625	91.75
474.844	99.75
475.063	86.75
475.282	91.75
475.501	77.75
475.72	102.75
475.939	80.75
476.158	95.75
476.377	94.75
476.596	101.75
476.814	99.75
477.033	109.75
477.252	99.75
477.471	97.75
477.69	96.75
477.908	107.75
478.127	96.75
478.346	100.75
478.564	95.75
478.783	113.75
479.002	113.75
479.22	120.75
479.439	147.75
479.658	160.75
479.876	155.75
480.095	150.75
480.313	184.75
480.532	243.75
480.751	497.75
480.969	2005.75
481.188	8915.75
481.406	4994.75
481.624	646.75
481.843	192.75
482.061	147.75
482.28	119.75
482.498	101.75
482.717	103.75
482.935	103.75
483.153	107.75
483.372	89.75
483.59	94.75
483.808	87.75
484.027	92.75
484.245	103.75
484.463	101.75
484.681	101.75
484.9	94.75
485.118	103.75
485.336	101.75
485.554	108.75
485.772	113.75
485.99	110.75
486.209	108.75
486.427	101.75
486.645	140.75
486.863	127.75
487.081	105.75
487.299	101.75
487.517	84.75
487.735	94.75
487.953	92.75
488.171	109.75
488.389	98.75
488.607	114.75
488.825	97.75
489.043	80.75
489.261	88.75
489.479	83.75
489.696	102.75
489.914	96.75
490.132	95.75
490.35	93.75
490.568	95.75
490.786	69.75
491.003	95.75
491.221	112.75
491.439	115.75
491.657	91.75
491.874	101.75
492.092	93.75
492.31	98.75
492.527	112.75
492.745	109.75
492.963	88.75
493.18	105.75
493.398	105.75
493.615	111.75
493.833	83.75
494.05	91.75
494.268	92.75
494.485	91.75
494.703	85.75
494.92	80.75
495.138	95.75
495.355	80.75
495.573	84.75
495.79	81.75
496.008	84.75
496.225	92.75
496.442	102.75
496.66	93.75
496.877	108.75
497.094	91.75
497.312	101.75
497.529	91.75
497.746	84.75
497.963	102.75
498.181	89.75
498.398	97.75
498.615	107.75
498.832	127.75
499.049	114.75
499.267	105.75
499.484	102.75
499.701	88.75
499.918	105.75
500.135	91.75
500.352	108.75
500.569	124.75
500.786	103.75
501.003	95.75
501.22	94.75
501.437	81.75
501.654	88.75
501.871	121.75
502.088	91.75
502.305	86.75
502.522	90.75
502.739	101.75
502.956	109.75
503.172	104.75
503.389	110.75
503.606	131.75
503.823	111.75
504.04	94.75
504.256	98.75
504.473	85.75
504.69	99.75
504.907	92.75
505.123	88.75
505.34	101.75
505.557	96.75
505.773	104.75
505.99	88.75
506.207	100.75
506.423	90.75
506.64	92.75
506.856	95.75
507.073	104.75
507.289	95.75
507.506	96.75
507.722	120.75
507.939	135.75
508.155	91.75
508.372	117.75
508.588	112.75
508.805	113.75
509.021	96.75
509.238	102.75
509.454	118.75
509.67	105.75
509.887	120.75
510.103	131.75
510.319	240.75
510.536	934.75
510.752	3310.75
510.968	910.75
511.184	186.75
511.401	114.75
511.617	124.75
