Data from Circ_1988_H10_HRD10591_00057.txt Node
Date: Wed Jan 03 12:05:46 EST 2024
User: Yrep
Spectrometer: HR+D1059
Trigger mode: 1
Integration Time (sec): 1.000000E-1
Scans to average: 1
Electric dark correction enabled: true
Nonlinearity correction enabled: false
Boxcar width: 0
XAxis mode: Wavelengths
Number of Pixels in Spectrum: 2048
>>>>>Begin Spectral Data<<<<<
223.165	-10.25
223.4	-10.25
223.635	-10.25
223.869	-20.25
224.104	-26.25
224.338	-15.25
224.573	-15.25
224.808	-16.25
225.042	-11.25
225.277	-19.25
225.511	-9.25
225.746	-6.25
225.98	27.75
226.215	20.75
226.449	19.75
226.683	22.75
226.918	29.75
227.152	28.75
227.387	44.75
227.621	44.75
227.856	39.75
228.09	49.75
228.324	49.75
228.559	41.75
228.793	61.75
229.027	50.75
229.262	74.75
229.496	81.75
229.73	94.75
229.964	101.75
230.199	71.75
230.433	73.75
230.667	78.75
230.901	83.75
231.136	83.75
231.37	82.75
231.604	87.75
231.838	92.75
232.072	84.75
232.306	94.75
232.541	70.75
232.775	94.75
233.009	85.75
233.243	77.75
233.477	81.75
233.711	90.75
233.945	89.75
234.179	92.75
234.413	101.75
234.647	88.75
234.881	80.75
235.115	79.75
235.349	79.75
235.583	88.75
235.817	76.75
236.051	85.75
236.285	64.75
236.519	88.75
236.753	82.75
236.987	95.75
237.221	94.75
237.455	104.75
237.689	98.75
237.922	92.75
238.156	80.75
238.39	84.75
238.624	52.75
238.858	73.75
239.091	83.75
239.325	74.75
239.559	98.75
239.793	99.75
240.027	83.75
240.26	101.75
240.494	107.75
240.728	89.75
240.961	78.75
241.195	70.75
241.429	92.75
241.662	82.75
241.896	91.75
242.13	95.75
242.363	77.75
242.597	79.75
242.83	79.75
243.064	91.75
243.298	88.75
243.531	90.75
243.765	89.75
243.998	96.75
244.232	83.75
244.465	96.75
244.699	87.75
244.932	87.75
245.166	82.75
245.399	87.75
245.633	71.75
245.866	84.75
246.099	93.75
246.333	91.75
246.566	82.75
246.8	96.75
247.033	90.75
247.266	95.75
247.5	84.75
247.733	73.75
247.966	116.75
248.2	103.75
248.433	78.75
248.666	72.75
248.899	89.75
249.133	84.75
249.366	100.75
249.599	121.75
249.832	114.75
250.066	102.75
250.299	99.75
250.532	112.75
250.765	86.75
250.998	85.75
251.231	95.75
251.465	90.75
251.698	105.75
251.931	107.75
252.164	103.75
252.397	94.75
252.63	97.75
252.863	97.75
253.096	96.75
253.329	97.75
253.562	90.75
253.795	84.75
254.028	116.75
254.261	94.75
254.494	91.75
254.727	80.75
254.96	76.75
255.193	75.75
255.426	97.75
255.659	107.75
255.892	110.75
256.124	128.75
256.357	95.75
256.59	105.75
256.823	90.75
257.056	100.75
257.289	117.75
257.521	91.75
257.754	84.75
257.987	103.75
258.22	121.75
258.452	126.75
258.685	119.75
258.918	120.75
259.151	91.75
259.383	97.75
259.616	83.75
259.849	96.75
260.081	97.75
260.314	97.75
260.547	100.75
260.779	108.75
261.012	153.75
261.244	148.75
261.477	115.75
261.71	120.75
261.942	164.75
262.175	159.75
262.407	108.75
262.64	92.75
262.872	92.75
263.105	88.75
263.337	102.75
263.57	92.75
263.802	102.75
264.035	84.75
264.267	94.75
264.499	100.75
264.732	96.75
264.964	96.75
265.197	88.75
265.429	85.75
265.661	83.75
265.894	95.75
266.126	80.75
266.358	87.75
266.591	81.75
266.823	68.75
267.055	95.75
267.287	91.75
267.52	90.75
267.752	87.75
267.984	90.75
268.216	96.75
268.448	95.75
268.681	100.75
268.913	100.75
269.145	97.75
269.377	73.75
269.609	82.75
269.841	76.75
270.073	77.75
270.306	96.75
270.538	87.75
270.77	81.75
271.002	90.75
271.234	103.75
271.466	116.75
271.698	114.75
271.93	101.75
272.162	88.75
272.394	99.75
272.626	82.75
272.858	87.75
273.09	96.75
273.322	89.75
273.553	83.75
273.785	80.75
274.017	96.75
274.249	107.75
274.481	97.75
274.713	102.75
274.945	108.75
275.176	118.75
275.408	114.75
275.64	170.75
275.872	200.75
276.104	143.75
276.335	133.75
276.567	131.75
276.799	214.75
277.031	301.75
277.262	419.75
277.494	278.75
277.726	143.75
277.957	109.75
278.189	106.75
278.421	94.75
278.652	90.75
278.884	93.75
279.115	108.75
279.347	118.75
279.579	154.75
279.81	221.75
280.042	404.75
280.273	614.75
280.505	370.75
280.736	158.75
280.968	111.75
281.199	103.75
281.431	96.75
281.662	100.75
281.894	100.75
282.125	108.75
282.356	150.75
282.588	186.75
282.819	146.75
283.051	99.75
283.282	92.75
283.513	95.75
283.745	86.75
283.976	101.75
284.207	95.75
284.439	101.75
284.67	105.75
284.901	89.75
285.132	87.75
285.364	88.75
285.595	100.75
285.826	82.75
286.057	88.75
286.288	102.75
286.52	93.75
286.751	79.75
286.982	103.75
287.213	107.75
287.444	94.75
287.675	95.75
287.906	71.75
288.138	91.75
288.369	107.75
288.6	110.75
288.831	112.75
289.062	96.75
289.293	85.75
289.524	88.75
289.755	95.75
289.986	98.75
290.217	92.75
290.448	98.75
290.679	82.75
290.91	81.75
291.141	91.75
291.371	95.75
291.602	98.75
291.833	91.75
292.064	89.75
292.295	90.75
292.526	97.75
292.757	105.75
292.987	92.75
293.218	91.75
293.449	99.75
293.68	84.75
293.91	92.75
294.141	106.75
294.372	94.75
294.603	97.75
294.833	101.75
295.064	87.75
295.295	102.75
295.525	92.75
295.756	94.75
295.987	144.75
296.217	186.75
296.448	156.75
296.679	108.75
296.909	106.75
297.14	106.75
297.37	97.75
297.601	104.75
297.831	82.75
298.062	105.75
298.292	117.75
298.523	86.75
298.753	107.75
298.984	74.75
299.214	90.75
299.445	102.75
299.675	105.75
299.905	101.75
300.136	98.75
300.366	105.75
300.597	104.75
300.827	111.75
301.057	115.75
301.288	126.75
301.518	120.75
301.748	109.75
301.979	130.75
302.209	117.75
302.439	99.75
302.669	106.75
302.9	102.75
303.13	118.75
303.36	134.75
303.59	191.75
303.82	213.75
304.051	143.75
304.281	113.75
304.511	103.75
304.741	90.75
304.971	97.75
305.201	92.75
305.431	93.75
305.661	92.75
305.891	98.75
306.121	121.75
306.352	124.75
306.582	128.75
306.812	115.75
307.042	191.75
307.272	294.75
307.502	323.75
307.731	267.75
307.961	180.75
308.191	107.75
308.421	95.75
308.651	92.75
308.881	108.75
309.111	95.75
309.341	103.75
309.571	103.75
309.8	91.75
310.03	100.75
310.26	104.75
310.49	126.75
310.72	115.75
310.949	135.75
311.179	117.75
311.409	103.75
311.639	101.75
311.868	113.75
312.098	98.75
312.328	105.75
312.557	122.75
312.787	127.75
313.017	136.75
313.246	103.75
313.476	92.75
313.706	107.75
313.935	120.75
314.165	131.75
314.394	129.75
314.624	114.75
314.853	103.75
315.083	108.75
315.312	114.75
315.542	106.75
315.771	103.75
316.001	110.75
316.23	105.75
316.46	96.75
316.689	88.75
316.919	106.75
317.148	109.75
317.377	94.75
317.607	91.75
317.836	109.75
318.065	91.75
318.295	95.75
318.524	96.75
318.753	88.75
318.983	94.75
319.212	115.75
319.441	138.75
319.67	134.75
319.9	104.75
320.129	73.75
320.358	104.75
320.587	110.75
320.816	119.75
321.046	128.75
321.275	117.75
321.504	109.75
321.733	99.75
321.962	113.75
322.191	116.75
322.42	113.75
322.649	130.75
322.878	136.75
323.108	145.75
323.337	130.75
323.566	160.75
323.795	184.75
324.024	227.75
324.253	444.75
324.482	917.75
324.71	1839.75
324.939	2472.75
325.168	940.75
325.397	306.75
325.626	171.75
325.855	156.75
326.084	148.75
326.313	162.75
326.542	178.75
326.77	250.75
326.999	456.75
327.228	945.75
327.457	1696.75
327.686	1498.75
327.914	747.75
328.143	1020.75
328.372	1478.75
328.6	744.75
328.829	288.75
329.058	240.75
329.287	260.75
329.515	258.75
329.744	452.75
329.972	1026.75
330.201	2205.75
330.43	3390.75
330.658	1350.75
330.887	450.75
331.115	257.75
331.344	169.75
331.572	132.75
331.801	138.75
332.03	148.75
332.258	119.75
332.486	122.75
332.715	134.75
332.943	150.75
333.172	154.75
333.4	175.75
333.629	231.75
333.857	366.75
334.085	835.75
334.314	1924.75
334.542	4011.75
334.771	3753.75
334.999	876.75
335.227	290.75
335.455	162.75
335.684	144.75
335.912	122.75
336.14	127.75
336.369	129.75
336.597	143.75
336.825	134.75
337.053	124.75
337.281	115.75
337.51	107.75
337.738	107.75
337.966	100.75
338.194	131.75
338.422	112.75
338.65	110.75
338.878	105.75
339.106	94.75
339.334	101.75
339.562	103.75
339.79	103.75
340.018	97.75
340.246	109.75
340.474	95.75
340.702	100.75
340.93	113.75
341.158	92.75
341.386	107.75
341.614	108.75
341.842	108.75
342.07	102.75
342.298	113.75
342.526	91.75
342.754	79.75
342.981	99.75
343.209	98.75
343.437	92.75
343.665	94.75
343.893	90.75
344.12	92.75
344.348	95.75
344.576	100.75
344.804	112.75
345.031	103.75
345.259	120.75
345.487	117.75
345.714	104.75
345.942	104.75
346.17	86.75
346.397	89.75
346.625	95.75
346.853	102.75
347.08	104.75
347.308	107.75
347.535	120.75
347.763	108.75
347.99	98.75
348.218	120.75
348.445	109.75
348.673	121.75
348.9	105.75
349.128	97.75
349.355	93.75
349.583	111.75
349.81	103.75
350.037	110.75
350.265	108.75
350.492	94.75
350.72	101.75
350.947	115.75
351.174	129.75
351.402	123.75
351.629	108.75
351.856	109.75
352.083	119.75
352.311	112.75
352.538	119.75
352.765	123.75
352.992	120.75
353.22	112.75
353.447	113.75
353.674	108.75
353.901	93.75
354.128	100.75
354.355	107.75
354.583	108.75
354.81	97.75
355.037	103.75
355.264	95.75
355.491	89.75
355.718	102.75
355.945	98.75
356.172	87.75
356.399	91.75
356.626	105.75
356.853	95.75
357.08	87.75
357.307	96.75
357.534	92.75
357.761	95.75
357.988	103.75
358.215	101.75
358.441	104.75
358.668	90.75
358.895	95.75
359.122	82.75
359.349	104.75
359.576	108.75
359.802	122.75
360.029	172.75
360.256	157.75
360.483	119.75
360.709	98.75
360.936	93.75
361.163	107.75
361.39	112.75
361.616	123.75
361.843	96.75
362.07	113.75
362.296	113.75
362.523	108.75
362.749	111.75
362.976	95.75
363.203	100.75
363.429	101.75
363.656	102.75
363.882	88.75
364.109	105.75
364.335	99.75
364.562	90.75
364.788	100.75
365.015	114.75
365.241	110.75
365.468	117.75
365.694	119.75
365.92	113.75
366.147	99.75
366.373	99.75
366.599	91.75
366.826	92.75
367.052	86.75
367.278	110.75
367.505	109.75
367.731	97.75
367.957	96.75
368.184	110.75
368.41	112.75
368.636	114.75
368.862	131.75
369.089	149.75
369.315	112.75
369.541	88.75
369.767	95.75
369.993	103.75
370.219	115.75
370.445	94.75
370.672	70.75
370.898	94.75
371.124	103.75
371.35	91.75
371.576	92.75
371.802	104.75
372.028	80.75
372.254	96.75
372.48	90.75
372.706	106.75
372.932	90.75
373.158	90.75
373.384	91.75
373.61	99.75
373.835	90.75
374.061	107.75
374.287	92.75
374.513	98.75
374.739	94.75
374.965	83.75
375.191	99.75
375.416	101.75
375.642	97.75
375.868	93.75
376.094	97.75
376.319	94.75
376.545	97.75
376.771	91.75
376.997	93.75
377.222	97.75
377.448	99.75
377.674	93.75
377.899	103.75
378.125	87.75
378.35	87.75
378.576	88.75
378.802	98.75
379.027	102.75
379.253	98.75
379.478	95.75
379.704	96.75
379.929	99.75
380.155	100.75
380.38	99.75
380.606	102.75
380.831	91.75
381.057	117.75
381.282	111.75
381.507	99.75
381.733	98.75
381.958	105.75
382.184	95.75
382.409	98.75
382.634	114.75
382.86	114.75
383.085	112.75
383.31	114.75
383.535	108.75
383.761	97.75
383.986	96.75
384.211	107.75
384.436	94.75
384.662	102.75
384.887	126.75
385.112	123.75
385.337	104.75
385.562	127.75
385.787	103.75
386.013	129.75
386.238	135.75
386.463	128.75
386.688	104.75
386.913	118.75
387.138	123.75
387.363	112.75
387.588	110.75
387.813	107.75
388.038	115.75
388.263	117.75
388.488	117.75
388.713	99.75
388.938	108.75
389.163	98.75
389.387	92.75
389.612	95.75
389.837	89.75
390.062	83.75
390.287	89.75
390.512	79.75
390.736	97.75
390.961	87.75
391.186	90.75
391.411	97.75
391.636	102.75
391.86	73.75
392.085	86.75
392.31	90.75
392.534	102.75
392.759	104.75
392.984	100.75
393.208	92.75
393.433	92.75
393.658	97.75
393.882	84.75
394.107	94.75
394.331	88.75
394.556	88.75
394.78	89.75
395.005	94.75
395.229	90.75
395.454	100.75
395.678	91.75
395.903	81.75
396.127	78.75
396.352	80.75
396.576	100.75
396.801	94.75
397.025	88.75
397.249	102.75
397.474	91.75
397.698	92.75
397.922	99.75
398.147	93.75
398.371	94.75
398.595	92.75
398.82	80.75
399.044	107.75
399.268	89.75
399.492	97.75
399.717	89.75
399.941	102.75
400.165	96.75
400.389	99.75
400.613	98.75
400.837	102.75
401.062	87.75
401.286	86.75
401.51	94.75
401.734	84.75
401.958	117.75
402.182	142.75
402.406	198.75
402.63	167.75
402.854	118.75
403.078	117.75
403.302	98.75
403.526	103.75
403.75	105.75
403.974	107.75
404.198	102.75
404.422	97.75
404.645	97.75
404.869	92.75
405.093	123.75
405.317	156.75
405.541	169.75
405.765	133.75
405.988	149.75
406.212	237.75
406.436	337.75
406.66	227.75
406.883	129.75
407.107	120.75
407.331	115.75
407.555	117.75
407.778	115.75
408.002	103.75
408.226	102.75
408.449	103.75
408.673	96.75
408.896	105.75
409.12	112.75
409.344	97.75
409.567	86.75
409.791	78.75
410.014	84.75
410.238	91.75
410.461	103.75
410.685	99.75
410.908	94.75
411.132	110.75
411.355	112.75
411.578	86.75
411.802	97.75
412.025	97.75
412.249	108.75
412.472	144.75
412.695	157.75
412.919	131.75
413.142	114.75
413.365	102.75
413.589	98.75
413.812	103.75
414.035	96.75
414.258	110.75
414.482	107.75
414.705	107.75
414.928	99.75
415.151	90.75
415.374	97.75
415.597	82.75
415.821	84.75
416.044	99.75
416.267	100.75
416.49	111.75
416.713	100.75
416.936	111.75
417.159	92.75
417.382	118.75
417.605	128.75
417.828	146.75
418.051	127.75
418.274	104.75
418.497	97.75
418.72	97.75
418.943	83.75
419.166	104.75
419.389	91.75
419.611	114.75
419.834	110.75
420.057	112.75
420.28	104.75
420.503	96.75
420.726	101.75
420.948	108.75
421.171	106.75
421.394	92.75
421.617	106.75
421.839	98.75
422.062	80.75
422.285	100.75
422.507	110.75
422.73	118.75
422.953	96.75
423.175	96.75
423.398	93.75
423.621	101.75
423.843	105.75
424.066	86.75
424.288	90.75
424.511	103.75
424.733	102.75
424.956	129.75
425.178	113.75
425.401	106.75
425.623	105.75
425.846	88.75
426.068	99.75
426.291	95.75
426.513	103.75
426.735	113.75
426.958	119.75
427.18	118.75
427.402	198.75
427.625	298.75
427.847	270.75
428.069	231.75
428.292	171.75
428.514	110.75
428.736	97.75
428.958	96.75
429.181	98.75
429.403	90.75
429.625	83.75
429.847	94.75
430.069	128.75
430.292	119.75
430.514	90.75
430.736	91.75
430.958	94.75
431.18	78.75
431.402	84.75
431.624	93.75
431.846	106.75
432.068	98.75
432.29	97.75
432.512	88.75
432.734	86.75
432.956	100.75
433.178	101.75
433.4	100.75
433.622	112.75
433.844	82.75
434.066	99.75
434.287	110.75
434.509	98.75
434.731	89.75
434.953	91.75
435.175	91.75
435.397	99.75
435.618	105.75
435.84	132.75
436.062	124.75
436.284	129.75
436.505	108.75
436.727	112.75
436.949	101.75
437.17	88.75
437.392	100.75
437.614	94.75
437.835	137.75
438.057	168.75
438.278	118.75
438.5	132.75
438.721	130.75
438.943	131.75
439.165	103.75
439.386	104.75
439.608	96.75
439.829	119.75
440.05	167.75
440.272	209.75
440.493	116.75
440.715	90.75
440.936	98.75
441.158	93.75
441.379	96.75
441.6	104.75
441.822	97.75
442.043	108.75
442.264	132.75
442.486	122.75
442.707	105.75
442.928	137.75
443.149	199.75
443.371	194.75
443.592	144.75
443.813	116.75
444.034	123.75
444.255	106.75
444.476	82.75
444.698	95.75
444.919	101.75
445.14	134.75
445.361	143.75
445.582	161.75
445.803	210.75
446.024	190.75
446.245	178.75
446.466	131.75
446.687	121.75
446.908	86.75
447.129	88.75
447.35	90.75
447.571	100.75
447.792	105.75
448.013	117.75
448.234	122.75
448.455	108.75
448.675	141.75
448.896	153.75
449.117	130.75
449.338	113.75
449.559	138.75
449.779	146.75
450	102.75
450.221	98.75
450.442	97.75
450.662	103.75
450.883	140.75
451.104	146.75
451.324	117.75
451.545	106.75
451.766	106.75
451.986	87.75
452.207	107.75
452.428	111.75
452.648	118.75
452.869	129.75
453.089	140.75
453.31	164.75
453.53	124.75
453.751	124.75
453.971	100.75
454.192	146.75
454.412	115.75
454.633	95.75
454.853	98.75
455.073	97.75
455.294	95.75
455.514	118.75
455.734	93.75
455.955	93.75
456.175	92.75
456.395	98.75
456.616	89.75
456.836	96.75
457.056	104.75
457.276	81.75
457.497	90.75
457.717	99.75
457.937	90.75
458.157	90.75
458.377	111.75
458.598	122.75
458.818	211.75
459.038	249.75
459.258	169.75
459.478	113.75
459.698	90.75
459.918	98.75
460.138	89.75
460.358	85.75
460.578	93.75
460.798	112.75
461.018	107.75
461.238	96.75
461.458	97.75
461.678	83.75
461.898	107.75
462.118	96.75
462.338	89.75
462.558	78.75
462.777	104.75
462.997	113.75
463.217	146.75
463.437	131.75
463.657	106.75
463.876	90.75
464.096	110.75
464.316	109.75
464.536	117.75
464.755	111.75
464.975	119.75
465.195	271.75
465.414	276.75
465.634	131.75
465.854	117.75
466.073	100.75
466.293	110.75
466.512	111.75
466.732	113.75
466.951	114.75
467.171	125.75
467.391	140.75
467.61	203.75
467.829	381.75
468.049	1358.75
468.268	2186.75
468.488	441.75
468.707	149.75
468.927	118.75
469.146	119.75
469.365	107.75
469.585	107.75
469.804	123.75
470.023	126.75
470.243	118.75
470.462	124.75
470.681	180.75
470.901	136.75
471.12	126.75
471.339	142.75
471.558	184.75
471.777	258.75
471.997	566.75
472.216	2458.75
472.435	5866.75
472.654	1254.75
472.873	278.75
473.092	144.75
473.311	146.75
473.53	114.75
473.749	107.75
473.968	116.75
474.187	146.75
474.406	109.75
474.625	106.75
474.844	103.75
475.063	95.75
475.282	89.75
475.501	108.75
475.72	94.75
475.939	101.75
476.158	107.75
476.377	105.75
476.596	104.75
476.814	118.75
477.033	108.75
477.252	97.75
477.471	107.75
477.69	107.75
477.908	100.75
478.127	112.75
478.346	105.75
478.564	119.75
478.783	121.75
479.002	107.75
479.22	124.75
479.439	150.75
479.658	156.75
479.876	153.75
480.095	161.75
480.313	193.75
480.532	248.75
480.751	510.75
480.969	2021.75
481.188	9308.75
481.406	5292.75
481.624	680.75
481.843	208.75
482.061	147.75
482.28	132.75
482.498	110.75
482.717	121.75
482.935	107.75
483.153	97.75
483.372	96.75
483.59	106.75
483.808	100.75
484.027	102.75
484.245	98.75
484.463	105.75
484.681	109.75
484.9	119.75
485.118	113.75
485.336	110.75
485.554	112.75
485.772	112.75
485.99	114.75
486.209	123.75
486.427	102.75
486.645	137.75
486.863	152.75
487.081	121.75
487.299	92.75
487.517	100.75
487.735	100.75
487.953	103.75
488.171	102.75
488.389	107.75
488.607	115.75
488.825	94.75
489.043	116.75
489.261	85.75
489.479	94.75
489.696	88.75
489.914	88.75
490.132	95.75
490.35	107.75
490.568	103.75
490.786	86.75
491.003	96.75
491.221	101.75
491.439	122.75
491.657	101.75
491.874	99.75
492.092	85.75
492.31	118.75
492.527	118.75
492.745	115.75
492.963	96.75
493.18	100.75
493.398	108.75
493.615	109.75
493.833	110.75
494.05	100.75
494.268	103.75
494.485	99.75
494.703	90.75
494.92	94.75
495.138	110.75
495.355	103.75
495.573	94.75
495.79	102.75
496.008	102.75
496.225	100.75
496.442	90.75
496.66	103.75
496.877	100.75
497.094	103.75
497.312	97.75
497.529	95.75
497.746	90.75
497.963	108.75
498.181	103.75
498.398	118.75
498.615	127.75
498.832	123.75
499.049	95.75
499.267	85.75
499.484	92.75
499.701	99.75
499.918	102.75
500.135	97.75
500.352	105.75
500.569	109.75
500.786	121.75
501.003	102.75
501.22	91.75
501.437	92.75
501.654	113.75
501.871	126.75
502.088	121.75
502.305	102.75
502.522	90.75
502.739	92.75
502.956	104.75
503.172	105.75
503.389	113.75
503.606	136.75
503.823	118.75
504.04	108.75
504.256	86.75
504.473	97.75
504.69	107.75
504.907	92.75
505.123	96.75
505.34	108.75
505.557	98.75
505.773	96.75
505.99	103.75
506.207	99.75
506.423	102.75
506.64	106.75
506.856	94.75
507.073	81.75
507.289	92.75
507.506	111.75
507.722	144.75
507.939	148.75
508.155	103.75
508.372	92.75
508.588	96.75
508.805	100.75
509.021	98.75
509.238	104.75
509.454	113.75
