Data from Circ_1988_H10_HRD10591_00040.txt Node
Date: Wed Jan 03 12:05:42 EST 2024
User: Yrep
Spectrometer: HR+D1059
Trigger mode: 1
Integration Time (sec): 1.000000E-1
Scans to average: 1
Electric dark correction enabled: true
Nonlinearity correction enabled: false
Boxcar width: 0
XAxis mode: Wavelengths
Number of Pixels in Spectrum: 2048
>>>>>Begin Spectral Data<<<<<
223.165	-23.56
223.4	-23.56
223.635	-23.56
223.869	-26.56
224.104	-14.56
224.338	-13.56
224.573	-12.56
224.808	-23.56
225.042	-12.56
225.277	-2.56
225.511	-1.56
225.746	2.44
225.98	12.44
226.215	16.44
226.449	16.44
226.683	22.44
226.918	33.44
227.152	27.44
227.387	30.44
227.621	53.44
227.856	49.44
228.09	62.44
228.324	50.44
228.559	48.44
228.793	63.44
229.027	69.44
229.262	72.44
229.496	99.44
229.73	101.44
229.964	94.44
230.199	70.44
230.433	76.44
230.667	83.44
230.901	80.44
231.136	76.44
231.37	61.44
231.604	91.44
231.838	93.44
232.072	89.44
232.306	91.44
232.541	72.44
232.775	99.44
233.009	77.44
233.243	86.44
233.477	81.44
233.711	96.44
233.945	95.44
234.179	91.44
234.413	62.44
234.647	95.44
234.881	89.44
235.115	83.44
235.349	73.44
235.583	85.44
235.817	88.44
236.051	96.44
236.285	83.44
236.519	91.44
236.753	80.44
236.987	100.44
237.221	109.44
237.455	98.44
237.689	87.44
237.922	85.44
238.156	87.44
238.39	77.44
238.624	72.44
238.858	84.44
239.091	88.44
239.325	97.44
239.559	84.44
239.793	94.44
240.027	84.44
240.26	87.44
240.494	106.44
240.728	79.44
240.961	71.44
241.195	93.44
241.429	83.44
241.662	73.44
241.896	93.44
242.13	83.44
242.363	76.44
242.597	77.44
242.83	87.44
243.064	83.44
243.298	89.44
243.531	82.44
243.765	84.44
243.998	74.44
244.232	89.44
244.465	100.44
244.699	100.44
244.932	89.44
245.166	84.44
245.399	67.44
245.633	81.44
245.866	79.44
246.099	94.44
246.333	86.44
246.566	84.44
246.8	82.44
247.033	90.44
247.266	76.44
247.5	80.44
247.733	91.44
247.966	94.44
248.2	97.44
248.433	72.44
248.666	85.44
248.899	92.44
249.133	101.44
249.366	117.44
249.599	119.44
249.832	99.44
250.066	88.44
250.299	91.44
250.532	104.44
250.765	79.44
250.998	80.44
251.231	87.44
251.465	93.44
251.698	88.44
251.931	106.44
252.164	88.44
252.397	89.44
252.63	84.44
252.863	91.44
253.096	87.44
253.329	70.44
253.562	73.44
253.795	97.44
254.028	80.44
254.261	85.44
254.494	84.44
254.727	96.44
254.96	90.44
255.193	85.44
255.426	96.44
255.659	100.44
255.892	115.44
256.124	116.44
256.357	95.44
256.59	90.44
256.823	110.44
257.056	95.44
257.289	99.44
257.521	88.44
257.754	93.44
257.987	108.44
258.22	111.44
258.452	111.44
258.685	97.44
258.918	100.44
259.151	103.44
259.383	84.44
259.616	73.44
259.849	81.44
260.081	90.44
260.314	104.44
260.547	106.44
260.779	129.44
261.012	166.44
261.244	133.44
261.477	100.44
261.71	110.44
261.942	139.44
262.175	137.44
262.407	111.44
262.64	105.44
262.872	74.44
263.105	91.44
263.337	101.44
263.57	93.44
263.802	82.44
264.035	82.44
264.267	88.44
264.499	98.44
264.732	72.44
264.964	101.44
265.197	89.44
265.429	99.44
265.661	89.44
265.894	95.44
266.126	87.44
266.358	99.44
266.591	92.44
266.823	74.44
267.055	76.44
267.287	90.44
267.52	95.44
267.752	79.44
267.984	68.44
268.216	82.44
268.448	98.44
268.681	105.44
268.913	95.44
269.145	74.44
269.377	91.44
269.609	91.44
269.841	82.44
270.073	96.44
270.306	92.44
270.538	105.44
270.77	89.44
271.002	70.44
271.234	102.44
271.466	109.44
271.698	93.44
271.93	87.44
272.162	91.44
272.394	99.44
272.626	83.44
272.858	91.44
273.09	87.44
273.322	90.44
273.553	104.44
273.785	83.44
274.017	97.44
274.249	98.44
274.481	95.44
274.713	96.44
274.945	97.44
275.176	108.44
275.408	128.44
275.64	155.44
275.872	189.44
276.104	145.44
276.335	125.44
276.567	131.44
276.799	185.44
277.031	285.44
277.262	380.44
277.494	252.44
277.726	133.44
277.957	111.44
278.189	100.44
278.421	100.44
278.652	96.44
278.884	90.44
279.115	102.44
279.347	106.44
279.579	133.44
279.81	199.44
280.042	353.44
280.273	558.44
280.505	343.44
280.736	155.44
280.968	125.44
281.199	105.44
281.431	97.44
281.662	101.44
281.894	84.44
282.125	112.44
282.356	154.44
282.588	194.44
282.819	134.44
283.051	95.44
283.282	93.44
283.513	91.44
283.745	111.44
283.976	76.44
284.207	101.44
284.439	105.44
284.67	83.44
284.901	91.44
285.132	84.44
285.364	99.44
285.595	97.44
285.826	101.44
286.057	98.44
286.288	91.44
286.52	89.44
286.751	70.44
286.982	97.44
287.213	79.44
287.444	107.44
287.675	91.44
287.906	93.44
288.138	89.44
288.369	98.44
288.6	99.44
288.831	91.44
289.062	95.44
289.293	94.44
289.524	90.44
289.755	81.44
289.986	86.44
290.217	74.44
290.448	108.44
290.679	104.44
290.91	103.44
291.141	99.44
291.371	92.44
291.602	99.44
291.833	89.44
292.064	104.44
292.295	88.44
292.526	111.44
292.757	98.44
292.987	94.44
293.218	94.44
293.449	84.44
293.68	89.44
293.91	102.44
294.141	101.44
294.372	88.44
294.603	100.44
294.833	89.44
295.064	103.44
295.295	97.44
295.525	95.44
295.756	118.44
295.987	134.44
296.217	170.44
296.448	155.44
296.679	102.44
296.909	84.44
297.14	95.44
297.37	90.44
297.601	92.44
297.831	85.44
298.062	96.44
298.292	103.44
298.523	101.44
298.753	111.44
298.984	92.44
299.214	88.44
299.445	115.44
299.675	93.44
299.905	101.44
300.136	99.44
300.366	88.44
300.597	86.44
300.827	109.44
301.057	113.44
301.288	126.44
301.518	119.44
301.748	108.44
301.979	137.44
302.209	119.44
302.439	107.44
302.669	97.44
302.9	101.44
303.13	126.44
303.36	128.44
303.59	172.44
303.82	217.44
304.051	141.44
304.281	108.44
304.511	101.44
304.741	92.44
304.971	96.44
305.201	108.44
305.431	112.44
305.661	103.44
305.891	97.44
306.121	100.44
306.352	130.44
306.582	129.44
306.812	130.44
307.042	179.44
307.272	273.44
307.502	321.44
307.731	250.44
307.961	145.44
308.191	114.44
308.421	115.44
308.651	93.44
308.881	101.44
309.111	89.44
309.341	109.44
309.571	112.44
309.8	111.44
310.03	120.44
310.26	95.44
310.49	123.44
310.72	114.44
310.949	129.44
311.179	119.44
311.409	121.44
311.639	99.44
311.868	98.44
312.098	106.44
312.328	112.44
312.557	114.44
312.787	134.44
313.017	113.44
313.246	106.44
313.476	101.44
313.706	97.44
313.935	112.44
314.165	114.44
314.394	120.44
314.624	106.44
314.853	114.44
315.083	114.44
315.312	103.44
315.542	100.44
315.771	91.44
316.001	83.44
316.23	103.44
316.46	80.44
316.689	92.44
316.919	91.44
317.148	92.44
317.377	103.44
317.607	104.44
317.836	113.44
318.065	97.44
318.295	96.44
318.524	79.44
318.753	108.44
318.983	99.44
319.212	111.44
319.441	114.44
319.67	116.44
319.9	95.44
320.129	83.44
320.358	105.44
320.587	113.44
320.816	106.44
321.046	116.44
321.275	124.44
321.504	104.44
321.733	111.44
321.962	97.44
322.191	111.44
322.42	116.44
322.649	124.44
322.878	124.44
323.108	130.44
323.337	160.44
323.566	163.44
323.795	180.44
324.024	220.44
324.253	425.44
324.482	851.44
324.71	1750.44
324.939	2327.44
325.168	900.44
325.397	285.44
325.626	170.44
325.855	138.44
326.084	148.44
326.313	141.44
326.542	180.44
326.77	245.44
326.999	432.44
327.228	867.44
327.457	1603.44
327.686	1373.44
327.914	712.44
328.143	957.44
328.372	1305.44
328.6	667.44
328.829	271.44
329.058	229.44
329.287	249.44
329.515	259.44
329.744	420.44
329.972	915.44
330.201	2063.44
330.43	3021.44
330.658	1207.44
330.887	420.44
331.115	240.44
331.344	160.44
331.572	144.44
331.801	146.44
332.03	128.44
332.258	135.44
332.486	122.44
332.715	124.44
332.943	127.44
333.172	172.44
333.4	171.44
333.629	224.44
333.857	374.44
334.085	769.44
334.314	1757.44
334.542	3663.44
334.771	3365.44
334.999	794.44
335.227	266.44
335.455	154.44
335.684	135.44
335.912	145.44
336.14	129.44
336.369	122.44
336.597	120.44
336.825	113.44
337.053	99.44
337.281	103.44
337.51	113.44
337.738	113.44
337.966	113.44
338.194	96.44
338.422	118.44
338.65	101.44
338.878	105.44
339.106	86.44
339.334	101.44
339.562	95.44
339.79	103.44
340.018	106.44
340.246	115.44
340.474	95.44
340.702	103.44
340.93	89.44
341.158	91.44
341.386	108.44
341.614	109.44
341.842	97.44
342.07	100.44
342.298	105.44
342.526	91.44
342.754	91.44
342.981	81.44
343.209	101.44
343.437	106.44
343.665	101.44
343.893	87.44
344.12	92.44
344.348	102.44
344.576	113.44
344.804	110.44
345.031	114.44
345.259	110.44
345.487	98.44
345.714	104.44
345.942	109.44
346.17	96.44
346.397	99.44
346.625	104.44
346.853	112.44
347.08	105.44
347.308	108.44
347.535	92.44
347.763	95.44
347.99	100.44
348.218	100.44
348.445	129.44
348.673	122.44
348.9	91.44
349.128	100.44
349.355	99.44
349.583	85.44
349.81	111.44
350.037	109.44
350.265	105.44
350.492	111.44
350.72	107.44
350.947	106.44
351.174	114.44
351.402	123.44
351.629	97.44
351.856	104.44
352.083	108.44
352.311	116.44
352.538	134.44
352.765	131.44
352.992	118.44
353.22	119.44
353.447	117.44
353.674	107.44
353.901	97.44
354.128	86.44
354.355	100.44
354.583	107.44
354.81	98.44
355.037	102.44
355.264	99.44
355.491	95.44
355.718	96.44
355.945	97.44
356.172	95.44
356.399	96.44
356.626	106.44
356.853	93.44
357.08	99.44
357.307	95.44
357.534	93.44
357.761	96.44
357.988	94.44
358.215	100.44
358.441	91.44
358.668	97.44
358.895	93.44
359.122	96.44
359.349	82.44
359.576	108.44
359.802	115.44
360.029	140.44
360.256	139.44
360.483	131.44
360.709	100.44
360.936	108.44
361.163	89.44
361.39	104.44
361.616	114.44
361.843	95.44
362.07	101.44
362.296	118.44
362.523	109.44
362.749	111.44
362.976	102.44
363.203	107.44
363.429	105.44
363.656	115.44
363.882	95.44
364.109	93.44
364.335	103.44
364.562	109.44
364.788	105.44
365.015	104.44
365.241	106.44
365.468	123.44
365.694	123.44
365.92	113.44
366.147	104.44
366.373	105.44
366.599	104.44
366.826	98.44
367.052	106.44
367.278	100.44
367.505	104.44
367.731	110.44
367.957	110.44
368.184	108.44
368.41	118.44
368.636	140.44
368.862	153.44
369.089	115.44
369.315	113.44
369.541	114.44
369.767	86.44
369.993	96.44
370.219	98.44
370.445	101.44
370.672	81.44
370.898	96.44
371.124	92.44
371.35	97.44
371.576	96.44
371.802	83.44
372.028	83.44
372.254	89.44
372.48	100.44
372.706	95.44
372.932	100.44
373.158	97.44
373.384	98.44
373.61	92.44
373.835	107.44
374.061	80.44
374.287	90.44
374.513	94.44
374.739	97.44
374.965	93.44
375.191	88.44
375.416	89.44
375.642	111.44
375.868	105.44
376.094	98.44
376.319	89.44
376.545	109.44
376.771	86.44
376.997	102.44
377.222	104.44
377.448	97.44
377.674	98.44
377.899	93.44
378.125	87.44
378.35	102.44
378.576	97.44
378.802	109.44
379.027	94.44
379.253	109.44
379.478	99.44
379.704	104.44
379.929	107.44
380.155	95.44
380.38	93.44
380.606	92.44
380.831	90.44
381.057	102.44
381.282	108.44
381.507	102.44
381.733	113.44
381.958	109.44
382.184	104.44
382.409	106.44
382.634	112.44
382.86	92.44
383.085	102.44
383.31	110.44
383.535	121.44
383.761	105.44
383.986	106.44
384.211	107.44
384.436	113.44
384.662	113.44
384.887	118.44
385.112	128.44
385.337	122.44
385.562	109.44
385.787	107.44
386.013	136.44
386.238	157.44
386.463	135.44
386.688	113.44
386.913	117.44
387.138	129.44
387.363	115.44
387.588	112.44
387.813	112.44
388.038	127.44
388.263	145.44
388.488	135.44
388.713	108.44
388.938	94.44
389.163	107.44
389.387	95.44
389.612	99.44
389.837	92.44
390.062	109.44
390.287	105.44
390.512	83.44
390.736	91.44
390.961	101.44
391.186	87.44
391.411	89.44
391.636	101.44
391.86	82.44
392.085	102.44
392.31	83.44
392.534	90.44
392.759	94.44
392.984	98.44
393.208	96.44
393.433	97.44
393.658	100.44
393.882	88.44
394.107	73.44
394.331	93.44
394.556	101.44
394.78	107.44
395.005	96.44
395.229	90.44
395.454	87.44
395.678	100.44
395.903	90.44
396.127	81.44
396.352	97.44
396.576	108.44
396.801	112.44
397.025	103.44
397.249	92.44
397.474	92.44
397.698	90.44
397.922	97.44
398.147	93.44
398.371	98.44
398.595	98.44
398.82	75.44
399.044	96.44
399.268	102.44
399.492	99.44
399.717	89.44
399.941	97.44
400.165	93.44
400.389	94.44
400.613	108.44
400.837	103.44
401.062	86.44
401.286	101.44
401.51	94.44
401.734	105.44
401.958	110.44
402.182	145.44
402.406	196.44
402.63	159.44
402.854	114.44
403.078	103.44
403.302	87.44
403.526	88.44
403.75	91.44
403.974	97.44
404.198	114.44
404.422	95.44
404.645	103.44
404.869	108.44
405.093	134.44
405.317	147.44
405.541	145.44
405.765	114.44
405.988	152.44
406.212	217.44
406.436	301.44
406.66	225.44
406.883	124.44
407.107	106.44
407.331	90.44
407.555	119.44
407.778	110.44
408.002	101.44
408.226	104.44
408.449	90.44
408.673	95.44
408.896	115.44
409.12	120.44
409.344	97.44
409.567	84.44
409.791	95.44
410.014	100.44
410.238	99.44
410.461	103.44
410.685	91.44
410.908	97.44
411.132	105.44
411.355	115.44
411.578	101.44
411.802	99.44
412.025	90.44
412.249	99.44
412.472	137.44
412.695	170.44
412.919	137.44
413.142	99.44
413.365	80.44
413.589	90.44
413.812	84.44
414.035	109.44
414.258	107.44
414.482	88.44
414.705	88.44
414.928	84.44
415.151	99.44
415.374	87.44
415.597	87.44
415.821	97.44
416.044	109.44
416.267	109.44
416.49	108.44
416.713	104.44
416.936	93.44
417.159	100.44
417.382	117.44
417.605	118.44
417.828	138.44
418.051	125.44
418.274	102.44
418.497	103.44
418.72	107.44
418.943	96.44
419.166	77.44
419.389	98.44
419.611	107.44
419.834	107.44
420.057	108.44
420.28	105.44
420.503	114.44
420.726	91.44
420.948	105.44
421.171	116.44
421.394	126.44
421.617	99.44
421.839	84.44
422.062	106.44
422.285	93.44
422.507	102.44
422.73	114.44
422.953	96.44
423.175	89.44
423.398	98.44
423.621	101.44
423.843	96.44
424.066	83.44
424.288	96.44
424.511	90.44
424.733	98.44
424.956	129.44
425.178	108.44
425.401	107.44
425.623	114.44
425.846	93.44
426.068	115.44
426.291	108.44
426.513	103.44
426.735	113.44
426.958	96.44
427.18	122.44
427.402	183.44
427.625	276.44
427.847	263.44
428.069	231.44
428.292	150.44
428.514	121.44
428.736	108.44
428.958	97.44
429.181	91.44
429.403	93.44
429.625	97.44
429.847	99.44
430.069	121.44
430.292	103.44
430.514	96.44
430.736	92.44
430.958	91.44
431.18	79.44
431.402	92.44
431.624	93.44
431.846	101.44
432.068	84.44
432.29	109.44
432.512	91.44
432.734	84.44
432.956	87.44
433.178	101.44
433.4	87.44
433.622	91.44
433.844	90.44
434.066	100.44
434.287	99.44
434.509	101.44
434.731	94.44
434.953	105.44
435.175	107.44
435.397	109.44
435.618	104.44
435.84	101.44
436.062	143.44
436.284	135.44
436.505	103.44
436.727	119.44
436.949	102.44
437.17	97.44
437.392	107.44
437.614	107.44
437.835	129.44
438.057	160.44
438.278	122.44
438.5	112.44
438.721	138.44
438.943	106.44
439.165	96.44
439.386	75.44
439.608	95.44
439.829	124.44
440.05	148.44
440.272	187.44
440.493	115.44
440.715	90.44
440.936	97.44
441.158	96.44
441.379	104.44
441.6	96.44
441.822	104.44
442.043	106.44
442.264	120.44
442.486	97.44
442.707	112.44
442.928	137.44
443.149	183.44
443.371	167.44
443.592	146.44
443.813	138.44
444.034	121.44
444.255	107.44
444.476	107.44
444.698	84.44
444.919	93.44
445.14	144.44
445.361	133.44
445.582	133.44
445.803	182.44
446.024	167.44
446.245	155.44
446.466	144.44
446.687	88.44
446.908	103.44
447.129	104.44
447.35	93.44
447.571	98.44
447.792	95.44
448.013	115.44
448.234	136.44
448.455	112.44
448.675	115.44
448.896	150.44
449.117	108.44
449.338	115.44
449.559	118.44
449.779	155.44
450	94.44
450.221	95.44
450.442	91.44
450.662	115.44
450.883	125.44
451.104	149.44
451.324	108.44
451.545	94.44
451.766	102.44
451.986	95.44
452.207	105.44
452.428	100.44
452.648	107.44
452.869	121.44
453.089	149.44
453.31	152.44
453.53	113.44
453.751	106.44
453.971	125.44
454.192	140.44
454.412	104.44
454.633	92.44
454.853	87.44
455.073	111.44
455.294	118.44
455.514	120.44
455.734	97.44
455.955	98.44
456.175	95.44
456.395	96.44
456.616	99.44
456.836	87.44
457.056	97.44
457.276	96.44
457.497	99.44
457.717	86.44
457.937	80.44
458.157	101.44
458.377	103.44
458.598	138.44
458.818	198.44
459.038	233.44
459.258	163.44
459.478	98.44
459.698	89.44
459.918	89.44
460.138	85.44
460.358	94.44
460.578	95.44
460.798	114.44
461.018	93.44
461.238	90.44
461.458	98.44
461.678	97.44
461.898	90.44
462.118	98.44
462.338	97.44
462.558	109.44
462.777	119.44
462.997	125.44
463.217	149.44
463.437	111.44
463.657	98.44
463.876	95.44
464.096	96.44
464.316	87.44
464.536	120.44
464.755	108.44
464.975	131.44
465.195	255.44
465.414	264.44
465.634	115.44
465.854	91.44
466.073	80.44
466.293	107.44
466.512	101.44
466.732	100.44
466.951	112.44
467.171	117.44
467.391	145.44
467.61	185.44
467.829	383.44
468.049	1322.44
468.268	2048.44
468.488	418.44
468.707	152.44
468.927	114.44
469.146	107.44
469.365	105.44
469.585	114.44
469.804	114.44
470.023	113.44
470.243	132.44
470.462	127.44
470.681	153.44
470.901	119.44
471.12	124.44
471.339	134.44
471.558	168.44
471.777	233.44
471.997	544.44
472.216	2303.44
472.435	5570.44
472.654	1163.44
472.873	258.44
473.092	151.44
473.311	136.44
473.53	98.44
473.749	101.44
473.968	101.44
474.187	120.44
474.406	116.44
474.625	104.44
474.844	103.44
475.063	95.44
475.282	92.44
475.501	82.44
475.72	96.44
475.939	99.44
476.158	92.44
476.377	101.44
476.596	104.44
476.814	106.44
477.033	113.44
477.252	105.44
477.471	88.44
477.69	97.44
477.908	106.44
478.127	112.44
478.346	100.44
478.564	118.44
478.783	112.44
479.002	121.44
479.22	118.44
479.439	144.44
479.658	158.44
479.876	160.44
480.095	145.44
480.313	179.44
480.532	250.44
480.751	494.44
480.969	1980.44
481.188	8914.44
481.406	4858.44
481.624	633.44
481.843	211.44
482.061	127.44
482.28	131.44
482.498	134.44
482.717	108.44
482.935	109.44
483.153	117.44
483.372	117.44
483.59	110.44
483.808	102.44
484.027	104.44
484.245	101.44
484.463	89.44
484.681	99.44
484.9	101.44
485.118	106.44
485.336	107.44
485.554	106.44
485.772	114.44
485.99	106.44
486.209	122.44
486.427	127.44
486.645	144.44
486.863	138.44
487.081	115.44
487.299	109.44
487.517	109.44
487.735	110.44
487.953	101.44
488.171	106.44
488.389	104.44
488.607	104.44
488.825	94.44
489.043	89.44
489.261	98.44
489.479	100.44
489.696	94.44
489.914	87.44
490.132	115.44
490.35	99.44
490.568	100.44
490.786	99.44
491.003	96.44
491.221	100.44
491.439	111.44
491.657	106.44
491.874	110.44
492.092	101.44
492.31	98.44
492.527	116.44
492.745	98.44
492.963	118.44
493.18	92.44
493.398	88.44
493.615	98.44
493.833	99.44
494.05	102.44
494.268	103.44
494.485	102.44
494.703	93.44
494.92	102.44
495.138	101.44
495.355	96.44
495.573	90.44
495.79	100.44
496.008	102.44
496.225	103.44
496.442	95.44
496.66	90.44
496.877	99.44
497.094	97.44
497.312	93.44
497.529	109.44
497.746	97.44
497.963	101.44
498.181	95.44
498.398	110.44
498.615	109.44
498.832	117.44
499.049	105.44
499.267	94.44
499.484	87.44
499.701	97.44
499.918	92.44
500.135	108.44
500.352	100.44
500.569	106.44
500.786	117.44
501.003	111.44
501.22	95.44
501.437	93.44
501.654	111.44
501.871	127.44
502.088	105.44
502.305	103.44
502.522	108.44
502.739	112.44
502.956	92.44
503.172	95.44
503.389	103.44
503.606	138.44
503.823	120.44
504.04	104.44
504.256	91.44
504.473	99.44
504.69	98.44
504.907	109.44
505.123	102.44
505.34	103.44
505.557	95.44
505.773	102.44
505.99	107.44
506.207	84.44
506.423	83.44
506.64	93.44
506.856	97.44
507.073	97.44
507.289	116.44
507.506	108.44
507.722	139.44
507.939	150.44
508.155	124.44
508.372	89.44
508.588	91.44
508.805	111.44
509.021	100.44
509.238	90.44
509.454	104.44
509.67	111.44
