Data from Circ_1988_H10_HRD10591_00056.txt Node
Date: Wed Jan 03 12:05:46 EST 2024
User: Yrep
Spectrometer: HR+D1059
Trigger mode: 1
Integration Time (sec): 1.000000E-1
Scans to average: 1
Electric dark correction enabled: true
Nonlinearity correction enabled: false
Boxcar width: 0
XAxis mode: Wavelengths
Number of Pixels in Spectrum: 2048
>>>>>Begin Spectral Data<<<<<
223.165	-20.69
223.4	-20.69
223.635	-20.69
223.869	-25.69
224.104	-13.69
224.338	-11.69
224.573	-12.69
224.808	-13.69
225.042	-12.69
225.277	-4.69
225.511	-7.69
225.746	0.31
225.98	7.31
226.215	8.31
226.449	19.31
226.683	25.31
226.918	33.31
227.152	29.31
227.387	29.31
227.621	46.31
227.856	42.31
228.09	35.31
228.324	48.31
228.559	49.31
228.793	53.31
229.027	67.31
229.262	77.31
229.496	73.31
229.73	120.31
229.964	106.31
230.199	80.31
230.433	74.31
230.667	92.31
230.901	82.31
231.136	89.31
231.37	73.31
231.604	81.31
231.838	61.31
232.072	71.31
232.306	96.31
232.541	92.31
232.775	102.31
233.009	86.31
233.243	83.31
233.477	92.31
233.711	83.31
233.945	95.31
234.179	81.31
234.413	83.31
234.647	91.31
234.881	89.31
235.115	89.31
235.349	79.31
235.583	93.31
235.817	82.31
236.051	85.31
236.285	88.31
236.519	79.31
236.753	90.31
236.987	100.31
237.221	93.31
237.455	96.31
237.689	96.31
237.922	85.31
238.156	79.31
238.39	77.31
238.624	93.31
238.858	79.31
239.091	91.31
239.325	92.31
239.559	81.31
239.793	79.31
240.027	81.31
240.26	74.31
240.494	72.31
240.728	78.31
240.961	77.31
241.195	93.31
241.429	85.31
241.662	82.31
241.896	70.31
242.13	78.31
242.363	75.31
242.597	88.31
242.83	82.31
243.064	88.31
243.298	74.31
243.531	99.31
243.765	71.31
243.998	77.31
244.232	87.31
244.465	90.31
244.699	66.31
244.932	83.31
245.166	75.31
245.399	76.31
245.633	97.31
245.866	79.31
246.099	83.31
246.333	87.31
246.566	101.31
246.8	79.31
247.033	94.31
247.266	88.31
247.5	89.31
247.733	69.31
247.966	100.31
248.2	99.31
248.433	83.31
248.666	87.31
248.899	86.31
249.133	102.31
249.366	108.31
249.599	109.31
249.832	93.31
250.066	106.31
250.299	78.31
250.532	93.31
250.765	99.31
250.998	87.31
251.231	81.31
251.465	89.31
251.698	104.31
251.931	103.31
252.164	91.31
252.397	110.31
252.63	91.31
252.863	72.31
253.096	75.31
253.329	88.31
253.562	78.31
253.795	84.31
254.028	85.31
254.261	87.31
254.494	62.31
254.727	92.31
254.96	78.31
255.193	103.31
255.426	78.31
255.659	106.31
255.892	121.31
256.124	138.31
256.357	102.31
256.59	105.31
256.823	95.31
257.056	101.31
257.289	110.31
257.521	109.31
257.754	95.31
257.987	81.31
258.22	98.31
258.452	116.31
258.685	116.31
258.918	101.31
259.151	85.31
259.383	93.31
259.616	87.31
259.849	88.31
260.081	87.31
260.314	105.31
260.547	97.31
260.779	113.31
261.012	152.31
261.244	137.31
261.477	125.31
261.71	116.31
261.942	147.31
262.175	141.31
262.407	91.31
262.64	90.31
262.872	90.31
263.105	99.31
263.337	96.31
263.57	91.31
263.802	87.31
264.035	101.31
264.267	88.31
264.499	86.31
264.732	83.31
264.964	91.31
265.197	84.31
265.429	73.31
265.661	75.31
265.894	81.31
266.126	87.31
266.358	79.31
266.591	74.31
266.823	76.31
267.055	90.31
267.287	96.31
267.52	98.31
267.752	91.31
267.984	81.31
268.216	80.31
268.448	91.31
268.681	83.31
268.913	101.31
269.145	79.31
269.377	89.31
269.609	92.31
269.841	93.31
270.073	78.31
270.306	93.31
270.538	91.31
270.77	78.31
271.002	102.31
271.234	102.31
271.466	115.31
271.698	102.31
271.93	97.31
272.162	91.31
272.394	85.31
272.626	86.31
272.858	85.31
273.09	84.31
273.322	95.31
273.553	79.31
273.785	84.31
274.017	89.31
274.249	99.31
274.481	112.31
274.713	94.31
274.945	87.31
275.176	102.31
275.408	123.31
275.64	160.31
275.872	185.31
276.104	141.31
276.335	122.31
276.567	130.31
276.799	194.31
277.031	290.31
277.262	377.31
277.494	255.31
277.726	124.31
277.957	103.31
278.189	100.31
278.421	110.31
278.652	99.31
278.884	95.31
279.115	103.31
279.347	122.31
279.579	141.31
279.81	199.31
280.042	368.31
280.273	561.31
280.505	344.31
280.736	155.31
280.968	119.31
281.199	103.31
281.431	103.31
281.662	91.31
281.894	87.31
282.125	112.31
282.356	143.31
282.588	183.31
282.819	125.31
283.051	91.31
283.282	94.31
283.513	82.31
283.745	94.31
283.976	85.31
284.207	96.31
284.439	87.31
284.67	88.31
284.901	93.31
285.132	100.31
285.364	78.31
285.595	85.31
285.826	93.31
286.057	96.31
286.288	94.31
286.52	95.31
286.751	89.31
286.982	89.31
287.213	102.31
287.444	95.31
287.675	83.31
287.906	86.31
288.138	100.31
288.369	108.31
288.6	103.31
288.831	99.31
289.062	99.31
289.293	89.31
289.524	88.31
289.755	98.31
289.986	85.31
290.217	100.31
290.448	93.31
290.679	85.31
290.91	93.31
291.141	83.31
291.371	83.31
291.602	89.31
291.833	79.31
292.064	88.31
292.295	79.31
292.526	90.31
292.757	84.31
292.987	88.31
293.218	83.31
293.449	87.31
293.68	84.31
293.91	112.31
294.141	83.31
294.372	106.31
294.603	85.31
294.833	79.31
295.064	93.31
295.295	89.31
295.525	98.31
295.756	108.31
295.987	133.31
296.217	170.31
296.448	145.31
296.679	95.31
296.909	96.31
297.14	86.31
297.37	86.31
297.601	96.31
297.831	104.31
298.062	91.31
298.292	95.31
298.523	101.31
298.753	94.31
298.984	99.31
299.214	80.31
299.445	94.31
299.675	113.31
299.905	107.31
300.136	94.31
300.366	97.31
300.597	104.31
300.827	102.31
301.057	113.31
301.288	123.31
301.518	111.31
301.748	91.31
301.979	133.31
302.209	120.31
302.439	104.31
302.669	103.31
302.9	102.31
303.13	107.31
303.36	137.31
303.59	190.31
303.82	207.31
304.051	121.31
304.281	105.31
304.511	102.31
304.741	100.31
304.971	79.31
305.201	96.31
305.431	81.31
305.661	84.31
305.891	92.31
306.121	111.31
306.352	95.31
306.582	120.31
306.812	138.31
307.042	168.31
307.272	271.31
307.502	305.31
307.731	266.31
307.961	181.31
308.191	107.31
308.421	104.31
308.651	110.31
308.881	119.31
309.111	105.31
309.341	93.31
309.571	104.31
309.8	115.31
310.03	105.31
310.26	101.31
310.49	98.31
310.72	101.31
310.949	130.31
311.179	116.31
311.409	86.31
311.639	106.31
311.868	108.31
312.098	95.31
312.328	102.31
312.557	134.31
312.787	127.31
313.017	111.31
313.246	113.31
313.476	86.31
313.706	101.31
313.935	104.31
314.165	116.31
314.394	124.31
314.624	106.31
314.853	100.31
315.083	102.31
315.312	107.31
315.542	98.31
315.771	105.31
316.001	104.31
316.23	90.31
316.46	98.31
316.689	82.31
316.919	93.31
317.148	103.31
317.377	109.31
317.607	93.31
317.836	113.31
318.065	95.31
318.295	95.31
318.524	92.31
318.753	87.31
318.983	97.31
319.212	106.31
319.441	117.31
319.67	127.31
319.9	104.31
320.129	99.31
320.358	103.31
320.587	87.31
320.816	114.31
321.046	106.31
321.275	97.31
321.504	116.31
321.733	101.31
321.962	106.31
322.191	122.31
322.42	126.31
322.649	117.31
322.878	131.31
323.108	137.31
323.337	141.31
323.566	170.31
323.795	179.31
324.024	231.31
324.253	418.31
324.482	903.31
324.71	1766.31
324.939	2407.31
325.168	895.31
325.397	275.31
325.626	193.31
325.855	129.31
326.084	152.31
326.313	160.31
326.542	183.31
326.77	235.31
326.999	445.31
327.228	883.31
327.457	1599.31
327.686	1421.31
327.914	679.31
328.143	948.31
328.372	1379.31
328.6	687.31
328.829	250.31
329.058	233.31
329.287	235.31
329.515	262.31
329.744	439.31
329.972	917.31
330.201	2107.31
330.43	3107.31
330.658	1256.31
330.887	426.31
331.115	224.31
331.344	145.31
331.572	148.31
331.801	157.31
332.03	143.31
332.258	126.31
332.486	122.31
332.715	149.31
332.943	129.31
333.172	149.31
333.4	185.31
333.629	196.31
333.857	349.31
334.085	774.31
334.314	1783.31
334.542	3761.31
334.771	3464.31
334.999	823.31
335.227	287.31
335.455	159.31
335.684	143.31
335.912	121.31
336.14	122.31
336.369	122.31
336.597	131.31
336.825	128.31
337.053	92.31
337.281	100.31
337.51	115.31
337.738	109.31
337.966	87.31
338.194	107.31
338.422	112.31
338.65	102.31
338.878	94.31
339.106	98.31
339.334	104.31
339.562	93.31
339.79	93.31
340.018	99.31
340.246	85.31
340.474	116.31
340.702	103.31
340.93	103.31
341.158	86.31
341.386	107.31
341.614	105.31
341.842	116.31
342.07	102.31
342.298	95.31
342.526	96.31
342.754	84.31
342.981	90.31
343.209	100.31
343.437	114.31
343.665	109.31
343.893	93.31
344.12	97.31
344.348	95.31
344.576	93.31
344.804	89.31
345.031	101.31
345.259	117.31
345.487	96.31
345.714	97.31
345.942	102.31
346.17	99.31
346.397	103.31
346.625	98.31
346.853	107.31
347.08	98.31
347.308	113.31
347.535	93.31
347.763	110.31
347.99	119.31
348.218	118.31
348.445	107.31
348.673	111.31
348.9	104.31
349.128	107.31
349.355	107.31
349.583	86.31
349.81	89.31
350.037	102.31
350.265	102.31
350.492	104.31
350.72	95.31
350.947	103.31
351.174	120.31
351.402	132.31
351.629	121.31
351.856	101.31
352.083	106.31
352.311	128.31
352.538	118.31
352.765	126.31
352.992	131.31
353.22	124.31
353.447	100.31
353.674	100.31
353.901	98.31
354.128	79.31
354.355	101.31
354.583	104.31
354.81	100.31
355.037	103.31
355.264	94.31
355.491	86.31
355.718	79.31
355.945	94.31
356.172	99.31
356.399	113.31
356.626	93.31
356.853	83.31
357.08	94.31
357.307	87.31
357.534	82.31
357.761	100.31
357.988	103.31
358.215	89.31
358.441	97.31
358.668	98.31
358.895	104.31
359.122	94.31
359.349	93.31
359.576	95.31
359.802	129.31
360.029	159.31
360.256	144.31
360.483	109.31
360.709	96.31
360.936	97.31
361.163	117.31
361.39	115.31
361.616	100.31
361.843	97.31
362.07	121.31
362.296	127.31
362.523	103.31
362.749	105.31
362.976	95.31
363.203	94.31
363.429	85.31
363.656	104.31
363.882	87.31
364.109	99.31
364.335	96.31
364.562	102.31
364.788	109.31
365.015	103.31
365.241	95.31
365.468	110.31
365.694	122.31
365.92	109.31
366.147	110.31
366.373	97.31
366.599	94.31
366.826	88.31
367.052	105.31
367.278	93.31
367.505	84.31
367.731	104.31
367.957	98.31
368.184	106.31
368.41	123.31
368.636	122.31
368.862	142.31
369.089	111.31
369.315	88.31
369.541	94.31
369.767	95.31
369.993	88.31
370.219	98.31
370.445	97.31
370.672	90.31
370.898	91.31
371.124	104.31
371.35	73.31
371.576	98.31
371.802	99.31
372.028	101.31
372.254	89.31
372.48	96.31
372.706	92.31
372.932	92.31
373.158	87.31
373.384	94.31
373.61	91.31
373.835	94.31
374.061	96.31
374.287	98.31
374.513	100.31
374.739	112.31
374.965	89.31
375.191	88.31
375.416	97.31
375.642	90.31
375.868	105.31
376.094	82.31
376.319	96.31
376.545	91.31
376.771	88.31
376.997	98.31
377.222	102.31
377.448	91.31
377.674	95.31
377.899	101.31
378.125	95.31
378.35	114.31
378.576	99.31
378.802	113.31
379.027	87.31
379.253	100.31
379.478	100.31
379.704	82.31
379.929	105.31
380.155	103.31
380.38	106.31
380.606	102.31
380.831	95.31
381.057	91.31
381.282	97.31
381.507	99.31
381.733	99.31
381.958	105.31
382.184	108.31
382.409	110.31
382.634	127.31
382.86	113.31
383.085	102.31
383.31	107.31
383.535	108.31
383.761	103.31
383.986	107.31
384.211	102.31
384.436	102.31
384.662	110.31
384.887	103.31
385.112	109.31
385.337	101.31
385.562	110.31
385.787	126.31
386.013	126.31
386.238	132.31
386.463	127.31
386.688	126.31
386.913	102.31
387.138	117.31
387.363	105.31
387.588	112.31
387.813	118.31
388.038	112.31
388.263	121.31
388.488	111.31
388.713	119.31
388.938	98.31
389.163	107.31
389.387	101.31
389.612	101.31
389.837	82.31
390.062	86.31
390.287	97.31
390.512	94.31
390.736	92.31
390.961	89.31
391.186	102.31
391.411	88.31
391.636	81.31
391.86	84.31
392.085	82.31
392.31	91.31
392.534	89.31
392.759	98.31
392.984	99.31
393.208	101.31
393.433	86.31
393.658	84.31
393.882	95.31
394.107	100.31
394.331	84.31
394.556	88.31
394.78	95.31
395.005	93.31
395.229	82.31
395.454	79.31
395.678	97.31
395.903	94.31
396.127	87.31
396.352	97.31
396.576	96.31
396.801	83.31
397.025	98.31
397.249	87.31
397.474	88.31
397.698	96.31
397.922	94.31
398.147	89.31
398.371	79.31
398.595	87.31
398.82	96.31
399.044	83.31
399.268	94.31
399.492	89.31
399.717	102.31
399.941	87.31
400.165	97.31
400.389	92.31
400.613	93.31
400.837	96.31
401.062	102.31
401.286	95.31
401.51	104.31
401.734	101.31
401.958	115.31
402.182	142.31
402.406	190.31
402.63	158.31
402.854	104.31
403.078	89.31
403.302	91.31
403.526	89.31
403.75	104.31
403.974	117.31
404.198	110.31
404.422	94.31
404.645	97.31
404.869	105.31
405.093	138.31
405.317	154.31
405.541	165.31
405.765	132.31
405.988	144.31
406.212	221.31
406.436	333.31
406.66	213.31
406.883	116.31
407.107	97.31
407.331	103.31
407.555	96.31
407.778	107.31
408.002	95.31
408.226	97.31
408.449	82.31
408.673	91.31
408.896	82.31
409.12	93.31
409.344	97.31
409.567	93.31
409.791	96.31
410.014	105.31
410.238	91.31
410.461	91.31
410.685	99.31
410.908	102.31
411.132	108.31
411.355	114.31
411.578	89.31
411.802	101.31
412.025	93.31
412.249	111.31
412.472	129.31
412.695	155.31
412.919	115.31
413.142	107.31
413.365	98.31
413.589	96.31
413.812	99.31
414.035	99.31
414.258	104.31
414.482	109.31
414.705	106.31
414.928	81.31
415.151	97.31
415.374	116.31
415.597	95.31
415.821	105.31
416.044	102.31
416.267	99.31
416.49	103.31
416.713	96.31
416.936	87.31
417.159	94.31
417.382	124.31
417.605	122.31
417.828	133.31
418.051	98.31
418.274	97.31
418.497	103.31
418.72	93.31
418.943	96.31
419.166	85.31
419.389	92.31
419.611	89.31
419.834	94.31
420.057	111.31
420.28	110.31
420.503	94.31
420.726	86.31
420.948	95.31
421.171	110.31
421.394	99.31
421.617	105.31
421.839	107.31
422.062	94.31
422.285	103.31
422.507	122.31
422.73	115.31
422.953	100.31
423.175	96.31
423.398	86.31
423.621	85.31
423.843	84.31
424.066	100.31
424.288	93.31
424.511	95.31
424.733	81.31
424.956	117.31
425.178	105.31
425.401	112.31
425.623	102.31
425.846	94.31
426.068	104.31
426.291	110.31
426.513	99.31
426.735	91.31
426.958	104.31
427.18	115.31
427.402	175.31
427.625	272.31
427.847	264.31
428.069	231.31
428.292	145.31
428.514	93.31
428.736	90.31
428.958	88.31
429.181	86.31
429.403	91.31
429.625	94.31
429.847	95.31
430.069	110.31
430.292	109.31
430.514	95.31
430.736	84.31
430.958	94.31
431.18	85.31
431.402	82.31
431.624	81.31
431.846	87.31
432.068	100.31
432.29	88.31
432.512	93.31
432.734	88.31
432.956	104.31
433.178	100.31
433.4	106.31
433.622	105.31
433.844	107.31
434.066	104.31
434.287	102.31
434.509	106.31
434.731	95.31
434.953	97.31
435.175	101.31
435.397	91.31
435.618	93.31
435.84	106.31
436.062	126.31
436.284	130.31
436.505	104.31
436.727	93.31
436.949	85.31
437.17	98.31
437.392	99.31
437.614	95.31
437.835	113.31
438.057	169.31
438.278	121.31
438.5	115.31
438.721	133.31
438.943	109.31
439.165	104.31
439.386	101.31
439.608	105.31
439.829	108.31
440.05	140.31
440.272	186.31
440.493	109.31
440.715	104.31
440.936	89.31
441.158	107.31
441.379	100.31
441.6	114.31
441.822	98.31
442.043	110.31
442.264	121.31
442.486	113.31
442.707	98.31
442.928	120.31
443.149	184.31
443.371	182.31
443.592	135.31
443.813	127.31
444.034	117.31
444.255	104.31
444.476	95.31
444.698	107.31
444.919	86.31
445.14	133.31
445.361	129.31
445.582	128.31
445.803	196.31
446.024	170.31
446.245	157.31
446.466	119.31
446.687	89.31
446.908	90.31
447.129	103.31
447.35	109.31
447.571	104.31
447.792	90.31
448.013	115.31
448.234	124.31
448.455	109.31
448.675	122.31
448.896	136.31
449.117	106.31
449.338	114.31
449.559	146.31
449.779	140.31
450	86.31
450.221	84.31
450.442	104.31
450.662	99.31
450.883	125.31
451.104	143.31
451.324	117.31
451.545	106.31
451.766	85.31
451.986	93.31
452.207	97.31
452.428	100.31
452.648	111.31
452.869	141.31
453.089	135.31
453.31	144.31
453.53	87.31
453.751	99.31
453.971	129.31
454.192	147.31
454.412	106.31
454.633	95.31
454.853	87.31
455.073	107.31
455.294	92.31
455.514	113.31
455.734	87.31
455.955	81.31
456.175	77.31
456.395	86.31
456.616	81.31
456.836	100.31
457.056	93.31
457.276	84.31
457.497	97.31
457.717	97.31
457.937	81.31
458.157	89.31
458.377	87.31
458.598	110.31
458.818	207.31
459.038	224.31
459.258	158.31
459.478	104.31
459.698	90.31
459.918	96.31
460.138	92.31
460.358	102.31
460.578	89.31
460.798	90.31
461.018	104.31
461.238	81.31
461.458	100.31
461.678	90.31
461.898	89.31
462.118	88.31
462.338	94.31
462.558	89.31
462.777	97.31
462.997	120.31
463.217	146.31
463.437	113.31
463.657	92.31
463.876	96.31
464.096	114.31
464.316	97.31
464.536	110.31
464.755	127.31
464.975	139.31
465.195	253.31
465.414	239.31
465.634	112.31
465.854	113.31
466.073	97.31
466.293	85.31
466.512	103.31
466.732	113.31
466.951	96.31
467.171	120.31
467.391	137.31
467.61	198.31
467.829	369.31
468.049	1321.31
468.268	2051.31
468.488	426.31
468.707	158.31
468.927	108.31
469.146	102.31
469.365	109.31
469.585	110.31
469.804	115.31
470.023	126.31
470.243	109.31
470.462	116.31
470.681	163.31
470.901	123.31
471.12	113.31
471.339	157.31
471.558	169.31
471.777	233.31
471.997	560.31
472.216	2335.31
472.435	5679.31
472.654	1200.31
472.873	261.31
473.092	139.31
473.311	111.31
473.53	98.31
473.749	109.31
473.968	117.31
474.187	127.31
474.406	110.31
474.625	100.31
474.844	102.31
475.063	84.31
475.282	83.31
475.501	102.31
475.72	109.31
475.939	93.31
476.158	114.31
476.377	113.31
476.596	90.31
476.814	113.31
477.033	108.31
477.252	103.31
477.471	107.31
477.69	94.31
477.908	112.31
478.127	102.31
478.346	97.31
478.564	111.31
478.783	125.31
479.002	115.31
479.22	122.31
479.439	150.31
479.658	170.31
479.876	145.31
480.095	166.31
480.313	179.31
480.532	241.31
480.751	480.31
480.969	2021.31
481.188	9121.31
481.406	4990.31
481.624	649.31
481.843	213.31
482.061	138.31
482.28	126.31
482.498	109.31
482.717	109.31
482.935	103.31
483.153	101.31
483.372	112.31
483.59	101.31
483.808	92.31
484.027	106.31
484.245	94.31
484.463	104.31
484.681	130.31
484.9	106.31
485.118	98.31
485.336	102.31
485.554	108.31
485.772	126.31
485.99	115.31
486.209	120.31
486.427	105.31
486.645	120.31
486.863	142.31
487.081	114.31
487.299	101.31
487.517	105.31
487.735	95.31
487.953	110.31
488.171	98.31
488.389	113.31
488.607	109.31
488.825	98.31
489.043	88.31
489.261	107.31
489.479	102.31
489.696	99.31
489.914	112.31
490.132	95.31
490.35	79.31
490.568	101.31
490.786	91.31
491.003	91.31
491.221	117.31
491.439	109.31
491.657	96.31
491.874	89.31
492.092	101.31
492.31	105.31
492.527	121.31
492.745	119.31
492.963	80.31
493.18	86.31
493.398	100.31
493.615	97.31
493.833	89.31
494.05	103.31
494.268	88.31
494.485	90.31
494.703	88.31
494.92	97.31
495.138	97.31
495.355	85.31
495.573	105.31
495.79	97.31
496.008	102.31
496.225	92.31
496.442	106.31
496.66	102.31
496.877	100.31
497.094	112.31
497.312	104.31
497.529	94.31
497.746	77.31
497.963	81.31
498.181	94.31
498.398	106.31
498.615	116.31
498.832	112.31
499.049	103.31
499.267	107.31
499.484	97.31
499.701	101.31
499.918	92.31
500.135	93.31
500.352	99.31
500.569	104.31
500.786	113.31
501.003	83.31
501.22	97.31
501.437	101.31
501.654	105.31
501.871	127.31
502.088	94.31
502.305	104.31
502.522	95.31
502.739	97.31
502.956	104.31
503.172	108.31
503.389	109.31
503.606	132.31
503.823	111.31
504.04	111.31
504.256	94.31
504.473	98.31
504.69	109.31
504.907	87.31
505.123	88.31
505.34	109.31
505.557	99.31
505.773	90.31
505.99	81.31
506.207	95.31
506.423	98.31
506.64	94.31
506.856	91.31
507.073	82.31
507.289	107.31
507.506	88.31
507.722	132.31
507.939	132.31
508.155	109.31
508.372	106.31
508.588	104.31
508.805	96.31
509.021	107.31
509.238	99.31
509.454	93.31
509.67	111.31
509.887	124.31
510.103	141.31
510.319	249.31
