Data from Circ_1988_H10_HRD10591_00074.txt Node
Date: Wed Jan 03 12:05:49 EST 2024
User: Yrep
Spectrometer: HR+D1059
Trigger mode: 1
Integration Time (sec): 1.000000E-1
Scans to average: 1
Electric dark correction enabled: true
Nonlinearity correction enabled: false
Boxcar width: 0
XAxis mode: Wavelengths
Number of Pixels in Spectrum: 2048
>>>>>Begin Spectral Data<<<<<
223.165	-28.69
223.4	-28.69
223.635	-28.69
223.869	-21.69
224.104	-16.69
224.338	-8.69
224.573	-19.69
224.808	-11.69
225.042	-4.69
225.277	-7.69
225.511	-6.69
225.746	0.31
225.98	7.31
226.215	18.31
226.449	28.31
226.683	24.31
226.918	28.31
227.152	19.31
227.387	36.31
227.621	32.31
227.856	44.31
228.09	42.31
228.324	53.31
228.559	48.31
228.793	60.31
229.027	60.31
229.262	65.31
229.496	81.31
229.73	83.31
229.964	99.31
230.199	84.31
230.433	89.31
230.667	87.31
230.901	77.31
231.136	62.31
231.37	70.31
231.604	80.31
231.838	67.31
232.072	77.31
232.306	81.31
232.541	85.31
232.775	84.31
233.009	81.31
233.243	74.31
233.477	86.31
233.711	73.31
233.945	82.31
234.179	79.31
234.413	69.31
234.647	78.31
234.881	72.31
235.115	74.31
235.349	62.31
235.583	78.31
235.817	76.31
236.051	94.31
236.285	79.31
236.519	75.31
236.753	81.31
236.987	86.31
237.221	76.31
237.455	76.31
237.689	86.31
237.922	67.31
238.156	90.31
238.39	80.31
238.624	76.31
238.858	63.31
239.091	78.31
239.325	76.31
239.559	85.31
239.793	74.31
240.027	74.31
240.26	83.31
240.494	73.31
240.728	59.31
240.961	74.31
241.195	78.31
241.429	73.31
241.662	72.31
241.896	75.31
242.13	77.31
242.363	90.31
242.597	83.31
242.83	76.31
243.064	75.31
243.298	78.31
243.531	74.31
243.765	89.31
243.998	80.31
244.232	69.31
244.465	72.31
244.699	85.31
244.932	67.31
245.166	93.31
245.399	91.31
245.633	78.31
245.866	81.31
246.099	68.31
246.333	70.31
246.566	74.31
246.8	69.31
247.033	85.31
247.266	78.31
247.5	67.31
247.733	74.31
247.966	85.31
248.2	82.31
248.433	81.31
248.666	86.31
248.899	88.31
249.133	84.31
249.366	95.31
249.599	97.31
249.832	73.31
250.066	91.31
250.299	84.31
250.532	102.31
250.765	88.31
250.998	76.31
251.231	76.31
251.465	92.31
251.698	85.31
251.931	94.31
252.164	86.31
252.397	76.31
252.63	84.31
252.863	76.31
253.096	87.31
253.329	74.31
253.562	79.31
253.795	79.31
254.028	96.31
254.261	77.31
254.494	77.31
254.727	84.31
254.96	97.31
255.193	85.31
255.426	89.31
255.659	85.31
255.892	104.31
256.124	120.31
256.357	89.31
256.59	93.31
256.823	77.31
257.056	88.31
257.289	83.31
257.521	82.31
257.754	89.31
257.987	85.31
258.22	86.31
258.452	113.31
258.685	112.31
258.918	101.31
259.151	76.31
259.383	88.31
259.616	89.31
259.849	68.31
260.081	84.31
260.314	72.31
260.547	85.31
260.779	106.31
261.012	142.31
261.244	117.31
261.477	110.31
261.71	111.31
261.942	108.31
262.175	130.31
262.407	80.31
262.64	81.31
262.872	86.31
263.105	72.31
263.337	85.31
263.57	78.31
263.802	80.31
264.035	66.31
264.267	87.31
264.499	84.31
264.732	97.31
264.964	83.31
265.197	66.31
265.429	78.31
265.661	68.31
265.894	75.31
266.126	86.31
266.358	77.31
266.591	86.31
266.823	76.31
267.055	85.31
267.287	101.31
267.52	78.31
267.752	88.31
267.984	95.31
268.216	86.31
268.448	78.31
268.681	95.31
268.913	86.31
269.145	94.31
269.377	88.31
269.609	88.31
269.841	92.31
270.073	83.31
270.306	83.31
270.538	82.31
270.77	81.31
271.002	93.31
271.234	117.31
271.466	98.31
271.698	84.31
271.93	91.31
272.162	81.31
272.394	80.31
272.626	95.31
272.858	71.31
273.09	86.31
273.322	98.31
273.553	90.31
273.785	84.31
274.017	82.31
274.249	88.31
274.481	83.31
274.713	83.31
274.945	94.31
275.176	97.31
275.408	119.31
275.64	129.31
275.872	171.31
276.104	128.31
276.335	95.31
276.567	106.31
276.799	172.31
277.031	236.31
277.262	317.31
277.494	223.31
277.726	119.31
277.957	98.31
278.189	96.31
278.421	90.31
278.652	91.31
278.884	82.31
279.115	96.31
279.347	93.31
279.579	131.31
279.81	194.31
280.042	324.31
280.273	452.31
280.505	288.31
280.736	137.31
280.968	104.31
281.199	89.31
281.431	85.31
281.662	96.31
281.894	97.31
282.125	101.31
282.356	124.31
282.588	165.31
282.819	126.31
283.051	88.31
283.282	88.31
283.513	77.31
283.745	96.31
283.976	91.31
284.207	88.31
284.439	90.31
284.67	86.31
284.901	85.31
285.132	96.31
285.364	76.31
285.595	68.31
285.826	79.31
286.057	82.31
286.288	77.31
286.52	80.31
286.751	86.31
286.982	88.31
287.213	67.31
287.444	86.31
287.675	86.31
287.906	88.31
288.138	90.31
288.369	89.31
288.6	90.31
288.831	97.31
289.062	80.31
289.293	99.31
289.524	91.31
289.755	92.31
289.986	81.31
290.217	82.31
290.448	77.31
290.679	86.31
290.91	96.31
291.141	86.31
291.371	84.31
291.602	88.31
291.833	88.31
292.064	81.31
292.295	81.31
292.526	83.31
292.757	86.31
292.987	92.31
293.218	80.31
293.449	83.31
293.68	89.31
293.91	88.31
294.141	83.31
294.372	90.31
294.603	98.31
294.833	76.31
295.064	80.31
295.295	96.31
295.525	92.31
295.756	93.31
295.987	110.31
296.217	148.31
296.448	133.31
296.679	102.31
296.909	97.31
297.14	90.31
297.37	88.31
297.601	94.31
297.831	79.31
298.062	92.31
298.292	90.31
298.523	91.31
298.753	90.31
298.984	88.31
299.214	78.31
299.445	84.31
299.675	100.31
299.905	111.31
300.136	92.31
300.366	78.31
300.597	89.31
300.827	85.31
301.057	82.31
301.288	109.31
301.518	110.31
301.748	84.31
301.979	112.31
302.209	105.31
302.439	93.31
302.669	93.31
302.9	96.31
303.13	92.31
303.36	122.31
303.59	163.31
303.82	175.31
304.051	124.31
304.281	88.31
304.511	92.31
304.741	89.31
304.971	99.31
305.201	85.31
305.431	89.31
305.661	92.31
305.891	100.31
306.121	85.31
306.352	110.31
306.582	106.31
306.812	112.31
307.042	159.31
307.272	232.31
307.502	240.31
307.731	212.31
307.961	162.31
308.191	98.31
308.421	104.31
308.651	82.31
308.881	101.31
309.111	81.31
309.341	95.31
309.571	93.31
309.8	97.31
310.03	93.31
310.26	108.31
310.49	94.31
310.72	103.31
310.949	113.31
311.179	106.31
311.409	92.31
311.639	93.31
311.868	97.31
312.098	77.31
312.328	89.31
312.557	108.31
312.787	109.31
313.017	99.31
313.246	88.31
313.476	105.31
313.706	100.31
313.935	96.31
314.165	116.31
314.394	106.31
314.624	101.31
314.853	108.31
315.083	88.31
315.312	87.31
315.542	86.31
315.771	85.31
316.001	92.31
316.23	83.31
316.46	81.31
316.689	93.31
316.919	94.31
317.148	99.31
317.377	82.31
317.607	92.31
317.836	108.31
318.065	92.31
318.295	96.31
318.524	100.31
318.753	91.31
318.983	83.31
319.212	104.31
319.441	104.31
319.67	103.31
319.9	92.31
320.129	100.31
320.358	97.31
320.587	97.31
320.816	94.31
321.046	94.31
321.275	105.31
321.504	94.31
321.733	93.31
321.962	97.31
322.191	94.31
322.42	112.31
322.649	104.31
322.878	107.31
323.108	111.31
323.337	112.31
323.566	137.31
323.795	156.31
324.024	210.31
324.253	350.31
324.482	768.31
324.71	1502.31
324.939	2019.31
325.168	776.31
325.397	241.31
325.626	167.31
325.855	114.31
326.084	132.31
326.313	148.31
326.542	156.31
326.77	212.31
326.999	404.31
327.228	797.31
327.457	1421.31
327.686	1194.31
327.914	572.31
328.143	814.31
328.372	1155.31
328.6	601.31
328.829	225.31
329.058	215.31
329.287	217.31
329.515	233.31
329.744	376.31
329.972	829.31
330.201	1849.31
330.43	2698.31
330.658	1072.31
330.887	348.31
331.115	195.31
331.344	146.31
331.572	110.31
331.801	139.31
332.03	131.31
332.258	112.31
332.486	106.31
332.715	118.31
332.943	137.31
333.172	138.31
333.4	149.31
333.629	188.31
333.857	319.31
334.085	698.31
334.314	1595.31
334.542	3288.31
334.771	3015.31
334.999	700.31
335.227	241.31
335.455	143.31
335.684	136.31
335.912	128.31
336.14	128.31
336.369	103.31
336.597	117.31
336.825	102.31
337.053	107.31
337.281	108.31
337.51	108.31
337.738	116.31
337.966	101.31
338.194	109.31
338.422	111.31
338.65	102.31
338.878	109.31
339.106	87.31
339.334	101.31
339.562	104.31
339.79	93.31
340.018	87.31
340.246	82.31
340.474	107.31
340.702	100.31
340.93	72.31
341.158	96.31
341.386	103.31
341.614	96.31
341.842	99.31
342.07	84.31
342.298	99.31
342.526	82.31
342.754	88.31
342.981	71.31
343.209	77.31
343.437	99.31
343.665	88.31
343.893	88.31
344.12	97.31
344.348	92.31
344.576	86.31
344.804	86.31
345.031	88.31
345.259	106.31
345.487	85.31
345.714	95.31
345.942	99.31
346.17	90.31
346.397	84.31
346.625	108.31
346.853	93.31
347.08	101.31
347.308	100.31
347.535	102.31
347.763	91.31
347.99	95.31
348.218	104.31
348.445	101.31
348.673	105.31
348.9	100.31
349.128	100.31
349.355	85.31
349.583	101.31
349.81	89.31
350.037	92.31
350.265	90.31
350.492	94.31
350.72	94.31
350.947	86.31
351.174	99.31
351.402	113.31
351.629	92.31
351.856	105.31
352.083	106.31
352.311	120.31
352.538	122.31
352.765	116.31
352.992	109.31
353.22	116.31
353.447	116.31
353.674	107.31
353.901	85.31
354.128	90.31
354.355	98.31
354.583	85.31
354.81	82.31
355.037	99.31
355.264	85.31
355.491	88.31
355.718	74.31
355.945	83.31
356.172	94.31
356.399	90.31
356.626	101.31
356.853	86.31
357.08	88.31
357.307	96.31
357.534	99.31
357.761	86.31
357.988	85.31
358.215	89.31
358.441	86.31
358.668	91.31
358.895	95.31
359.122	80.31
359.349	88.31
359.576	92.31
359.802	102.31
360.029	133.31
360.256	132.31
360.483	96.31
360.709	87.31
360.936	104.31
361.163	94.31
361.39	103.31
361.616	89.31
361.843	86.31
362.07	101.31
362.296	108.31
362.523	93.31
362.749	90.31
362.976	106.31
363.203	100.31
363.429	92.31
363.656	99.31
363.882	93.31
364.109	91.31
364.335	98.31
364.562	96.31
364.788	104.31
365.015	90.31
365.241	96.31
365.468	112.31
365.694	90.31
365.92	105.31
366.147	88.31
366.373	94.31
366.599	101.31
366.826	78.31
367.052	82.31
367.278	98.31
367.505	88.31
367.731	96.31
367.957	89.31
368.184	84.31
368.41	93.31
368.636	113.31
368.862	118.31
369.089	103.31
369.315	101.31
369.541	90.31
369.767	76.31
369.993	92.31
370.219	93.31
370.445	100.31
370.672	80.31
370.898	71.31
371.124	84.31
371.35	99.31
371.576	82.31
371.802	98.31
372.028	80.31
372.254	89.31
372.48	73.31
372.706	69.31
372.932	83.31
373.158	98.31
373.384	82.31
373.61	79.31
373.835	81.31
374.061	90.31
374.287	93.31
374.513	91.31
374.739	85.31
374.965	91.31
375.191	80.31
375.416	75.31
375.642	75.31
375.868	100.31
376.094	83.31
376.319	102.31
376.545	88.31
376.771	88.31
376.997	104.31
377.222	76.31
377.448	85.31
377.674	97.31
377.899	79.31
378.125	87.31
378.35	95.31
378.576	85.31
378.802	85.31
379.027	93.31
379.253	99.31
379.478	89.31
379.704	86.31
379.929	84.31
380.155	84.31
380.38	102.31
380.606	78.31
380.831	90.31
381.057	104.31
381.282	103.31
381.507	95.31
381.733	100.31
381.958	101.31
382.184	76.31
382.409	96.31
382.634	100.31
382.86	96.31
383.085	100.31
383.31	99.31
383.535	96.31
383.761	114.31
383.986	100.31
384.211	120.31
384.436	112.31
384.662	99.31
384.887	103.31
385.112	98.31
385.337	93.31
385.562	114.31
385.787	109.31
386.013	121.31
386.238	121.31
386.463	105.31
386.688	102.31
386.913	105.31
387.138	97.31
387.363	108.31
387.588	86.31
387.813	85.31
388.038	90.31
388.263	97.31
388.488	101.31
388.713	83.31
388.938	83.31
389.163	86.31
389.387	85.31
389.612	85.31
389.837	90.31
390.062	82.31
390.287	84.31
390.512	72.31
390.736	73.31
390.961	74.31
391.186	77.31
391.411	82.31
391.636	77.31
391.86	89.31
392.085	82.31
392.31	83.31
392.534	97.31
392.759	82.31
392.984	87.31
393.208	109.31
393.433	95.31
393.658	84.31
393.882	84.31
394.107	85.31
394.331	84.31
394.556	90.31
394.78	84.31
395.005	80.31
395.229	83.31
395.454	93.31
395.678	80.31
395.903	95.31
396.127	80.31
396.352	85.31
396.576	90.31
396.801	93.31
397.025	82.31
397.249	82.31
397.474	76.31
397.698	81.31
397.922	99.31
398.147	90.31
398.371	79.31
398.595	78.31
398.82	78.31
399.044	83.31
399.268	89.31
399.492	94.31
399.717	79.31
399.941	85.31
400.165	92.31
400.389	76.31
400.613	80.31
400.837	84.31
401.062	89.31
401.286	76.31
401.51	95.31
401.734	97.31
401.958	97.31
402.182	130.31
402.406	186.31
402.63	121.31
402.854	102.31
403.078	93.31
403.302	108.31
403.526	78.31
403.75	101.31
403.974	89.31
404.198	85.31
404.422	83.31
404.645	97.31
404.869	115.31
405.093	124.31
405.317	154.31
405.541	144.31
405.765	110.31
405.988	137.31
406.212	188.31
406.436	268.31
406.66	182.31
406.883	117.31
407.107	110.31
407.331	82.31
407.555	102.31
407.778	101.31
408.002	97.31
408.226	84.31
408.449	93.31
408.673	85.31
408.896	85.31
409.12	88.31
409.344	99.31
409.567	81.31
409.791	96.31
410.014	93.31
410.238	83.31
410.461	86.31
410.685	86.31
410.908	95.31
411.132	100.31
411.355	100.31
411.578	93.31
411.802	85.31
412.025	92.31
412.249	104.31
412.472	128.31
412.695	154.31
412.919	136.31
413.142	99.31
413.365	97.31
413.589	91.31
413.812	88.31
414.035	106.31
414.258	95.31
414.482	79.31
414.705	84.31
414.928	91.31
415.151	93.31
415.374	76.31
415.597	82.31
415.821	84.31
416.044	72.31
416.267	89.31
416.49	93.31
416.713	92.31
416.936	74.31
417.159	91.31
417.382	99.31
417.605	117.31
417.828	123.31
418.051	96.31
418.274	98.31
418.497	84.31
418.72	96.31
418.943	86.31
419.166	87.31
419.389	70.31
419.611	86.31
419.834	94.31
420.057	92.31
420.28	102.31
420.503	90.31
420.726	94.31
420.948	89.31
421.171	113.31
421.394	98.31
421.617	90.31
421.839	88.31
422.062	97.31
422.285	88.31
422.507	104.31
422.73	103.31
422.953	92.31
423.175	98.31
423.398	94.31
423.621	93.31
423.843	94.31
424.066	74.31
424.288	73.31
424.511	98.31
424.733	92.31
424.956	120.31
425.178	105.31
425.401	107.31
425.623	99.31
425.846	93.31
426.068	91.31
426.291	89.31
426.513	91.31
426.735	91.31
426.958	96.31
427.18	112.31
427.402	156.31
427.625	236.31
427.847	220.31
428.069	205.31
428.292	113.31
428.514	99.31
428.736	90.31
428.958	83.31
429.181	86.31
429.403	84.31
429.625	88.31
429.847	105.31
430.069	113.31
430.292	98.31
430.514	90.31
430.736	75.31
430.958	76.31
431.18	85.31
431.402	78.31
431.624	83.31
431.846	78.31
432.068	102.31
432.29	82.31
432.512	82.31
432.734	99.31
432.956	80.31
433.178	96.31
433.4	101.31
433.622	83.31
433.844	78.31
434.066	92.31
434.287	95.31
434.509	83.31
434.731	76.31
434.953	83.31
435.175	86.31
435.397	94.31
435.618	94.31
435.84	81.31
436.062	112.31
436.284	96.31
436.505	96.31
436.727	94.31
436.949	70.31
437.17	78.31
437.392	80.31
437.614	85.31
437.835	131.31
438.057	140.31
438.278	111.31
438.5	94.31
438.721	134.31
438.943	94.31
439.165	90.31
439.386	88.31
439.608	92.31
439.829	103.31
440.05	122.31
440.272	171.31
440.493	96.31
440.715	91.31
440.936	90.31
441.158	101.31
441.379	99.31
441.6	98.31
441.822	84.31
442.043	89.31
442.264	117.31
442.486	122.31
442.707	96.31
442.928	105.31
443.149	160.31
443.371	156.31
443.592	109.31
443.813	121.31
444.034	115.31
444.255	94.31
444.476	82.31
444.698	82.31
444.919	104.31
445.14	139.31
445.361	127.31
445.582	121.31
445.803	165.31
446.024	149.31
446.245	149.31
446.466	122.31
446.687	97.31
446.908	85.31
447.129	76.31
447.35	101.31
447.571	92.31
447.792	105.31
448.013	88.31
448.234	112.31
448.455	100.31
448.675	115.31
448.896	118.31
449.117	113.31
449.338	105.31
449.559	132.31
449.779	144.31
450	90.31
450.221	91.31
450.442	84.31
450.662	114.31
450.883	104.31
451.104	119.31
451.324	107.31
451.545	91.31
451.766	85.31
451.986	76.31
452.207	93.31
452.428	86.31
452.648	93.31
452.869	114.31
453.089	125.31
453.31	134.31
453.53	93.31
453.751	93.31
453.971	116.31
454.192	113.31
454.412	101.31
454.633	88.31
454.853	85.31
455.073	76.31
455.294	85.31
455.514	108.31
455.734	107.31
455.955	80.31
456.175	82.31
456.395	91.31
456.616	86.31
456.836	84.31
457.056	76.31
457.276	97.31
457.497	80.31
457.717	91.31
457.937	85.31
458.157	102.31
458.377	102.31
458.598	127.31
458.818	184.31
459.038	192.31
459.258	147.31
459.478	101.31
459.698	91.31
459.918	82.31
460.138	81.31
460.358	94.31
460.578	76.31
460.798	82.31
461.018	76.31
461.238	70.31
461.458	80.31
461.678	79.31
461.898	85.31
462.118	82.31
462.338	86.31
462.558	96.31
462.777	89.31
462.997	127.31
463.217	120.31
463.437	92.31
463.657	93.31
463.876	97.31
464.096	96.31
464.316	85.31
464.536	91.31
464.755	90.31
464.975	116.31
465.195	216.31
465.414	199.31
465.634	102.31
465.854	92.31
466.073	101.31
466.293	96.31
466.512	86.31
466.732	82.31
466.951	96.31
467.171	92.31
467.391	114.31
467.61	162.31
467.829	318.31
468.049	1089.31
468.268	1739.31
468.488	378.31
468.707	129.31
468.927	111.31
469.146	102.31
469.365	102.31
469.585	95.31
469.804	120.31
470.023	108.31
470.243	117.31
470.462	120.31
470.681	128.31
470.901	111.31
471.12	117.31
471.339	114.31
471.558	132.31
471.777	194.31
471.997	471.31
472.216	2026.31
472.435	4796.31
472.654	1001.31
472.873	232.31
473.092	124.31
473.311	105.31
473.53	104.31
473.749	98.31
473.968	111.31
474.187	133.31
474.406	110.31
474.625	83.31
474.844	94.31
475.063	89.31
475.282	92.31
475.501	105.31
475.72	83.31
475.939	95.31
476.158	95.31
476.377	88.31
476.596	107.31
476.814	105.31
477.033	107.31
477.252	92.31
477.471	104.31
477.69	95.31
477.908	92.31
478.127	86.31
478.346	93.31
478.564	108.31
478.783	119.31
479.002	113.31
479.22	112.31
479.439	129.31
479.658	137.31
479.876	131.31
480.095	140.31
480.313	163.31
480.532	209.31
480.751	443.31
480.969	1779.31
481.188	7924.31
481.406	4410.31
481.624	569.31
481.843	171.31
482.061	122.31
482.28	112.31
482.498	109.31
482.717	112.31
482.935	96.31
483.153	96.31
483.372	91.31
483.59	92.31
483.808	96.31
484.027	105.31
484.245	89.31
484.463	86.31
484.681	95.31
484.9	96.31
485.118	94.31
485.336	92.31
485.554	93.31
485.772	88.31
485.99	86.31
486.209	98.31
486.427	109.31
486.645	107.31
486.863	121.31
487.081	116.31
487.299	94.31
487.517	97.31
487.735	82.31
487.953	95.31
488.171	108.31
488.389	96.31
488.607	109.31
488.825	96.31
489.043	96.31
489.261	96.31
489.479	100.31
489.696	94.31
489.914	88.31
490.132	92.31
490.35	89.31
490.568	83.31
490.786	86.31
491.003	88.31
491.221	97.31
491.439	102.31
491.657	100.31
491.874	97.31
492.092	74.31
492.31	102.31
492.527	120.31
492.745	121.31
492.963	97.31
493.18	98.31
493.398	89.31
493.615	116.31
493.833	106.31
494.05	91.31
494.268	89.31
494.485	91.31
494.703	92.31
494.92	93.31
495.138	103.31
495.355	86.31
495.573	95.31
495.79	92.31
496.008	104.31
496.225	93.31
496.442	79.31
496.66	109.31
496.877	94.31
497.094	110.31
497.312	104.31
497.529	88.31
497.746	83.31
497.963	74.31
498.181	87.31
498.398	105.31
498.615	110.31
498.832	99.31
499.049	92.31
499.267	99.31
499.484	96.31
499.701	85.31
499.918	85.31
500.135	96.31
500.352	97.31
500.569	90.31
500.786	110.31
501.003	98.31
501.22	85.31
501.437	82.31
501.654	79.31
501.871	110.31
502.088	96.31
502.305	85.31
502.522	81.31
502.739	81.31
502.956	82.31
503.172	88.31
503.389	99.31
503.606	138.31
503.823	109.31
504.04	101.31
504.256	84.31
504.473	74.31
504.69	98.31
504.907	84.31
505.123	85.31
505.34	87.31
505.557	96.31
505.773	96.31
505.99	92.31
506.207	98.31
506.423	82.31
506.64	75.31
506.856	100.31
507.073	96.31
507.289	88.31
507.506	99.31
507.722	132.31
507.939	136.31
508.155	114.31
508.372	90.31
508.588	104.31
508.805	82.31
509.021	107.31
509.238	110.31
509.454	85.31
509.67	108.31
509.887	104.31
510.103	156.31
510.319	236.31
510.536	823.31
510.752	2986.31
510.968	788.31
511.184	172.31
511.401	119.31
511.617	109.31
511.833	129.31
512.049	102.31
512.265	92.31
512.481	101.31
512.698	95.31
512.914	97.31
513.13	101.31
513.346	91.31
513.562	92.31
