Data from Circ_1988_H10_HRD10591_00006.txt Node
Date: Wed Jan 03 12:05:36 EST 2024
User: Yrep
Spectrometer: HR+D1059
Trigger mode: 1
Integration Time (sec): 1.000000E-1
Scans to average: 1
Electric dark correction enabled: true
Nonlinearity correction enabled: false
Boxcar width: 0
XAxis mode: Wavelengths
Number of Pixels in Spectrum: 2048
>>>>>Begin Spectral Data<<<<<
223.165	-14.75
223.4	-14.75
223.635	-14.75
223.869	-16.75
224.104	-19.75
224.338	-20.75
224.573	-6.75
224.808	-6.75
225.042	2.25
225.277	-5.75
225.511	-8.75
225.746	5.25
225.98	1.25
226.215	16.25
226.449	3.25
226.683	21.25
226.918	28.25
227.152	22.25
227.387	41.25
227.621	26.25
227.856	40.25
228.09	40.25
228.324	50.25
228.559	52.25
228.793	53.25
229.027	63.25
229.262	67.25
229.496	74.25
229.73	104.25
229.964	100.25
230.199	71.25
230.433	81.25
230.667	87.25
230.901	84.25
231.136	90.25
231.37	72.25
231.604	75.25
231.838	85.25
232.072	72.25
232.306	81.25
232.541	86.25
232.775	82.25
233.009	72.25
233.243	85.25
233.477	81.25
233.711	84.25
233.945	83.25
234.179	80.25
234.413	71.25
234.647	82.25
234.881	87.25
235.115	84.25
235.349	78.25
235.583	78.25
235.817	80.25
236.051	83.25
236.285	75.25
236.519	95.25
236.753	86.25
236.987	80.25
237.221	96.25
237.455	89.25
237.689	64.25
237.922	83.25
238.156	78.25
238.39	84.25
238.624	79.25
238.858	98.25
239.091	81.25
239.325	92.25
239.559	83.25
239.793	81.25
240.027	79.25
240.26	80.25
240.494	80.25
240.728	81.25
240.961	82.25
241.195	87.25
241.429	84.25
241.662	93.25
241.896	77.25
242.13	82.25
242.363	81.25
242.597	79.25
242.83	80.25
243.064	84.25
243.298	86.25
243.531	79.25
243.765	99.25
243.998	86.25
244.232	94.25
244.465	86.25
244.699	68.25
244.932	89.25
245.166	90.25
245.399	82.25
245.633	81.25
245.866	77.25
246.099	86.25
246.333	88.25
246.566	80.25
246.8	82.25
247.033	82.25
247.266	91.25
247.5	92.25
247.733	94.25
247.966	112.25
248.2	86.25
248.433	93.25
248.666	73.25
248.899	89.25
249.133	91.25
249.366	107.25
249.599	116.25
249.832	81.25
250.066	83.25
250.299	89.25
250.532	85.25
250.765	92.25
250.998	76.25
251.231	79.25
251.465	88.25
251.698	99.25
251.931	106.25
252.164	98.25
252.397	85.25
252.63	86.25
252.863	67.25
253.096	91.25
253.329	76.25
253.562	85.25
253.795	89.25
254.028	77.25
254.261	71.25
254.494	79.25
254.727	79.25
254.96	82.25
255.193	80.25
255.426	81.25
255.659	91.25
255.892	100.25
256.124	105.25
256.357	89.25
256.59	84.25
256.823	94.25
257.056	89.25
257.289	105.25
257.521	88.25
257.754	94.25
257.987	88.25
258.22	117.25
258.452	129.25
258.685	123.25
258.918	92.25
259.151	91.25
259.383	100.25
259.616	104.25
259.849	79.25
260.081	90.25
260.314	97.25
260.547	90.25
260.779	115.25
261.012	159.25
261.244	155.25
261.477	135.25
261.71	101.25
261.942	148.25
262.175	155.25
262.407	112.25
262.64	94.25
262.872	84.25
263.105	84.25
263.337	86.25
263.57	93.25
263.802	93.25
264.035	78.25
264.267	75.25
264.499	91.25
264.732	89.25
264.964	89.25
265.197	87.25
265.429	88.25
265.661	83.25
265.894	75.25
266.126	79.25
266.358	87.25
266.591	89.25
266.823	83.25
267.055	88.25
267.287	89.25
267.52	88.25
267.752	80.25
267.984	101.25
268.216	91.25
268.448	95.25
268.681	81.25
268.913	86.25
269.145	78.25
269.377	84.25
269.609	87.25
269.841	88.25
270.073	83.25
270.306	84.25
270.538	66.25
270.77	83.25
271.002	78.25
271.234	86.25
271.466	118.25
271.698	95.25
271.93	93.25
272.162	102.25
272.394	91.25
272.626	89.25
272.858	102.25
273.09	85.25
273.322	94.25
273.553	83.25
273.785	96.25
274.017	88.25
274.249	104.25
274.481	97.25
274.713	96.25
274.945	97.25
275.176	111.25
275.408	115.25
275.64	157.25
275.872	181.25
276.104	139.25
276.335	119.25
276.567	147.25
276.799	209.25
277.031	280.25
277.262	400.25
277.494	279.25
277.726	141.25
277.957	108.25
278.189	104.25
278.421	97.25
278.652	109.25
278.884	110.25
279.115	93.25
279.347	110.25
279.579	136.25
279.81	224.25
280.042	374.25
280.273	576.25
280.505	348.25
280.736	167.25
280.968	117.25
281.199	88.25
281.431	92.25
281.662	116.25
281.894	90.25
282.125	117.25
282.356	127.25
282.588	181.25
282.819	136.25
283.051	100.25
283.282	90.25
283.513	105.25
283.745	84.25
283.976	83.25
284.207	96.25
284.439	82.25
284.67	84.25
284.901	99.25
285.132	93.25
285.364	88.25
285.595	84.25
285.826	87.25
286.057	99.25
286.288	90.25
286.52	86.25
286.751	84.25
286.982	94.25
287.213	77.25
287.444	99.25
287.675	95.25
287.906	88.25
288.138	86.25
288.369	97.25
288.6	101.25
288.831	103.25
289.062	112.25
289.293	88.25
289.524	95.25
289.755	106.25
289.986	89.25
290.217	97.25
290.448	77.25
290.679	95.25
290.91	84.25
291.141	86.25
291.371	84.25
291.602	80.25
291.833	87.25
292.064	97.25
292.295	89.25
292.526	92.25
292.757	92.25
292.987	99.25
293.218	96.25
293.449	87.25
293.68	97.25
293.91	103.25
294.141	86.25
294.372	91.25
294.603	89.25
294.833	95.25
295.064	83.25
295.295	103.25
295.525	90.25
295.756	109.25
295.987	135.25
296.217	174.25
296.448	128.25
296.679	104.25
296.909	88.25
297.14	91.25
297.37	90.25
297.601	102.25
297.831	83.25
298.062	91.25
298.292	102.25
298.523	93.25
298.753	94.25
298.984	83.25
299.214	92.25
299.445	95.25
299.675	93.25
299.905	97.25
300.136	102.25
300.366	89.25
300.597	93.25
300.827	95.25
301.057	102.25
301.288	125.25
301.518	120.25
301.748	118.25
301.979	142.25
302.209	126.25
302.439	97.25
302.669	104.25
302.9	105.25
303.13	104.25
303.36	133.25
303.59	197.25
303.82	196.25
304.051	128.25
304.281	102.25
304.511	81.25
304.741	85.25
304.971	85.25
305.201	97.25
305.431	104.25
305.661	97.25
305.891	99.25
306.121	97.25
306.352	120.25
306.582	115.25
306.812	141.25
307.042	191.25
307.272	273.25
307.502	291.25
307.731	270.25
307.961	175.25
308.191	103.25
308.421	85.25
308.651	103.25
308.881	96.25
309.111	103.25
309.341	104.25
309.571	115.25
309.8	99.25
310.03	103.25
310.26	104.25
310.49	114.25
310.72	109.25
310.949	118.25
311.179	110.25
311.409	102.25
311.639	102.25
311.868	102.25
312.098	104.25
312.328	88.25
312.557	106.25
312.787	125.25
313.017	103.25
313.246	106.25
313.476	108.25
313.706	116.25
313.935	83.25
314.165	111.25
314.394	120.25
314.624	104.25
314.853	120.25
315.083	91.25
315.312	97.25
315.542	89.25
315.771	88.25
316.001	89.25
316.23	94.25
316.46	89.25
316.689	95.25
316.919	102.25
317.148	112.25
317.377	99.25
317.607	97.25
317.836	100.25
318.065	100.25
318.295	109.25
318.524	94.25
318.753	102.25
318.983	109.25
319.212	103.25
319.441	124.25
319.67	116.25
319.9	103.25
320.129	100.25
320.358	86.25
320.587	104.25
320.816	106.25
321.046	114.25
321.275	109.25
321.504	102.25
321.733	91.25
321.962	89.25
322.191	110.25
322.42	104.25
322.649	126.25
322.878	111.25
323.108	131.25
323.337	141.25
323.566	145.25
323.795	170.25
324.024	232.25
324.253	454.25
324.482	975.25
324.71	1922.25
324.939	2615.25
325.168	983.25
325.397	291.25
325.626	173.25
325.855	131.25
326.084	141.25
326.313	171.25
326.542	183.25
326.77	259.25
326.999	463.25
327.228	943.25
327.457	1770.25
327.686	1524.25
327.914	696.25
328.143	948.25
328.372	1395.25
328.6	689.25
328.829	253.25
329.058	224.25
329.287	247.25
329.515	248.25
329.744	415.25
329.972	917.25
330.201	2044.25
330.43	3095.25
330.658	1243.25
330.887	413.25
331.115	243.25
331.344	148.25
331.572	139.25
331.801	150.25
332.03	141.25
332.258	133.25
332.486	111.25
332.715	132.25
332.943	134.25
333.172	149.25
333.4	175.25
333.629	205.25
333.857	359.25
334.085	776.25
334.314	1768.25
334.542	3680.25
334.771	3456.25
334.999	804.25
335.227	277.25
335.455	164.25
335.684	133.25
335.912	121.25
336.14	132.25
336.369	116.25
336.597	113.25
336.825	110.25
337.053	111.25
337.281	116.25
337.51	122.25
337.738	116.25
337.966	104.25
338.194	106.25
338.422	117.25
338.65	95.25
338.878	98.25
339.106	95.25
339.334	112.25
339.562	92.25
339.79	100.25
340.018	96.25
340.246	114.25
340.474	96.25
340.702	96.25
340.93	95.25
341.158	92.25
341.386	104.25
341.614	117.25
341.842	104.25
342.07	95.25
342.298	100.25
342.526	92.25
342.754	95.25
342.981	89.25
343.209	100.25
343.437	92.25
343.665	86.25
343.893	79.25
344.12	91.25
344.348	91.25
344.576	103.25
344.804	93.25
345.031	109.25
345.259	112.25
345.487	107.25
345.714	102.25
345.942	89.25
346.17	101.25
346.397	100.25
346.625	95.25
346.853	99.25
347.08	87.25
347.308	91.25
347.535	103.25
347.763	101.25
347.99	100.25
348.218	116.25
348.445	117.25
348.673	117.25
348.9	94.25
349.128	112.25
349.355	92.25
349.583	102.25
349.81	106.25
350.037	96.25
350.265	105.25
350.492	81.25
350.72	78.25
350.947	110.25
351.174	139.25
351.402	125.25
351.629	112.25
351.856	107.25
352.083	98.25
352.311	123.25
352.538	125.25
352.765	103.25
352.992	125.25
353.22	119.25
353.447	101.25
353.674	96.25
353.901	95.25
354.128	104.25
354.355	100.25
354.583	100.25
354.81	107.25
355.037	103.25
355.264	104.25
355.491	94.25
355.718	93.25
355.945	105.25
356.172	103.25
356.399	87.25
356.626	100.25
356.853	108.25
357.08	98.25
357.307	79.25
357.534	100.25
357.761	101.25
357.988	117.25
358.215	114.25
358.441	112.25
358.668	111.25
358.895	101.25
359.122	95.25
359.349	88.25
359.576	103.25
359.802	113.25
360.029	134.25
360.256	143.25
360.483	124.25
360.709	107.25
360.936	92.25
361.163	103.25
361.39	104.25
361.616	100.25
361.843	92.25
362.07	111.25
362.296	115.25
362.523	93.25
362.749	93.25
362.976	95.25
363.203	96.25
363.429	86.25
363.656	103.25
363.882	91.25
364.109	96.25
364.335	100.25
364.562	94.25
364.788	104.25
365.015	96.25
365.241	115.25
365.468	131.25
365.694	110.25
365.92	91.25
366.147	111.25
366.373	91.25
366.599	102.25
366.826	104.25
367.052	89.25
367.278	89.25
367.505	101.25
367.731	98.25
367.957	96.25
368.184	112.25
368.41	103.25
368.636	129.25
368.862	132.25
369.089	123.25
369.315	102.25
369.541	93.25
369.767	87.25
369.993	99.25
370.219	109.25
370.445	91.25
370.672	85.25
370.898	93.25
371.124	97.25
371.35	83.25
371.576	92.25
371.802	102.25
372.028	101.25
372.254	95.25
372.48	88.25
372.706	80.25
372.932	87.25
373.158	86.25
373.384	94.25
373.61	103.25
373.835	92.25
374.061	105.25
374.287	93.25
374.513	94.25
374.739	96.25
374.965	86.25
375.191	99.25
375.416	93.25
375.642	100.25
375.868	100.25
376.094	87.25
376.319	92.25
376.545	95.25
376.771	84.25
376.997	108.25
377.222	93.25
377.448	112.25
377.674	111.25
377.899	88.25
378.125	94.25
378.35	94.25
378.576	103.25
378.802	116.25
379.027	114.25
379.253	101.25
379.478	91.25
379.704	102.25
379.929	104.25
380.155	118.25
380.38	105.25
380.606	118.25
380.831	111.25
381.057	123.25
381.282	115.25
381.507	127.25
381.733	128.25
381.958	113.25
382.184	127.25
382.409	139.25
382.634	130.25
382.86	115.25
383.085	136.25
383.31	143.25
383.535	132.25
383.761	143.25
383.986	122.25
384.211	139.25
384.436	127.25
384.662	135.25
384.887	159.25
385.112	165.25
385.337	169.25
385.562	163.25
385.787	165.25
386.013	179.25
386.238	177.25
386.463	166.25
386.688	142.25
386.913	167.25
387.138	169.25
387.363	154.25
387.588	146.25
387.813	132.25
388.038	171.25
388.263	196.25
388.488	191.25
388.713	97.25
388.938	96.25
389.163	96.25
389.387	108.25
389.612	87.25
389.837	95.25
390.062	85.25
390.287	97.25
390.512	83.25
390.736	79.25
390.961	85.25
391.186	92.25
391.411	103.25
391.636	86.25
391.86	89.25
392.085	91.25
392.31	85.25
392.534	76.25
392.759	85.25
392.984	91.25
393.208	96.25
393.433	123.25
393.658	108.25
393.882	78.25
394.107	85.25
394.331	98.25
394.556	74.25
394.78	84.25
395.005	92.25
395.229	89.25
395.454	86.25
395.678	100.25
395.903	79.25
396.127	85.25
396.352	89.25
396.576	92.25
396.801	98.25
397.025	101.25
397.249	93.25
397.474	71.25
397.698	87.25
397.922	82.25
398.147	85.25
398.371	76.25
398.595	80.25
398.82	92.25
399.044	82.25
399.268	93.25
399.492	81.25
399.717	84.25
399.941	91.25
400.165	92.25
400.389	104.25
400.613	87.25
400.837	87.25
401.062	89.25
401.286	95.25
401.51	87.25
401.734	89.25
401.958	115.25
402.182	133.25
402.406	194.25
402.63	149.25
402.854	104.25
403.078	88.25
403.302	91.25
403.526	101.25
403.75	94.25
403.974	83.25
404.198	84.25
404.422	93.25
404.645	95.25
404.869	95.25
405.093	118.25
405.317	168.25
405.541	157.25
405.765	126.25
405.988	155.25
406.212	230.25
406.436	323.25
406.66	216.25
406.883	131.25
407.107	109.25
407.331	113.25
407.555	110.25
407.778	127.25
408.002	101.25
408.226	106.25
408.449	77.25
408.673	101.25
408.896	93.25
409.12	107.25
409.344	102.25
409.567	89.25
409.791	97.25
410.014	99.25
410.238	78.25
410.461	85.25
410.685	105.25
410.908	102.25
411.132	108.25
411.355	105.25
411.578	95.25
411.802	100.25
412.025	91.25
412.249	100.25
412.472	119.25
412.695	133.25
412.919	89.25
413.142	102.25
413.365	91.25
413.589	84.25
413.812	94.25
414.035	115.25
414.258	98.25
414.482	109.25
414.705	98.25
414.928	102.25
415.151	98.25
415.374	100.25
415.597	110.25
415.821	94.25
416.044	110.25
416.267	81.25
416.49	98.25
416.713	81.25
416.936	101.25
417.159	105.25
417.382	113.25
417.605	132.25
417.828	128.25
418.051	115.25
418.274	93.25
418.497	87.25
418.72	85.25
418.943	90.25
419.166	84.25
419.389	89.25
419.611	104.25
419.834	108.25
420.057	91.25
420.28	100.25
420.503	94.25
420.726	92.25
420.948	87.25
421.171	111.25
421.394	111.25
421.617	95.25
421.839	87.25
422.062	92.25
422.285	89.25
422.507	107.25
422.73	125.25
422.953	115.25
423.175	104.25
423.398	83.25
423.621	99.25
423.843	93.25
424.066	98.25
424.288	86.25
424.511	95.25
424.733	106.25
424.956	116.25
425.178	102.25
425.401	111.25
425.623	94.25
425.846	101.25
426.068	94.25
426.291	83.25
426.513	96.25
426.735	110.25
426.958	105.25
427.18	116.25
427.402	192.25
427.625	256.25
427.847	269.25
428.069	212.25
428.292	146.25
428.514	115.25
428.736	105.25
428.958	87.25
429.181	95.25
429.403	101.25
429.625	94.25
429.847	97.25
430.069	112.25
430.292	95.25
430.514	91.25
430.736	96.25
430.958	97.25
431.18	81.25
431.402	88.25
431.624	87.25
431.846	87.25
432.068	88.25
432.29	101.25
432.512	81.25
432.734	97.25
432.956	95.25
433.178	94.25
433.4	98.25
433.622	98.25
433.844	97.25
434.066	97.25
434.287	100.25
434.509	89.25
434.731	86.25
434.953	95.25
435.175	99.25
435.397	72.25
435.618	101.25
435.84	108.25
436.062	132.25
436.284	129.25
436.505	94.25
436.727	102.25
436.949	96.25
437.17	100.25
437.392	92.25
437.614	92.25
437.835	138.25
438.057	144.25
438.278	124.25
438.5	112.25
438.721	139.25
438.943	106.25
439.165	101.25
439.386	80.25
439.608	102.25
439.829	109.25
440.05	143.25
440.272	185.25
440.493	112.25
440.715	79.25
440.936	95.25
441.158	83.25
441.379	103.25
441.6	109.25
441.822	105.25
442.043	117.25
442.264	121.25
442.486	110.25
442.707	102.25
442.928	125.25
443.149	174.25
443.371	164.25
443.592	142.25
443.813	131.25
444.034	127.25
444.255	93.25
444.476	91.25
444.698	88.25
444.919	84.25
445.14	143.25
445.361	129.25
445.582	129.25
445.803	186.25
446.024	172.25
446.245	155.25
446.466	127.25
446.687	101.25
446.908	89.25
447.129	94.25
447.35	77.25
447.571	91.25
447.792	105.25
448.013	108.25
448.234	118.25
448.455	113.25
448.675	134.25
448.896	123.25
449.117	103.25
449.338	117.25
449.559	130.25
449.779	122.25
450	91.25
450.221	87.25
450.442	86.25
450.662	111.25
450.883	129.25
451.104	139.25
451.324	103.25
451.545	106.25
451.766	86.25
451.986	100.25
452.207	89.25
452.428	96.25
452.648	100.25
452.869	123.25
453.089	128.25
453.31	151.25
453.53	104.25
453.751	96.25
453.971	118.25
454.192	154.25
454.412	88.25
454.633	98.25
454.853	79.25
455.073	84.25
455.294	97.25
455.514	105.25
455.734	90.25
455.955	86.25
456.175	79.25
456.395	71.25
456.616	77.25
456.836	92.25
457.056	85.25
457.276	76.25
457.497	71.25
457.717	87.25
457.937	93.25
458.157	83.25
458.377	98.25
458.598	129.25
458.818	203.25
459.038	230.25
459.258	163.25
459.478	112.25
459.698	95.25
459.918	97.25
460.138	93.25
460.358	88.25
460.578	83.25
460.798	84.25
461.018	93.25
461.238	109.25
461.458	94.25
461.678	82.25
461.898	92.25
462.118	88.25
462.338	101.25
462.558	83.25
462.777	92.25
462.997	127.25
463.217	136.25
463.437	116.25
463.657	98.25
463.876	100.25
464.096	115.25
464.316	116.25
464.536	94.25
464.755	89.25
464.975	144.25
465.195	240.25
465.414	264.25
465.634	117.25
465.854	109.25
466.073	77.25
466.293	84.25
466.512	110.25
466.732	100.25
466.951	94.25
467.171	119.25
467.391	145.25
467.61	207.25
467.829	385.25
468.049	1378.25
468.268	2189.25
468.488	454.25
468.707	155.25
468.927	113.25
469.146	97.25
469.365	97.25
469.585	109.25
469.804	125.25
470.023	129.25
470.243	108.25
470.462	126.25
470.681	149.25
470.901	113.25
471.12	124.25
471.339	130.25
471.558	161.25
471.777	246.25
471.997	564.25
472.216	2436.25
472.435	5805.25
472.654	1167.25
472.873	267.25
473.092	159.25
473.311	105.25
473.53	108.25
473.749	97.25
473.968	109.25
474.187	130.25
474.406	107.25
474.625	93.25
474.844	93.25
475.063	89.25
475.282	93.25
475.501	93.25
475.72	109.25
475.939	96.25
476.158	104.25
476.377	104.25
476.596	100.25
476.814	96.25
477.033	109.25
477.252	100.25
477.471	105.25
477.69	104.25
477.908	102.25
478.127	91.25
478.346	115.25
478.564	107.25
478.783	128.25
479.002	127.25
479.22	135.25
479.439	133.25
479.658	164.25
479.876	159.25
480.095	149.25
480.313	169.25
480.532	233.25
480.751	491.25
480.969	2027.25
481.188	9109.25
481.406	5223.25
481.624	679.25
481.843	210.25
482.061	145.25
482.28	132.25
482.498	108.25
482.717	103.25
482.935	97.25
483.153	105.25
483.372	109.25
483.59	100.25
483.808	100.25
484.027	103.25
484.245	85.25
484.463	107.25
484.681	111.25
484.9	109.25
485.118	108.25
485.336	103.25
485.554	111.25
485.772	116.25
485.99	106.25
486.209	125.25
486.427	121.25
486.645	128.25
486.863	143.25
487.081	110.25
487.299	101.25
487.517	101.25
487.735	101.25
487.953	104.25
488.171	96.25
488.389	103.25
488.607	110.25
488.825	118.25
489.043	68.25
489.261	95.25
489.479	102.25
489.696	96.25
489.914	94.25
490.132	101.25
490.35	86.25
490.568	103.25
490.786	92.25
491.003	99.25
491.221	95.25
491.439	102.25
491.657	94.25
491.874	87.25
492.092	99.25
492.31	98.25
492.527	109.25
492.745	94.25
492.963	97.25
493.18	100.25
493.398	103.25
493.615	105.25
493.833	83.25
494.05	80.25
494.268	101.25
494.485	92.25
494.703	110.25
494.92	107.25
495.138	103.25
495.355	81.25
495.573	87.25
495.79	102.25
496.008	105.25
496.225	96.25
496.442	105.25
496.66	97.25
496.877	88.25
497.094	98.25
497.312	88.25
497.529	97.25
497.746	87.25
497.963	85.25
498.181	85.25
498.398	111.25
498.615	130.25
498.832	117.25
499.049	83.25
499.267	83.25
499.484	84.25
499.701	100.25
499.918	107.25
500.135	88.25
500.352	85.25
500.569	101.25
500.786	107.25
501.003	109.25
501.22	104.25
501.437	93.25
501.654	91.25
501.871	118.25
502.088	104.25
502.305	98.25
502.522	93.25
502.739	73.25
502.956	95.25
503.172	102.25
503.389	121.25
503.606	143.25
503.823	100.25
504.04	96.25
504.256	100.25
504.473	87.25
504.69	79.25
504.907	97.25
505.123	112.25
505.34	100.25
505.557	91.25
505.773	81.25
505.99	95.25
506.207	95.25
506.423	105.25
506.64	105.25
506.856	92.25
507.073	100.25
507.289	101.25
507.506	101.25
507.722	143.25
507.939	135.25
508.155	93.25
508.372	102.25
508.588	110.25
508.805	85.25
509.021	106.25
509.238	101.25
509.454	103.25
509.67	102.25
509.887	110.25
510.103	167.25
510.319	260.25
510.536	1046.25
510.752	3776.25
