Data from Circ_1988_H10_HRD10591_00014.txt Node
Date: Wed Jan 03 12:05:37 EST 2024
User: Yrep
Spectrometer: HR+D1059
Trigger mode: 1
Integration Time (sec): 1.000000E-1
Scans to average: 1
Electric dark correction enabled: true
Nonlinearity correction enabled: false
Boxcar width: 0
XAxis mode: Wavelengths
Number of Pixels in Spectrum: 2048
>>>>>Begin Spectral Data<<<<<
223.165	-6.5
223.4	-6.5
223.635	-6.5
223.869	-18.5
224.104	-14.5
224.338	-16.5
224.573	-13.5
224.808	-8.5
225.042	1.5
225.277	-5.5
225.511	-8.5
225.746	9.5
225.98	1.5
226.215	2.5
226.449	11.5
226.683	15.5
226.918	25.5
227.152	24.5
227.387	32.5
227.621	48.5
227.856	41.5
228.09	35.5
228.324	62.5
228.559	58.5
228.793	49.5
229.027	57.5
229.262	69.5
229.496	63.5
229.73	108.5
229.964	88.5
230.199	65.5
230.433	78.5
230.667	92.5
230.901	76.5
231.136	85.5
231.37	71.5
231.604	80.5
231.838	91.5
232.072	75.5
232.306	81.5
232.541	70.5
232.775	74.5
233.009	82.5
233.243	77.5
233.477	88.5
233.711	73.5
233.945	69.5
234.179	72.5
234.413	84.5
234.647	71.5
234.881	79.5
235.115	83.5
235.349	82.5
235.583	84.5
235.817	78.5
236.051	82.5
236.285	74.5
236.519	83.5
236.753	81.5
236.987	96.5
237.221	95.5
237.455	91.5
237.689	95.5
237.922	91.5
238.156	80.5
238.39	80.5
238.624	89.5
238.858	81.5
239.091	88.5
239.325	84.5
239.559	86.5
239.793	81.5
240.027	76.5
240.26	99.5
240.494	91.5
240.728	68.5
240.961	77.5
241.195	78.5
241.429	70.5
241.662	76.5
241.896	72.5
242.13	71.5
242.363	80.5
242.597	72.5
242.83	80.5
243.064	73.5
243.298	70.5
243.531	79.5
243.765	73.5
243.998	89.5
244.232	95.5
244.465	92.5
244.699	72.5
244.932	92.5
245.166	81.5
245.399	73.5
245.633	84.5
245.866	88.5
246.099	73.5
246.333	93.5
246.566	97.5
246.8	73.5
247.033	76.5
247.266	88.5
247.5	92.5
247.733	89.5
247.966	79.5
248.2	85.5
248.433	92.5
248.666	80.5
248.899	68.5
249.133	90.5
249.366	102.5
249.599	114.5
249.832	91.5
250.066	78.5
250.299	77.5
250.532	81.5
250.765	93.5
250.998	95.5
251.231	79.5
251.465	88.5
251.698	101.5
251.931	90.5
252.164	95.5
252.397	88.5
252.63	80.5
252.863	80.5
253.096	88.5
253.329	97.5
253.562	82.5
253.795	89.5
254.028	78.5
254.261	91.5
254.494	89.5
254.727	91.5
254.96	76.5
255.193	83.5
255.426	100.5
255.659	102.5
255.892	103.5
256.124	103.5
256.357	106.5
256.59	76.5
256.823	80.5
257.056	108.5
257.289	107.5
257.521	105.5
257.754	71.5
257.987	87.5
258.22	118.5
258.452	118.5
258.685	109.5
258.918	105.5
259.151	90.5
259.383	81.5
259.616	89.5
259.849	98.5
260.081	85.5
260.314	86.5
260.547	91.5
260.779	97.5
261.012	140.5
261.244	151.5
261.477	101.5
261.71	98.5
261.942	135.5
262.175	125.5
262.407	106.5
262.64	89.5
262.872	87.5
263.105	94.5
263.337	86.5
263.57	99.5
263.802	76.5
264.035	94.5
264.267	95.5
264.499	87.5
264.732	86.5
264.964	65.5
265.197	71.5
265.429	94.5
265.661	69.5
265.894	93.5
266.126	92.5
266.358	70.5
266.591	82.5
266.823	90.5
267.055	84.5
267.287	100.5
267.52	85.5
267.752	74.5
267.984	82.5
268.216	78.5
268.448	95.5
268.681	81.5
268.913	83.5
269.145	101.5
269.377	78.5
269.609	70.5
269.841	84.5
270.073	80.5
270.306	83.5
270.538	89.5
270.77	85.5
271.002	97.5
271.234	92.5
271.466	111.5
271.698	83.5
271.93	95.5
272.162	85.5
272.394	97.5
272.626	89.5
272.858	84.5
273.09	82.5
273.322	101.5
273.553	105.5
273.785	81.5
274.017	80.5
274.249	97.5
274.481	94.5
274.713	87.5
274.945	93.5
275.176	117.5
275.408	133.5
275.64	154.5
275.872	176.5
276.104	151.5
276.335	116.5
276.567	130.5
276.799	184.5
277.031	252.5
277.262	341.5
277.494	220.5
277.726	132.5
277.957	112.5
278.189	102.5
278.421	90.5
278.652	105.5
278.884	100.5
279.115	98.5
279.347	98.5
279.579	109.5
279.81	194.5
280.042	352.5
280.273	510.5
280.505	299.5
280.736	146.5
280.968	94.5
281.199	100.5
281.431	99.5
281.662	87.5
281.894	95.5
282.125	111.5
282.356	119.5
282.588	181.5
282.819	131.5
283.051	92.5
283.282	74.5
283.513	99.5
283.745	86.5
283.976	98.5
284.207	97.5
284.439	94.5
284.67	87.5
284.901	90.5
285.132	92.5
285.364	104.5
285.595	73.5
285.826	83.5
286.057	92.5
286.288	90.5
286.52	83.5
286.751	93.5
286.982	89.5
287.213	100.5
287.444	106.5
287.675	96.5
287.906	103.5
288.138	93.5
288.369	86.5
288.6	111.5
288.831	74.5
289.062	107.5
289.293	93.5
289.524	84.5
289.755	89.5
289.986	85.5
290.217	100.5
290.448	91.5
290.679	94.5
290.91	88.5
291.141	88.5
291.371	81.5
291.602	79.5
291.833	85.5
292.064	86.5
292.295	80.5
292.526	101.5
292.757	92.5
292.987	92.5
293.218	81.5
293.449	96.5
293.68	102.5
293.91	96.5
294.141	97.5
294.372	94.5
294.603	87.5
294.833	98.5
295.064	93.5
295.295	99.5
295.525	90.5
295.756	105.5
295.987	118.5
296.217	174.5
296.448	154.5
296.679	100.5
296.909	96.5
297.14	95.5
297.37	100.5
297.601	98.5
297.831	83.5
298.062	90.5
298.292	110.5
298.523	92.5
298.753	95.5
298.984	97.5
299.214	95.5
299.445	101.5
299.675	94.5
299.905	121.5
300.136	101.5
300.366	105.5
300.597	105.5
300.827	100.5
301.057	103.5
301.288	124.5
301.518	107.5
301.748	96.5
301.979	134.5
302.209	124.5
302.439	100.5
302.669	81.5
302.9	103.5
303.13	105.5
303.36	145.5
303.59	179.5
303.82	194.5
304.051	129.5
304.281	90.5
304.511	100.5
304.741	94.5
304.971	102.5
305.201	85.5
305.431	100.5
305.661	85.5
305.891	82.5
306.121	101.5
306.352	105.5
306.582	126.5
306.812	130.5
307.042	168.5
307.272	244.5
307.502	290.5
307.731	268.5
307.961	173.5
308.191	98.5
308.421	98.5
308.651	108.5
308.881	108.5
309.111	121.5
309.341	89.5
309.571	106.5
309.8	102.5
310.03	108.5
310.26	120.5
310.49	109.5
310.72	110.5
310.949	129.5
311.179	114.5
311.409	112.5
311.639	105.5
311.868	101.5
312.098	112.5
312.328	116.5
312.557	114.5
312.787	127.5
313.017	126.5
313.246	93.5
313.476	94.5
313.706	93.5
313.935	99.5
314.165	113.5
314.394	127.5
314.624	128.5
314.853	101.5
315.083	97.5
315.312	85.5
315.542	93.5
315.771	105.5
316.001	102.5
316.23	98.5
316.46	94.5
316.689	99.5
316.919	83.5
317.148	101.5
317.377	96.5
317.607	105.5
317.836	85.5
318.065	95.5
318.295	112.5
318.524	102.5
318.753	96.5
318.983	102.5
319.212	107.5
319.441	123.5
319.67	123.5
319.9	98.5
320.129	100.5
320.358	90.5
320.587	117.5
320.816	111.5
321.046	110.5
321.275	87.5
321.504	111.5
321.733	98.5
321.962	102.5
322.191	110.5
322.42	114.5
322.649	118.5
322.878	130.5
323.108	129.5
323.337	132.5
323.566	160.5
323.795	144.5
324.024	211.5
324.253	391.5
324.482	823.5
324.71	1640.5
324.939	2201.5
325.168	856.5
325.397	258.5
325.626	168.5
325.855	151.5
326.084	150.5
326.313	161.5
326.542	159.5
326.77	232.5
326.999	439.5
327.228	826.5
327.457	1477.5
327.686	1293.5
327.914	623.5
328.143	860.5
328.372	1228.5
328.6	609.5
328.829	248.5
329.058	230.5
329.287	225.5
329.515	228.5
329.744	380.5
329.972	806.5
330.201	1775.5
330.43	2726.5
330.658	1113.5
330.887	378.5
331.115	234.5
331.344	151.5
331.572	161.5
331.801	127.5
332.03	131.5
332.258	135.5
332.486	130.5
332.715	116.5
332.943	141.5
333.172	157.5
333.4	159.5
333.629	201.5
333.857	344.5
334.085	677.5
334.314	1551.5
334.542	3192.5
334.771	3049.5
334.999	744.5
335.227	252.5
335.455	149.5
335.684	142.5
335.912	125.5
336.14	112.5
336.369	110.5
336.597	119.5
336.825	121.5
337.053	104.5
337.281	100.5
337.51	95.5
337.738	85.5
337.966	107.5
338.194	128.5
338.422	107.5
338.65	104.5
338.878	94.5
339.106	99.5
339.334	102.5
339.562	99.5
339.79	94.5
340.018	102.5
340.246	105.5
340.474	102.5
340.702	110.5
340.93	82.5
341.158	86.5
341.386	109.5
341.614	109.5
341.842	87.5
342.07	95.5
342.298	100.5
342.526	95.5
342.754	108.5
342.981	101.5
343.209	99.5
343.437	92.5
343.665	88.5
343.893	79.5
344.12	86.5
344.348	107.5
344.576	104.5
344.804	109.5
345.031	110.5
345.259	96.5
345.487	108.5
345.714	93.5
345.942	95.5
346.17	102.5
346.397	92.5
346.625	108.5
346.853	98.5
347.08	94.5
347.308	93.5
347.535	110.5
347.763	105.5
347.99	100.5
348.218	132.5
348.445	104.5
348.673	117.5
348.9	93.5
349.128	82.5
349.355	94.5
349.583	97.5
349.81	85.5
350.037	94.5
350.265	89.5
350.492	107.5
350.72	104.5
350.947	118.5
351.174	117.5
351.402	119.5
351.629	115.5
351.856	117.5
352.083	106.5
352.311	111.5
352.538	116.5
352.765	128.5
352.992	122.5
353.22	113.5
353.447	108.5
353.674	116.5
353.901	113.5
354.128	98.5
354.355	97.5
354.583	95.5
354.81	101.5
355.037	91.5
355.264	103.5
355.491	92.5
355.718	80.5
355.945	104.5
356.172	97.5
356.399	89.5
356.626	99.5
356.853	94.5
357.08	82.5
357.307	94.5
357.534	110.5
357.761	102.5
357.988	97.5
358.215	118.5
358.441	104.5
358.668	110.5
358.895	113.5
359.122	112.5
359.349	101.5
359.576	100.5
359.802	104.5
360.029	132.5
360.256	150.5
360.483	104.5
360.709	104.5
360.936	95.5
361.163	104.5
361.39	107.5
361.616	107.5
361.843	110.5
362.07	95.5
362.296	98.5
362.523	102.5
362.749	96.5
362.976	102.5
363.203	104.5
363.429	94.5
363.656	92.5
363.882	89.5
364.109	91.5
364.335	108.5
364.562	99.5
364.788	80.5
365.015	97.5
365.241	106.5
365.468	109.5
365.694	117.5
365.92	99.5
366.147	106.5
366.373	96.5
366.599	87.5
366.826	95.5
367.052	100.5
367.278	108.5
367.505	86.5
367.731	111.5
367.957	108.5
368.184	108.5
368.41	111.5
368.636	139.5
368.862	128.5
369.089	116.5
369.315	106.5
369.541	96.5
369.767	102.5
369.993	95.5
370.219	99.5
370.445	94.5
370.672	99.5
370.898	82.5
371.124	92.5
371.35	93.5
371.576	90.5
371.802	85.5
372.028	88.5
372.254	88.5
372.48	96.5
372.706	96.5
372.932	92.5
373.158	86.5
373.384	93.5
373.61	79.5
373.835	96.5
374.061	85.5
374.287	93.5
374.513	89.5
374.739	81.5
374.965	106.5
375.191	85.5
375.416	73.5
375.642	81.5
375.868	107.5
376.094	97.5
376.319	80.5
376.545	99.5
376.771	101.5
376.997	104.5
377.222	90.5
377.448	95.5
377.674	94.5
377.899	96.5
378.125	101.5
378.35	104.5
378.576	106.5
378.802	99.5
379.027	107.5
379.253	104.5
379.478	105.5
379.704	112.5
379.929	105.5
380.155	122.5
380.38	124.5
380.606	104.5
380.831	110.5
381.057	121.5
381.282	125.5
381.507	121.5
381.733	124.5
381.958	108.5
382.184	117.5
382.409	134.5
382.634	109.5
382.86	121.5
383.085	128.5
383.31	127.5
383.535	134.5
383.761	133.5
383.986	120.5
384.211	122.5
384.436	136.5
384.662	130.5
384.887	147.5
385.112	146.5
385.337	166.5
385.562	168.5
385.787	158.5
386.013	156.5
386.238	166.5
386.463	164.5
386.688	153.5
386.913	148.5
387.138	162.5
387.363	154.5
387.588	119.5
387.813	133.5
388.038	147.5
388.263	166.5
388.488	182.5
388.713	100.5
388.938	96.5
389.163	100.5
389.387	103.5
389.612	87.5
389.837	92.5
390.062	90.5
390.287	81.5
390.512	88.5
390.736	92.5
390.961	98.5
391.186	84.5
391.411	84.5
391.636	88.5
391.86	90.5
392.085	90.5
392.31	99.5
392.534	92.5
392.759	79.5
392.984	89.5
393.208	96.5
393.433	116.5
393.658	99.5
393.882	88.5
394.107	81.5
394.331	88.5
394.556	92.5
394.78	88.5
395.005	80.5
395.229	81.5
395.454	79.5
395.678	97.5
395.903	91.5
396.127	86.5
396.352	92.5
396.576	98.5
396.801	97.5
397.025	103.5
397.249	90.5
397.474	95.5
397.698	92.5
397.922	88.5
398.147	102.5
398.371	89.5
398.595	98.5
398.82	81.5
399.044	87.5
399.268	99.5
399.492	78.5
399.717	90.5
399.941	88.5
400.165	93.5
400.389	90.5
400.613	93.5
400.837	100.5
401.062	84.5
401.286	99.5
401.51	86.5
401.734	102.5
401.958	112.5
402.182	148.5
402.406	220.5
402.63	159.5
402.854	106.5
403.078	94.5
403.302	89.5
403.526	78.5
403.75	88.5
403.974	85.5
404.198	87.5
404.422	92.5
404.645	101.5
404.869	98.5
405.093	108.5
405.317	135.5
405.541	137.5
405.765	135.5
405.988	139.5
406.212	199.5
406.436	310.5
406.66	216.5
406.883	118.5
407.107	103.5
407.331	111.5
407.555	117.5
407.778	113.5
408.002	99.5
408.226	102.5
408.449	94.5
408.673	94.5
408.896	86.5
409.12	86.5
409.344	82.5
409.567	97.5
409.791	108.5
410.014	103.5
410.238	99.5
410.461	92.5
410.685	110.5
410.908	108.5
411.132	96.5
411.355	104.5
411.578	102.5
411.802	92.5
412.025	80.5
412.249	104.5
412.472	129.5
412.695	142.5
412.919	133.5
413.142	93.5
413.365	94.5
413.589	89.5
413.812	106.5
414.035	99.5
414.258	101.5
414.482	103.5
414.705	92.5
414.928	85.5
415.151	100.5
415.374	97.5
415.597	100.5
415.821	98.5
416.044	102.5
416.267	97.5
416.49	115.5
416.713	92.5
416.936	111.5
417.159	97.5
417.382	122.5
417.605	119.5
417.828	134.5
418.051	118.5
418.274	100.5
418.497	92.5
418.72	100.5
418.943	97.5
419.166	98.5
419.389	93.5
419.611	112.5
419.834	90.5
420.057	106.5
420.28	87.5
420.503	104.5
420.726	86.5
420.948	80.5
421.171	88.5
421.394	89.5
421.617	83.5
421.839	98.5
422.062	84.5
422.285	101.5
422.507	108.5
422.73	128.5
422.953	100.5
423.175	97.5
423.398	99.5
423.621	94.5
423.843	90.5
424.066	96.5
424.288	96.5
424.511	100.5
424.733	89.5
424.956	113.5
425.178	101.5
425.401	103.5
425.623	106.5
425.846	107.5
426.068	97.5
426.291	122.5
426.513	91.5
426.735	92.5
426.958	114.5
427.18	115.5
427.402	164.5
427.625	253.5
427.847	244.5
428.069	200.5
428.292	148.5
428.514	108.5
428.736	105.5
428.958	95.5
429.181	88.5
429.403	95.5
429.625	112.5
429.847	100.5
430.069	119.5
430.292	100.5
430.514	73.5
430.736	81.5
430.958	108.5
431.18	80.5
431.402	96.5
431.624	86.5
431.846	89.5
432.068	74.5
432.29	77.5
432.512	87.5
432.734	84.5
432.956	82.5
433.178	100.5
433.4	92.5
433.622	100.5
433.844	85.5
434.066	86.5
434.287	93.5
434.509	88.5
434.731	80.5
434.953	97.5
435.175	78.5
435.397	103.5
435.618	88.5
435.84	100.5
436.062	137.5
436.284	120.5
436.505	97.5
436.727	91.5
436.949	92.5
437.17	89.5
437.392	78.5
437.614	105.5
437.835	111.5
438.057	153.5
438.278	120.5
438.5	105.5
438.721	129.5
438.943	84.5
439.165	92.5
439.386	88.5
439.608	95.5
439.829	113.5
440.05	128.5
440.272	164.5
440.493	116.5
440.715	68.5
440.936	83.5
441.158	90.5
441.379	92.5
441.6	103.5
441.822	101.5
442.043	97.5
442.264	106.5
442.486	91.5
442.707	101.5
442.928	126.5
443.149	168.5
443.371	172.5
443.592	144.5
443.813	122.5
444.034	110.5
444.255	92.5
444.476	97.5
444.698	78.5
444.919	88.5
445.14	137.5
445.361	121.5
445.582	102.5
445.803	154.5
446.024	160.5
446.245	133.5
446.466	116.5
446.687	80.5
446.908	84.5
447.129	96.5
447.35	80.5
447.571	93.5
447.792	103.5
448.013	104.5
448.234	126.5
448.455	103.5
448.675	111.5
448.896	121.5
449.117	96.5
449.338	114.5
449.559	127.5
449.779	148.5
450	88.5
450.221	88.5
450.442	101.5
450.662	105.5
450.883	122.5
451.104	152.5
451.324	110.5
451.545	98.5
451.766	96.5
451.986	88.5
452.207	91.5
452.428	98.5
452.648	102.5
452.869	126.5
453.089	142.5
453.31	149.5
453.53	97.5
453.751	109.5
453.971	125.5
454.192	142.5
454.412	108.5
454.633	90.5
454.853	94.5
455.073	103.5
455.294	101.5
455.514	104.5
455.734	88.5
455.955	84.5
456.175	93.5
456.395	96.5
456.616	80.5
456.836	88.5
457.056	92.5
457.276	103.5
457.497	92.5
457.717	88.5
457.937	94.5
458.157	95.5
458.377	106.5
458.598	108.5
458.818	192.5
459.038	215.5
459.258	148.5
459.478	99.5
459.698	82.5
459.918	86.5
460.138	70.5
460.358	92.5
460.578	92.5
460.798	99.5
461.018	103.5
461.238	97.5
461.458	101.5
461.678	112.5
461.898	94.5
462.118	97.5
462.338	95.5
462.558	97.5
462.777	101.5
462.997	117.5
463.217	162.5
463.437	128.5
463.657	102.5
463.876	93.5
464.096	100.5
464.316	115.5
464.536	110.5
464.755	105.5
464.975	131.5
465.195	244.5
465.414	247.5
465.634	117.5
465.854	108.5
466.073	98.5
466.293	84.5
466.512	101.5
466.732	107.5
466.951	97.5
467.171	110.5
467.391	137.5
467.61	193.5
467.829	345.5
468.049	1244.5
468.268	1982.5
468.488	402.5
468.707	135.5
468.927	127.5
469.146	107.5
469.365	110.5
469.585	81.5
469.804	116.5
470.023	118.5
470.243	104.5
470.462	135.5
470.681	154.5
470.901	96.5
471.12	108.5
471.339	129.5
471.558	152.5
471.777	223.5
471.997	516.5
472.216	2166.5
472.435	5230.5
472.654	1104.5
472.873	240.5
473.092	142.5
473.311	102.5
473.53	102.5
473.749	101.5
473.968	106.5
474.187	103.5
474.406	103.5
474.625	85.5
474.844	80.5
475.063	81.5
475.282	82.5
475.501	82.5
475.72	100.5
475.939	100.5
476.158	91.5
476.377	95.5
476.596	111.5
476.814	106.5
477.033	102.5
477.252	102.5
477.471	97.5
477.69	103.5
477.908	112.5
478.127	101.5
478.346	112.5
478.564	109.5
478.783	125.5
479.002	118.5
479.22	128.5
479.439	133.5
479.658	140.5
479.876	148.5
480.095	155.5
480.313	167.5
480.532	228.5
480.751	454.5
480.969	1804.5
481.188	8164.5
481.406	4638.5
481.624	580.5
481.843	190.5
482.061	137.5
482.28	106.5
482.498	113.5
482.717	92.5
482.935	104.5
483.153	94.5
483.372	106.5
483.59	102.5
483.808	91.5
484.027	114.5
484.245	94.5
484.463	105.5
484.681	99.5
484.9	96.5
485.118	96.5
485.336	108.5
485.554	111.5
485.772	118.5
485.99	113.5
486.209	106.5
486.427	132.5
486.645	134.5
486.863	125.5
487.081	107.5
487.299	107.5
487.517	110.5
487.735	109.5
487.953	88.5
488.171	93.5
488.389	108.5
488.607	99.5
488.825	100.5
489.043	87.5
489.261	90.5
489.479	92.5
489.696	87.5
489.914	98.5
490.132	82.5
490.35	78.5
490.568	86.5
490.786	97.5
491.003	95.5
491.221	88.5
491.439	104.5
491.657	112.5
491.874	91.5
492.092	88.5
492.31	95.5
492.527	101.5
492.745	121.5
492.963	91.5
493.18	94.5
493.398	85.5
493.615	108.5
493.833	93.5
494.05	90.5
494.268	89.5
494.485	91.5
494.703	87.5
494.92	93.5
495.138	93.5
495.355	99.5
495.573	100.5
495.79	100.5
496.008	108.5
496.225	100.5
496.442	94.5
496.66	88.5
496.877	85.5
497.094	90.5
497.312	93.5
497.529	97.5
497.746	105.5
497.963	95.5
498.181	105.5
498.398	105.5
498.615	116.5
498.832	106.5
499.049	86.5
499.267	88.5
499.484	91.5
499.701	104.5
499.918	108.5
500.135	91.5
500.352	97.5
500.569	84.5
500.786	105.5
501.003	87.5
501.22	98.5
501.437	84.5
501.654	112.5
501.871	147.5
502.088	105.5
502.305	91.5
502.522	102.5
502.739	95.5
502.956	82.5
503.172	98.5
503.389	113.5
503.606	148.5
503.823	99.5
504.04	100.5
504.256	90.5
504.473	94.5
504.69	86.5
504.907	105.5
505.123	100.5
505.34	82.5
505.557	88.5
505.773	82.5
505.99	87.5
506.207	106.5
506.423	84.5
506.64	92.5
506.856	98.5
507.073	92.5
507.289	92.5
507.506	105.5
507.722	127.5
507.939	143.5
508.155	105.5
508.372	97.5
508.588	106.5
508.805	95.5
509.021	99.5
509.238	119.5
509.454	101.5
509.67	106.5
509.887	118.5
510.103	148.5
510.319	233.5
510.536	983.5
510.752	3688.5
510.968	976.5
511.184	193.5
511.401	126.5
511.617	121.5
511.833	125.5
512.049	117.5
512.265	89.5
512.481	108.5
512.698	103.5
512.914	88.5
513.13	96.5
513.346	94.5
513.562	96.5
513.778	94.5
513.994	120.5
514.21	124.5
514.426	150.5
514.642	176.5
514.858	167.5
515.074	235.5
515.29	753.5
515.506	2770.5
515.721	968.5
515.937	225.5
516.153	140.5
516.369	132.5
516.585	116.5
516.801	104.5
517.016	102.5
517.232	110.5
517.448	103.5
517.664	96.5
517.879	98.5
518.095	89.5
518.311	131.5
518.527	120.5
518.742	109.5
518.958	88.5
519.173	102.5
519.389	88.5
519.605	112.5
519.82	102.5
520.036	121.5
520.251	158.5
520.467	134.5
520.682	129.5
520.898	128.5
521.113	120.5
521.329	174.5
521.544	324.5
521.76	983.5
521.975	4646.5
522.19	2758.5
522.406	544.5
522.621	178.5
522.836	126.5
523.052	101.5
523.267	105.5
523.482	108.5
523.698	118.5
523.913	148.5
524.128	121.5
524.343	97.5
524.559	98.5
524.774	105.5
524.989	101.5
525.204	138.5
525.419	116.5
525.634	106.5
525.849	98.5
526.064	102.5
526.28	86.5
526.495	101.5
526.71	91.5
526.925	91.5
527.14	97.5
527.355	94.5
527.57	81.5
527.785	96.5
527.999	90.5
528.214	86.5
528.429	97.5
528.644	103.5
528.859	106.5
529.074	99.5
529.289	144.5
529.503	264.5
529.718	143.5
