Data from Circ_1988_H10_HRD10591_00016.txt Node
Date: Wed Jan 03 12:05:38 EST 2024
User: Yrep
Spectrometer: HR+D1059
Trigger mode: 1
Integration Time (sec): 1.000000E-1
Scans to average: 1
Electric dark correction enabled: true
Nonlinearity correction enabled: false
Boxcar width: 0
XAxis mode: Wavelengths
Number of Pixels in Spectrum: 2048
>>>>>Begin Spectral Data<<<<<
223.165	-13.38
223.4	-13.38
223.635	-13.38
223.869	-24.38
224.104	-12.38
224.338	-13.38
224.573	-23.38
224.808	-18.38
225.042	-20.38
225.277	6.62
225.511	10.62
225.746	6.62
225.98	6.62
226.215	12.62
226.449	9.62
226.683	21.62
226.918	18.62
227.152	32.62
227.387	35.62
227.621	43.62
227.856	35.62
228.09	27.62
228.324	42.62
228.559	64.62
228.793	60.62
229.027	55.62
229.262	78.62
229.496	75.62
229.73	83.62
229.964	91.62
230.199	81.62
230.433	81.62
230.667	70.62
230.901	83.62
231.136	81.62
231.37	85.62
231.604	61.62
231.838	77.62
232.072	77.62
232.306	86.62
232.541	89.62
232.775	91.62
233.009	76.62
233.243	90.62
233.477	77.62
233.711	83.62
233.945	70.62
234.179	78.62
234.413	77.62
234.647	83.62
234.881	85.62
235.115	69.62
235.349	77.62
235.583	78.62
235.817	93.62
236.051	81.62
236.285	78.62
236.519	77.62
236.753	83.62
236.987	66.62
237.221	84.62
237.455	95.62
237.689	76.62
237.922	84.62
238.156	70.62
238.39	80.62
238.624	86.62
238.858	85.62
239.091	82.62
239.325	79.62
239.559	75.62
239.793	82.62
240.027	69.62
240.26	84.62
240.494	83.62
240.728	66.62
240.961	73.62
241.195	85.62
241.429	89.62
241.662	78.62
241.896	73.62
242.13	79.62
242.363	76.62
242.597	75.62
242.83	84.62
243.064	78.62
243.298	77.62
243.531	84.62
243.765	84.62
243.998	93.62
244.232	89.62
244.465	73.62
244.699	92.62
244.932	74.62
245.166	83.62
245.399	65.62
245.633	74.62
245.866	70.62
246.099	90.62
246.333	88.62
246.566	71.62
246.8	81.62
247.033	93.62
247.266	86.62
247.5	82.62
247.733	71.62
247.966	73.62
248.2	95.62
248.433	89.62
248.666	68.62
248.899	88.62
249.133	94.62
249.366	102.62
249.599	105.62
249.832	81.62
250.066	91.62
250.299	98.62
250.532	87.62
250.765	83.62
250.998	87.62
251.231	83.62
251.465	95.62
251.698	94.62
251.931	89.62
252.164	81.62
252.397	93.62
252.63	79.62
252.863	81.62
253.096	77.62
253.329	71.62
253.562	74.62
253.795	78.62
254.028	99.62
254.261	89.62
254.494	70.62
254.727	68.62
254.96	73.62
255.193	74.62
255.426	90.62
255.659	97.62
255.892	118.62
256.124	119.62
256.357	87.62
256.59	90.62
256.823	90.62
257.056	86.62
257.289	84.62
257.521	85.62
257.754	95.62
257.987	90.62
258.22	103.62
258.452	116.62
258.685	106.62
258.918	89.62
259.151	90.62
259.383	79.62
259.616	77.62
259.849	78.62
260.081	93.62
260.314	101.62
260.547	108.62
260.779	131.62
261.012	171.62
261.244	155.62
261.477	117.62
261.71	93.62
261.942	131.62
262.175	133.62
262.407	112.62
262.64	89.62
262.872	70.62
263.105	84.62
263.337	81.62
263.57	85.62
263.802	63.62
264.035	78.62
264.267	77.62
264.499	80.62
264.732	76.62
264.964	74.62
265.197	88.62
265.429	85.62
265.661	92.62
265.894	69.62
266.126	76.62
266.358	69.62
266.591	79.62
266.823	73.62
267.055	86.62
267.287	89.62
267.52	97.62
267.752	93.62
267.984	78.62
268.216	79.62
268.448	78.62
268.681	103.62
268.913	90.62
269.145	103.62
269.377	85.62
269.609	69.62
269.841	87.62
270.073	94.62
270.306	70.62
270.538	89.62
270.77	87.62
271.002	92.62
271.234	97.62
271.466	109.62
271.698	91.62
271.93	73.62
272.162	104.62
272.394	100.62
272.626	82.62
272.858	83.62
273.09	76.62
273.322	79.62
273.553	86.62
273.785	79.62
274.017	74.62
274.249	77.62
274.481	97.62
274.713	74.62
274.945	103.62
275.176	99.62
275.408	131.62
275.64	161.62
275.872	196.62
276.104	149.62
276.335	129.62
276.567	140.62
276.799	190.62
277.031	282.62
277.262	393.62
277.494	274.62
277.726	137.62
277.957	88.62
278.189	87.62
278.421	104.62
278.652	92.62
278.884	101.62
279.115	108.62
279.347	109.62
279.579	129.62
279.81	208.62
280.042	396.62
280.273	582.62
280.505	370.62
280.736	171.62
280.968	117.62
281.199	105.62
281.431	91.62
281.662	94.62
281.894	94.62
282.125	118.62
282.356	122.62
282.588	178.62
282.819	142.62
283.051	97.62
283.282	84.62
283.513	84.62
283.745	94.62
283.976	92.62
284.207	89.62
284.439	92.62
284.67	86.62
284.901	87.62
285.132	98.62
285.364	77.62
285.595	91.62
285.826	78.62
286.057	79.62
286.288	95.62
286.52	90.62
286.751	88.62
286.982	87.62
287.213	84.62
287.444	87.62
287.675	81.62
287.906	84.62
288.138	95.62
288.369	105.62
288.6	100.62
288.831	87.62
289.062	76.62
289.293	81.62
289.524	84.62
289.755	77.62
289.986	75.62
290.217	76.62
290.448	86.62
290.679	76.62
290.91	90.62
291.141	91.62
291.371	83.62
291.602	78.62
291.833	90.62
292.064	91.62
292.295	92.62
292.526	88.62
292.757	81.62
292.987	94.62
293.218	76.62
293.449	81.62
293.68	83.62
293.91	99.62
294.141	94.62
294.372	76.62
294.603	100.62
294.833	102.62
295.064	91.62
295.295	89.62
295.525	95.62
295.756	101.62
295.987	130.62
296.217	175.62
296.448	155.62
296.679	109.62
296.909	103.62
297.14	94.62
297.37	93.62
297.601	106.62
297.831	94.62
298.062	102.62
298.292	81.62
298.523	91.62
298.753	77.62
298.984	98.62
299.214	92.62
299.445	85.62
299.675	108.62
299.905	101.62
300.136	87.62
300.366	98.62
300.597	89.62
300.827	111.62
301.057	110.62
301.288	124.62
301.518	113.62
301.748	106.62
301.979	143.62
302.209	114.62
302.439	97.62
302.669	92.62
302.9	84.62
303.13	118.62
303.36	138.62
303.59	201.62
303.82	210.62
304.051	129.62
304.281	117.62
304.511	89.62
304.741	87.62
304.971	89.62
305.201	84.62
305.431	92.62
305.661	89.62
305.891	100.62
306.121	103.62
306.352	112.62
306.582	120.62
306.812	134.62
307.042	179.62
307.272	283.62
307.502	332.62
307.731	290.62
307.961	189.62
308.191	116.62
308.421	96.62
308.651	101.62
308.881	94.62
309.111	97.62
309.341	90.62
309.571	116.62
309.8	94.62
310.03	117.62
310.26	108.62
310.49	115.62
310.72	114.62
310.949	130.62
311.179	121.62
311.409	109.62
311.639	99.62
311.868	103.62
312.098	102.62
312.328	110.62
312.557	116.62
312.787	125.62
313.017	122.62
313.246	100.62
313.476	94.62
313.706	108.62
313.935	110.62
314.165	111.62
314.394	126.62
314.624	100.62
314.853	102.62
315.083	101.62
315.312	87.62
315.542	84.62
315.771	94.62
316.001	89.62
316.23	90.62
316.46	90.62
316.689	93.62
316.919	86.62
317.148	96.62
317.377	115.62
317.607	97.62
317.836	94.62
318.065	90.62
318.295	98.62
318.524	84.62
318.753	94.62
318.983	107.62
319.212	108.62
319.441	104.62
319.67	104.62
319.9	104.62
320.129	105.62
320.358	89.62
320.587	100.62
320.816	101.62
321.046	115.62
321.275	97.62
321.504	89.62
321.733	92.62
321.962	108.62
322.191	103.62
322.42	100.62
322.649	120.62
322.878	103.62
323.108	139.62
323.337	129.62
323.566	145.62
323.795	171.62
324.024	239.62
324.253	446.62
324.482	971.62
324.71	1999.62
324.939	2686.62
325.168	997.62
325.397	309.62
325.626	188.62
325.855	154.62
326.084	151.62
326.313	156.62
326.542	180.62
326.77	248.62
326.999	487.62
327.228	994.62
327.457	1806.62
327.686	1569.62
327.914	729.62
328.143	1011.62
328.372	1468.62
328.6	745.62
328.829	274.62
329.058	232.62
329.287	246.62
329.515	242.62
329.744	459.62
329.972	973.62
330.201	2237.62
330.43	3389.62
330.658	1329.62
330.887	433.62
331.115	247.62
331.344	165.62
331.572	143.62
331.801	149.62
332.03	134.62
332.258	120.62
332.486	127.62
332.715	120.62
332.943	126.62
333.172	138.62
333.4	147.62
333.629	222.62
333.857	350.62
334.085	798.62
334.314	1905.62
334.542	3987.62
334.771	3728.62
334.999	860.62
335.227	285.62
335.455	185.62
335.684	145.62
335.912	124.62
336.14	118.62
336.369	117.62
336.597	116.62
336.825	118.62
337.053	128.62
337.281	109.62
337.51	87.62
337.738	117.62
337.966	97.62
338.194	107.62
338.422	97.62
338.65	117.62
338.878	105.62
339.106	93.62
339.334	91.62
339.562	89.62
339.79	79.62
340.018	95.62
340.246	95.62
340.474	98.62
340.702	94.62
340.93	95.62
341.158	89.62
341.386	113.62
341.614	113.62
341.842	100.62
342.07	97.62
342.298	106.62
342.526	100.62
342.754	93.62
342.981	73.62
343.209	88.62
343.437	94.62
343.665	91.62
343.893	99.62
344.12	92.62
344.348	85.62
344.576	90.62
344.804	89.62
345.031	104.62
345.259	120.62
345.487	102.62
345.714	107.62
345.942	101.62
346.17	97.62
346.397	91.62
346.625	78.62
346.853	105.62
347.08	91.62
347.308	95.62
347.535	121.62
347.763	106.62
347.99	95.62
348.218	107.62
348.445	122.62
348.673	117.62
348.9	114.62
349.128	83.62
349.355	92.62
349.583	107.62
349.81	85.62
350.037	108.62
350.265	101.62
350.492	110.62
350.72	95.62
350.947	102.62
351.174	119.62
351.402	121.62
351.629	108.62
351.856	103.62
352.083	94.62
352.311	119.62
352.538	114.62
352.765	114.62
352.992	131.62
353.22	120.62
353.447	102.62
353.674	105.62
353.901	100.62
354.128	108.62
354.355	108.62
354.583	103.62
354.81	89.62
355.037	85.62
355.264	95.62
355.491	90.62
355.718	90.62
355.945	96.62
356.172	97.62
356.399	96.62
356.626	93.62
356.853	91.62
357.08	102.62
357.307	102.62
357.534	97.62
357.761	100.62
357.988	106.62
358.215	103.62
358.441	91.62
358.668	102.62
358.895	91.62
359.122	93.62
359.349	110.62
359.576	98.62
359.802	119.62
360.029	138.62
360.256	148.62
360.483	111.62
360.709	84.62
360.936	98.62
361.163	100.62
361.39	103.62
361.616	101.62
361.843	94.62
362.07	119.62
362.296	109.62
362.523	95.62
362.749	96.62
362.976	100.62
363.203	85.62
363.429	85.62
363.656	95.62
363.882	98.62
364.109	100.62
364.335	86.62
364.562	95.62
364.788	90.62
365.015	82.62
365.241	101.62
365.468	123.62
365.694	109.62
365.92	110.62
366.147	81.62
366.373	87.62
366.599	95.62
366.826	89.62
367.052	91.62
367.278	98.62
367.505	89.62
367.731	101.62
367.957	101.62
368.184	121.62
368.41	100.62
368.636	125.62
368.862	132.62
369.089	121.62
369.315	104.62
369.541	115.62
369.767	106.62
369.993	93.62
370.219	96.62
370.445	105.62
370.672	78.62
370.898	96.62
371.124	89.62
371.35	92.62
371.576	85.62
371.802	79.62
372.028	89.62
372.254	78.62
372.48	84.62
372.706	95.62
372.932	92.62
373.158	89.62
373.384	98.62
373.61	102.62
373.835	87.62
374.061	84.62
374.287	85.62
374.513	89.62
374.739	96.62
374.965	85.62
375.191	84.62
375.416	101.62
375.642	87.62
375.868	95.62
376.094	86.62
376.319	106.62
376.545	93.62
376.771	93.62
376.997	85.62
377.222	102.62
377.448	94.62
377.674	101.62
377.899	98.62
378.125	88.62
378.35	110.62
378.576	96.62
378.802	89.62
379.027	100.62
379.253	95.62
379.478	87.62
379.704	102.62
379.929	102.62
380.155	98.62
380.38	113.62
380.606	99.62
380.831	106.62
381.057	93.62
381.282	105.62
381.507	108.62
381.733	119.62
381.958	107.62
382.184	125.62
382.409	131.62
382.634	103.62
382.86	119.62
383.085	123.62
383.31	118.62
383.535	118.62
383.761	108.62
383.986	117.62
384.211	125.62
384.436	121.62
384.662	113.62
384.887	152.62
385.112	138.62
385.337	138.62
385.562	158.62
385.787	135.62
386.013	165.62
386.238	164.62
386.463	131.62
386.688	149.62
386.913	144.62
387.138	143.62
387.363	138.62
387.588	124.62
387.813	117.62
388.038	140.62
388.263	157.62
388.488	153.62
388.713	105.62
388.938	85.62
389.163	97.62
389.387	98.62
389.612	90.62
389.837	96.62
390.062	111.62
390.287	74.62
390.512	85.62
390.736	85.62
390.961	86.62
391.186	93.62
391.411	96.62
391.636	80.62
391.86	78.62
392.085	87.62
392.31	83.62
392.534	76.62
392.759	86.62
392.984	98.62
393.208	88.62
393.433	134.62
393.658	111.62
393.882	92.62
394.107	92.62
394.331	83.62
394.556	87.62
394.78	79.62
395.005	94.62
395.229	85.62
395.454	83.62
395.678	94.62
395.903	98.62
396.127	87.62
396.352	94.62
396.576	82.62
396.801	96.62
397.025	113.62
397.249	106.62
397.474	84.62
397.698	97.62
397.922	83.62
398.147	82.62
398.371	83.62
398.595	92.62
398.82	97.62
399.044	93.62
399.268	95.62
399.492	104.62
399.717	91.62
399.941	91.62
400.165	76.62
400.389	98.62
400.613	94.62
400.837	86.62
401.062	90.62
401.286	99.62
401.51	100.62
401.734	118.62
401.958	119.62
402.182	143.62
402.406	191.62
402.63	141.62
402.854	107.62
403.078	91.62
403.302	93.62
403.526	93.62
403.75	90.62
403.974	86.62
404.198	87.62
404.422	94.62
404.645	102.62
404.869	108.62
405.093	123.62
405.317	158.62
405.541	161.62
405.765	130.62
405.988	155.62
406.212	220.62
406.436	319.62
406.66	205.62
406.883	147.62
407.107	113.62
407.331	99.62
407.555	101.62
407.778	106.62
408.002	87.62
408.226	85.62
408.449	78.62
408.673	90.62
408.896	97.62
409.12	100.62
409.344	97.62
409.567	80.62
409.791	82.62
410.014	97.62
410.238	90.62
410.461	97.62
410.685	91.62
410.908	76.62
411.132	102.62
411.355	108.62
411.578	100.62
411.802	79.62
412.025	100.62
412.249	99.62
412.472	114.62
412.695	170.62
412.919	110.62
413.142	94.62
413.365	103.62
413.589	87.62
413.812	90.62
414.035	105.62
414.258	100.62
414.482	110.62
414.705	79.62
414.928	88.62
415.151	91.62
415.374	98.62
415.597	100.62
415.821	81.62
416.044	82.62
416.267	94.62
416.49	100.62
416.713	97.62
416.936	103.62
417.159	94.62
417.382	140.62
417.605	134.62
417.828	139.62
418.051	116.62
418.274	105.62
418.497	99.62
418.72	94.62
418.943	92.62
419.166	94.62
419.389	85.62
419.611	102.62
419.834	98.62
420.057	85.62
420.28	89.62
420.503	88.62
420.726	102.62
420.948	93.62
421.171	109.62
421.394	102.62
421.617	114.62
421.839	92.62
422.062	93.62
422.285	108.62
422.507	105.62
422.73	142.62
422.953	118.62
423.175	90.62
423.398	83.62
423.621	82.62
423.843	93.62
424.066	89.62
424.288	81.62
424.511	93.62
424.733	103.62
424.956	103.62
425.178	116.62
425.401	102.62
425.623	98.62
425.846	87.62
426.068	94.62
426.291	101.62
426.513	83.62
426.735	93.62
426.958	116.62
427.18	110.62
427.402	182.62
427.625	280.62
427.847	291.62
428.069	250.62
428.292	145.62
428.514	108.62
428.736	86.62
428.958	84.62
429.181	94.62
429.403	80.62
429.625	94.62
429.847	97.62
430.069	102.62
430.292	101.62
430.514	87.62
430.736	89.62
430.958	89.62
431.18	89.62
431.402	91.62
431.624	85.62
431.846	84.62
432.068	83.62
432.29	76.62
432.512	85.62
432.734	75.62
432.956	86.62
433.178	97.62
433.4	100.62
433.622	92.62
433.844	92.62
434.066	68.62
434.287	102.62
434.509	79.62
434.731	96.62
434.953	68.62
435.175	98.62
435.397	97.62
435.618	93.62
435.84	100.62
436.062	113.62
436.284	113.62
436.505	78.62
436.727	102.62
436.949	86.62
437.17	89.62
437.392	85.62
437.614	96.62
437.835	128.62
438.057	146.62
438.278	127.62
438.5	117.62
438.721	139.62
438.943	107.62
439.165	89.62
439.386	94.62
439.608	82.62
439.829	116.62
440.05	150.62
440.272	192.62
440.493	122.62
440.715	98.62
440.936	79.62
441.158	93.62
441.379	74.62
441.6	111.62
441.822	91.62
442.043	100.62
442.264	118.62
442.486	111.62
442.707	105.62
442.928	106.62
443.149	173.62
443.371	166.62
443.592	131.62
443.813	117.62
444.034	125.62
444.255	82.62
444.476	94.62
444.698	86.62
444.919	92.62
445.14	134.62
445.361	116.62
445.582	124.62
445.803	180.62
446.024	165.62
446.245	169.62
446.466	128.62
446.687	96.62
446.908	85.62
447.129	87.62
447.35	90.62
447.571	99.62
447.792	106.62
448.013	108.62
448.234	114.62
448.455	101.62
448.675	121.62
448.896	115.62
449.117	111.62
449.338	114.62
449.559	122.62
449.779	151.62
450	99.62
450.221	89.62
450.442	100.62
450.662	93.62
450.883	122.62
451.104	127.62
451.324	99.62
451.545	79.62
451.766	82.62
451.986	91.62
452.207	100.62
452.428	99.62
452.648	101.62
452.869	118.62
453.089	155.62
453.31	159.62
453.53	102.62
453.751	96.62
453.971	131.62
454.192	132.62
454.412	107.62
454.633	90.62
454.853	86.62
455.073	93.62
455.294	78.62
455.514	98.62
455.734	93.62
455.955	83.62
456.175	96.62
456.395	99.62
456.616	97.62
456.836	89.62
457.056	78.62
457.276	89.62
457.497	89.62
457.717	81.62
457.937	90.62
458.157	91.62
458.377	91.62
458.598	137.62
458.818	215.62
459.038	224.62
459.258	143.62
459.478	102.62
459.698	90.62
459.918	85.62
460.138	81.62
460.358	90.62
460.578	78.62
460.798	80.62
461.018	93.62
461.238	103.62
461.458	71.62
461.678	82.62
461.898	92.62
462.118	96.62
462.338	96.62
462.558	90.62
462.777	82.62
462.997	125.62
463.217	153.62
463.437	117.62
463.657	99.62
463.876	118.62
464.096	103.62
464.316	99.62
464.536	107.62
464.755	102.62
464.975	113.62
465.195	258.62
465.414	254.62
465.634	101.62
465.854	97.62
466.073	109.62
466.293	102.62
466.512	94.62
466.732	91.62
466.951	112.62
467.171	105.62
467.391	119.62
467.61	203.62
467.829	429.62
468.049	1405.62
468.268	2286.62
468.488	473.62
468.707	149.62
468.927	113.62
469.146	111.62
469.365	97.62
469.585	94.62
469.804	109.62
470.023	121.62
470.243	124.62
470.462	132.62
470.681	154.62
470.901	111.62
471.12	106.62
471.339	145.62
471.558	160.62
471.777	223.62
471.997	595.62
472.216	2560.62
472.435	6153.62
472.654	1243.62
472.873	257.62
473.092	141.62
473.311	115.62
473.53	101.62
473.749	105.62
473.968	113.62
474.187	103.62
474.406	108.62
474.625	93.62
474.844	96.62
475.063	107.62
475.282	109.62
475.501	99.62
475.72	96.62
475.939	84.62
476.158	95.62
476.377	94.62
476.596	80.62
476.814	100.62
477.033	94.62
477.252	101.62
477.471	85.62
477.69	82.62
477.908	83.62
478.127	100.62
478.346	109.62
478.564	116.62
478.783	112.62
479.002	105.62
479.22	101.62
479.439	142.62
479.658	146.62
479.876	140.62
480.095	133.62
480.313	188.62
480.532	245.62
480.751	539.62
480.969	2151.62
481.188	9641.62
481.406	5429.62
481.624	680.62
481.843	198.62
482.061	140.62
482.28	113.62
482.498	108.62
482.717	108.62
482.935	108.62
483.153	114.62
483.372	104.62
483.59	104.62
483.808	97.62
484.027	89.62
484.245	89.62
484.463	92.62
484.681	86.62
484.9	92.62
485.118	95.62
485.336	89.62
485.554	99.62
485.772	110.62
485.99	111.62
486.209	116.62
486.427	104.62
486.645	129.62
486.863	125.62
487.081	123.62
487.299	89.62
487.517	98.62
487.735	101.62
487.953	96.62
488.171	101.62
488.389	105.62
488.607	105.62
488.825	101.62
489.043	105.62
489.261	89.62
489.479	82.62
489.696	78.62
489.914	92.62
490.132	92.62
490.35	98.62
490.568	95.62
490.786	82.62
491.003	99.62
491.221	91.62
491.439	105.62
491.657	91.62
491.874	102.62
492.092	96.62
492.31	101.62
492.527	106.62
492.745	114.62
492.963	107.62
493.18	91.62
493.398	93.62
493.615	101.62
493.833	108.62
494.05	98.62
494.268	85.62
494.485	88.62
494.703	85.62
494.92	86.62
495.138	97.62
495.355	101.62
495.573	92.62
495.79	98.62
496.008	94.62
496.225	110.62
496.442	100.62
496.66	68.62
496.877	95.62
497.094	98.62
497.312	89.62
497.529	92.62
497.746	79.62
497.963	82.62
498.181	110.62
498.398	99.62
498.615	127.62
498.832	122.62
499.049	100.62
499.267	89.62
499.484	94.62
499.701	92.62
499.918	105.62
500.135	97.62
500.352	85.62
500.569	106.62
500.786	106.62
501.003	97.62
501.22	95.62
501.437	106.62
501.654	100.62
501.871	117.62
502.088	100.62
502.305	95.62
502.522	86.62
502.739	93.62
502.956	93.62
503.172	103.62
503.389	111.62
503.606	132.62
503.823	111.62
504.04	96.62
504.256	105.62
504.473	93.62
504.69	82.62
504.907	89.62
505.123	98.62
505.34	97.62
505.557	86.62
505.773	90.62
505.99	102.62
506.207	92.62
506.423	84.62
506.64	93.62
506.856	88.62
507.073	91.62
507.289	98.62
507.506	91.62
507.722	130.62
507.939	126.62
508.155	98.62
508.372	96.62
508.588	85.62
508.805	99.62
509.021	110.62
509.238	100.62
509.454	105.62
509.67	93.62
509.887	114.62
510.103	160.62
510.319	253.62
510.536	1044.62
510.752	3767.62
510.968	977.62
511.184	194.62
511.401	141.62
511.617	116.62
