Data from Circ_1988_H10_HRD10591_00097.txt Node
Date: Wed Jan 03 12:05:54 EST 2024
User: Yrep
Spectrometer: HR+D1059
Trigger mode: 1
Integration Time (sec): 1.000000E-1
Scans to average: 1
Electric dark correction enabled: true
Nonlinearity correction enabled: false
Boxcar width: 0
XAxis mode: Wavelengths
Number of Pixels in Spectrum: 2048
>>>>>Begin Spectral Data<<<<<
223.165	-20.25
223.4	-20.25
223.635	-20.25
223.869	-13.25
224.104	-25.25
224.338	-11.25
224.573	-13.25
224.808	-9.25
225.042	1.75
225.277	-0.25
225.511	-15.25
225.746	13.75
225.98	-15.25
226.215	6.75
226.449	18.75
226.683	23.75
226.918	24.75
227.152	33.75
227.387	35.75
227.621	33.75
227.856	34.75
228.09	42.75
228.324	49.75
228.559	49.75
228.793	44.75
229.027	64.75
229.262	74.75
229.496	80.75
229.73	102.75
229.964	95.75
230.199	69.75
230.433	77.75
230.667	90.75
230.901	88.75
231.136	85.75
231.37	83.75
231.604	84.75
231.838	90.75
232.072	96.75
232.306	94.75
232.541	73.75
232.775	79.75
233.009	75.75
233.243	83.75
233.477	80.75
233.711	81.75
233.945	79.75
234.179	83.75
234.413	85.75
234.647	81.75
234.881	69.75
235.115	82.75
235.349	87.75
235.583	82.75
235.817	82.75
236.051	75.75
236.285	87.75
236.519	83.75
236.753	82.75
236.987	80.75
237.221	97.75
237.455	66.75
237.689	72.75
237.922	89.75
238.156	80.75
238.39	78.75
238.624	84.75
238.858	81.75
239.091	69.75
239.325	78.75
239.559	95.75
239.793	82.75
240.027	97.75
240.26	71.75
240.494	85.75
240.728	79.75
240.961	80.75
241.195	72.75
241.429	73.75
241.662	65.75
241.896	79.75
242.13	81.75
242.363	68.75
242.597	70.75
242.83	87.75
243.064	81.75
243.298	73.75
243.531	84.75
243.765	81.75
243.998	72.75
244.232	79.75
244.465	80.75
244.699	84.75
244.932	80.75
245.166	77.75
245.399	61.75
245.633	79.75
245.866	69.75
246.099	84.75
246.333	93.75
246.566	84.75
246.8	87.75
247.033	88.75
247.266	93.75
247.5	85.75
247.733	89.75
247.966	93.75
248.2	91.75
248.433	83.75
248.666	93.75
248.899	92.75
249.133	96.75
249.366	119.75
249.599	119.75
249.832	91.75
250.066	75.75
250.299	107.75
250.532	95.75
250.765	87.75
250.998	93.75
251.231	94.75
251.465	76.75
251.698	88.75
251.931	86.75
252.164	83.75
252.397	77.75
252.63	93.75
252.863	108.75
253.096	80.75
253.329	94.75
253.562	91.75
253.795	85.75
254.028	85.75
254.261	80.75
254.494	73.75
254.727	82.75
254.96	79.75
255.193	72.75
255.426	81.75
255.659	93.75
255.892	103.75
256.124	117.75
256.357	97.75
256.59	80.75
256.823	105.75
257.056	102.75
257.289	93.75
257.521	101.75
257.754	90.75
257.987	93.75
258.22	99.75
258.452	112.75
258.685	126.75
258.918	106.75
259.151	93.75
259.383	73.75
259.616	95.75
259.849	87.75
260.081	93.75
260.314	95.75
260.547	85.75
260.779	104.75
261.012	140.75
261.244	147.75
261.477	115.75
261.71	117.75
261.942	142.75
262.175	143.75
262.407	95.75
262.64	89.75
262.872	93.75
263.105	94.75
263.337	80.75
263.57	92.75
263.802	66.75
264.035	94.75
264.267	88.75
264.499	72.75
264.732	85.75
264.964	77.75
265.197	93.75
265.429	100.75
265.661	88.75
265.894	90.75
266.126	98.75
266.358	84.75
266.591	90.75
266.823	74.75
267.055	83.75
267.287	90.75
267.52	85.75
267.752	75.75
267.984	89.75
268.216	93.75
268.448	85.75
268.681	95.75
268.913	87.75
269.145	91.75
269.377	86.75
269.609	93.75
269.841	92.75
270.073	109.75
270.306	100.75
270.538	84.75
270.77	99.75
271.002	86.75
271.234	99.75
271.466	105.75
271.698	90.75
271.93	102.75
272.162	99.75
272.394	89.75
272.626	76.75
272.858	87.75
273.09	89.75
273.322	94.75
273.553	97.75
273.785	105.75
274.017	84.75
274.249	87.75
274.481	97.75
274.713	87.75
274.945	93.75
275.176	101.75
275.408	105.75
275.64	152.75
275.872	176.75
276.104	128.75
276.335	113.75
276.567	119.75
276.799	165.75
277.031	254.75
277.262	337.75
277.494	241.75
277.726	134.75
277.957	104.75
278.189	103.75
278.421	82.75
278.652	86.75
278.884	103.75
279.115	106.75
279.347	94.75
279.579	127.75
279.81	183.75
280.042	324.75
280.273	509.75
280.505	301.75
280.736	133.75
280.968	117.75
281.199	90.75
281.431	87.75
281.662	108.75
281.894	98.75
282.125	93.75
282.356	144.75
282.588	188.75
282.819	148.75
283.051	91.75
283.282	95.75
283.513	87.75
283.745	92.75
283.976	81.75
284.207	85.75
284.439	105.75
284.67	100.75
284.901	99.75
285.132	103.75
285.364	90.75
285.595	85.75
285.826	93.75
286.057	100.75
286.288	81.75
286.52	101.75
286.751	87.75
286.982	99.75
287.213	96.75
287.444	102.75
287.675	94.75
287.906	88.75
288.138	91.75
288.369	91.75
288.6	104.75
288.831	95.75
289.062	102.75
289.293	83.75
289.524	88.75
289.755	104.75
289.986	75.75
290.217	90.75
290.448	80.75
290.679	78.75
290.91	93.75
291.141	84.75
291.371	102.75
291.602	95.75
291.833	90.75
292.064	83.75
292.295	88.75
292.526	80.75
292.757	103.75
292.987	83.75
293.218	87.75
293.449	90.75
293.68	95.75
293.91	87.75
294.141	89.75
294.372	98.75
294.603	90.75
294.833	97.75
295.064	96.75
295.295	100.75
295.525	91.75
295.756	107.75
295.987	128.75
296.217	172.75
296.448	166.75
296.679	109.75
296.909	101.75
297.14	79.75
297.37	100.75
297.601	93.75
297.831	102.75
298.062	86.75
298.292	99.75
298.523	103.75
298.753	93.75
298.984	88.75
299.214	91.75
299.445	98.75
299.675	102.75
299.905	101.75
300.136	103.75
300.366	99.75
300.597	100.75
300.827	94.75
301.057	127.75
301.288	121.75
301.518	96.75
301.748	101.75
301.979	126.75
302.209	121.75
302.439	106.75
302.669	98.75
302.9	121.75
303.13	119.75
303.36	135.75
303.59	172.75
303.82	197.75
304.051	119.75
304.281	103.75
304.511	90.75
304.741	95.75
304.971	103.75
305.201	93.75
305.431	77.75
305.661	104.75
305.891	93.75
306.121	104.75
306.352	127.75
306.582	118.75
306.812	131.75
307.042	167.75
307.272	253.75
307.502	304.75
307.731	253.75
307.961	159.75
308.191	119.75
308.421	106.75
308.651	98.75
308.881	99.75
309.111	100.75
309.341	102.75
309.571	117.75
309.8	111.75
310.03	113.75
310.26	122.75
310.49	107.75
310.72	110.75
310.949	113.75
311.179	115.75
311.409	98.75
311.639	94.75
311.868	109.75
312.098	103.75
312.328	94.75
312.557	116.75
312.787	114.75
313.017	113.75
313.246	98.75
313.476	110.75
313.706	104.75
313.935	109.75
314.165	109.75
314.394	100.75
314.624	101.75
314.853	109.75
315.083	114.75
315.312	103.75
315.542	98.75
315.771	108.75
316.001	96.75
316.23	86.75
316.46	96.75
316.689	86.75
316.919	112.75
317.148	116.75
317.377	99.75
317.607	108.75
317.836	99.75
318.065	101.75
318.295	94.75
318.524	99.75
318.753	104.75
318.983	109.75
319.212	124.75
319.441	122.75
319.67	118.75
319.9	101.75
320.129	99.75
320.358	107.75
320.587	104.75
320.816	110.75
321.046	100.75
321.275	110.75
321.504	113.75
321.733	103.75
321.962	91.75
322.191	109.75
322.42	118.75
322.649	103.75
322.878	106.75
323.108	126.75
323.337	126.75
323.566	160.75
323.795	166.75
324.024	221.75
324.253	393.75
324.482	830.75
324.71	1647.75
324.939	2178.75
325.168	866.75
325.397	272.75
325.626	157.75
325.855	150.75
326.084	149.75
326.313	156.75
326.542	166.75
326.77	210.75
326.999	407.75
327.228	854.75
327.457	1518.75
327.686	1318.75
327.914	634.75
328.143	824.75
328.372	1220.75
328.6	655.75
328.829	251.75
329.058	217.75
329.287	223.75
329.515	232.75
329.744	376.75
329.972	841.75
330.201	1812.75
330.43	2807.75
330.658	1123.75
330.887	403.75
331.115	226.75
331.344	163.75
331.572	149.75
331.801	130.75
332.03	139.75
332.258	134.75
332.486	119.75
332.715	124.75
332.943	134.75
333.172	136.75
333.4	154.75
333.629	206.75
333.857	314.75
334.085	687.75
334.314	1549.75
334.542	3311.75
334.771	3190.75
334.999	741.75
335.227	248.75
335.455	159.75
335.684	132.75
335.912	128.75
336.14	129.75
336.369	138.75
336.597	122.75
336.825	121.75
337.053	107.75
337.281	114.75
337.51	100.75
337.738	100.75
337.966	90.75
338.194	115.75
338.422	111.75
338.65	110.75
338.878	92.75
339.106	109.75
339.334	108.75
339.562	98.75
339.79	105.75
340.018	107.75
340.246	102.75
340.474	117.75
340.702	93.75
340.93	95.75
341.158	99.75
341.386	110.75
341.614	111.75
341.842	118.75
342.07	83.75
342.298	99.75
342.526	108.75
342.754	97.75
342.981	107.75
343.209	90.75
343.437	98.75
343.665	104.75
343.893	92.75
344.12	102.75
344.348	103.75
344.576	97.75
344.804	95.75
345.031	116.75
345.259	102.75
345.487	105.75
345.714	97.75
345.942	106.75
346.17	107.75
346.397	103.75
346.625	101.75
346.853	96.75
347.08	111.75
347.308	105.75
347.535	103.75
347.763	99.75
347.99	109.75
348.218	115.75
348.445	105.75
348.673	122.75
348.9	106.75
349.128	102.75
349.355	105.75
349.583	86.75
349.81	87.75
350.037	103.75
350.265	106.75
350.492	107.75
350.72	107.75
350.947	96.75
351.174	100.75
351.402	124.75
351.629	112.75
351.856	105.75
352.083	99.75
352.311	123.75
352.538	111.75
352.765	106.75
352.992	123.75
353.22	129.75
353.447	120.75
353.674	104.75
353.901	98.75
354.128	107.75
354.355	98.75
354.583	88.75
354.81	90.75
355.037	101.75
355.264	87.75
355.491	93.75
355.718	96.75
355.945	101.75
356.172	85.75
356.399	86.75
356.626	100.75
356.853	97.75
357.08	94.75
357.307	87.75
357.534	96.75
357.761	103.75
357.988	109.75
358.215	96.75
358.441	106.75
358.668	98.75
358.895	105.75
359.122	102.75
359.349	90.75
359.576	96.75
359.802	108.75
360.029	132.75
360.256	130.75
360.483	115.75
360.709	90.75
360.936	89.75
361.163	101.75
361.39	117.75
361.616	105.75
361.843	100.75
362.07	107.75
362.296	105.75
362.523	92.75
362.749	86.75
362.976	93.75
363.203	105.75
363.429	105.75
363.656	94.75
363.882	98.75
364.109	107.75
364.335	86.75
364.562	85.75
364.788	83.75
365.015	104.75
365.241	99.75
365.468	114.75
365.694	121.75
365.92	103.75
366.147	105.75
366.373	88.75
366.599	96.75
366.826	82.75
367.052	92.75
367.278	93.75
367.505	95.75
367.731	102.75
367.957	100.75
368.184	104.75
368.41	103.75
368.636	120.75
368.862	135.75
369.089	133.75
369.315	111.75
369.541	90.75
369.767	87.75
369.993	98.75
370.219	98.75
370.445	81.75
370.672	95.75
370.898	99.75
371.124	85.75
371.35	103.75
371.576	105.75
371.802	83.75
372.028	82.75
372.254	95.75
372.48	83.75
372.706	90.75
372.932	82.75
373.158	102.75
373.384	95.75
373.61	94.75
373.835	89.75
374.061	88.75
374.287	95.75
374.513	100.75
374.739	93.75
374.965	91.75
375.191	79.75
375.416	98.75
375.642	110.75
375.868	100.75
376.094	105.75
376.319	97.75
376.545	95.75
376.771	103.75
376.997	70.75
377.222	110.75
377.448	95.75
377.674	88.75
377.899	89.75
378.125	88.75
378.35	103.75
378.576	95.75
378.802	109.75
379.027	86.75
379.253	91.75
379.478	101.75
379.704	103.75
379.929	105.75
380.155	107.75
380.38	89.75
380.606	91.75
380.831	85.75
381.057	90.75
381.282	91.75
381.507	99.75
381.733	97.75
381.958	101.75
382.184	108.75
382.409	105.75
382.634	105.75
382.86	107.75
383.085	104.75
383.31	102.75
383.535	109.75
383.761	102.75
383.986	108.75
384.211	111.75
384.436	99.75
384.662	96.75
384.887	106.75
385.112	114.75
385.337	105.75
385.562	117.75
385.787	110.75
386.013	116.75
386.238	95.75
386.463	115.75
386.688	106.75
386.913	102.75
387.138	116.75
387.363	117.75
387.588	104.75
387.813	97.75
388.038	100.75
388.263	102.75
388.488	116.75
388.713	101.75
388.938	102.75
389.163	82.75
389.387	86.75
389.612	93.75
389.837	87.75
390.062	79.75
390.287	69.75
390.512	93.75
390.736	88.75
390.961	96.75
391.186	85.75
391.411	102.75
391.636	96.75
391.86	89.75
392.085	103.75
392.31	89.75
392.534	88.75
392.759	88.75
392.984	90.75
393.208	96.75
393.433	106.75
393.658	103.75
393.882	87.75
394.107	75.75
394.331	85.75
394.556	82.75
394.78	91.75
395.005	77.75
395.229	72.75
395.454	99.75
395.678	81.75
395.903	102.75
396.127	91.75
396.352	87.75
396.576	94.75
396.801	94.75
397.025	92.75
397.249	94.75
397.474	90.75
397.698	87.75
397.922	81.75
398.147	107.75
398.371	88.75
398.595	98.75
398.82	89.75
399.044	81.75
399.268	75.75
399.492	94.75
399.717	81.75
399.941	89.75
400.165	91.75
400.389	103.75
400.613	84.75
400.837	84.75
401.062	82.75
401.286	91.75
401.51	105.75
401.734	78.75
401.958	121.75
402.182	148.75
402.406	194.75
402.63	143.75
402.854	102.75
403.078	81.75
403.302	112.75
403.526	79.75
403.75	96.75
403.974	81.75
404.198	95.75
404.422	105.75
404.645	102.75
404.869	118.75
405.093	131.75
405.317	165.75
405.541	150.75
405.765	132.75
405.988	139.75
406.212	210.75
406.436	322.75
406.66	197.75
406.883	117.75
407.107	114.75
407.331	105.75
407.555	119.75
407.778	87.75
408.002	101.75
408.226	104.75
408.449	81.75
408.673	89.75
408.896	95.75
409.12	88.75
409.344	97.75
409.567	90.75
409.791	100.75
410.014	80.75
410.238	81.75
410.461	84.75
410.685	86.75
410.908	111.75
411.132	113.75
411.355	97.75
411.578	94.75
411.802	78.75
412.025	89.75
412.249	104.75
412.472	138.75
412.695	155.75
412.919	120.75
413.142	111.75
413.365	91.75
413.589	94.75
413.812	95.75
414.035	100.75
414.258	101.75
414.482	107.75
414.705	96.75
414.928	101.75
415.151	92.75
415.374	102.75
415.597	105.75
415.821	93.75
416.044	95.75
416.267	108.75
416.49	91.75
416.713	85.75
416.936	98.75
417.159	96.75
417.382	107.75
417.605	125.75
417.828	130.75
418.051	115.75
418.274	89.75
418.497	89.75
418.72	90.75
418.943	88.75
419.166	91.75
419.389	87.75
419.611	103.75
419.834	102.75
420.057	83.75
420.28	100.75
420.503	97.75
420.726	111.75
420.948	105.75
421.171	93.75
421.394	93.75
421.617	92.75
421.839	86.75
422.062	95.75
422.285	87.75
422.507	92.75
422.73	115.75
422.953	102.75
423.175	88.75
423.398	91.75
423.621	96.75
423.843	87.75
424.066	71.75
424.288	98.75
424.511	98.75
424.733	100.75
424.956	111.75
425.178	100.75
425.401	106.75
425.623	102.75
425.846	109.75
426.068	114.75
426.291	102.75
426.513	95.75
426.735	94.75
426.958	106.75
427.18	113.75
427.402	155.75
427.625	253.75
427.847	246.75
428.069	198.75
428.292	143.75
428.514	109.75
428.736	105.75
428.958	100.75
429.181	93.75
429.403	82.75
429.625	74.75
429.847	98.75
430.069	129.75
430.292	98.75
430.514	92.75
430.736	75.75
430.958	93.75
431.18	101.75
431.402	89.75
431.624	84.75
431.846	91.75
432.068	89.75
432.29	88.75
432.512	101.75
432.734	87.75
432.956	99.75
433.178	94.75
433.4	100.75
433.622	92.75
433.844	113.75
434.066	90.75
434.287	98.75
434.509	106.75
434.731	86.75
434.953	84.75
435.175	92.75
435.397	99.75
435.618	106.75
435.84	107.75
436.062	147.75
436.284	129.75
436.505	108.75
436.727	107.75
436.949	78.75
437.17	84.75
437.392	87.75
437.614	105.75
437.835	121.75
438.057	134.75
438.278	138.75
438.5	133.75
438.721	136.75
438.943	120.75
439.165	100.75
439.386	93.75
439.608	88.75
439.829	115.75
440.05	134.75
440.272	167.75
440.493	104.75
440.715	88.75
440.936	98.75
441.158	86.75
441.379	98.75
441.6	85.75
441.822	102.75
442.043	106.75
442.264	118.75
442.486	105.75
442.707	96.75
442.928	114.75
443.149	175.75
443.371	166.75
443.592	135.75
443.813	128.75
444.034	118.75
444.255	88.75
444.476	78.75
444.698	85.75
444.919	109.75
445.14	133.75
445.361	124.75
445.582	133.75
445.803	170.75
446.024	165.75
446.245	162.75
446.466	121.75
446.687	87.75
446.908	92.75
447.129	97.75
447.35	105.75
447.571	98.75
447.792	98.75
448.013	109.75
448.234	111.75
448.455	104.75
448.675	119.75
448.896	140.75
449.117	99.75
449.338	112.75
449.559	147.75
449.779	149.75
450	103.75
450.221	80.75
450.442	105.75
450.662	101.75
450.883	118.75
451.104	127.75
451.324	108.75
451.545	93.75
451.766	83.75
451.986	94.75
452.207	95.75
452.428	93.75
452.648	108.75
452.869	118.75
453.089	127.75
453.31	130.75
453.53	105.75
453.751	91.75
453.971	131.75
454.192	123.75
454.412	95.75
454.633	103.75
454.853	79.75
455.073	87.75
455.294	93.75
455.514	105.75
455.734	95.75
455.955	92.75
456.175	65.75
456.395	85.75
456.616	87.75
456.836	99.75
457.056	94.75
457.276	88.75
457.497	90.75
457.717	91.75
457.937	97.75
458.157	91.75
458.377	98.75
458.598	111.75
458.818	199.75
459.038	223.75
459.258	165.75
459.478	97.75
459.698	87.75
459.918	85.75
460.138	94.75
460.358	84.75
460.578	86.75
460.798	93.75
461.018	88.75
461.238	94.75
461.458	92.75
461.678	88.75
461.898	75.75
462.118	95.75
462.338	81.75
462.558	97.75
462.777	95.75
462.997	110.75
463.217	147.75
463.437	105.75
463.657	105.75
463.876	91.75
464.096	99.75
464.316	104.75
464.536	105.75
464.755	109.75
464.975	117.75
465.195	228.75
465.414	241.75
465.634	117.75
465.854	93.75
466.073	106.75
466.293	81.75
466.512	87.75
466.732	117.75
466.951	107.75
467.171	103.75
467.391	134.75
467.61	177.75
467.829	337.75
468.049	1179.75
468.268	1864.75
468.488	395.75
468.707	134.75
468.927	109.75
469.146	96.75
469.365	100.75
469.585	102.75
469.804	113.75
470.023	127.75
470.243	129.75
470.462	114.75
470.681	145.75
470.901	118.75
471.12	127.75
471.339	133.75
471.558	130.75
471.777	231.75
471.997	505.75
472.216	2156.75
472.435	5295.75
472.654	1078.75
472.873	257.75
473.092	146.75
473.311	115.75
473.53	101.75
473.749	101.75
473.968	113.75
474.187	133.75
474.406	114.75
474.625	93.75
474.844	93.75
475.063	96.75
475.282	100.75
475.501	93.75
475.72	108.75
475.939	95.75
476.158	85.75
476.377	69.75
476.596	93.75
476.814	102.75
477.033	116.75
477.252	91.75
477.471	101.75
477.69	96.75
477.908	110.75
478.127	100.75
478.346	112.75
478.564	112.75
478.783	114.75
479.002	95.75
479.22	120.75
479.439	120.75
479.658	151.75
479.876	135.75
480.095	122.75
480.313	163.75
480.532	230.75
480.751	465.75
480.969	1827.75
481.188	8499.75
481.406	4799.75
481.624	595.75
481.843	195.75
482.061	128.75
482.28	117.75
482.498	108.75
482.717	110.75
482.935	93.75
483.153	105.75
483.372	102.75
483.59	109.75
483.808	97.75
484.027	101.75
484.245	104.75
484.463	96.75
484.681	106.75
484.9	99.75
485.118	122.75
485.336	85.75
485.554	89.75
485.772	105.75
485.99	119.75
486.209	114.75
486.427	126.75
486.645	143.75
486.863	127.75
487.081	118.75
487.299	103.75
487.517	104.75
487.735	103.75
487.953	99.75
488.171	93.75
488.389	105.75
488.607	115.75
488.825	90.75
489.043	81.75
489.261	99.75
489.479	78.75
489.696	87.75
489.914	78.75
490.132	100.75
490.35	85.75
490.568	94.75
490.786	110.75
491.003	77.75
491.221	106.75
491.439	92.75
491.657	85.75
491.874	111.75
492.092	102.75
492.31	112.75
492.527	116.75
492.745	112.75
492.963	97.75
493.18	102.75
493.398	103.75
493.615	95.75
493.833	95.75
494.05	90.75
494.268	87.75
494.485	84.75
494.703	82.75
494.92	103.75
495.138	85.75
495.355	87.75
495.573	99.75
495.79	87.75
496.008	82.75
496.225	74.75
496.442	101.75
496.66	103.75
496.877	99.75
497.094	97.75
497.312	93.75
497.529	81.75
497.746	100.75
497.963	100.75
498.181	110.75
498.398	94.75
498.615	111.75
498.832	112.75
499.049	102.75
499.267	110.75
499.484	95.75
499.701	90.75
499.918	99.75
500.135	93.75
500.352	95.75
500.569	99.75
500.786	118.75
501.003	105.75
501.22	82.75
501.437	89.75
501.654	110.75
501.871	121.75
502.088	99.75
502.305	87.75
502.522	105.75
502.739	100.75
502.956	96.75
503.172	84.75
503.389	107.75
503.606	134.75
503.823	103.75
504.04	105.75
504.256	96.75
504.473	93.75
504.69	92.75
504.907	101.75
505.123	82.75
505.34	91.75
505.557	96.75
505.773	79.75
505.99	97.75
506.207	93.75
506.423	81.75
506.64	86.75
506.856	93.75
507.073	103.75
507.289	102.75
507.506	102.75
507.722	128.75
507.939	134.75
508.155	99.75
508.372	107.75
508.588	96.75
508.805	97.75
509.021	112.75
509.238	105.75
509.454	109.75
509.67	103.75
509.887	133.75
510.103	156.75
510.319	262.75
510.536	979.75
510.752	3453.75
