Data from Circ_1988_H10_HRD10591_00043.txt Node
Date: Wed Jan 03 12:05:43 EST 2024
User: Yrep
Spectrometer: HR+D1059
Trigger mode: 1
Integration Time (sec): 1.000000E-1
Scans to average: 1
Electric dark correction enabled: true
Nonlinearity correction enabled: false
Boxcar width: 0
XAxis mode: Wavelengths
Number of Pixels in Spectrum: 2048
>>>>>Begin Spectral Data<<<<<
223.165	-12.75
223.4	-12.75
223.635	-12.75
223.869	-22.75
224.104	-12.75
224.338	-4.75
224.573	-12.75
224.808	-4.75
225.042	-13.75
225.277	-14.75
225.511	-9.75
225.746	11.25
225.98	22.25
226.215	6.25
226.449	17.25
226.683	14.25
226.918	10.25
227.152	27.25
227.387	34.25
227.621	40.25
227.856	52.25
228.09	52.25
228.324	51.25
228.559	59.25
228.793	58.25
229.027	69.25
229.262	68.25
229.496	74.25
229.73	109.25
229.964	98.25
230.199	81.25
230.433	85.25
230.667	89.25
230.901	75.25
231.136	88.25
231.37	74.25
231.604	83.25
231.838	84.25
232.072	88.25
232.306	75.25
232.541	80.25
232.775	86.25
233.009	91.25
233.243	83.25
233.477	80.25
233.711	71.25
233.945	86.25
234.179	106.25
234.413	81.25
234.647	84.25
234.881	104.25
235.115	81.25
235.349	67.25
235.583	80.25
235.817	84.25
236.051	77.25
236.285	94.25
236.519	94.25
236.753	81.25
236.987	70.25
237.221	92.25
237.455	88.25
237.689	86.25
237.922	86.25
238.156	75.25
238.39	80.25
238.624	84.25
238.858	88.25
239.091	73.25
239.325	84.25
239.559	104.25
239.793	81.25
240.027	88.25
240.26	84.25
240.494	81.25
240.728	81.25
240.961	89.25
241.195	84.25
241.429	89.25
241.662	71.25
241.896	80.25
242.13	77.25
242.363	76.25
242.597	82.25
242.83	78.25
243.064	83.25
243.298	68.25
243.531	92.25
243.765	82.25
243.998	77.25
244.232	100.25
244.465	99.25
244.699	99.25
244.932	69.25
245.166	88.25
245.399	75.25
245.633	94.25
245.866	100.25
246.099	86.25
246.333	85.25
246.566	89.25
246.8	83.25
247.033	95.25
247.266	95.25
247.5	83.25
247.733	87.25
247.966	86.25
248.2	98.25
248.433	92.25
248.666	93.25
248.899	98.25
249.133	105.25
249.366	113.25
249.599	114.25
249.832	96.25
250.066	105.25
250.299	91.25
250.532	101.25
250.765	101.25
250.998	92.25
251.231	102.25
251.465	102.25
251.698	95.25
251.931	123.25
252.164	85.25
252.397	89.25
252.63	84.25
252.863	88.25
253.096	81.25
253.329	88.25
253.562	86.25
253.795	73.25
254.028	92.25
254.261	92.25
254.494	103.25
254.727	85.25
254.96	101.25
255.193	99.25
255.426	86.25
255.659	99.25
255.892	121.25
256.124	136.25
256.357	107.25
256.59	99.25
256.823	101.25
257.056	94.25
257.289	109.25
257.521	95.25
257.754	88.25
257.987	97.25
258.22	110.25
258.452	136.25
258.685	118.25
258.918	102.25
259.151	89.25
259.383	92.25
259.616	75.25
259.849	94.25
260.081	96.25
260.314	98.25
260.547	114.25
260.779	128.25
261.012	153.25
261.244	174.25
261.477	133.25
261.71	121.25
261.942	144.25
262.175	157.25
262.407	92.25
262.64	60.25
262.872	76.25
263.105	84.25
263.337	92.25
263.57	89.25
263.802	87.25
264.035	82.25
264.267	90.25
264.499	74.25
264.732	97.25
264.964	84.25
265.197	92.25
265.429	87.25
265.661	86.25
265.894	92.25
266.126	81.25
266.358	75.25
266.591	102.25
266.823	99.25
267.055	92.25
267.287	116.25
267.52	101.25
267.752	84.25
267.984	84.25
268.216	93.25
268.448	98.25
268.681	98.25
268.913	97.25
269.145	101.25
269.377	94.25
269.609	92.25
269.841	94.25
270.073	90.25
270.306	99.25
270.538	100.25
270.77	99.25
271.002	87.25
271.234	87.25
271.466	123.25
271.698	108.25
271.93	98.25
272.162	85.25
272.394	95.25
272.626	92.25
272.858	102.25
273.09	100.25
273.322	116.25
273.553	102.25
273.785	101.25
274.017	75.25
274.249	96.25
274.481	90.25
274.713	111.25
274.945	96.25
275.176	117.25
275.408	131.25
275.64	164.25
275.872	194.25
276.104	146.25
276.335	132.25
276.567	142.25
276.799	217.25
277.031	292.25
277.262	390.25
277.494	263.25
277.726	137.25
277.957	121.25
278.189	101.25
278.421	105.25
278.652	100.25
278.884	107.25
279.115	125.25
279.347	121.25
279.579	154.25
279.81	243.25
280.042	410.25
280.273	618.25
280.505	388.25
280.736	154.25
280.968	91.25
281.199	98.25
281.431	110.25
281.662	116.25
281.894	116.25
282.125	109.25
282.356	144.25
282.588	176.25
282.819	153.25
283.051	118.25
283.282	88.25
283.513	82.25
283.745	101.25
283.976	94.25
284.207	96.25
284.439	87.25
284.67	84.25
284.901	85.25
285.132	94.25
285.364	82.25
285.595	90.25
285.826	89.25
286.057	87.25
286.288	102.25
286.52	94.25
286.751	86.25
286.982	93.25
287.213	96.25
287.444	87.25
287.675	77.25
287.906	100.25
288.138	89.25
288.369	106.25
288.6	109.25
288.831	100.25
289.062	103.25
289.293	97.25
289.524	90.25
289.755	84.25
289.986	97.25
290.217	100.25
290.448	91.25
290.679	95.25
290.91	106.25
291.141	97.25
291.371	95.25
291.602	105.25
291.833	101.25
292.064	104.25
292.295	93.25
292.526	97.25
292.757	96.25
292.987	100.25
293.218	94.25
293.449	87.25
293.68	108.25
293.91	92.25
294.141	99.25
294.372	105.25
294.603	98.25
294.833	94.25
295.064	100.25
295.295	90.25
295.525	101.25
295.756	119.25
295.987	132.25
296.217	166.25
296.448	151.25
296.679	105.25
296.909	95.25
297.14	111.25
297.37	104.25
297.601	100.25
297.831	103.25
298.062	108.25
298.292	100.25
298.523	94.25
298.753	84.25
298.984	95.25
299.214	104.25
299.445	104.25
299.675	103.25
299.905	117.25
300.136	101.25
300.366	86.25
300.597	92.25
300.827	102.25
301.057	121.25
301.288	112.25
301.518	112.25
301.748	99.25
301.979	142.25
302.209	122.25
302.439	96.25
302.669	100.25
302.9	107.25
303.13	120.25
303.36	131.25
303.59	195.25
303.82	220.25
304.051	126.25
304.281	105.25
304.511	77.25
304.741	105.25
304.971	88.25
305.201	104.25
305.431	117.25
305.661	113.25
305.891	89.25
306.121	114.25
306.352	121.25
306.582	131.25
306.812	127.25
307.042	199.25
307.272	267.25
307.502	317.25
307.731	274.25
307.961	173.25
308.191	99.25
308.421	94.25
308.651	96.25
308.881	107.25
309.111	101.25
309.341	115.25
309.571	121.25
309.8	111.25
310.03	125.25
310.26	118.25
310.49	109.25
310.72	109.25
310.949	130.25
311.179	129.25
311.409	99.25
311.639	110.25
311.868	117.25
312.098	97.25
312.328	93.25
312.557	113.25
312.787	126.25
313.017	110.25
313.246	95.25
313.476	110.25
313.706	102.25
313.935	102.25
314.165	107.25
314.394	121.25
314.624	119.25
314.853	105.25
315.083	114.25
315.312	89.25
315.542	97.25
315.771	89.25
316.001	93.25
316.23	87.25
316.46	80.25
316.689	100.25
316.919	100.25
317.148	108.25
317.377	116.25
317.607	105.25
317.836	107.25
318.065	95.25
318.295	106.25
318.524	99.25
318.753	100.25
318.983	108.25
319.212	125.25
319.441	105.25
319.67	108.25
319.9	105.25
320.129	99.25
320.358	115.25
320.587	110.25
320.816	117.25
321.046	112.25
321.275	125.25
321.504	111.25
321.733	109.25
321.962	99.25
322.191	115.25
322.42	132.25
322.649	116.25
322.878	116.25
323.108	124.25
323.337	156.25
323.566	164.25
323.795	188.25
324.024	229.25
324.253	442.25
324.482	952.25
324.71	1915.25
324.939	2566.25
325.168	996.25
325.397	290.25
325.626	171.25
325.855	150.25
326.084	143.25
326.313	164.25
326.542	181.25
326.77	267.25
326.999	484.25
327.228	978.25
327.457	1749.25
327.686	1543.25
327.914	745.25
328.143	1040.25
328.372	1513.25
328.6	735.25
328.829	288.25
329.058	256.25
329.287	277.25
329.515	294.25
329.744	480.25
329.972	1053.25
330.201	2368.25
330.43	3534.25
330.658	1353.25
330.887	448.25
331.115	258.25
331.344	151.25
331.572	153.25
331.801	140.25
332.03	130.25
332.258	132.25
332.486	138.25
332.715	148.25
332.943	165.25
333.172	153.25
333.4	170.25
333.629	249.25
333.857	395.25
334.085	870.25
334.314	2024.25
334.542	4248.25
334.771	3917.25
334.999	878.25
335.227	287.25
335.455	171.25
335.684	163.25
335.912	139.25
336.14	131.25
336.369	128.25
336.597	131.25
336.825	125.25
337.053	108.25
337.281	96.25
337.51	114.25
337.738	109.25
337.966	110.25
338.194	120.25
338.422	106.25
338.65	97.25
338.878	116.25
339.106	105.25
339.334	96.25
339.562	105.25
339.79	115.25
340.018	112.25
340.246	111.25
340.474	114.25
340.702	95.25
340.93	104.25
341.158	101.25
341.386	111.25
341.614	104.25
341.842	108.25
342.07	101.25
342.298	106.25
342.526	112.25
342.754	93.25
342.981	106.25
343.209	98.25
343.437	101.25
343.665	90.25
343.893	108.25
344.12	99.25
344.348	100.25
344.576	97.25
344.804	97.25
345.031	109.25
345.259	107.25
345.487	117.25
345.714	96.25
345.942	88.25
346.17	78.25
346.397	105.25
346.625	99.25
346.853	100.25
347.08	97.25
347.308	107.25
347.535	118.25
347.763	122.25
347.99	108.25
348.218	120.25
348.445	118.25
348.673	99.25
348.9	105.25
349.128	100.25
349.355	101.25
349.583	109.25
349.81	99.25
350.037	101.25
350.265	94.25
350.492	84.25
350.72	107.25
350.947	104.25
351.174	124.25
351.402	125.25
351.629	114.25
351.856	108.25
352.083	116.25
352.311	118.25
352.538	127.25
352.765	119.25
352.992	114.25
353.22	117.25
353.447	102.25
353.674	120.25
353.901	100.25
354.128	100.25
354.355	96.25
354.583	96.25
354.81	101.25
355.037	105.25
355.264	95.25
355.491	91.25
355.718	90.25
355.945	100.25
356.172	95.25
356.399	103.25
356.626	110.25
356.853	95.25
357.08	84.25
357.307	83.25
357.534	115.25
357.761	90.25
357.988	95.25
358.215	103.25
358.441	114.25
358.668	106.25
358.895	107.25
359.122	89.25
359.349	100.25
359.576	119.25
359.802	117.25
360.029	154.25
360.256	134.25
360.483	124.25
360.709	108.25
360.936	111.25
361.163	112.25
361.39	108.25
361.616	121.25
361.843	93.25
362.07	104.25
362.296	109.25
362.523	100.25
362.749	114.25
362.976	101.25
363.203	88.25
363.429	97.25
363.656	109.25
363.882	101.25
364.109	95.25
364.335	101.25
364.562	106.25
364.788	110.25
365.015	102.25
365.241	110.25
365.468	130.25
365.694	129.25
365.92	116.25
366.147	100.25
366.373	105.25
366.599	93.25
366.826	94.25
367.052	100.25
367.278	100.25
367.505	96.25
367.731	117.25
367.957	91.25
368.184	96.25
368.41	102.25
368.636	138.25
368.862	131.25
369.089	137.25
369.315	93.25
369.541	107.25
369.767	108.25
369.993	96.25
370.219	102.25
370.445	99.25
370.672	88.25
370.898	76.25
371.124	100.25
371.35	93.25
371.576	102.25
371.802	108.25
372.028	88.25
372.254	81.25
372.48	83.25
372.706	92.25
372.932	84.25
373.158	102.25
373.384	112.25
373.61	92.25
373.835	104.25
374.061	110.25
374.287	102.25
374.513	90.25
374.739	92.25
374.965	88.25
375.191	85.25
375.416	81.25
375.642	83.25
375.868	93.25
376.094	88.25
376.319	89.25
376.545	90.25
376.771	88.25
376.997	96.25
377.222	104.25
377.448	105.25
377.674	91.25
377.899	108.25
378.125	94.25
378.35	97.25
378.576	104.25
378.802	99.25
379.027	97.25
379.253	107.25
379.478	87.25
379.704	94.25
379.929	107.25
380.155	112.25
380.38	86.25
380.606	96.25
380.831	106.25
381.057	109.25
381.282	112.25
381.507	107.25
381.733	120.25
381.958	122.25
382.184	115.25
382.409	120.25
382.634	112.25
382.86	98.25
383.085	100.25
383.31	109.25
383.535	105.25
383.761	97.25
383.986	125.25
384.211	114.25
384.436	104.25
384.662	100.25
384.887	107.25
385.112	118.25
385.337	109.25
385.562	117.25
385.787	128.25
386.013	127.25
386.238	153.25
386.463	116.25
386.688	132.25
386.913	124.25
387.138	119.25
387.363	126.25
387.588	101.25
387.813	108.25
388.038	131.25
388.263	131.25
388.488	125.25
388.713	107.25
388.938	98.25
389.163	94.25
389.387	88.25
389.612	110.25
389.837	96.25
390.062	81.25
390.287	105.25
390.512	93.25
390.736	106.25
390.961	106.25
391.186	89.25
391.411	91.25
391.636	87.25
391.86	93.25
392.085	98.25
392.31	92.25
392.534	103.25
392.759	95.25
392.984	95.25
393.208	91.25
393.433	109.25
393.658	101.25
393.882	94.25
394.107	90.25
394.331	93.25
394.556	84.25
394.78	90.25
395.005	82.25
395.229	101.25
395.454	83.25
395.678	100.25
395.903	92.25
396.127	96.25
396.352	93.25
396.576	90.25
396.801	105.25
397.025	101.25
397.249	102.25
397.474	88.25
397.698	96.25
397.922	107.25
398.147	103.25
398.371	99.25
398.595	95.25
398.82	83.25
399.044	84.25
399.268	89.25
399.492	93.25
399.717	93.25
399.941	89.25
400.165	112.25
400.389	106.25
400.613	92.25
400.837	99.25
401.062	105.25
401.286	100.25
401.51	109.25
401.734	110.25
401.958	117.25
402.182	156.25
402.406	219.25
402.63	160.25
402.854	116.25
403.078	100.25
403.302	92.25
403.526	98.25
403.75	107.25
403.974	98.25
404.198	82.25
404.422	92.25
404.645	93.25
404.869	110.25
405.093	135.25
405.317	182.25
405.541	176.25
405.765	135.25
405.988	151.25
406.212	226.25
406.436	327.25
406.66	225.25
406.883	133.25
407.107	112.25
407.331	120.25
407.555	115.25
407.778	116.25
408.002	105.25
408.226	96.25
408.449	86.25
408.673	88.25
408.896	104.25
409.12	98.25
409.344	107.25
409.567	88.25
409.791	100.25
410.014	104.25
410.238	94.25
410.461	90.25
410.685	96.25
410.908	105.25
411.132	114.25
411.355	109.25
411.578	107.25
411.802	98.25
412.025	105.25
412.249	120.25
412.472	133.25
412.695	180.25
412.919	125.25
413.142	101.25
413.365	88.25
413.589	94.25
413.812	106.25
414.035	112.25
414.258	114.25
414.482	101.25
414.705	105.25
414.928	103.25
415.151	83.25
415.374	90.25
415.597	99.25
415.821	93.25
416.044	98.25
416.267	112.25
416.49	102.25
416.713	104.25
416.936	95.25
417.159	107.25
417.382	125.25
417.605	157.25
417.828	131.25
418.051	118.25
418.274	117.25
418.497	89.25
418.72	85.25
418.943	93.25
419.166	94.25
419.389	113.25
419.611	103.25
419.834	89.25
420.057	84.25
420.28	110.25
420.503	100.25
420.726	82.25
420.948	110.25
421.171	116.25
421.394	107.25
421.617	97.25
421.839	99.25
422.062	98.25
422.285	104.25
422.507	102.25
422.73	123.25
422.953	94.25
423.175	105.25
423.398	91.25
423.621	92.25
423.843	82.25
424.066	68.25
424.288	102.25
424.511	111.25
424.733	90.25
424.956	115.25
425.178	122.25
425.401	109.25
425.623	101.25
425.846	89.25
426.068	98.25
426.291	96.25
426.513	96.25
426.735	108.25
426.958	109.25
427.18	138.25
427.402	198.25
427.625	280.25
427.847	276.25
428.069	262.25
428.292	161.25
428.514	124.25
428.736	114.25
428.958	97.25
429.181	99.25
429.403	99.25
429.625	92.25
429.847	109.25
430.069	115.25
430.292	100.25
430.514	76.25
430.736	96.25
430.958	96.25
431.18	97.25
431.402	91.25
431.624	88.25
431.846	91.25
432.068	90.25
432.29	94.25
432.512	90.25
432.734	104.25
432.956	102.25
433.178	119.25
433.4	103.25
433.622	91.25
433.844	89.25
434.066	107.25
434.287	101.25
434.509	101.25
434.731	96.25
434.953	81.25
435.175	98.25
435.397	104.25
435.618	101.25
435.84	122.25
436.062	139.25
436.284	132.25
436.505	126.25
436.727	99.25
436.949	98.25
437.17	99.25
437.392	92.25
437.614	102.25
437.835	135.25
438.057	156.25
438.278	134.25
438.5	112.25
438.721	135.25
438.943	124.25
439.165	113.25
439.386	112.25
439.608	100.25
439.829	107.25
440.05	162.25
440.272	199.25
440.493	112.25
440.715	94.25
440.936	102.25
441.158	102.25
441.379	108.25
441.6	97.25
441.822	117.25
442.043	109.25
442.264	117.25
442.486	122.25
442.707	102.25
442.928	131.25
443.149	192.25
443.371	176.25
443.592	136.25
443.813	136.25
444.034	117.25
444.255	114.25
444.476	98.25
444.698	90.25
444.919	92.25
445.14	136.25
445.361	140.25
445.582	151.25
445.803	194.25
446.024	186.25
446.245	165.25
446.466	135.25
446.687	102.25
446.908	96.25
447.129	102.25
447.35	97.25
447.571	89.25
447.792	109.25
448.013	110.25
448.234	124.25
448.455	115.25
448.675	145.25
448.896	146.25
449.117	125.25
449.338	127.25
449.559	132.25
449.779	135.25
450	112.25
450.221	106.25
450.442	101.25
450.662	108.25
450.883	135.25
451.104	139.25
451.324	105.25
451.545	95.25
451.766	109.25
451.986	107.25
452.207	98.25
452.428	100.25
452.648	121.25
452.869	139.25
453.089	137.25
453.31	140.25
453.53	111.25
453.751	100.25
453.971	118.25
454.192	123.25
454.412	116.25
454.633	100.25
454.853	91.25
455.073	100.25
455.294	94.25
455.514	130.25
455.734	109.25
455.955	106.25
456.175	93.25
456.395	93.25
456.616	89.25
456.836	105.25
457.056	90.25
457.276	94.25
457.497	84.25
457.717	102.25
457.937	98.25
458.157	106.25
458.377	101.25
458.598	135.25
458.818	214.25
459.038	252.25
459.258	156.25
459.478	100.25
459.698	87.25
459.918	85.25
460.138	93.25
460.358	82.25
460.578	108.25
460.798	116.25
461.018	111.25
461.238	91.25
461.458	91.25
461.678	83.25
461.898	101.25
462.118	89.25
462.338	100.25
462.558	106.25
462.777	104.25
462.997	129.25
463.217	147.25
463.437	128.25
463.657	90.25
463.876	97.25
464.096	112.25
464.316	111.25
464.536	101.25
464.755	116.25
464.975	129.25
465.195	239.25
465.414	271.25
465.634	118.25
465.854	104.25
466.073	110.25
466.293	103.25
466.512	122.25
466.732	103.25
466.951	112.25
467.171	116.25
467.391	147.25
467.61	198.25
467.829	410.25
468.049	1372.25
468.268	2199.25
468.488	442.25
468.707	154.25
468.927	112.25
469.146	95.25
469.365	114.25
469.585	104.25
469.804	116.25
470.023	122.25
470.243	122.25
470.462	130.25
470.681	162.25
470.901	114.25
471.12	130.25
471.339	120.25
471.558	162.25
471.777	237.25
471.997	600.25
472.216	2501.25
472.435	6098.25
472.654	1252.25
472.873	283.25
473.092	150.25
473.311	121.25
473.53	116.25
473.749	93.25
473.968	115.25
474.187	133.25
474.406	108.25
474.625	104.25
474.844	102.25
475.063	103.25
475.282	96.25
475.501	91.25
475.72	102.25
475.939	103.25
476.158	90.25
476.377	94.25
476.596	108.25
476.814	96.25
477.033	124.25
477.252	102.25
477.471	115.25
477.69	108.25
477.908	108.25
478.127	102.25
478.346	104.25
478.564	128.25
478.783	124.25
479.002	118.25
479.22	135.25
479.439	149.25
479.658	160.25
479.876	157.25
480.095	148.25
480.313	189.25
480.532	273.25
480.751	536.25
480.969	2152.25
481.188	9621.25
481.406	5437.25
481.624	693.25
481.843	231.25
482.061	146.25
482.28	118.25
482.498	121.25
482.717	113.25
482.935	105.25
483.153	107.25
483.372	97.25
483.59	104.25
483.808	106.25
484.027	106.25
484.245	111.25
484.463	114.25
484.681	106.25
484.9	94.25
485.118	100.25
485.336	112.25
485.554	112.25
485.772	113.25
485.99	103.25
486.209	129.25
486.427	120.25
486.645	138.25
486.863	149.25
487.081	118.25
487.299	121.25
487.517	117.25
487.735	105.25
487.953	104.25
488.171	80.25
488.389	110.25
488.607	114.25
488.825	116.25
489.043	93.25
489.261	83.25
489.479	94.25
489.696	92.25
489.914	92.25
490.132	92.25
490.35	100.25
490.568	110.25
490.786	96.25
491.003	100.25
491.221	109.25
491.439	117.25
491.657	109.25
491.874	90.25
492.092	108.25
492.31	109.25
492.527	131.25
492.745	116.25
492.963	105.25
493.18	98.25
493.398	117.25
493.615	106.25
493.833	104.25
494.05	92.25
494.268	92.25
494.485	88.25
494.703	107.25
494.92	90.25
495.138	106.25
495.355	117.25
495.573	100.25
495.79	95.25
496.008	101.25
496.225	100.25
496.442	102.25
496.66	107.25
496.877	100.25
497.094	109.25
497.312	93.25
497.529	104.25
497.746	88.25
497.963	81.25
498.181	106.25
498.398	88.25
498.615	129.25
498.832	118.25
499.049	103.25
499.267	102.25
499.484	96.25
499.701	92.25
499.918	108.25
500.135	100.25
500.352	119.25
500.569	110.25
500.786	126.25
501.003	96.25
501.22	86.25
501.437	102.25
501.654	114.25
501.871	134.25
502.088	101.25
502.305	94.25
502.522	89.25
502.739	102.25
502.956	109.25
503.172	114.25
503.389	115.25
503.606	113.25
503.823	122.25
504.04	110.25
504.256	88.25
504.473	101.25
504.69	94.25
504.907	98.25
505.123	93.25
505.34	73.25
505.557	110.25
505.773	89.25
505.99	108.25
506.207	84.25
506.423	88.25
506.64	103.25
506.856	101.25
507.073	106.25
507.289	101.25
507.506	108.25
507.722	147.25
507.939	153.25
508.155	97.25
508.372	118.25
508.588	109.25
508.805	101.25
