Data from Circ_1988_H10_HRD10591_00071.txt Node
Date: Wed Jan 03 12:05:49 EST 2024
User: Yrep
Spectrometer: HR+D1059
Trigger mode: 1
Integration Time (sec): 1.000000E-1
Scans to average: 1
Electric dark correction enabled: true
Nonlinearity correction enabled: false
Boxcar width: 0
XAxis mode: Wavelengths
Number of Pixels in Spectrum: 2048
>>>>>Begin Spectral Data<<<<<
223.165	-17.38
223.4	-17.38
223.635	-17.38
223.869	-21.38
224.104	-21.38
224.338	-21.38
224.573	-18.38
224.808	-15.38
225.042	-0.38
225.277	-11.38
225.511	-8.38
225.746	4.62
225.98	6.62
226.215	15.62
226.449	26.62
226.683	24.62
226.918	26.62
227.152	30.62
227.387	30.62
227.621	37.62
227.856	35.62
228.09	52.62
228.324	55.62
228.559	48.62
228.793	61.62
229.027	54.62
229.262	66.62
229.496	81.62
229.73	98.62
229.964	93.62
230.199	82.62
230.433	70.62
230.667	77.62
230.901	81.62
231.136	64.62
231.37	86.62
231.604	91.62
231.838	83.62
232.072	86.62
232.306	86.62
232.541	81.62
232.775	75.62
233.009	79.62
233.243	74.62
233.477	77.62
233.711	89.62
233.945	89.62
234.179	56.62
234.413	90.62
234.647	80.62
234.881	80.62
235.115	56.62
235.349	84.62
235.583	88.62
235.817	89.62
236.051	75.62
236.285	77.62
236.519	66.62
236.753	81.62
236.987	77.62
237.221	83.62
237.455	98.62
237.689	80.62
237.922	91.62
238.156	84.62
238.39	73.62
238.624	74.62
238.858	80.62
239.091	77.62
239.325	76.62
239.559	70.62
239.793	77.62
240.027	93.62
240.26	90.62
240.494	85.62
240.728	85.62
240.961	89.62
241.195	82.62
241.429	71.62
241.662	83.62
241.896	69.62
242.13	64.62
242.363	80.62
242.597	83.62
242.83	86.62
243.064	79.62
243.298	77.62
243.531	74.62
243.765	85.62
243.998	85.62
244.232	90.62
244.465	95.62
244.699	85.62
244.932	79.62
245.166	83.62
245.399	77.62
245.633	79.62
245.866	84.62
246.099	90.62
246.333	88.62
246.566	94.62
246.8	85.62
247.033	78.62
247.266	79.62
247.5	86.62
247.733	74.62
247.966	84.62
248.2	78.62
248.433	80.62
248.666	87.62
248.899	97.62
249.133	100.62
249.366	98.62
249.599	116.62
249.832	105.62
250.066	89.62
250.299	82.62
250.532	108.62
250.765	83.62
250.998	86.62
251.231	77.62
251.465	86.62
251.698	96.62
251.931	103.62
252.164	89.62
252.397	93.62
252.63	105.62
252.863	79.62
253.096	90.62
253.329	82.62
253.562	89.62
253.795	81.62
254.028	89.62
254.261	82.62
254.494	89.62
254.727	86.62
254.96	82.62
255.193	69.62
255.426	80.62
255.659	88.62
255.892	124.62
256.124	135.62
256.357	98.62
256.59	82.62
256.823	89.62
257.056	96.62
257.289	106.62
257.521	74.62
257.754	88.62
257.987	87.62
258.22	93.62
258.452	116.62
258.685	120.62
258.918	87.62
259.151	91.62
259.383	102.62
259.616	68.62
259.849	85.62
260.081	105.62
260.314	104.62
260.547	98.62
260.779	110.62
261.012	137.62
261.244	129.62
261.477	116.62
261.71	108.62
261.942	133.62
262.175	150.62
262.407	111.62
262.64	98.62
262.872	89.62
263.105	87.62
263.337	99.62
263.57	87.62
263.802	83.62
264.035	89.62
264.267	79.62
264.499	75.62
264.732	72.62
264.964	86.62
265.197	80.62
265.429	90.62
265.661	79.62
265.894	84.62
266.126	102.62
266.358	94.62
266.591	81.62
266.823	87.62
267.055	79.62
267.287	90.62
267.52	85.62
267.752	83.62
267.984	81.62
268.216	101.62
268.448	94.62
268.681	101.62
268.913	97.62
269.145	87.62
269.377	90.62
269.609	72.62
269.841	79.62
270.073	90.62
270.306	83.62
270.538	91.62
270.77	84.62
271.002	87.62
271.234	89.62
271.466	112.62
271.698	101.62
271.93	73.62
272.162	88.62
272.394	100.62
272.626	85.62
272.858	94.62
273.09	90.62
273.322	99.62
273.553	90.62
273.785	77.62
274.017	90.62
274.249	90.62
274.481	92.62
274.713	87.62
274.945	93.62
275.176	90.62
275.408	122.62
275.64	146.62
275.872	168.62
276.104	126.62
276.335	113.62
276.567	130.62
276.799	194.62
277.031	266.62
277.262	354.62
277.494	240.62
277.726	130.62
277.957	99.62
278.189	101.62
278.421	93.62
278.652	102.62
278.884	98.62
279.115	104.62
279.347	114.62
279.579	119.62
279.81	180.62
280.042	344.62
280.273	505.62
280.505	323.62
280.736	147.62
280.968	112.62
281.199	100.62
281.431	83.62
281.662	109.62
281.894	91.62
282.125	93.62
282.356	128.62
282.588	196.62
282.819	146.62
283.051	96.62
283.282	97.62
283.513	90.62
283.745	87.62
283.976	93.62
284.207	88.62
284.439	84.62
284.67	94.62
284.901	89.62
285.132	101.62
285.364	97.62
285.595	75.62
285.826	83.62
286.057	92.62
286.288	93.62
286.52	81.62
286.751	93.62
286.982	87.62
287.213	95.62
287.444	94.62
287.675	94.62
287.906	84.62
288.138	97.62
288.369	102.62
288.6	103.62
288.831	100.62
289.062	94.62
289.293	103.62
289.524	75.62
289.755	81.62
289.986	86.62
290.217	97.62
290.448	93.62
290.679	74.62
290.91	100.62
291.141	81.62
291.371	88.62
291.602	96.62
291.833	78.62
292.064	94.62
292.295	78.62
292.526	101.62
292.757	91.62
292.987	94.62
293.218	89.62
293.449	97.62
293.68	82.62
293.91	94.62
294.141	85.62
294.372	89.62
294.603	91.62
294.833	89.62
295.064	107.62
295.295	87.62
295.525	94.62
295.756	115.62
295.987	135.62
296.217	166.62
296.448	143.62
296.679	112.62
296.909	90.62
297.14	103.62
297.37	81.62
297.601	89.62
297.831	77.62
298.062	90.62
298.292	99.62
298.523	93.62
298.753	99.62
298.984	97.62
299.214	93.62
299.445	88.62
299.675	91.62
299.905	105.62
300.136	103.62
300.366	99.62
300.597	87.62
300.827	85.62
301.057	114.62
301.288	125.62
301.518	104.62
301.748	97.62
301.979	134.62
302.209	122.62
302.439	112.62
302.669	96.62
302.9	97.62
303.13	109.62
303.36	122.62
303.59	167.62
303.82	186.62
304.051	114.62
304.281	100.62
304.511	104.62
304.741	93.62
304.971	99.62
305.201	101.62
305.431	100.62
305.661	96.62
305.891	96.62
306.121	98.62
306.352	106.62
306.582	136.62
306.812	119.62
307.042	167.62
307.272	253.62
307.502	277.62
307.731	238.62
307.961	178.62
308.191	115.62
308.421	97.62
308.651	92.62
308.881	98.62
309.111	104.62
309.341	111.62
309.571	104.62
309.8	102.62
310.03	100.62
310.26	113.62
310.49	104.62
310.72	91.62
310.949	116.62
311.179	122.62
311.409	114.62
311.639	99.62
311.868	108.62
312.098	108.62
312.328	99.62
312.557	112.62
312.787	131.62
313.017	129.62
313.246	109.62
313.476	110.62
313.706	99.62
313.935	111.62
314.165	101.62
314.394	100.62
314.624	90.62
314.853	111.62
315.083	102.62
315.312	95.62
315.542	95.62
315.771	96.62
316.001	92.62
316.23	115.62
316.46	96.62
316.689	98.62
316.919	107.62
317.148	102.62
317.377	103.62
317.607	101.62
317.836	112.62
318.065	105.62
318.295	101.62
318.524	95.62
318.753	102.62
318.983	108.62
319.212	110.62
319.441	121.62
319.67	117.62
319.9	116.62
320.129	112.62
320.358	106.62
320.587	109.62
320.816	112.62
321.046	104.62
321.275	96.62
321.504	85.62
321.733	104.62
321.962	100.62
322.191	108.62
322.42	104.62
322.649	115.62
322.878	118.62
323.108	135.62
323.337	130.62
323.566	161.62
323.795	181.62
324.024	216.62
324.253	405.62
324.482	859.62
324.71	1711.62
324.939	2294.62
325.168	882.62
325.397	281.62
325.626	173.62
325.855	139.62
326.084	147.62
326.313	144.62
326.542	181.62
326.77	241.62
326.999	394.62
327.228	874.62
327.457	1564.62
327.686	1355.62
327.914	655.62
328.143	876.62
328.372	1254.62
328.6	651.62
328.829	245.62
329.058	218.62
329.287	235.62
329.515	236.62
329.744	399.62
329.972	888.62
330.201	1922.62
330.43	3009.62
330.658	1179.62
330.887	405.62
331.115	231.62
331.344	130.62
331.572	140.62
331.801	158.62
332.03	142.62
332.258	113.62
332.486	106.62
332.715	129.62
332.943	149.62
333.172	155.62
333.4	186.62
333.629	217.62
333.857	352.62
334.085	750.62
334.314	1661.62
334.542	3464.62
334.771	3292.62
334.999	773.62
335.227	269.62
335.455	150.62
335.684	144.62
335.912	135.62
336.14	126.62
336.369	113.62
336.597	101.62
336.825	111.62
337.053	96.62
337.281	114.62
337.51	116.62
337.738	116.62
337.966	113.62
338.194	119.62
338.422	98.62
338.65	109.62
338.878	102.62
339.106	102.62
339.334	106.62
339.562	89.62
339.79	107.62
340.018	98.62
340.246	115.62
340.474	93.62
340.702	89.62
340.93	103.62
341.158	112.62
341.386	103.62
341.614	106.62
341.842	108.62
342.07	99.62
342.298	97.62
342.526	88.62
342.754	97.62
342.981	104.62
343.209	86.62
343.437	100.62
343.665	88.62
343.893	102.62
344.12	116.62
344.348	87.62
344.576	102.62
344.804	101.62
345.031	109.62
345.259	106.62
345.487	91.62
345.714	109.62
345.942	109.62
346.17	98.62
346.397	90.62
346.625	88.62
346.853	104.62
347.08	99.62
347.308	102.62
347.535	105.62
347.763	112.62
347.99	114.62
348.218	112.62
348.445	120.62
348.673	113.62
348.9	89.62
349.128	110.62
349.355	104.62
349.583	104.62
349.81	98.62
350.037	109.62
350.265	88.62
350.492	107.62
350.72	97.62
350.947	98.62
351.174	116.62
351.402	127.62
351.629	117.62
351.856	102.62
352.083	107.62
352.311	113.62
352.538	121.62
352.765	124.62
352.992	121.62
353.22	115.62
353.447	102.62
353.674	99.62
353.901	101.62
354.128	95.62
354.355	94.62
354.583	95.62
354.81	105.62
355.037	85.62
355.264	97.62
355.491	85.62
355.718	94.62
355.945	106.62
356.172	86.62
356.399	106.62
356.626	106.62
356.853	104.62
357.08	81.62
357.307	80.62
357.534	76.62
357.761	87.62
357.988	100.62
358.215	95.62
358.441	98.62
358.668	91.62
358.895	96.62
359.122	104.62
359.349	91.62
359.576	95.62
359.802	121.62
360.029	143.62
360.256	138.62
360.483	121.62
360.709	89.62
360.936	108.62
361.163	111.62
361.39	105.62
361.616	104.62
361.843	107.62
362.07	105.62
362.296	104.62
362.523	95.62
362.749	110.62
362.976	111.62
363.203	103.62
363.429	98.62
363.656	97.62
363.882	106.62
364.109	91.62
364.335	100.62
364.562	94.62
364.788	103.62
365.015	105.62
365.241	107.62
365.468	130.62
365.694	111.62
365.92	107.62
366.147	85.62
366.373	102.62
366.599	105.62
366.826	94.62
367.052	81.62
367.278	104.62
367.505	106.62
367.731	112.62
367.957	87.62
368.184	101.62
368.41	100.62
368.636	124.62
368.862	114.62
369.089	119.62
369.315	98.62
369.541	104.62
369.767	92.62
369.993	86.62
370.219	93.62
370.445	95.62
370.672	83.62
370.898	87.62
371.124	95.62
371.35	95.62
371.576	95.62
371.802	71.62
372.028	92.62
372.254	78.62
372.48	90.62
372.706	93.62
372.932	81.62
373.158	93.62
373.384	87.62
373.61	94.62
373.835	94.62
374.061	95.62
374.287	98.62
374.513	82.62
374.739	112.62
374.965	88.62
375.191	93.62
375.416	88.62
375.642	98.62
375.868	84.62
376.094	85.62
376.319	98.62
376.545	82.62
376.771	88.62
376.997	90.62
377.222	104.62
377.448	82.62
377.674	87.62
377.899	96.62
378.125	90.62
378.35	97.62
378.576	93.62
378.802	93.62
379.027	84.62
379.253	111.62
379.478	91.62
379.704	100.62
379.929	102.62
380.155	100.62
380.38	102.62
380.606	105.62
380.831	101.62
381.057	90.62
381.282	93.62
381.507	109.62
381.733	99.62
381.958	96.62
382.184	103.62
382.409	111.62
382.634	115.62
382.86	102.62
383.085	99.62
383.31	98.62
383.535	100.62
383.761	97.62
383.986	88.62
384.211	104.62
384.436	103.62
384.662	96.62
384.887	96.62
385.112	101.62
385.337	115.62
385.562	101.62
385.787	108.62
386.013	103.62
386.238	112.62
386.463	112.62
386.688	119.62
386.913	107.62
387.138	112.62
387.363	99.62
387.588	97.62
387.813	95.62
388.038	113.62
388.263	121.62
388.488	109.62
388.713	94.62
388.938	88.62
389.163	94.62
389.387	95.62
389.612	96.62
389.837	83.62
390.062	98.62
390.287	74.62
390.512	93.62
390.736	83.62
390.961	92.62
391.186	90.62
391.411	78.62
391.636	100.62
391.86	96.62
392.085	90.62
392.31	79.62
392.534	101.62
392.759	96.62
392.984	93.62
393.208	98.62
393.433	89.62
393.658	85.62
393.882	80.62
394.107	93.62
394.331	71.62
394.556	96.62
394.78	87.62
395.005	83.62
395.229	81.62
395.454	79.62
395.678	81.62
395.903	83.62
396.127	104.62
396.352	100.62
396.576	83.62
396.801	103.62
397.025	88.62
397.249	89.62
397.474	90.62
397.698	91.62
397.922	92.62
398.147	83.62
398.371	88.62
398.595	87.62
398.82	94.62
399.044	104.62
399.268	88.62
399.492	85.62
399.717	93.62
399.941	93.62
400.165	105.62
400.389	97.62
400.613	83.62
400.837	85.62
401.062	96.62
401.286	85.62
401.51	102.62
401.734	95.62
401.958	105.62
402.182	148.62
402.406	185.62
402.63	143.62
402.854	117.62
403.078	98.62
403.302	84.62
403.526	81.62
403.75	94.62
403.974	103.62
404.198	89.62
404.422	100.62
404.645	107.62
404.869	114.62
405.093	142.62
405.317	165.62
405.541	157.62
405.765	147.62
405.988	141.62
406.212	209.62
406.436	295.62
406.66	223.62
406.883	127.62
407.107	106.62
407.331	109.62
407.555	121.62
407.778	100.62
408.002	85.62
408.226	100.62
408.449	78.62
408.673	95.62
408.896	89.62
409.12	97.62
409.344	101.62
409.567	102.62
409.791	104.62
410.014	91.62
410.238	83.62
410.461	84.62
410.685	93.62
410.908	99.62
411.132	118.62
411.355	105.62
411.578	95.62
411.802	88.62
412.025	94.62
412.249	105.62
412.472	134.62
412.695	167.62
412.919	124.62
413.142	110.62
413.365	93.62
413.589	104.62
413.812	94.62
414.035	114.62
414.258	105.62
414.482	102.62
414.705	99.62
414.928	93.62
415.151	83.62
415.374	80.62
415.597	83.62
415.821	100.62
416.044	89.62
416.267	105.62
416.49	106.62
416.713	102.62
416.936	105.62
417.159	97.62
417.382	107.62
417.605	119.62
417.828	126.62
418.051	106.62
418.274	100.62
418.497	85.62
418.72	91.62
418.943	90.62
419.166	102.62
419.389	99.62
419.611	96.62
419.834	88.62
420.057	89.62
420.28	119.62
420.503	104.62
420.726	89.62
420.948	103.62
421.171	107.62
421.394	87.62
421.617	95.62
421.839	90.62
422.062	83.62
422.285	86.62
422.507	116.62
422.73	102.62
422.953	105.62
423.175	93.62
423.398	106.62
423.621	84.62
423.843	87.62
424.066	84.62
424.288	93.62
424.511	104.62
424.733	122.62
424.956	118.62
425.178	123.62
425.401	114.62
425.623	114.62
425.846	107.62
426.068	85.62
426.291	95.62
426.513	96.62
426.735	89.62
426.958	96.62
427.18	110.62
427.402	184.62
427.625	243.62
427.847	246.62
428.069	221.62
428.292	145.62
428.514	117.62
428.736	94.62
428.958	94.62
429.181	94.62
429.403	89.62
429.625	101.62
429.847	89.62
430.069	125.62
430.292	100.62
430.514	77.62
430.736	87.62
430.958	82.62
431.18	82.62
431.402	79.62
431.624	80.62
431.846	87.62
432.068	80.62
432.29	72.62
432.512	97.62
432.734	88.62
432.956	100.62
433.178	106.62
433.4	103.62
433.622	82.62
433.844	74.62
434.066	93.62
434.287	98.62
434.509	86.62
434.731	77.62
434.953	91.62
435.175	99.62
435.397	104.62
435.618	94.62
435.84	101.62
436.062	139.62
436.284	129.62
436.505	95.62
436.727	112.62
436.949	108.62
437.17	80.62
437.392	85.62
437.614	94.62
437.835	128.62
438.057	141.62
438.278	122.62
438.5	108.62
438.721	147.62
438.943	107.62
439.165	94.62
439.386	82.62
439.608	94.62
439.829	117.62
440.05	147.62
440.272	174.62
440.493	115.62
440.715	98.62
440.936	90.62
441.158	105.62
441.379	98.62
441.6	107.62
441.822	110.62
442.043	97.62
442.264	114.62
442.486	121.62
442.707	95.62
442.928	117.62
443.149	175.62
443.371	179.62
443.592	147.62
443.813	141.62
444.034	130.62
444.255	101.62
444.476	90.62
444.698	90.62
444.919	84.62
445.14	138.62
445.361	122.62
445.582	130.62
445.803	179.62
446.024	176.62
446.245	155.62
446.466	128.62
446.687	107.62
446.908	108.62
447.129	94.62
447.35	109.62
447.571	97.62
447.792	95.62
448.013	105.62
448.234	127.62
448.455	103.62
448.675	141.62
448.896	135.62
449.117	103.62
449.338	106.62
449.559	151.62
449.779	162.62
450	96.62
450.221	97.62
450.442	96.62
450.662	107.62
450.883	121.62
451.104	128.62
451.324	103.62
451.545	89.62
451.766	75.62
451.986	96.62
452.207	93.62
452.428	79.62
452.648	113.62
452.869	128.62
453.089	141.62
453.31	152.62
453.53	109.62
453.751	104.62
453.971	117.62
454.192	131.62
454.412	110.62
454.633	91.62
454.853	92.62
455.073	95.62
455.294	92.62
455.514	101.62
455.734	107.62
455.955	95.62
456.175	95.62
456.395	73.62
456.616	87.62
456.836	94.62
457.056	90.62
457.276	95.62
457.497	71.62
457.717	85.62
457.937	88.62
458.157	97.62
458.377	99.62
458.598	123.62
458.818	222.62
459.038	226.62
459.258	140.62
459.478	97.62
459.698	93.62
459.918	77.62
460.138	99.62
460.358	89.62
460.578	85.62
460.798	100.62
461.018	97.62
461.238	101.62
461.458	105.62
461.678	99.62
461.898	97.62
462.118	105.62
462.338	89.62
462.558	98.62
462.777	106.62
462.997	109.62
463.217	128.62
463.437	113.62
463.657	116.62
463.876	92.62
464.096	93.62
464.316	101.62
464.536	90.62
464.755	114.62
464.975	130.62
465.195	248.62
465.414	254.62
465.634	110.62
465.854	97.62
466.073	100.62
466.293	100.62
466.512	106.62
466.732	100.62
466.951	102.62
467.171	95.62
467.391	134.62
467.61	185.62
467.829	348.62
468.049	1241.62
468.268	1921.62
468.488	414.62
468.707	136.62
468.927	117.62
469.146	94.62
469.365	104.62
469.585	100.62
469.804	119.62
470.023	116.62
470.243	117.62
470.462	119.62
470.681	145.62
470.901	121.62
471.12	112.62
471.339	125.62
471.558	154.62
471.777	237.62
471.997	525.62
472.216	2247.62
472.435	5299.62
472.654	1120.62
472.873	248.62
473.092	141.62
473.311	122.62
473.53	106.62
473.749	101.62
473.968	126.62
474.187	129.62
474.406	114.62
474.625	116.62
474.844	96.62
475.063	94.62
475.282	106.62
475.501	95.62
475.72	97.62
475.939	88.62
476.158	108.62
476.377	97.62
476.596	83.62
476.814	112.62
477.033	111.62
477.252	108.62
477.471	102.62
477.69	88.62
477.908	93.62
478.127	103.62
478.346	99.62
478.564	100.62
478.783	111.62
479.002	121.62
479.22	119.62
479.439	121.62
479.658	146.62
479.876	142.62
480.095	143.62
480.313	160.62
480.532	243.62
480.751	486.62
480.969	1865.62
481.188	8617.62
481.406	4810.62
481.624	596.62
481.843	218.62
482.061	130.62
482.28	111.62
482.498	102.62
482.717	128.62
482.935	114.62
483.153	96.62
483.372	102.62
483.59	108.62
483.808	98.62
484.027	100.62
484.245	88.62
484.463	101.62
484.681	105.62
484.9	104.62
485.118	110.62
485.336	103.62
485.554	104.62
485.772	118.62
485.99	111.62
486.209	101.62
486.427	113.62
486.645	130.62
486.863	126.62
487.081	111.62
487.299	101.62
487.517	101.62
487.735	81.62
487.953	93.62
488.171	104.62
488.389	97.62
488.607	95.62
488.825	98.62
489.043	91.62
489.261	86.62
489.479	91.62
489.696	94.62
489.914	97.62
490.132	98.62
490.35	98.62
490.568	103.62
490.786	97.62
491.003	81.62
491.221	98.62
491.439	113.62
491.657	96.62
491.874	97.62
492.092	107.62
492.31	102.62
492.527	117.62
492.745	114.62
492.963	89.62
493.18	104.62
493.398	103.62
493.615	102.62
493.833	101.62
494.05	114.62
494.268	106.62
494.485	102.62
494.703	90.62
494.92	87.62
495.138	71.62
495.355	95.62
495.573	87.62
495.79	97.62
496.008	103.62
496.225	88.62
496.442	90.62
496.66	104.62
496.877	97.62
497.094	92.62
497.312	98.62
497.529	94.62
497.746	87.62
497.963	97.62
498.181	94.62
498.398	101.62
498.615	113.62
498.832	109.62
499.049	110.62
499.267	78.62
499.484	82.62
499.701	104.62
499.918	87.62
500.135	90.62
500.352	91.62
500.569	96.62
500.786	98.62
501.003	102.62
501.22	94.62
501.437	84.62
501.654	110.62
501.871	119.62
502.088	95.62
502.305	105.62
502.522	86.62
502.739	83.62
502.956	74.62
503.172	90.62
503.389	113.62
503.606	153.62
503.823	109.62
504.04	107.62
504.256	79.62
504.473	80.62
504.69	91.62
504.907	101.62
505.123	102.62
505.34	83.62
505.557	97.62
505.773	92.62
505.99	90.62
506.207	97.62
506.423	96.62
506.64	84.62
506.856	81.62
507.073	86.62
507.289	104.62
507.506	107.62
507.722	140.62
507.939	137.62
508.155	104.62
508.372	92.62
508.588	110.62
508.805	96.62
509.021	98.62
509.238	100.62
509.454	96.62
509.67	100.62
509.887	126.62
510.103	152.62
510.319	243.62
510.536	975.62
510.752	3470.62
510.968	919.62
