Data from Circ_1988_H10_HRD10591_00022.txt Node
Date: Wed Jan 03 12:05:39 EST 2024
User: Yrep
Spectrometer: HR+D1059
Trigger mode: 1
Integration Time (sec): 1.000000E-1
Scans to average: 1
Electric dark correction enabled: true
Nonlinearity correction enabled: false
Boxcar width: 0
XAxis mode: Wavelengths
Number of Pixels in Spectrum: 2048
>>>>>Begin Spectral Data<<<<<
223.165	-14.38
223.4	-14.38
223.635	-14.38
223.869	-16.38
224.104	-14.38
224.338	-2.38
224.573	-10.38
224.808	-11.38
225.042	-10.38
225.277	0.62
225.511	-11.38
225.746	-2.38
225.98	5.62
226.215	1.62
226.449	9.62
226.683	17.62
226.918	22.62
227.152	35.62
227.387	27.62
227.621	36.62
227.856	41.62
228.09	45.62
228.324	51.62
228.559	58.62
228.793	63.62
229.027	51.62
229.262	57.62
229.496	73.62
229.73	98.62
229.964	96.62
230.199	78.62
230.433	65.62
230.667	86.62
230.901	90.62
231.136	66.62
231.37	91.62
231.604	85.62
231.838	91.62
232.072	72.62
232.306	69.62
232.541	92.62
232.775	93.62
233.009	91.62
233.243	85.62
233.477	78.62
233.711	100.62
233.945	82.62
234.179	89.62
234.413	73.62
234.647	65.62
234.881	67.62
235.115	84.62
235.349	81.62
235.583	78.62
235.817	81.62
236.051	85.62
236.285	77.62
236.519	84.62
236.753	80.62
236.987	91.62
237.221	104.62
237.455	85.62
237.689	89.62
237.922	59.62
238.156	82.62
238.39	87.62
238.624	66.62
238.858	71.62
239.091	74.62
239.325	85.62
239.559	78.62
239.793	90.62
240.027	92.62
240.26	89.62
240.494	79.62
240.728	80.62
240.961	94.62
241.195	59.62
241.429	73.62
241.662	73.62
241.896	78.62
242.13	84.62
242.363	80.62
242.597	78.62
242.83	63.62
243.064	73.62
243.298	83.62
243.531	95.62
243.765	90.62
243.998	82.62
244.232	77.62
244.465	96.62
244.699	84.62
244.932	89.62
245.166	91.62
245.399	81.62
245.633	89.62
245.866	94.62
246.099	71.62
246.333	96.62
246.566	89.62
246.8	88.62
247.033	77.62
247.266	82.62
247.5	74.62
247.733	80.62
247.966	81.62
248.2	109.62
248.433	90.62
248.666	87.62
248.899	103.62
249.133	87.62
249.366	121.62
249.599	133.62
249.832	98.62
250.066	92.62
250.299	92.62
250.532	96.62
250.765	89.62
250.998	86.62
251.231	89.62
251.465	83.62
251.698	107.62
251.931	101.62
252.164	108.62
252.397	85.62
252.63	82.62
252.863	87.62
253.096	92.62
253.329	82.62
253.562	93.62
253.795	90.62
254.028	96.62
254.261	85.62
254.494	81.62
254.727	79.62
254.96	96.62
255.193	89.62
255.426	85.62
255.659	78.62
255.892	97.62
256.124	109.62
256.357	106.62
256.59	102.62
256.823	81.62
257.056	99.62
257.289	119.62
257.521	105.62
257.754	89.62
257.987	98.62
258.22	105.62
258.452	138.62
258.685	125.62
258.918	98.62
259.151	88.62
259.383	91.62
259.616	106.62
259.849	90.62
260.081	97.62
260.314	113.62
260.547	87.62
260.779	108.62
261.012	163.62
261.244	175.62
261.477	116.62
261.71	109.62
261.942	145.62
262.175	158.62
262.407	102.62
262.64	90.62
262.872	90.62
263.105	84.62
263.337	93.62
263.57	90.62
263.802	88.62
264.035	86.62
264.267	84.62
264.499	82.62
264.732	81.62
264.964	89.62
265.197	81.62
265.429	92.62
265.661	84.62
265.894	88.62
266.126	90.62
266.358	85.62
266.591	82.62
266.823	92.62
267.055	102.62
267.287	86.62
267.52	88.62
267.752	94.62
267.984	86.62
268.216	102.62
268.448	103.62
268.681	102.62
268.913	85.62
269.145	80.62
269.377	87.62
269.609	86.62
269.841	95.62
270.073	91.62
270.306	88.62
270.538	101.62
270.77	88.62
271.002	95.62
271.234	91.62
271.466	117.62
271.698	109.62
271.93	108.62
272.162	97.62
272.394	94.62
272.626	93.62
272.858	94.62
273.09	81.62
273.322	84.62
273.553	89.62
273.785	81.62
274.017	88.62
274.249	96.62
274.481	95.62
274.713	99.62
274.945	106.62
275.176	114.62
275.408	119.62
275.64	167.62
275.872	199.62
276.104	147.62
276.335	130.62
276.567	134.62
276.799	212.62
277.031	308.62
277.262	421.62
277.494	289.62
277.726	155.62
277.957	122.62
278.189	98.62
278.421	98.62
278.652	81.62
278.884	94.62
279.115	106.62
279.347	118.62
279.579	155.62
279.81	233.62
280.042	429.62
280.273	632.62
280.505	392.62
280.736	166.62
280.968	95.62
281.199	99.62
281.431	88.62
281.662	102.62
281.894	117.62
282.125	98.62
282.356	146.62
282.588	196.62
282.819	130.62
283.051	98.62
283.282	91.62
283.513	102.62
283.745	99.62
283.976	96.62
284.207	71.62
284.439	90.62
284.67	106.62
284.901	105.62
285.132	105.62
285.364	94.62
285.595	94.62
285.826	88.62
286.057	89.62
286.288	70.62
286.52	92.62
286.751	94.62
286.982	95.62
287.213	74.62
287.444	89.62
287.675	81.62
287.906	85.62
288.138	87.62
288.369	85.62
288.6	100.62
288.831	96.62
289.062	75.62
289.293	69.62
289.524	86.62
289.755	90.62
289.986	93.62
290.217	97.62
290.448	109.62
290.679	101.62
290.91	99.62
291.141	80.62
291.371	90.62
291.602	99.62
291.833	96.62
292.064	87.62
292.295	97.62
292.526	96.62
292.757	96.62
292.987	93.62
293.218	113.62
293.449	90.62
293.68	87.62
293.91	97.62
294.141	91.62
294.372	89.62
294.603	87.62
294.833	93.62
295.064	96.62
295.295	101.62
295.525	93.62
295.756	130.62
295.987	138.62
296.217	177.62
296.448	144.62
296.679	113.62
296.909	89.62
297.14	100.62
297.37	105.62
297.601	91.62
297.831	95.62
298.062	123.62
298.292	108.62
298.523	109.62
298.753	98.62
298.984	103.62
299.214	93.62
299.445	112.62
299.675	98.62
299.905	122.62
300.136	90.62
300.366	96.62
300.597	96.62
300.827	105.62
301.057	100.62
301.288	105.62
301.518	104.62
301.748	96.62
301.979	146.62
302.209	130.62
302.439	106.62
302.669	99.62
302.9	106.62
303.13	104.62
303.36	129.62
303.59	191.62
303.82	225.62
304.051	109.62
304.281	105.62
304.511	99.62
304.741	106.62
304.971	96.62
305.201	105.62
305.431	93.62
305.661	98.62
305.891	107.62
306.121	105.62
306.352	141.62
306.582	129.62
306.812	145.62
307.042	170.62
307.272	291.62
307.502	333.62
307.731	293.62
307.961	196.62
308.191	116.62
308.421	98.62
308.651	97.62
308.881	103.62
309.111	101.62
309.341	93.62
309.571	120.62
309.8	99.62
310.03	121.62
310.26	118.62
310.49	99.62
310.72	107.62
310.949	117.62
311.179	121.62
311.409	97.62
311.639	96.62
311.868	109.62
312.098	100.62
312.328	105.62
312.557	131.62
312.787	116.62
313.017	127.62
313.246	103.62
313.476	91.62
313.706	85.62
313.935	102.62
314.165	94.62
314.394	110.62
314.624	117.62
314.853	113.62
315.083	107.62
315.312	105.62
315.542	102.62
315.771	98.62
316.001	99.62
316.23	99.62
316.46	97.62
316.689	99.62
316.919	121.62
317.148	104.62
317.377	97.62
317.607	95.62
317.836	78.62
318.065	95.62
318.295	99.62
318.524	106.62
318.753	105.62
318.983	97.62
319.212	91.62
319.441	125.62
319.67	114.62
319.9	106.62
320.129	91.62
320.358	103.62
320.587	117.62
320.816	95.62
321.046	116.62
321.275	121.62
321.504	97.62
321.733	108.62
321.962	93.62
322.191	116.62
322.42	108.62
322.649	115.62
322.878	120.62
323.108	127.62
323.337	160.62
323.566	170.62
323.795	200.62
324.024	238.62
324.253	461.62
324.482	954.62
324.71	1963.62
324.939	2692.62
325.168	999.62
325.397	282.62
325.626	185.62
325.855	152.62
326.084	154.62
326.313	149.62
326.542	191.62
326.77	261.62
326.999	496.62
327.228	971.62
327.457	1792.62
327.686	1563.62
327.914	789.62
328.143	1056.62
328.372	1502.62
328.6	749.62
328.829	288.62
329.058	229.62
329.287	265.62
329.515	272.62
329.744	466.62
329.972	1033.62
330.201	2307.62
330.43	3469.62
330.658	1367.62
330.887	457.62
331.115	245.62
331.344	148.62
331.572	144.62
331.801	130.62
332.03	138.62
332.258	129.62
332.486	151.62
332.715	134.62
332.943	146.62
333.172	165.62
333.4	177.62
333.629	235.62
333.857	374.62
334.085	857.62
334.314	1974.62
334.542	4123.62
334.771	3806.62
334.999	909.62
335.227	277.62
335.455	193.62
335.684	146.62
335.912	140.62
336.14	141.62
336.369	123.62
336.597	136.62
336.825	105.62
337.053	124.62
337.281	115.62
337.51	114.62
337.738	105.62
337.966	99.62
338.194	110.62
338.422	106.62
338.65	124.62
338.878	105.62
339.106	107.62
339.334	97.62
339.562	87.62
339.79	117.62
340.018	121.62
340.246	91.62
340.474	100.62
340.702	105.62
340.93	97.62
341.158	93.62
341.386	117.62
341.614	111.62
341.842	116.62
342.07	99.62
342.298	100.62
342.526	89.62
342.754	92.62
342.981	94.62
343.209	99.62
343.437	107.62
343.665	88.62
343.893	100.62
344.12	94.62
344.348	91.62
344.576	98.62
344.804	111.62
345.031	100.62
345.259	114.62
345.487	108.62
345.714	96.62
345.942	103.62
346.17	97.62
346.397	89.62
346.625	113.62
346.853	103.62
347.08	99.62
347.308	96.62
347.535	111.62
347.763	112.62
347.99	112.62
348.218	113.62
348.445	123.62
348.673	109.62
348.9	107.62
349.128	109.62
349.355	105.62
349.583	77.62
349.81	88.62
350.037	101.62
350.265	85.62
350.492	112.62
350.72	100.62
350.947	107.62
351.174	119.62
351.402	113.62
351.629	99.62
351.856	106.62
352.083	115.62
352.311	115.62
352.538	120.62
352.765	110.62
352.992	116.62
353.22	142.62
353.447	109.62
353.674	102.62
353.901	97.62
354.128	106.62
354.355	98.62
354.583	99.62
354.81	120.62
355.037	99.62
355.264	89.62
355.491	105.62
355.718	98.62
355.945	93.62
356.172	112.62
356.399	110.62
356.626	94.62
356.853	89.62
357.08	89.62
357.307	95.62
357.534	89.62
357.761	106.62
357.988	98.62
358.215	100.62
358.441	123.62
358.668	102.62
358.895	111.62
359.122	101.62
359.349	110.62
359.576	101.62
359.802	125.62
360.029	144.62
360.256	141.62
360.483	111.62
360.709	104.62
360.936	96.62
361.163	106.62
361.39	110.62
361.616	113.62
361.843	106.62
362.07	101.62
362.296	116.62
362.523	102.62
362.749	126.62
362.976	91.62
363.203	99.62
363.429	91.62
363.656	86.62
363.882	102.62
364.109	109.62
364.335	110.62
364.562	104.62
364.788	104.62
365.015	98.62
365.241	94.62
365.468	128.62
365.694	106.62
365.92	112.62
366.147	106.62
366.373	100.62
366.599	106.62
366.826	100.62
367.052	100.62
367.278	106.62
367.505	99.62
367.731	93.62
367.957	100.62
368.184	110.62
368.41	108.62
368.636	151.62
368.862	142.62
369.089	134.62
369.315	106.62
369.541	102.62
369.767	100.62
369.993	114.62
370.219	110.62
370.445	104.62
370.672	93.62
370.898	92.62
371.124	91.62
371.35	84.62
371.576	87.62
371.802	95.62
372.028	100.62
372.254	80.62
372.48	74.62
372.706	91.62
372.932	81.62
373.158	92.62
373.384	106.62
373.61	109.62
373.835	83.62
374.061	84.62
374.287	98.62
374.513	90.62
374.739	96.62
374.965	82.62
375.191	101.62
375.416	101.62
375.642	97.62
375.868	105.62
376.094	121.62
376.319	99.62
376.545	99.62
376.771	87.62
376.997	86.62
377.222	104.62
377.448	101.62
377.674	97.62
377.899	106.62
378.125	88.62
378.35	115.62
378.576	107.62
378.802	105.62
379.027	102.62
379.253	90.62
379.478	123.62
379.704	108.62
379.929	110.62
380.155	101.62
380.38	113.62
380.606	109.62
380.831	99.62
381.057	116.62
381.282	119.62
381.507	113.62
381.733	108.62
381.958	101.62
382.184	112.62
382.409	118.62
382.634	120.62
382.86	130.62
383.085	138.62
383.31	117.62
383.535	115.62
383.761	125.62
383.986	114.62
384.211	115.62
384.436	122.62
384.662	119.62
384.887	138.62
385.112	150.62
385.337	136.62
385.562	128.62
385.787	145.62
386.013	146.62
386.238	161.62
386.463	131.62
386.688	137.62
386.913	133.62
387.138	159.62
387.363	123.62
387.588	123.62
387.813	139.62
388.038	136.62
388.263	167.62
388.488	139.62
388.713	100.62
388.938	92.62
389.163	87.62
389.387	103.62
389.612	91.62
389.837	87.62
390.062	94.62
390.287	86.62
390.512	90.62
390.736	81.62
390.961	89.62
391.186	95.62
391.411	94.62
391.636	76.62
391.86	74.62
392.085	83.62
392.31	94.62
392.534	95.62
392.759	87.62
392.984	96.62
393.208	89.62
393.433	103.62
393.658	105.62
393.882	94.62
394.107	84.62
394.331	95.62
394.556	104.62
394.78	85.62
395.005	77.62
395.229	89.62
395.454	85.62
395.678	100.62
395.903	95.62
396.127	114.62
396.352	87.62
396.576	86.62
396.801	99.62
397.025	108.62
397.249	100.62
397.474	106.62
397.698	90.62
397.922	93.62
398.147	93.62
398.371	91.62
398.595	79.62
398.82	93.62
399.044	81.62
399.268	84.62
399.492	95.62
399.717	89.62
399.941	99.62
400.165	100.62
400.389	86.62
400.613	90.62
400.837	105.62
401.062	95.62
401.286	79.62
401.51	71.62
401.734	105.62
401.958	120.62
402.182	164.62
402.406	224.62
402.63	166.62
402.854	124.62
403.078	107.62
403.302	97.62
403.526	106.62
403.75	91.62
403.974	90.62
404.198	97.62
404.422	98.62
404.645	98.62
404.869	108.62
405.093	133.62
405.317	158.62
405.541	153.62
405.765	141.62
405.988	149.62
406.212	246.62
406.436	325.62
406.66	225.62
406.883	136.62
407.107	107.62
407.331	99.62
407.555	124.62
407.778	116.62
408.002	100.62
408.226	107.62
408.449	103.62
408.673	81.62
408.896	89.62
409.12	105.62
409.344	93.62
409.567	81.62
409.791	100.62
410.014	90.62
410.238	96.62
410.461	103.62
410.685	79.62
410.908	100.62
411.132	91.62
411.355	107.62
411.578	100.62
411.802	103.62
412.025	95.62
412.249	106.62
412.472	136.62
412.695	171.62
412.919	130.62
413.142	111.62
413.365	102.62
413.589	94.62
413.812	86.62
414.035	87.62
414.258	108.62
414.482	90.62
414.705	98.62
414.928	89.62
415.151	100.62
415.374	96.62
415.597	96.62
415.821	103.62
416.044	103.62
416.267	98.62
416.49	104.62
416.713	102.62
416.936	105.62
417.159	113.62
417.382	120.62
417.605	153.62
417.828	141.62
418.051	126.62
418.274	104.62
418.497	106.62
418.72	89.62
418.943	100.62
419.166	104.62
419.389	101.62
419.611	102.62
419.834	102.62
420.057	105.62
420.28	101.62
420.503	103.62
420.726	91.62
420.948	118.62
421.171	114.62
421.394	104.62
421.617	91.62
421.839	91.62
422.062	102.62
422.285	103.62
422.507	111.62
422.73	120.62
422.953	103.62
423.175	98.62
423.398	93.62
423.621	102.62
423.843	97.62
424.066	98.62
424.288	100.62
424.511	95.62
424.733	113.62
424.956	121.62
425.178	105.62
425.401	95.62
425.623	101.62
425.846	103.62
426.068	129.62
426.291	99.62
426.513	99.62
426.735	102.62
426.958	108.62
427.18	113.62
427.402	195.62
427.625	282.62
427.847	274.62
428.069	250.62
428.292	151.62
428.514	119.62
428.736	110.62
428.958	93.62
429.181	105.62
429.403	85.62
429.625	90.62
429.847	102.62
430.069	132.62
430.292	101.62
430.514	91.62
430.736	74.62
430.958	93.62
431.18	86.62
431.402	77.62
431.624	90.62
431.846	89.62
432.068	100.62
432.29	89.62
432.512	101.62
432.734	79.62
432.956	85.62
433.178	106.62
433.4	91.62
433.622	102.62
433.844	93.62
434.066	101.62
434.287	89.62
434.509	98.62
434.731	101.62
434.953	94.62
435.175	89.62
435.397	98.62
435.618	89.62
435.84	115.62
436.062	130.62
436.284	115.62
436.505	105.62
436.727	109.62
436.949	85.62
437.17	82.62
437.392	90.62
437.614	112.62
437.835	135.62
438.057	154.62
438.278	123.62
438.5	125.62
438.721	114.62
438.943	104.62
439.165	107.62
439.386	97.62
439.608	104.62
439.829	121.62
440.05	152.62
440.272	193.62
440.493	124.62
440.715	100.62
440.936	97.62
441.158	97.62
441.379	115.62
441.6	96.62
441.822	104.62
442.043	114.62
442.264	114.62
442.486	96.62
442.707	115.62
442.928	133.62
443.149	169.62
443.371	174.62
443.592	133.62
443.813	118.62
444.034	125.62
444.255	104.62
444.476	99.62
444.698	102.62
444.919	89.62
445.14	126.62
445.361	128.62
445.582	133.62
445.803	214.62
446.024	181.62
446.245	160.62
446.466	127.62
446.687	93.62
446.908	96.62
447.129	96.62
447.35	100.62
447.571	115.62
447.792	87.62
448.013	104.62
448.234	130.62
448.455	97.62
448.675	137.62
448.896	139.62
449.117	115.62
449.338	115.62
449.559	145.62
449.779	144.62
450	109.62
450.221	107.62
450.442	104.62
450.662	106.62
450.883	130.62
451.104	146.62
451.324	114.62
451.545	114.62
451.766	94.62
451.986	95.62
452.207	110.62
452.428	104.62
452.648	113.62
452.869	144.62
453.089	139.62
453.31	146.62
453.53	97.62
453.751	99.62
453.971	129.62
454.192	141.62
454.412	108.62
454.633	98.62
454.853	89.62
455.073	98.62
455.294	109.62
455.514	115.62
455.734	89.62
455.955	101.62
456.175	99.62
456.395	96.62
456.616	81.62
456.836	94.62
457.056	95.62
457.276	93.62
457.497	90.62
457.717	109.62
457.937	95.62
458.157	90.62
458.377	102.62
458.598	143.62
458.818	229.62
459.038	255.62
459.258	166.62
459.478	96.62
459.698	97.62
459.918	82.62
460.138	81.62
460.358	82.62
460.578	98.62
460.798	96.62
461.018	101.62
461.238	79.62
461.458	107.62
461.678	95.62
461.898	88.62
462.118	85.62
462.338	86.62
462.558	112.62
462.777	98.62
462.997	131.62
463.217	163.62
463.437	116.62
463.657	108.62
463.876	110.62
464.096	106.62
464.316	95.62
464.536	106.62
464.755	115.62
464.975	143.62
465.195	262.62
465.414	254.62
465.634	122.62
465.854	104.62
466.073	115.62
466.293	99.62
466.512	106.62
466.732	82.62
466.951	113.62
467.171	118.62
467.391	135.62
467.61	202.62
467.829	409.62
468.049	1487.62
468.268	2308.62
468.488	463.62
468.707	166.62
468.927	127.62
469.146	115.62
469.365	96.62
469.585	115.62
469.804	125.62
470.023	122.62
470.243	115.62
470.462	137.62
470.681	175.62
470.901	131.62
471.12	125.62
471.339	148.62
471.558	158.62
471.777	255.62
471.997	596.62
472.216	2607.62
472.435	6157.62
472.654	1261.62
472.873	285.62
473.092	146.62
473.311	122.62
473.53	114.62
473.749	118.62
473.968	136.62
474.187	143.62
474.406	117.62
474.625	97.62
474.844	107.62
475.063	90.62
475.282	87.62
475.501	102.62
475.72	100.62
475.939	97.62
476.158	107.62
476.377	88.62
476.596	100.62
476.814	100.62
477.033	110.62
477.252	94.62
477.471	111.62
477.69	93.62
477.908	112.62
478.127	100.62
478.346	112.62
478.564	119.62
478.783	122.62
479.002	120.62
479.22	124.62
479.439	141.62
479.658	161.62
479.876	146.62
480.095	170.62
480.313	181.62
480.532	250.62
480.751	531.62
480.969	2194.62
481.188	9784.62
481.406	5461.62
481.624	693.62
481.843	227.62
482.061	149.62
482.28	133.62
482.498	97.62
482.717	109.62
482.935	114.62
483.153	113.62
483.372	108.62
483.59	96.62
483.808	89.62
484.027	105.62
484.245	100.62
484.463	100.62
484.681	102.62
484.9	104.62
485.118	100.62
485.336	106.62
485.554	100.62
485.772	111.62
485.99	105.62
486.209	118.62
486.427	113.62
486.645	123.62
486.863	146.62
487.081	123.62
487.299	112.62
487.517	102.62
487.735	91.62
487.953	112.62
488.171	106.62
488.389	113.62
488.607	124.62
488.825	99.62
489.043	93.62
489.261	106.62
489.479	93.62
489.696	92.62
489.914	93.62
490.132	101.62
490.35	89.62
490.568	90.62
490.786	101.62
491.003	80.62
491.221	102.62
491.439	110.62
491.657	109.62
491.874	107.62
492.092	118.62
492.31	102.62
492.527	103.62
492.745	112.62
492.963	106.62
493.18	101.62
493.398	118.62
493.615	99.62
493.833	109.62
494.05	81.62
494.268	96.62
494.485	98.62
494.703	89.62
494.92	96.62
495.138	80.62
495.355	92.62
495.573	99.62
495.79	110.62
496.008	99.62
496.225	94.62
496.442	96.62
496.66	100.62
496.877	97.62
497.094	86.62
497.312	106.62
497.529	105.62
497.746	88.62
497.963	95.62
498.181	110.62
498.398	99.62
498.615	129.62
498.832	122.62
499.049	86.62
499.267	97.62
499.484	80.62
499.701	84.62
499.918	94.62
500.135	115.62
500.352	93.62
500.569	90.62
500.786	103.62
501.003	101.62
501.22	104.62
501.437	89.62
501.654	106.62
501.871	135.62
502.088	106.62
502.305	113.62
502.522	107.62
502.739	99.62
502.956	106.62
503.172	100.62
503.389	114.62
503.606	135.62
503.823	106.62
504.04	93.62
504.256	103.62
504.473	112.62
504.69	92.62
504.907	107.62
505.123	91.62
505.34	93.62
505.557	91.62
505.773	91.62
505.99	99.62
506.207	84.62
506.423	98.62
506.64	96.62
506.856	97.62
507.073	110.62
507.289	106.62
507.506	122.62
507.722	120.62
507.939	151.62
508.155	113.62
508.372	93.62
508.588	111.62
508.805	118.62
509.021	108.62
509.238	96.62
509.454	104.62
509.67	111.62
