Data from Circ_1988_H10_HRD10591_00036.txt Node
Date: Wed Jan 03 12:05:42 EST 2024
User: Yrep
Spectrometer: HR+D1059
Trigger mode: 1
Integration Time (sec): 1.000000E-1
Scans to average: 1
Electric dark correction enabled: true
Nonlinearity correction enabled: false
Boxcar width: 0
XAxis mode: Wavelengths
Number of Pixels in Spectrum: 2048
>>>>>Begin Spectral Data<<<<<
223.165	-13.25
223.4	-13.25
223.635	-13.25
223.869	-22.25
224.104	-18.25
224.338	-12.25
224.573	-23.25
224.808	-25.25
225.042	-10.25
225.277	6.75
225.511	-0.25
225.746	5.75
225.98	4.75
226.215	15.75
226.449	22.75
226.683	12.75
226.918	24.75
227.152	31.75
227.387	38.75
227.621	34.75
227.856	48.75
228.09	62.75
228.324	49.75
228.559	56.75
228.793	64.75
229.027	56.75
229.262	65.75
229.496	72.75
229.73	92.75
229.964	89.75
230.199	80.75
230.433	85.75
230.667	89.75
230.901	86.75
231.136	92.75
231.37	92.75
231.604	84.75
231.838	75.75
232.072	87.75
232.306	86.75
232.541	91.75
232.775	83.75
233.009	89.75
233.243	94.75
233.477	75.75
233.711	80.75
233.945	93.75
234.179	79.75
234.413	96.75
234.647	83.75
234.881	86.75
235.115	78.75
235.349	63.75
235.583	83.75
235.817	59.75
236.051	89.75
236.285	96.75
236.519	83.75
236.753	86.75
236.987	88.75
237.221	99.75
237.455	108.75
237.689	59.75
237.922	85.75
238.156	82.75
238.39	72.75
238.624	75.75
238.858	82.75
239.091	66.75
239.325	87.75
239.559	95.75
239.793	85.75
240.027	93.75
240.26	78.75
240.494	73.75
240.728	82.75
240.961	89.75
241.195	91.75
241.429	88.75
241.662	77.75
241.896	66.75
242.13	68.75
242.363	74.75
242.597	76.75
242.83	80.75
243.064	86.75
243.298	59.75
243.531	81.75
243.765	92.75
243.998	102.75
244.232	94.75
244.465	90.75
244.699	103.75
244.932	87.75
245.166	91.75
245.399	87.75
245.633	89.75
245.866	79.75
246.099	89.75
246.333	94.75
246.566	81.75
246.8	85.75
247.033	88.75
247.266	72.75
247.5	90.75
247.733	82.75
247.966	91.75
248.2	108.75
248.433	87.75
248.666	91.75
248.899	83.75
249.133	99.75
249.366	118.75
249.599	117.75
249.832	98.75
250.066	98.75
250.299	92.75
250.532	97.75
250.765	95.75
250.998	85.75
251.231	81.75
251.465	89.75
251.698	99.75
251.931	82.75
252.164	103.75
252.397	83.75
252.63	85.75
252.863	81.75
253.096	88.75
253.329	86.75
253.562	86.75
253.795	90.75
254.028	89.75
254.261	92.75
254.494	82.75
254.727	95.75
254.96	87.75
255.193	87.75
255.426	93.75
255.659	90.75
255.892	126.75
256.124	119.75
256.357	92.75
256.59	91.75
256.823	86.75
257.056	114.75
257.289	98.75
257.521	96.75
257.754	97.75
257.987	95.75
258.22	89.75
258.452	130.75
258.685	126.75
258.918	95.75
259.151	102.75
259.383	88.75
259.616	86.75
259.849	90.75
260.081	96.75
260.314	93.75
260.547	100.75
260.779	113.75
261.012	139.75
261.244	178.75
261.477	134.75
261.71	108.75
261.942	148.75
262.175	148.75
262.407	108.75
262.64	95.75
262.872	92.75
263.105	84.75
263.337	83.75
263.57	86.75
263.802	85.75
264.035	91.75
264.267	101.75
264.499	90.75
264.732	92.75
264.964	88.75
265.197	83.75
265.429	93.75
265.661	93.75
265.894	97.75
266.126	84.75
266.358	75.75
266.591	90.75
266.823	83.75
267.055	84.75
267.287	94.75
267.52	72.75
267.752	87.75
267.984	90.75
268.216	90.75
268.448	106.75
268.681	88.75
268.913	87.75
269.145	91.75
269.377	91.75
269.609	81.75
269.841	82.75
270.073	90.75
270.306	95.75
270.538	87.75
270.77	82.75
271.002	87.75
271.234	105.75
271.466	109.75
271.698	100.75
271.93	93.75
272.162	86.75
272.394	103.75
272.626	89.75
272.858	92.75
273.09	89.75
273.322	83.75
273.553	100.75
273.785	92.75
274.017	83.75
274.249	105.75
274.481	102.75
274.713	98.75
274.945	94.75
275.176	108.75
275.408	138.75
275.64	158.75
275.872	198.75
276.104	144.75
276.335	122.75
276.567	150.75
276.799	180.75
277.031	270.75
277.262	359.75
277.494	262.75
277.726	148.75
277.957	113.75
278.189	103.75
278.421	114.75
278.652	107.75
278.884	100.75
279.115	110.75
279.347	112.75
279.579	146.75
279.81	228.75
280.042	385.75
280.273	558.75
280.505	338.75
280.736	136.75
280.968	107.75
281.199	104.75
281.431	106.75
281.662	110.75
281.894	101.75
282.125	116.75
282.356	135.75
282.588	170.75
282.819	110.75
283.051	100.75
283.282	90.75
283.513	92.75
283.745	87.75
283.976	94.75
284.207	84.75
284.439	98.75
284.67	92.75
284.901	88.75
285.132	83.75
285.364	106.75
285.595	94.75
285.826	85.75
286.057	94.75
286.288	86.75
286.52	99.75
286.751	98.75
286.982	88.75
287.213	91.75
287.444	86.75
287.675	90.75
287.906	97.75
288.138	80.75
288.369	92.75
288.6	104.75
288.831	92.75
289.062	90.75
289.293	89.75
289.524	97.75
289.755	102.75
289.986	97.75
290.217	100.75
290.448	88.75
290.679	99.75
290.91	82.75
291.141	98.75
291.371	108.75
291.602	91.75
291.833	89.75
292.064	95.75
292.295	93.75
292.526	98.75
292.757	91.75
292.987	97.75
293.218	87.75
293.449	99.75
293.68	94.75
293.91	102.75
294.141	86.75
294.372	102.75
294.603	91.75
294.833	112.75
295.064	104.75
295.295	106.75
295.525	96.75
295.756	121.75
295.987	123.75
296.217	167.75
296.448	169.75
296.679	98.75
296.909	86.75
297.14	100.75
297.37	103.75
297.601	96.75
297.831	100.75
298.062	109.75
298.292	90.75
298.523	101.75
298.753	95.75
298.984	93.75
299.214	98.75
299.445	97.75
299.675	97.75
299.905	107.75
300.136	107.75
300.366	103.75
300.597	96.75
300.827	104.75
301.057	127.75
301.288	136.75
301.518	105.75
301.748	115.75
301.979	137.75
302.209	109.75
302.439	87.75
302.669	100.75
302.9	93.75
303.13	103.75
303.36	125.75
303.59	174.75
303.82	203.75
304.051	123.75
304.281	125.75
304.511	102.75
304.741	100.75
304.971	94.75
305.201	85.75
305.431	100.75
305.661	110.75
305.891	110.75
306.121	108.75
306.352	109.75
306.582	122.75
306.812	133.75
307.042	182.75
307.272	271.75
307.502	296.75
307.731	264.75
307.961	162.75
308.191	95.75
308.421	105.75
308.651	96.75
308.881	95.75
309.111	105.75
309.341	118.75
309.571	100.75
309.8	112.75
310.03	113.75
310.26	117.75
310.49	108.75
310.72	102.75
310.949	131.75
311.179	115.75
311.409	103.75
311.639	100.75
311.868	104.75
312.098	101.75
312.328	112.75
312.557	123.75
312.787	139.75
313.017	114.75
313.246	99.75
313.476	104.75
313.706	110.75
313.935	93.75
314.165	107.75
314.394	120.75
314.624	117.75
314.853	110.75
315.083	108.75
315.312	92.75
315.542	102.75
315.771	88.75
316.001	96.75
316.23	82.75
316.46	106.75
316.689	93.75
316.919	114.75
317.148	105.75
317.377	119.75
317.607	105.75
317.836	94.75
318.065	94.75
318.295	95.75
318.524	100.75
318.753	97.75
318.983	92.75
319.212	112.75
319.441	117.75
319.67	106.75
319.9	107.75
320.129	93.75
320.358	112.75
320.587	115.75
320.816	111.75
321.046	120.75
321.275	113.75
321.504	99.75
321.733	119.75
321.962	122.75
322.191	128.75
322.42	118.75
322.649	118.75
322.878	133.75
323.108	133.75
323.337	136.75
323.566	158.75
323.795	170.75
324.024	230.75
324.253	435.75
324.482	906.75
324.71	1906.75
324.939	2555.75
325.168	931.75
325.397	287.75
325.626	175.75
325.855	160.75
326.084	138.75
326.313	152.75
326.542	187.75
326.77	255.75
326.999	481.75
327.228	966.75
327.457	1737.75
327.686	1478.75
327.914	715.75
328.143	957.75
328.372	1389.75
328.6	685.75
328.829	267.75
329.058	212.75
329.287	257.75
329.515	256.75
329.744	441.75
329.972	987.75
330.201	2221.75
330.43	3208.75
330.658	1278.75
330.887	410.75
331.115	264.75
331.344	156.75
331.572	134.75
331.801	151.75
332.03	139.75
332.258	130.75
332.486	132.75
332.715	135.75
332.943	135.75
333.172	158.75
333.4	186.75
333.629	228.75
333.857	363.75
334.085	850.75
334.314	1941.75
334.542	4021.75
334.771	3580.75
334.999	827.75
335.227	271.75
335.455	170.75
335.684	149.75
335.912	137.75
336.14	135.75
336.369	127.75
336.597	121.75
336.825	128.75
337.053	119.75
337.281	87.75
337.51	111.75
337.738	100.75
337.966	110.75
338.194	107.75
338.422	105.75
338.65	107.75
338.878	107.75
339.106	98.75
339.334	99.75
339.562	100.75
339.79	103.75
340.018	105.75
340.246	107.75
340.474	102.75
340.702	106.75
340.93	123.75
341.158	100.75
341.386	98.75
341.614	114.75
341.842	105.75
342.07	106.75
342.298	97.75
342.526	101.75
342.754	66.75
342.981	84.75
343.209	106.75
343.437	94.75
343.665	97.75
343.893	98.75
344.12	106.75
344.348	101.75
344.576	100.75
344.804	96.75
345.031	103.75
345.259	112.75
345.487	111.75
345.714	105.75
345.942	86.75
346.17	105.75
346.397	100.75
346.625	104.75
346.853	93.75
347.08	100.75
347.308	90.75
347.535	117.75
347.763	114.75
347.99	108.75
348.218	104.75
348.445	119.75
348.673	111.75
348.9	110.75
349.128	99.75
349.355	99.75
349.583	114.75
349.81	103.75
350.037	111.75
350.265	94.75
350.492	86.75
350.72	102.75
350.947	108.75
351.174	100.75
351.402	123.75
351.629	111.75
351.856	111.75
352.083	110.75
352.311	110.75
352.538	120.75
352.765	125.75
352.992	111.75
353.22	126.75
353.447	120.75
353.674	107.75
353.901	114.75
354.128	105.75
354.355	97.75
354.583	92.75
354.81	107.75
355.037	105.75
355.264	96.75
355.491	106.75
355.718	92.75
355.945	97.75
356.172	91.75
356.399	106.75
356.626	107.75
356.853	104.75
357.08	94.75
357.307	84.75
357.534	85.75
357.761	95.75
357.988	99.75
358.215	115.75
358.441	100.75
358.668	104.75
358.895	96.75
359.122	87.75
359.349	85.75
359.576	104.75
359.802	118.75
360.029	143.75
360.256	135.75
360.483	111.75
360.709	87.75
360.936	100.75
361.163	103.75
361.39	94.75
361.616	100.75
361.843	96.75
362.07	101.75
362.296	97.75
362.523	104.75
362.749	99.75
362.976	98.75
363.203	95.75
363.429	86.75
363.656	114.75
363.882	107.75
364.109	108.75
364.335	106.75
364.562	103.75
364.788	91.75
365.015	103.75
365.241	107.75
365.468	121.75
365.694	126.75
365.92	88.75
366.147	83.75
366.373	94.75
366.599	97.75
366.826	110.75
367.052	92.75
367.278	95.75
367.505	97.75
367.731	100.75
367.957	110.75
368.184	95.75
368.41	111.75
368.636	138.75
368.862	128.75
369.089	126.75
369.315	105.75
369.541	101.75
369.767	103.75
369.993	100.75
370.219	97.75
370.445	95.75
370.672	95.75
370.898	86.75
371.124	104.75
371.35	94.75
371.576	95.75
371.802	94.75
372.028	96.75
372.254	82.75
372.48	92.75
372.706	104.75
372.932	99.75
373.158	104.75
373.384	96.75
373.61	99.75
373.835	90.75
374.061	101.75
374.287	96.75
374.513	107.75
374.739	107.75
374.965	92.75
375.191	100.75
375.416	106.75
375.642	104.75
375.868	90.75
376.094	101.75
376.319	94.75
376.545	98.75
376.771	88.75
376.997	96.75
377.222	105.75
377.448	103.75
377.674	98.75
377.899	80.75
378.125	98.75
378.35	101.75
378.576	90.75
378.802	84.75
379.027	99.75
379.253	84.75
379.478	95.75
379.704	85.75
379.929	106.75
380.155	94.75
380.38	98.75
380.606	115.75
380.831	108.75
381.057	96.75
381.282	94.75
381.507	113.75
381.733	108.75
381.958	106.75
382.184	108.75
382.409	111.75
382.634	106.75
382.86	118.75
383.085	116.75
383.31	112.75
383.535	106.75
383.761	104.75
383.986	110.75
384.211	95.75
384.436	115.75
384.662	115.75
384.887	125.75
385.112	114.75
385.337	110.75
385.562	123.75
385.787	134.75
386.013	130.75
386.238	144.75
386.463	114.75
386.688	120.75
386.913	118.75
387.138	119.75
387.363	119.75
387.588	102.75
387.813	113.75
388.038	112.75
388.263	134.75
388.488	136.75
388.713	103.75
388.938	92.75
389.163	86.75
389.387	80.75
389.612	86.75
389.837	90.75
390.062	104.75
390.287	100.75
390.512	87.75
390.736	102.75
390.961	92.75
391.186	94.75
391.411	88.75
391.636	75.75
391.86	91.75
392.085	106.75
392.31	102.75
392.534	92.75
392.759	87.75
392.984	98.75
393.208	96.75
393.433	107.75
393.658	88.75
393.882	86.75
394.107	81.75
394.331	84.75
394.556	92.75
394.78	95.75
395.005	90.75
395.229	86.75
395.454	86.75
395.678	86.75
395.903	102.75
396.127	81.75
396.352	88.75
396.576	91.75
396.801	96.75
397.025	99.75
397.249	91.75
397.474	87.75
397.698	76.75
397.922	76.75
398.147	100.75
398.371	107.75
398.595	97.75
398.82	107.75
399.044	67.75
399.268	92.75
399.492	78.75
399.717	84.75
399.941	90.75
400.165	110.75
400.389	112.75
400.613	96.75
400.837	91.75
401.062	91.75
401.286	89.75
401.51	99.75
401.734	103.75
401.958	102.75
402.182	145.75
402.406	183.75
402.63	146.75
402.854	108.75
403.078	99.75
403.302	97.75
403.526	94.75
403.75	84.75
403.974	95.75
404.198	85.75
404.422	89.75
404.645	95.75
404.869	113.75
405.093	131.75
405.317	168.75
405.541	164.75
405.765	115.75
405.988	138.75
406.212	204.75
406.436	301.75
406.66	203.75
406.883	123.75
407.107	129.75
407.331	115.75
407.555	119.75
407.778	117.75
408.002	100.75
408.226	100.75
408.449	89.75
408.673	91.75
408.896	106.75
409.12	102.75
409.344	98.75
409.567	85.75
409.791	102.75
410.014	75.75
410.238	90.75
410.461	94.75
410.685	105.75
410.908	118.75
411.132	106.75
411.355	108.75
411.578	102.75
411.802	111.75
412.025	102.75
412.249	121.75
412.472	155.75
412.695	168.75
412.919	140.75
413.142	116.75
413.365	98.75
413.589	99.75
413.812	103.75
414.035	99.75
414.258	99.75
414.482	107.75
414.705	106.75
414.928	89.75
415.151	108.75
415.374	87.75
415.597	94.75
415.821	98.75
416.044	106.75
416.267	94.75
416.49	93.75
416.713	91.75
416.936	103.75
417.159	110.75
417.382	117.75
417.605	133.75
417.828	155.75
418.051	123.75
418.274	94.75
418.497	101.75
418.72	87.75
418.943	102.75
419.166	90.75
419.389	106.75
419.611	99.75
419.834	98.75
420.057	93.75
420.28	112.75
420.503	108.75
420.726	96.75
420.948	88.75
421.171	105.75
421.394	107.75
421.617	89.75
421.839	97.75
422.062	86.75
422.285	98.75
422.507	112.75
422.73	114.75
422.953	88.75
423.175	96.75
423.398	99.75
423.621	102.75
423.843	100.75
424.066	83.75
424.288	78.75
424.511	105.75
424.733	115.75
424.956	117.75
425.178	123.75
425.401	101.75
425.623	125.75
425.846	89.75
426.068	111.75
426.291	104.75
426.513	96.75
426.735	104.75
426.958	128.75
427.18	129.75
427.402	187.75
427.625	270.75
427.847	259.75
428.069	256.75
428.292	153.75
428.514	115.75
428.736	112.75
428.958	105.75
429.181	112.75
429.403	102.75
429.625	102.75
429.847	106.75
430.069	120.75
430.292	99.75
430.514	99.75
430.736	77.75
430.958	103.75
431.18	100.75
431.402	94.75
431.624	86.75
431.846	88.75
432.068	92.75
432.29	84.75
432.512	89.75
432.734	94.75
432.956	88.75
433.178	99.75
433.4	94.75
433.622	94.75
433.844	94.75
434.066	112.75
434.287	70.75
434.509	86.75
434.731	93.75
434.953	79.75
435.175	102.75
435.397	88.75
435.618	107.75
435.84	99.75
436.062	129.75
436.284	126.75
436.505	109.75
436.727	111.75
436.949	92.75
437.17	91.75
437.392	89.75
437.614	103.75
437.835	140.75
438.057	146.75
438.278	123.75
438.5	111.75
438.721	129.75
438.943	117.75
439.165	101.75
439.386	98.75
439.608	85.75
439.829	115.75
440.05	153.75
440.272	201.75
440.493	127.75
440.715	94.75
440.936	88.75
441.158	100.75
441.379	108.75
441.6	108.75
441.822	94.75
442.043	86.75
442.264	113.75
442.486	102.75
442.707	94.75
442.928	136.75
443.149	161.75
443.371	170.75
443.592	144.75
443.813	156.75
444.034	115.75
444.255	102.75
444.476	88.75
444.698	90.75
444.919	93.75
445.14	137.75
445.361	150.75
445.582	152.75
445.803	174.75
446.024	180.75
446.245	156.75
446.466	133.75
446.687	86.75
446.908	97.75
447.129	96.75
447.35	92.75
447.571	107.75
447.792	115.75
448.013	105.75
448.234	129.75
448.455	124.75
448.675	121.75
448.896	135.75
449.117	118.75
449.338	122.75
449.559	140.75
449.779	149.75
450	97.75
450.221	92.75
450.442	92.75
450.662	111.75
450.883	120.75
451.104	124.75
451.324	102.75
451.545	92.75
451.766	86.75
451.986	85.75
452.207	83.75
452.428	100.75
452.648	107.75
452.869	126.75
453.089	139.75
453.31	141.75
453.53	95.75
453.751	102.75
453.971	117.75
454.192	135.75
454.412	118.75
454.633	94.75
454.853	98.75
455.073	93.75
455.294	100.75
455.514	117.75
455.734	80.75
455.955	86.75
456.175	106.75
456.395	93.75
456.616	76.75
456.836	98.75
457.056	116.75
457.276	113.75
457.497	93.75
457.717	80.75
457.937	85.75
458.157	109.75
458.377	104.75
458.598	139.75
458.818	218.75
459.038	249.75
459.258	160.75
459.478	107.75
459.698	94.75
459.918	105.75
460.138	79.75
460.358	83.75
460.578	90.75
460.798	97.75
461.018	97.75
461.238	85.75
461.458	87.75
461.678	73.75
461.898	83.75
462.118	104.75
462.338	94.75
462.558	86.75
462.777	103.75
462.997	122.75
463.217	145.75
463.437	111.75
463.657	90.75
463.876	92.75
464.096	104.75
464.316	100.75
464.536	104.75
464.755	106.75
464.975	131.75
465.195	233.75
465.414	226.75
465.634	112.75
465.854	104.75
466.073	95.75
466.293	97.75
466.512	94.75
466.732	110.75
466.951	110.75
467.171	116.75
467.391	133.75
467.61	178.75
467.829	354.75
468.049	1297.75
468.268	1943.75
468.488	423.75
468.707	138.75
468.927	92.75
469.146	104.75
469.365	123.75
469.585	106.75
469.804	114.75
470.023	129.75
470.243	107.75
470.462	124.75
470.681	144.75
470.901	121.75
471.12	109.75
471.339	141.75
471.558	161.75
471.777	240.75
471.997	566.75
472.216	2384.75
472.435	5651.75
472.654	1184.75
472.873	274.75
473.092	132.75
473.311	120.75
473.53	103.75
473.749	115.75
473.968	122.75
474.187	137.75
474.406	114.75
474.625	92.75
474.844	98.75
475.063	97.75
475.282	85.75
475.501	110.75
475.72	97.75
475.939	96.75
476.158	93.75
476.377	114.75
476.596	91.75
476.814	123.75
477.033	112.75
477.252	104.75
477.471	99.75
477.69	111.75
477.908	94.75
478.127	100.75
478.346	100.75
478.564	106.75
478.783	129.75
479.002	126.75
479.22	129.75
479.439	129.75
479.658	162.75
479.876	143.75
480.095	154.75
480.313	183.75
480.532	243.75
480.751	519.75
480.969	2007.75
481.188	9201.75
481.406	5144.75
481.624	638.75
481.843	212.75
482.061	142.75
482.28	119.75
482.498	110.75
482.717	111.75
482.935	108.75
483.153	99.75
483.372	93.75
483.59	100.75
483.808	83.75
484.027	108.75
484.245	105.75
484.463	102.75
484.681	101.75
484.9	103.75
485.118	106.75
485.336	96.75
485.554	109.75
485.772	113.75
485.99	115.75
486.209	119.75
486.427	120.75
486.645	130.75
486.863	128.75
487.081	110.75
487.299	109.75
487.517	97.75
487.735	88.75
487.953	90.75
488.171	103.75
488.389	104.75
488.607	119.75
488.825	95.75
489.043	94.75
489.261	97.75
489.479	105.75
489.696	97.75
489.914	91.75
490.132	93.75
490.35	94.75
490.568	99.75
490.786	89.75
491.003	90.75
491.221	115.75
491.439	123.75
491.657	102.75
491.874	100.75
492.092	110.75
492.31	102.75
492.527	133.75
492.745	131.75
492.963	99.75
493.18	97.75
493.398	92.75
493.615	114.75
493.833	90.75
494.05	100.75
494.268	96.75
494.485	81.75
494.703	105.75
494.92	111.75
495.138	94.75
495.355	98.75
495.573	109.75
495.79	86.75
496.008	113.75
496.225	107.75
496.442	98.75
496.66	107.75
496.877	97.75
497.094	98.75
497.312	108.75
497.529	110.75
497.746	111.75
497.963	95.75
498.181	93.75
498.398	116.75
498.615	122.75
498.832	112.75
499.049	102.75
499.267	98.75
499.484	96.75
499.701	98.75
499.918	107.75
500.135	90.75
500.352	99.75
500.569	122.75
500.786	120.75
501.003	100.75
501.22	97.75
501.437	102.75
501.654	108.75
501.871	126.75
502.088	105.75
502.305	98.75
502.522	92.75
502.739	88.75
502.956	100.75
503.172	104.75
503.389	100.75
503.606	128.75
503.823	108.75
504.04	103.75
504.256	86.75
504.473	107.75
504.69	85.75
504.907	104.75
505.123	87.75
505.34	90.75
505.557	96.75
505.773	100.75
505.99	96.75
506.207	100.75
506.423	106.75
506.64	94.75
506.856	84.75
507.073	113.75
507.289	94.75
507.506	89.75
507.722	124.75
507.939	139.75
508.155	109.75
508.372	91.75
508.588	95.75
508.805	104.75
509.021	119.75
509.238	106.75
509.454	90.75
509.67	98.75
509.887	110.75
