Data from Circ_1988_H10_HRD10591_00031.txt Node
Date: Wed Jan 03 12:05:41 EST 2024
User: Yrep
Spectrometer: HR+D1059
Trigger mode: 1
Integration Time (sec): 1.000000E-1
Scans to average: 1
Electric dark correction enabled: true
Nonlinearity correction enabled: false
Boxcar width: 0
XAxis mode: Wavelengths
Number of Pixels in Spectrum: 2048
>>>>>Begin Spectral Data<<<<<
223.165	-22.81
223.4	-22.81
223.635	-22.81
223.869	-11.81
224.104	-8.81
224.338	-13.81
224.573	-3.81
224.808	-18.81
225.042	-10.81
225.277	-7.81
225.511	-1.81
225.746	-9.81
225.98	1.19
226.215	17.19
226.449	13.19
226.683	26.19
226.918	30.19
227.152	22.19
227.387	31.19
227.621	32.19
227.856	42.19
228.09	57.19
228.324	42.19
228.559	50.19
228.793	52.19
229.027	60.19
229.262	80.19
229.496	82.19
229.73	89.19
229.964	90.19
230.199	73.19
230.433	68.19
230.667	84.19
230.901	83.19
231.136	82.19
231.37	80.19
231.604	89.19
231.838	77.19
232.072	88.19
232.306	85.19
232.541	80.19
232.775	88.19
233.009	80.19
233.243	80.19
233.477	76.19
233.711	78.19
233.945	83.19
234.179	82.19
234.413	82.19
234.647	82.19
234.881	85.19
235.115	83.19
235.349	69.19
235.583	75.19
235.817	64.19
236.051	74.19
236.285	87.19
236.519	84.19
236.753	83.19
236.987	84.19
237.221	91.19
237.455	97.19
237.689	78.19
237.922	78.19
238.156	75.19
238.39	77.19
238.624	78.19
238.858	66.19
239.091	67.19
239.325	94.19
239.559	89.19
239.793	89.19
240.027	83.19
240.26	71.19
240.494	64.19
240.728	76.19
240.961	72.19
241.195	84.19
241.429	73.19
241.662	76.19
241.896	80.19
242.13	76.19
242.363	93.19
242.597	80.19
242.83	83.19
243.064	87.19
243.298	57.19
243.531	81.19
243.765	95.19
243.998	80.19
244.232	88.19
244.465	79.19
244.699	73.19
244.932	89.19
245.166	78.19
245.399	95.19
245.633	76.19
245.866	87.19
246.099	71.19
246.333	77.19
246.566	83.19
246.8	95.19
247.033	91.19
247.266	90.19
247.5	87.19
247.733	81.19
247.966	80.19
248.2	79.19
248.433	81.19
248.666	97.19
248.899	91.19
249.133	100.19
249.366	109.19
249.599	105.19
249.832	93.19
250.066	89.19
250.299	99.19
250.532	90.19
250.765	93.19
250.998	82.19
251.231	78.19
251.465	97.19
251.698	102.19
251.931	101.19
252.164	96.19
252.397	93.19
252.63	78.19
252.863	76.19
253.096	56.19
253.329	72.19
253.562	82.19
253.795	73.19
254.028	96.19
254.261	89.19
254.494	93.19
254.727	88.19
254.96	94.19
255.193	86.19
255.426	80.19
255.659	93.19
255.892	110.19
256.124	104.19
256.357	98.19
256.59	92.19
256.823	82.19
257.056	100.19
257.289	101.19
257.521	104.19
257.754	87.19
257.987	98.19
258.22	132.19
258.452	123.19
258.685	122.19
258.918	88.19
259.151	88.19
259.383	97.19
259.616	97.19
259.849	92.19
260.081	102.19
260.314	99.19
260.547	101.19
260.779	128.19
261.012	150.19
261.244	164.19
261.477	112.19
261.71	113.19
261.942	138.19
262.175	154.19
262.407	104.19
262.64	96.19
262.872	94.19
263.105	94.19
263.337	101.19
263.57	82.19
263.802	85.19
264.035	84.19
264.267	95.19
264.499	84.19
264.732	92.19
264.964	91.19
265.197	86.19
265.429	69.19
265.661	78.19
265.894	87.19
266.126	95.19
266.358	76.19
266.591	79.19
266.823	89.19
267.055	90.19
267.287	68.19
267.52	93.19
267.752	102.19
267.984	87.19
268.216	89.19
268.448	97.19
268.681	106.19
268.913	80.19
269.145	85.19
269.377	87.19
269.609	101.19
269.841	96.19
270.073	94.19
270.306	83.19
270.538	88.19
270.77	82.19
271.002	86.19
271.234	86.19
271.466	106.19
271.698	95.19
271.93	105.19
272.162	89.19
272.394	102.19
272.626	104.19
272.858	86.19
273.09	90.19
273.322	93.19
273.553	92.19
273.785	78.19
274.017	79.19
274.249	98.19
274.481	95.19
274.713	88.19
274.945	84.19
275.176	99.19
275.408	128.19
275.64	167.19
275.872	178.19
276.104	134.19
276.335	111.19
276.567	141.19
276.799	194.19
277.031	282.19
277.262	382.19
277.494	281.19
277.726	136.19
277.957	92.19
278.189	103.19
278.421	89.19
278.652	100.19
278.884	89.19
279.115	112.19
279.347	118.19
279.579	141.19
279.81	210.19
280.042	380.19
280.273	547.19
280.505	348.19
280.736	145.19
280.968	109.19
281.199	96.19
281.431	90.19
281.662	100.19
281.894	108.19
282.125	111.19
282.356	142.19
282.588	174.19
282.819	129.19
283.051	106.19
283.282	95.19
283.513	88.19
283.745	102.19
283.976	89.19
284.207	89.19
284.439	94.19
284.67	83.19
284.901	87.19
285.132	89.19
285.364	97.19
285.595	74.19
285.826	96.19
286.057	98.19
286.288	95.19
286.52	92.19
286.751	89.19
286.982	85.19
287.213	85.19
287.444	92.19
287.675	96.19
287.906	90.19
288.138	98.19
288.369	93.19
288.6	93.19
288.831	89.19
289.062	93.19
289.293	90.19
289.524	94.19
289.755	97.19
289.986	86.19
290.217	89.19
290.448	92.19
290.679	78.19
290.91	102.19
291.141	96.19
291.371	95.19
291.602	92.19
291.833	85.19
292.064	89.19
292.295	96.19
292.526	85.19
292.757	102.19
292.987	106.19
293.218	71.19
293.449	88.19
293.68	93.19
293.91	91.19
294.141	98.19
294.372	93.19
294.603	102.19
294.833	100.19
295.064	95.19
295.295	93.19
295.525	82.19
295.756	110.19
295.987	128.19
296.217	180.19
296.448	135.19
296.679	108.19
296.909	96.19
297.14	98.19
297.37	94.19
297.601	99.19
297.831	101.19
298.062	88.19
298.292	100.19
298.523	108.19
298.753	88.19
298.984	102.19
299.214	97.19
299.445	98.19
299.675	96.19
299.905	117.19
300.136	90.19
300.366	100.19
300.597	99.19
300.827	99.19
301.057	104.19
301.288	121.19
301.518	104.19
301.748	96.19
301.979	129.19
302.209	106.19
302.439	102.19
302.669	102.19
302.9	92.19
303.13	103.19
303.36	139.19
303.59	193.19
303.82	200.19
304.051	126.19
304.281	88.19
304.511	99.19
304.741	79.19
304.971	101.19
305.201	98.19
305.431	89.19
305.661	104.19
305.891	96.19
306.121	110.19
306.352	119.19
306.582	114.19
306.812	130.19
307.042	175.19
307.272	272.19
307.502	301.19
307.731	272.19
307.961	176.19
308.191	108.19
308.421	92.19
308.651	99.19
308.881	96.19
309.111	102.19
309.341	120.19
309.571	119.19
309.8	103.19
310.03	93.19
310.26	98.19
310.49	112.19
310.72	106.19
310.949	115.19
311.179	110.19
311.409	106.19
311.639	106.19
311.868	105.19
312.098	95.19
312.328	96.19
312.557	108.19
312.787	129.19
313.017	118.19
313.246	100.19
313.476	93.19
313.706	92.19
313.935	88.19
314.165	121.19
314.394	117.19
314.624	114.19
314.853	111.19
315.083	102.19
315.312	97.19
315.542	99.19
315.771	118.19
316.001	80.19
316.23	92.19
316.46	104.19
316.689	105.19
316.919	89.19
317.148	103.19
317.377	101.19
317.607	97.19
317.836	87.19
318.065	97.19
318.295	91.19
318.524	90.19
318.753	108.19
318.983	114.19
319.212	102.19
319.441	136.19
319.67	126.19
319.9	109.19
320.129	98.19
320.358	89.19
320.587	107.19
320.816	107.19
321.046	123.19
321.275	114.19
321.504	108.19
321.733	109.19
321.962	103.19
322.191	106.19
322.42	113.19
322.649	120.19
322.878	136.19
323.108	133.19
323.337	147.19
323.566	141.19
323.795	188.19
324.024	231.19
324.253	427.19
324.482	837.19
324.71	1725.19
324.939	2347.19
325.168	870.19
325.397	278.19
325.626	181.19
325.855	142.19
326.084	127.19
326.313	141.19
326.542	178.19
326.77	269.19
326.999	440.19
327.228	860.19
327.457	1594.19
327.686	1398.19
327.914	678.19
328.143	913.19
328.372	1354.19
328.6	688.19
328.829	267.19
329.058	216.19
329.287	242.19
329.515	229.19
329.744	415.19
329.972	912.19
330.201	2023.19
330.43	3013.19
330.658	1212.19
330.887	416.19
331.115	223.19
331.344	146.19
331.572	121.19
331.801	138.19
332.03	127.19
332.258	126.19
332.486	118.19
332.715	128.19
332.943	141.19
333.172	142.19
333.4	173.19
333.629	227.19
333.857	335.19
334.085	758.19
334.314	1793.19
334.542	3640.19
334.771	3366.19
334.999	792.19
335.227	268.19
335.455	153.19
335.684	137.19
335.912	136.19
336.14	128.19
336.369	107.19
336.597	110.19
336.825	116.19
337.053	84.19
337.281	102.19
337.51	108.19
337.738	109.19
337.966	121.19
338.194	113.19
338.422	111.19
338.65	102.19
338.878	98.19
339.106	109.19
339.334	101.19
339.562	89.19
339.79	103.19
340.018	104.19
340.246	113.19
340.474	104.19
340.702	98.19
340.93	114.19
341.158	103.19
341.386	104.19
341.614	100.19
341.842	112.19
342.07	81.19
342.298	106.19
342.526	100.19
342.754	92.19
342.981	79.19
343.209	110.19
343.437	104.19
343.665	92.19
343.893	78.19
344.12	83.19
344.348	96.19
344.576	88.19
344.804	102.19
345.031	103.19
345.259	103.19
345.487	87.19
345.714	95.19
345.942	80.19
346.17	89.19
346.397	97.19
346.625	93.19
346.853	92.19
347.08	86.19
347.308	110.19
347.535	114.19
347.763	117.19
347.99	118.19
348.218	105.19
348.445	128.19
348.673	99.19
348.9	90.19
349.128	108.19
349.355	90.19
349.583	80.19
349.81	94.19
350.037	95.19
350.265	83.19
350.492	90.19
350.72	87.19
350.947	105.19
351.174	123.19
351.402	121.19
351.629	102.19
351.856	97.19
352.083	106.19
352.311	105.19
352.538	118.19
352.765	115.19
352.992	128.19
353.22	133.19
353.447	110.19
353.674	90.19
353.901	113.19
354.128	100.19
354.355	88.19
354.583	99.19
354.81	87.19
355.037	84.19
355.264	98.19
355.491	98.19
355.718	101.19
355.945	95.19
356.172	92.19
356.399	104.19
356.626	79.19
356.853	97.19
357.08	104.19
357.307	102.19
357.534	95.19
357.761	92.19
357.988	91.19
358.215	94.19
358.441	105.19
358.668	99.19
358.895	91.19
359.122	85.19
359.349	97.19
359.576	80.19
359.802	114.19
360.029	154.19
360.256	130.19
360.483	112.19
360.709	96.19
360.936	96.19
361.163	104.19
361.39	102.19
361.616	121.19
361.843	99.19
362.07	112.19
362.296	104.19
362.523	97.19
362.749	116.19
362.976	115.19
363.203	98.19
363.429	100.19
363.656	85.19
363.882	96.19
364.109	95.19
364.335	94.19
364.562	97.19
364.788	93.19
365.015	94.19
365.241	102.19
365.468	116.19
365.694	122.19
365.92	104.19
366.147	105.19
366.373	92.19
366.599	97.19
366.826	92.19
367.052	97.19
367.278	97.19
367.505	82.19
367.731	89.19
367.957	109.19
368.184	90.19
368.41	114.19
368.636	132.19
368.862	129.19
369.089	106.19
369.315	95.19
369.541	89.19
369.767	89.19
369.993	93.19
370.219	94.19
370.445	96.19
370.672	88.19
370.898	90.19
371.124	94.19
371.35	94.19
371.576	90.19
371.802	93.19
372.028	91.19
372.254	83.19
372.48	95.19
372.706	81.19
372.932	86.19
373.158	84.19
373.384	98.19
373.61	100.19
373.835	96.19
374.061	96.19
374.287	90.19
374.513	100.19
374.739	104.19
374.965	97.19
375.191	92.19
375.416	94.19
375.642	92.19
375.868	81.19
376.094	86.19
376.319	91.19
376.545	89.19
376.771	96.19
376.997	104.19
377.222	98.19
377.448	90.19
377.674	95.19
377.899	92.19
378.125	105.19
378.35	104.19
378.576	95.19
378.802	103.19
379.027	98.19
379.253	101.19
379.478	94.19
379.704	106.19
379.929	87.19
380.155	95.19
380.38	112.19
380.606	101.19
380.831	101.19
381.057	118.19
381.282	110.19
381.507	120.19
381.733	104.19
381.958	107.19
382.184	97.19
382.409	104.19
382.634	107.19
382.86	112.19
383.085	118.19
383.31	101.19
383.535	98.19
383.761	104.19
383.986	94.19
384.211	108.19
384.436	103.19
384.662	119.19
384.887	116.19
385.112	125.19
385.337	133.19
385.562	124.19
385.787	118.19
386.013	135.19
386.238	138.19
386.463	136.19
386.688	128.19
386.913	126.19
387.138	120.19
387.363	115.19
387.588	106.19
387.813	126.19
388.038	129.19
388.263	144.19
388.488	149.19
388.713	114.19
388.938	102.19
389.163	97.19
389.387	94.19
389.612	81.19
389.837	107.19
390.062	78.19
390.287	91.19
390.512	93.19
390.736	98.19
390.961	83.19
391.186	86.19
391.411	86.19
391.636	90.19
391.86	76.19
392.085	85.19
392.31	90.19
392.534	87.19
392.759	105.19
392.984	75.19
393.208	95.19
393.433	97.19
393.658	96.19
393.882	90.19
394.107	100.19
394.331	89.19
394.556	84.19
394.78	87.19
395.005	80.19
395.229	83.19
395.454	91.19
395.678	85.19
395.903	78.19
396.127	88.19
396.352	98.19
396.576	82.19
396.801	100.19
397.025	84.19
397.249	88.19
397.474	102.19
397.698	93.19
397.922	89.19
398.147	68.19
398.371	98.19
398.595	88.19
398.82	102.19
399.044	77.19
399.268	86.19
399.492	84.19
399.717	90.19
399.941	98.19
400.165	93.19
400.389	101.19
400.613	80.19
400.837	95.19
401.062	90.19
401.286	85.19
401.51	80.19
401.734	90.19
401.958	114.19
402.182	156.19
402.406	201.19
402.63	137.19
402.854	112.19
403.078	106.19
403.302	103.19
403.526	91.19
403.75	94.19
403.974	105.19
404.198	78.19
404.422	86.19
404.645	99.19
404.869	99.19
405.093	118.19
405.317	152.19
405.541	149.19
405.765	130.19
405.988	144.19
406.212	220.19
406.436	321.19
406.66	217.19
406.883	131.19
407.107	97.19
407.331	106.19
407.555	112.19
407.778	98.19
408.002	88.19
408.226	102.19
408.449	67.19
408.673	82.19
408.896	100.19
409.12	84.19
409.344	82.19
409.567	91.19
409.791	80.19
410.014	91.19
410.238	94.19
410.461	89.19
410.685	89.19
410.908	102.19
411.132	92.19
411.355	90.19
411.578	97.19
411.802	91.19
412.025	97.19
412.249	108.19
412.472	126.19
412.695	169.19
412.919	129.19
413.142	97.19
413.365	95.19
413.589	97.19
413.812	110.19
414.035	99.19
414.258	93.19
414.482	103.19
414.705	100.19
414.928	94.19
415.151	106.19
415.374	87.19
415.597	96.19
415.821	88.19
416.044	95.19
416.267	89.19
416.49	85.19
416.713	91.19
416.936	83.19
417.159	102.19
417.382	113.19
417.605	129.19
417.828	138.19
418.051	103.19
418.274	82.19
418.497	102.19
418.72	102.19
418.943	85.19
419.166	77.19
419.389	80.19
419.611	98.19
419.834	111.19
420.057	101.19
420.28	105.19
420.503	81.19
420.726	88.19
420.948	88.19
421.171	105.19
421.394	99.19
421.617	100.19
421.839	97.19
422.062	103.19
422.285	93.19
422.507	105.19
422.73	102.19
422.953	111.19
423.175	92.19
423.398	72.19
423.621	85.19
423.843	88.19
424.066	92.19
424.288	87.19
424.511	86.19
424.733	105.19
424.956	122.19
425.178	102.19
425.401	92.19
425.623	86.19
425.846	88.19
426.068	101.19
426.291	92.19
426.513	102.19
426.735	89.19
426.958	90.19
427.18	112.19
427.402	182.19
427.625	243.19
427.847	254.19
428.069	216.19
428.292	148.19
428.514	118.19
428.736	105.19
428.958	98.19
429.181	106.19
429.403	104.19
429.625	101.19
429.847	106.19
430.069	110.19
430.292	112.19
430.514	94.19
430.736	83.19
430.958	84.19
431.18	92.19
431.402	85.19
431.624	82.19
431.846	86.19
432.068	94.19
432.29	96.19
432.512	82.19
432.734	94.19
432.956	87.19
433.178	94.19
433.4	94.19
433.622	92.19
433.844	86.19
434.066	98.19
434.287	93.19
434.509	97.19
434.731	103.19
434.953	92.19
435.175	101.19
435.397	88.19
435.618	99.19
435.84	121.19
436.062	137.19
436.284	130.19
436.505	102.19
436.727	98.19
436.949	86.19
437.17	88.19
437.392	94.19
437.614	106.19
437.835	113.19
438.057	149.19
438.278	128.19
438.5	118.19
438.721	111.19
438.943	100.19
439.165	92.19
439.386	94.19
439.608	103.19
439.829	97.19
440.05	137.19
440.272	172.19
440.493	122.19
440.715	90.19
440.936	86.19
441.158	83.19
441.379	101.19
441.6	102.19
441.822	103.19
442.043	99.19
442.264	106.19
442.486	110.19
442.707	109.19
442.928	125.19
443.149	176.19
443.371	161.19
443.592	119.19
443.813	120.19
444.034	120.19
444.255	87.19
444.476	103.19
444.698	101.19
444.919	93.19
445.14	135.19
445.361	135.19
445.582	118.19
445.803	163.19
446.024	169.19
446.245	141.19
446.466	114.19
446.687	102.19
446.908	94.19
447.129	76.19
447.35	98.19
447.571	97.19
447.792	96.19
448.013	105.19
448.234	103.19
448.455	116.19
448.675	103.19
448.896	126.19
449.117	98.19
449.338	113.19
449.559	132.19
449.779	126.19
450	100.19
450.221	80.19
450.442	104.19
450.662	122.19
450.883	130.19
451.104	141.19
451.324	101.19
451.545	109.19
451.766	95.19
451.986	94.19
452.207	111.19
452.428	85.19
452.648	108.19
452.869	123.19
453.089	118.19
453.31	144.19
453.53	100.19
453.751	95.19
453.971	133.19
454.192	116.19
454.412	89.19
454.633	82.19
454.853	97.19
455.073	86.19
455.294	86.19
455.514	112.19
455.734	77.19
455.955	82.19
456.175	70.19
456.395	83.19
456.616	89.19
456.836	78.19
457.056	92.19
457.276	82.19
457.497	86.19
457.717	79.19
457.937	93.19
458.157	88.19
458.377	101.19
458.598	135.19
458.818	204.19
459.038	236.19
459.258	138.19
459.478	100.19
459.698	86.19
459.918	78.19
460.138	95.19
460.358	92.19
460.578	94.19
460.798	98.19
461.018	96.19
461.238	101.19
461.458	84.19
461.678	93.19
461.898	85.19
462.118	97.19
462.338	101.19
462.558	90.19
462.777	97.19
462.997	120.19
463.217	150.19
463.437	131.19
463.657	95.19
463.876	111.19
464.096	101.19
464.316	107.19
464.536	89.19
464.755	115.19
464.975	128.19
465.195	222.19
465.414	229.19
465.634	111.19
465.854	90.19
466.073	103.19
466.293	96.19
466.512	100.19
466.732	103.19
466.951	108.19
467.171	120.19
467.391	135.19
467.61	195.19
467.829	376.19
468.049	1312.19
468.268	2063.19
468.488	426.19
468.707	158.19
468.927	114.19
469.146	104.19
469.365	103.19
469.585	107.19
469.804	109.19
470.023	121.19
470.243	108.19
470.462	126.19
470.681	152.19
470.901	122.19
471.12	133.19
471.339	129.19
471.558	166.19
471.777	228.19
471.997	548.19
472.216	2302.19
472.435	5532.19
472.654	1151.19
472.873	257.19
473.092	138.19
473.311	121.19
473.53	102.19
473.749	112.19
473.968	102.19
474.187	120.19
474.406	94.19
474.625	106.19
474.844	102.19
475.063	112.19
475.282	81.19
475.501	92.19
475.72	86.19
475.939	94.19
476.158	93.19
476.377	99.19
476.596	104.19
476.814	103.19
477.033	122.19
477.252	90.19
477.471	100.19
477.69	99.19
477.908	97.19
478.127	101.19
478.346	118.19
478.564	98.19
478.783	116.19
479.002	116.19
479.22	119.19
479.439	138.19
479.658	142.19
479.876	137.19
480.095	144.19
480.313	175.19
480.532	241.19
480.751	495.19
480.969	1952.19
481.188	8883.19
481.406	4964.19
481.624	632.19
481.843	214.19
482.061	156.19
482.28	133.19
482.498	112.19
482.717	109.19
482.935	110.19
483.153	95.19
483.372	112.19
483.59	88.19
483.808	100.19
484.027	100.19
484.245	95.19
484.463	113.19
484.681	106.19
484.9	86.19
485.118	92.19
485.336	88.19
485.554	103.19
485.772	98.19
485.99	111.19
486.209	113.19
486.427	129.19
486.645	129.19
486.863	142.19
487.081	106.19
487.299	102.19
487.517	92.19
487.735	94.19
487.953	110.19
488.171	97.19
488.389	111.19
488.607	108.19
488.825	90.19
489.043	104.19
489.261	97.19
489.479	102.19
489.696	83.19
489.914	94.19
490.132	88.19
490.35	83.19
490.568	96.19
490.786	86.19
491.003	78.19
491.221	92.19
491.439	109.19
491.657	94.19
491.874	103.19
492.092	96.19
492.31	99.19
492.527	109.19
492.745	98.19
492.963	89.19
493.18	88.19
493.398	93.19
493.615	105.19
493.833	90.19
494.05	103.19
494.268	95.19
494.485	96.19
494.703	104.19
494.92	71.19
495.138	93.19
495.355	99.19
495.573	100.19
495.79	103.19
496.008	103.19
496.225	97.19
496.442	93.19
496.66	104.19
496.877	76.19
497.094	93.19
497.312	74.19
497.529	97.19
497.746	98.19
497.963	90.19
498.181	96.19
498.398	89.19
498.615	119.19
498.832	102.19
499.049	94.19
499.267	99.19
499.484	98.19
499.701	89.19
499.918	92.19
500.135	92.19
500.352	104.19
500.569	106.19
500.786	108.19
501.003	81.19
501.22	86.19
501.437	112.19
501.654	111.19
501.871	138.19
502.088	101.19
502.305	98.19
502.522	93.19
502.739	92.19
502.956	110.19
503.172	104.19
503.389	114.19
503.606	134.19
503.823	114.19
504.04	104.19
504.256	93.19
504.473	95.19
504.69	99.19
504.907	88.19
505.123	87.19
505.34	101.19
505.557	105.19
505.773	105.19
505.99	89.19
506.207	89.19
506.423	100.19
506.64	97.19
506.856	96.19
507.073	88.19
507.289	82.19
507.506	120.19
507.722	123.19
507.939	137.19
508.155	90.19
508.372	99.19
508.588	97.19
508.805	96.19
509.021	117.19
509.238	117.19
509.454	106.19
509.67	121.19
509.887	124.19
510.103	145.19
510.319	245.19
510.536	951.19
510.752	3415.19
510.968	904.19
511.184	182.19
