Data from Circ_1988_H10_HRD10591_00004.txt Node
Date: Wed Jan 03 12:05:35 EST 2024
User: Yrep
Spectrometer: HR+D1059
Trigger mode: 1
Integration Time (sec): 1.000000E-1
Scans to average: 1
Electric dark correction enabled: true
Nonlinearity correction enabled: false
Boxcar width: 0
XAxis mode: Wavelengths
Number of Pixels in Spectrum: 2048
>>>>>Begin Spectral Data<<<<<
223.165	-5.75
223.4	-5.75
223.635	-5.75
223.869	-20.75
224.104	-15.75
224.338	-12.75
224.573	-20.75
224.808	-23.75
225.042	-8.75
225.277	-0.75
225.511	-0.75
225.746	5.25
225.98	6.25
226.215	27.25
226.449	8.25
226.683	2.25
226.918	33.25
227.152	27.25
227.387	31.25
227.621	49.25
227.856	52.25
228.09	32.25
228.324	49.25
228.559	57.25
228.793	60.25
229.027	61.25
229.262	82.25
229.496	75.25
229.73	95.25
229.964	103.25
230.199	84.25
230.433	87.25
230.667	92.25
230.901	84.25
231.136	76.25
231.37	81.25
231.604	89.25
231.838	94.25
232.072	83.25
232.306	98.25
232.541	79.25
232.775	89.25
233.009	81.25
233.243	76.25
233.477	84.25
233.711	77.25
233.945	82.25
234.179	80.25
234.413	89.25
234.647	90.25
234.881	95.25
235.115	81.25
235.349	94.25
235.583	79.25
235.817	75.25
236.051	71.25
236.285	95.25
236.519	76.25
236.753	79.25
236.987	83.25
237.221	87.25
237.455	91.25
237.689	84.25
237.922	89.25
238.156	87.25
238.39	72.25
238.624	91.25
238.858	82.25
239.091	88.25
239.325	79.25
239.559	94.25
239.793	92.25
240.027	87.25
240.26	81.25
240.494	96.25
240.728	90.25
240.961	81.25
241.195	83.25
241.429	88.25
241.662	81.25
241.896	75.25
242.13	94.25
242.363	91.25
242.597	72.25
242.83	87.25
243.064	72.25
243.298	90.25
243.531	81.25
243.765	80.25
243.998	87.25
244.232	98.25
244.465	97.25
244.699	90.25
244.932	93.25
245.166	91.25
245.399	71.25
245.633	69.25
245.866	97.25
246.099	69.25
246.333	75.25
246.566	88.25
246.8	84.25
247.033	90.25
247.266	89.25
247.5	90.25
247.733	87.25
247.966	105.25
248.2	100.25
248.433	96.25
248.666	88.25
248.899	95.25
249.133	106.25
249.366	119.25
249.599	110.25
249.832	100.25
250.066	82.25
250.299	91.25
250.532	108.25
250.765	86.25
250.998	101.25
251.231	97.25
251.465	60.25
251.698	107.25
251.931	98.25
252.164	105.25
252.397	98.25
252.63	74.25
252.863	79.25
253.096	83.25
253.329	96.25
253.562	82.25
253.795	90.25
254.028	97.25
254.261	105.25
254.494	90.25
254.727	81.25
254.96	80.25
255.193	87.25
255.426	90.25
255.659	102.25
255.892	109.25
256.124	114.25
256.357	89.25
256.59	88.25
256.823	92.25
257.056	115.25
257.289	106.25
257.521	98.25
257.754	101.25
257.987	98.25
258.22	113.25
258.452	123.25
258.685	120.25
258.918	107.25
259.151	106.25
259.383	111.25
259.616	82.25
259.849	84.25
260.081	98.25
260.314	107.25
260.547	96.25
260.779	121.25
261.012	165.25
261.244	150.25
261.477	121.25
261.71	126.25
261.942	140.25
262.175	159.25
262.407	99.25
262.64	89.25
262.872	94.25
263.105	84.25
263.337	101.25
263.57	93.25
263.802	75.25
264.035	82.25
264.267	97.25
264.499	88.25
264.732	88.25
264.964	91.25
265.197	82.25
265.429	74.25
265.661	92.25
265.894	83.25
266.126	80.25
266.358	97.25
266.591	87.25
266.823	87.25
267.055	98.25
267.287	92.25
267.52	95.25
267.752	95.25
267.984	91.25
268.216	95.25
268.448	92.25
268.681	99.25
268.913	90.25
269.145	82.25
269.377	97.25
269.609	85.25
269.841	89.25
270.073	97.25
270.306	96.25
270.538	86.25
270.77	94.25
271.002	85.25
271.234	89.25
271.466	104.25
271.698	87.25
271.93	103.25
272.162	97.25
272.394	92.25
272.626	104.25
272.858	91.25
273.09	104.25
273.322	89.25
273.553	92.25
273.785	91.25
274.017	108.25
274.249	96.25
274.481	102.25
274.713	107.25
274.945	103.25
275.176	114.25
275.408	140.25
275.64	168.25
275.872	200.25
276.104	156.25
276.335	122.25
276.567	147.25
276.799	198.25
277.031	312.25
277.262	403.25
277.494	274.25
277.726	138.25
277.957	105.25
278.189	98.25
278.421	105.25
278.652	99.25
278.884	111.25
279.115	103.25
279.347	118.25
279.579	159.25
279.81	208.25
280.042	405.25
280.273	622.25
280.505	377.25
280.736	171.25
280.968	122.25
281.199	94.25
281.431	92.25
281.662	99.25
281.894	100.25
282.125	109.25
282.356	134.25
282.588	200.25
282.819	144.25
283.051	98.25
283.282	92.25
283.513	101.25
283.745	97.25
283.976	101.25
284.207	88.25
284.439	108.25
284.67	97.25
284.901	97.25
285.132	84.25
285.364	87.25
285.595	95.25
285.826	94.25
286.057	103.25
286.288	85.25
286.52	90.25
286.751	90.25
286.982	84.25
287.213	93.25
287.444	91.25
287.675	88.25
287.906	90.25
288.138	106.25
288.369	96.25
288.6	101.25
288.831	94.25
289.062	95.25
289.293	94.25
289.524	99.25
289.755	93.25
289.986	91.25
290.217	81.25
290.448	92.25
290.679	88.25
290.91	99.25
291.141	76.25
291.371	102.25
291.602	104.25
291.833	96.25
292.064	98.25
292.295	91.25
292.526	90.25
292.757	84.25
292.987	95.25
293.218	87.25
293.449	89.25
293.68	112.25
293.91	84.25
294.141	94.25
294.372	98.25
294.603	92.25
294.833	96.25
295.064	92.25
295.295	98.25
295.525	108.25
295.756	123.25
295.987	136.25
296.217	188.25
296.448	164.25
296.679	100.25
296.909	99.25
297.14	98.25
297.37	91.25
297.601	89.25
297.831	109.25
298.062	93.25
298.292	98.25
298.523	90.25
298.753	107.25
298.984	91.25
299.214	86.25
299.445	112.25
299.675	112.25
299.905	103.25
300.136	114.25
300.366	85.25
300.597	90.25
300.827	113.25
301.057	118.25
301.288	135.25
301.518	112.25
301.748	117.25
301.979	130.25
302.209	115.25
302.439	101.25
302.669	92.25
302.9	95.25
303.13	109.25
303.36	148.25
303.59	195.25
303.82	218.25
304.051	145.25
304.281	109.25
304.511	100.25
304.741	102.25
304.971	104.25
305.201	100.25
305.431	87.25
305.661	104.25
305.891	100.25
306.121	102.25
306.352	132.25
306.582	135.25
306.812	142.25
307.042	199.25
307.272	292.25
307.502	325.25
307.731	280.25
307.961	187.25
308.191	126.25
308.421	107.25
308.651	90.25
308.881	97.25
309.111	113.25
309.341	100.25
309.571	121.25
309.8	112.25
310.03	103.25
310.26	107.25
310.49	113.25
310.72	113.25
310.949	122.25
311.179	122.25
311.409	103.25
311.639	109.25
311.868	103.25
312.098	113.25
312.328	113.25
312.557	125.25
312.787	139.25
313.017	101.25
313.246	104.25
313.476	109.25
313.706	106.25
313.935	89.25
314.165	116.25
314.394	115.25
314.624	121.25
314.853	113.25
315.083	111.25
315.312	103.25
315.542	106.25
315.771	106.25
316.001	120.25
316.23	97.25
316.46	100.25
316.689	95.25
316.919	80.25
317.148	106.25
317.377	106.25
317.607	112.25
317.836	116.25
318.065	93.25
318.295	115.25
318.524	87.25
318.753	104.25
318.983	102.25
319.212	120.25
319.441	135.25
319.67	130.25
319.9	99.25
320.129	90.25
320.358	111.25
320.587	103.25
320.816	120.25
321.046	106.25
321.275	103.25
321.504	100.25
321.733	98.25
321.962	92.25
322.191	106.25
322.42	116.25
322.649	123.25
322.878	124.25
323.108	140.25
323.337	144.25
323.566	161.25
323.795	186.25
324.024	250.25
324.253	472.25
324.482	978.25
324.71	2011.25
324.939	2777.25
325.168	1001.25
325.397	312.25
325.626	183.25
325.855	163.25
326.084	147.25
326.313	152.25
326.542	196.25
326.77	259.25
326.999	506.25
327.228	975.25
327.457	1819.25
327.686	1588.25
327.914	755.25
328.143	1040.25
328.372	1521.25
328.6	776.25
328.829	287.25
329.058	244.25
329.287	243.25
329.515	263.25
329.744	463.25
329.972	1050.25
330.201	2331.25
330.43	3451.25
330.658	1360.25
330.887	443.25
331.115	254.25
331.344	148.25
331.572	160.25
331.801	163.25
332.03	157.25
332.258	139.25
332.486	133.25
332.715	139.25
332.943	133.25
333.172	164.25
333.4	179.25
333.629	233.25
333.857	375.25
334.085	836.25
334.314	1970.25
334.542	4112.25
334.771	3831.25
334.999	891.25
335.227	291.25
335.455	171.25
335.684	145.25
335.912	140.25
336.14	144.25
336.369	136.25
336.597	122.25
336.825	123.25
337.053	103.25
337.281	106.25
337.51	117.25
337.738	118.25
337.966	96.25
338.194	119.25
338.422	136.25
338.65	105.25
338.878	100.25
339.106	109.25
339.334	96.25
339.562	98.25
339.79	102.25
340.018	103.25
340.246	100.25
340.474	95.25
340.702	99.25
340.93	102.25
341.158	96.25
341.386	102.25
341.614	114.25
341.842	99.25
342.07	100.25
342.298	104.25
342.526	104.25
342.754	90.25
342.981	88.25
343.209	90.25
343.437	106.25
343.665	95.25
343.893	96.25
344.12	102.25
344.348	111.25
344.576	97.25
344.804	92.25
345.031	92.25
345.259	120.25
345.487	108.25
345.714	108.25
345.942	105.25
346.17	99.25
346.397	98.25
346.625	112.25
346.853	104.25
347.08	99.25
347.308	112.25
347.535	112.25
347.763	111.25
347.99	108.25
348.218	114.25
348.445	127.25
348.673	117.25
348.9	112.25
349.128	99.25
349.355	102.25
349.583	111.25
349.81	98.25
350.037	88.25
350.265	96.25
350.492	95.25
350.72	109.25
350.947	95.25
351.174	114.25
351.402	135.25
351.629	115.25
351.856	101.25
352.083	118.25
352.311	128.25
352.538	128.25
352.765	129.25
352.992	123.25
353.22	135.25
353.447	120.25
353.674	107.25
353.901	111.25
354.128	113.25
354.355	112.25
354.583	105.25
354.81	96.25
355.037	104.25
355.264	103.25
355.491	105.25
355.718	102.25
355.945	107.25
356.172	104.25
356.399	108.25
356.626	106.25
356.853	97.25
357.08	88.25
357.307	92.25
357.534	107.25
357.761	107.25
357.988	114.25
358.215	116.25
358.441	131.25
358.668	122.25
358.895	113.25
359.122	107.25
359.349	97.25
359.576	101.25
359.802	121.25
360.029	144.25
360.256	168.25
360.483	129.25
360.709	102.25
360.936	92.25
361.163	101.25
361.39	96.25
361.616	115.25
361.843	109.25
362.07	104.25
362.296	122.25
362.523	120.25
362.749	107.25
362.976	93.25
363.203	110.25
363.429	98.25
363.656	110.25
363.882	98.25
364.109	89.25
364.335	97.25
364.562	110.25
364.788	106.25
365.015	108.25
365.241	109.25
365.468	115.25
365.694	117.25
365.92	106.25
366.147	133.25
366.373	98.25
366.599	94.25
366.826	101.25
367.052	100.25
367.278	90.25
367.505	104.25
367.731	98.25
367.957	107.25
368.184	101.25
368.41	120.25
368.636	138.25
368.862	127.25
369.089	122.25
369.315	112.25
369.541	91.25
369.767	100.25
369.993	95.25
370.219	109.25
370.445	96.25
370.672	97.25
370.898	112.25
371.124	89.25
371.35	80.25
371.576	91.25
371.802	91.25
372.028	100.25
372.254	96.25
372.48	108.25
372.706	87.25
372.932	83.25
373.158	80.25
373.384	102.25
373.61	107.25
373.835	90.25
374.061	95.25
374.287	90.25
374.513	113.25
374.739	98.25
374.965	100.25
375.191	92.25
375.416	100.25
375.642	94.25
375.868	105.25
376.094	105.25
376.319	92.25
376.545	99.25
376.771	113.25
376.997	107.25
377.222	92.25
377.448	102.25
377.674	97.25
377.899	105.25
378.125	116.25
378.35	117.25
378.576	102.25
378.802	103.25
379.027	106.25
379.253	112.25
379.478	116.25
379.704	113.25
379.929	120.25
380.155	108.25
380.38	121.25
380.606	119.25
380.831	116.25
381.057	125.25
381.282	128.25
381.507	119.25
381.733	138.25
381.958	123.25
382.184	132.25
382.409	150.25
382.634	154.25
382.86	137.25
383.085	136.25
383.31	137.25
383.535	139.25
383.761	137.25
383.986	131.25
384.211	157.25
384.436	165.25
384.662	163.25
384.887	174.25
385.112	185.25
385.337	200.25
385.562	194.25
385.787	184.25
386.013	177.25
386.238	200.25
386.463	179.25
386.688	161.25
386.913	173.25
387.138	195.25
387.363	172.25
387.588	147.25
387.813	156.25
388.038	173.25
388.263	198.25
388.488	189.25
388.713	127.25
388.938	95.25
389.163	90.25
389.387	105.25
389.612	102.25
389.837	113.25
390.062	103.25
390.287	98.25
390.512	100.25
390.736	102.25
390.961	90.25
391.186	86.25
391.411	86.25
391.636	99.25
391.86	100.25
392.085	82.25
392.31	99.25
392.534	98.25
392.759	91.25
392.984	81.25
393.208	98.25
393.433	131.25
393.658	113.25
393.882	89.25
394.107	89.25
394.331	90.25
394.556	91.25
394.78	93.25
395.005	107.25
395.229	91.25
395.454	97.25
395.678	85.25
395.903	88.25
396.127	89.25
396.352	87.25
396.576	89.25
396.801	101.25
397.025	107.25
397.249	101.25
397.474	105.25
397.698	107.25
397.922	91.25
398.147	99.25
398.371	92.25
398.595	95.25
398.82	97.25
399.044	99.25
399.268	96.25
399.492	98.25
399.717	99.25
399.941	96.25
400.165	107.25
400.389	92.25
400.613	97.25
400.837	100.25
401.062	97.25
401.286	83.25
401.51	105.25
401.734	100.25
401.958	116.25
402.182	157.25
402.406	214.25
402.63	164.25
402.854	107.25
403.078	89.25
403.302	85.25
403.526	92.25
403.75	90.25
403.974	95.25
404.198	110.25
404.422	115.25
404.645	104.25
404.869	111.25
405.093	131.25
405.317	159.25
405.541	159.25
405.765	129.25
405.988	145.25
406.212	241.25
406.436	353.25
406.66	210.25
406.883	127.25
407.107	97.25
407.331	115.25
407.555	114.25
407.778	113.25
408.002	118.25
408.226	93.25
408.449	105.25
408.673	95.25
408.896	107.25
409.12	106.25
409.344	99.25
409.567	102.25
409.791	111.25
410.014	100.25
410.238	112.25
410.461	105.25
410.685	83.25
410.908	99.25
411.132	118.25
411.355	108.25
411.578	111.25
411.802	94.25
412.025	108.25
412.249	115.25
412.472	135.25
412.695	145.25
412.919	123.25
413.142	120.25
413.365	98.25
413.589	103.25
413.812	107.25
414.035	105.25
414.258	103.25
414.482	115.25
414.705	92.25
414.928	116.25
415.151	104.25
415.374	122.25
415.597	117.25
415.821	112.25
416.044	119.25
416.267	118.25
416.49	101.25
416.713	103.25
416.936	116.25
417.159	123.25
417.382	124.25
417.605	145.25
417.828	136.25
418.051	125.25
418.274	109.25
418.497	109.25
418.72	101.25
418.943	81.25
419.166	103.25
419.389	99.25
419.611	118.25
419.834	116.25
420.057	108.25
420.28	109.25
420.503	104.25
420.726	114.25
420.948	106.25
421.171	117.25
421.394	95.25
421.617	92.25
421.839	99.25
422.062	96.25
422.285	90.25
422.507	131.25
422.73	141.25
422.953	117.25
423.175	99.25
423.398	101.25
423.621	99.25
423.843	100.25
424.066	97.25
424.288	98.25
424.511	119.25
424.733	101.25
424.956	126.25
425.178	117.25
425.401	120.25
425.623	112.25
425.846	104.25
426.068	113.25
426.291	105.25
426.513	102.25
426.735	104.25
426.958	104.25
427.18	127.25
427.402	195.25
427.625	294.25
427.847	291.25
428.069	265.25
428.292	177.25
428.514	109.25
428.736	109.25
428.958	105.25
429.181	105.25
429.403	108.25
429.625	100.25
429.847	102.25
430.069	115.25
430.292	105.25
430.514	89.25
430.736	96.25
430.958	112.25
431.18	84.25
431.402	91.25
431.624	100.25
431.846	109.25
432.068	100.25
432.29	89.25
432.512	96.25
432.734	90.25
432.956	107.25
433.178	90.25
433.4	114.25
433.622	98.25
433.844	100.25
434.066	107.25
434.287	94.25
434.509	93.25
434.731	97.25
434.953	104.25
435.175	96.25
435.397	89.25
435.618	109.25
435.84	120.25
436.062	132.25
436.284	133.25
436.505	103.25
436.727	102.25
436.949	99.25
437.17	97.25
437.392	99.25
437.614	106.25
437.835	131.25
438.057	153.25
438.278	119.25
438.5	128.25
438.721	143.25
438.943	102.25
439.165	95.25
439.386	89.25
439.608	104.25
439.829	123.25
440.05	158.25
440.272	201.25
440.493	115.25
440.715	95.25
440.936	89.25
441.158	83.25
441.379	103.25
441.6	103.25
441.822	106.25
442.043	107.25
442.264	116.25
442.486	109.25
442.707	99.25
442.928	131.25
443.149	205.25
443.371	202.25
443.592	142.25
443.813	115.25
444.034	131.25
444.255	112.25
444.476	101.25
444.698	105.25
444.919	93.25
445.14	143.25
445.361	146.25
445.582	133.25
445.803	196.25
446.024	188.25
446.245	164.25
446.466	132.25
446.687	92.25
446.908	107.25
447.129	111.25
447.35	105.25
447.571	112.25
447.792	106.25
448.013	110.25
448.234	134.25
448.455	119.25
448.675	127.25
448.896	143.25
449.117	109.25
449.338	127.25
449.559	167.25
449.779	152.25
450	101.25
450.221	94.25
450.442	118.25
450.662	111.25
450.883	131.25
451.104	145.25
451.324	123.25
451.545	100.25
451.766	94.25
451.986	105.25
452.207	119.25
452.428	110.25
452.648	102.25
452.869	145.25
453.089	157.25
453.31	159.25
453.53	110.25
453.751	103.25
453.971	135.25
454.192	142.25
454.412	114.25
454.633	111.25
454.853	109.25
455.073	86.25
455.294	101.25
455.514	116.25
455.734	91.25
455.955	92.25
456.175	82.25
456.395	85.25
456.616	108.25
456.836	97.25
457.056	101.25
457.276	103.25
457.497	101.25
457.717	106.25
457.937	91.25
458.157	98.25
458.377	97.25
458.598	134.25
458.818	230.25
459.038	243.25
459.258	156.25
459.478	119.25
459.698	99.25
459.918	88.25
460.138	104.25
460.358	99.25
460.578	101.25
460.798	100.25
461.018	101.25
461.238	105.25
461.458	98.25
461.678	83.25
461.898	89.25
462.118	89.25
462.338	96.25
462.558	105.25
462.777	119.25
462.997	140.25
463.217	148.25
463.437	117.25
463.657	101.25
463.876	108.25
464.096	102.25
464.316	96.25
464.536	108.25
464.755	114.25
464.975	144.25
465.195	271.25
465.414	267.25
465.634	131.25
465.854	107.25
466.073	107.25
466.293	103.25
466.512	114.25
466.732	114.25
466.951	107.25
467.171	105.25
467.391	156.25
467.61	227.25
467.829	413.25
468.049	1484.25
468.268	2357.25
468.488	489.25
468.707	169.25
468.927	127.25
469.146	101.25
469.365	101.25
469.585	97.25
469.804	112.25
470.023	132.25
470.243	119.25
470.462	161.25
470.681	165.25
470.901	127.25
471.12	143.25
471.339	141.25
471.558	147.25
471.777	249.25
471.997	609.25
472.216	2650.25
472.435	6304.25
472.654	1309.25
472.873	287.25
473.092	149.25
473.311	131.25
473.53	112.25
473.749	102.25
473.968	107.25
474.187	132.25
474.406	112.25
474.625	102.25
474.844	100.25
475.063	109.25
475.282	86.25
475.501	106.25
475.72	118.25
475.939	96.25
476.158	88.25
476.377	109.25
476.596	92.25
476.814	113.25
477.033	110.25
477.252	105.25
477.471	106.25
477.69	109.25
477.908	101.25
478.127	122.25
478.346	99.25
478.564	117.25
478.783	110.25
479.002	131.25
479.22	133.25
479.439	155.25
479.658	176.25
479.876	158.25
480.095	168.25
480.313	202.25
480.532	261.25
480.751	524.25
480.969	2223.25
481.188	10036.25
481.406	5638.25
481.624	689.25
481.843	219.25
482.061	147.25
482.28	139.25
482.498	119.25
482.717	124.25
482.935	112.25
483.153	113.25
483.372	130.25
483.59	109.25
483.808	98.25
484.027	113.25
484.245	110.25
484.463	97.25
484.681	113.25
484.9	92.25
485.118	109.25
485.336	114.25
485.554	106.25
485.772	109.25
485.99	106.25
486.209	122.25
486.427	127.25
486.645	159.25
486.863	158.25
487.081	127.25
487.299	116.25
487.517	95.25
487.735	109.25
487.953	106.25
488.171	106.25
488.389	98.25
488.607	116.25
488.825	104.25
489.043	95.25
489.261	111.25
489.479	117.25
489.696	100.25
489.914	89.25
490.132	98.25
490.35	90.25
490.568	92.25
490.786	98.25
491.003	107.25
491.221	107.25
491.439	113.25
491.657	93.25
491.874	106.25
492.092	95.25
492.31	86.25
492.527	105.25
492.745	113.25
492.963	105.25
493.18	103.25
493.398	108.25
493.615	93.25
493.833	96.25
494.05	100.25
494.268	91.25
494.485	92.25
494.703	92.25
494.92	105.25
495.138	88.25
495.355	91.25
495.573	104.25
495.79	89.25
496.008	105.25
496.225	93.25
496.442	92.25
496.66	113.25
496.877	94.25
497.094	89.25
497.312	102.25
497.529	93.25
497.746	87.25
497.963	106.25
498.181	103.25
498.398	107.25
498.615	132.25
498.832	125.25
499.049	106.25
499.267	103.25
499.484	88.25
499.701	93.25
499.918	107.25
500.135	104.25
500.352	91.25
500.569	117.25
500.786	120.25
501.003	86.25
501.22	97.25
501.437	100.25
501.654	108.25
501.871	137.25
502.088	110.25
502.305	103.25
502.522	101.25
502.739	106.25
502.956	102.25
503.172	114.25
503.389	124.25
503.606	134.25
503.823	115.25
504.04	104.25
504.256	92.25
504.473	88.25
504.69	103.25
504.907	106.25
505.123	87.25
505.34	108.25
505.557	92.25
505.773	116.25
505.99	92.25
506.207	89.25
506.423	95.25
506.64	101.25
506.856	93.25
507.073	106.25
507.289	105.25
507.506	115.25
507.722	140.25
507.939	132.25
508.155	99.25
508.372	106.25
508.588	108.25
