Data from Circ_1988_H10_HRD10591_00002.txt Node
Date: Wed Jan 03 12:05:35 EST 2024
User: Yrep
Spectrometer: HR+D1059
Trigger mode: 1
Integration Time (sec): 1.000000E-1
Scans to average: 1
Electric dark correction enabled: true
Nonlinearity correction enabled: false
Boxcar width: 0
XAxis mode: Wavelengths
Number of Pixels in Spectrum: 2048
>>>>>Begin Spectral Data<<<<<
223.165	-8.75
223.4	-8.75
223.635	-8.75
223.869	-12.75
224.104	-18.75
224.338	-28.75
224.573	-15.75
224.808	-15.75
225.042	-12.75
225.277	-3.75
225.511	-3.75
225.746	14.25
225.98	6.25
226.215	9.25
226.449	20.25
226.683	22.25
226.918	23.25
227.152	25.25
227.387	32.25
227.621	48.25
227.856	46.25
228.09	54.25
228.324	69.25
228.559	52.25
228.793	54.25
229.027	68.25
229.262	80.25
229.496	73.25
229.73	99.25
229.964	91.25
230.199	72.25
230.433	88.25
230.667	75.25
230.901	78.25
231.136	75.25
231.37	92.25
231.604	90.25
231.838	111.25
232.072	82.25
232.306	74.25
232.541	92.25
232.775	94.25
233.009	88.25
233.243	82.25
233.477	81.25
233.711	76.25
233.945	92.25
234.179	82.25
234.413	83.25
234.647	96.25
234.881	72.25
235.115	76.25
235.349	88.25
235.583	88.25
235.817	78.25
236.051	85.25
236.285	80.25
236.519	80.25
236.753	96.25
236.987	79.25
237.221	82.25
237.455	106.25
237.689	86.25
237.922	79.25
238.156	96.25
238.39	86.25
238.624	92.25
238.858	96.25
239.091	78.25
239.325	71.25
239.559	79.25
239.793	76.25
240.027	98.25
240.26	97.25
240.494	73.25
240.728	84.25
240.961	78.25
241.195	78.25
241.429	87.25
241.662	73.25
241.896	74.25
242.13	71.25
242.363	84.25
242.597	82.25
242.83	81.25
243.064	83.25
243.298	90.25
243.531	94.25
243.765	77.25
243.998	73.25
244.232	89.25
244.465	90.25
244.699	88.25
244.932	78.25
245.166	70.25
245.399	80.25
245.633	90.25
245.866	77.25
246.099	73.25
246.333	87.25
246.566	88.25
246.8	93.25
247.033	76.25
247.266	78.25
247.5	83.25
247.733	83.25
247.966	95.25
248.2	91.25
248.433	82.25
248.666	88.25
248.899	93.25
249.133	84.25
249.366	113.25
249.599	103.25
249.832	90.25
250.066	105.25
250.299	84.25
250.532	103.25
250.765	85.25
250.998	85.25
251.231	98.25
251.465	80.25
251.698	83.25
251.931	106.25
252.164	86.25
252.397	71.25
252.63	97.25
252.863	85.25
253.096	84.25
253.329	92.25
253.562	88.25
253.795	83.25
254.028	85.25
254.261	75.25
254.494	86.25
254.727	94.25
254.96	82.25
255.193	97.25
255.426	77.25
255.659	83.25
255.892	88.25
256.124	102.25
256.357	105.25
256.59	90.25
256.823	102.25
257.056	96.25
257.289	100.25
257.521	79.25
257.754	84.25
257.987	98.25
258.22	96.25
258.452	118.25
258.685	118.25
258.918	104.25
259.151	90.25
259.383	87.25
259.616	80.25
259.849	95.25
260.081	89.25
260.314	95.25
260.547	108.25
260.779	118.25
261.012	133.25
261.244	136.25
261.477	124.25
261.71	112.25
261.942	144.25
262.175	137.25
262.407	117.25
262.64	94.25
262.872	96.25
263.105	83.25
263.337	90.25
263.57	93.25
263.802	80.25
264.035	98.25
264.267	83.25
264.499	92.25
264.732	95.25
264.964	78.25
265.197	89.25
265.429	90.25
265.661	91.25
265.894	75.25
266.126	84.25
266.358	81.25
266.591	94.25
266.823	95.25
267.055	90.25
267.287	90.25
267.52	83.25
267.752	82.25
267.984	89.25
268.216	91.25
268.448	96.25
268.681	110.25
268.913	89.25
269.145	90.25
269.377	94.25
269.609	86.25
269.841	97.25
270.073	84.25
270.306	89.25
270.538	96.25
270.77	89.25
271.002	89.25
271.234	96.25
271.466	106.25
271.698	98.25
271.93	86.25
272.162	89.25
272.394	92.25
272.626	84.25
272.858	84.25
273.09	95.25
273.322	95.25
273.553	87.25
273.785	90.25
274.017	80.25
274.249	92.25
274.481	105.25
274.713	107.25
274.945	99.25
275.176	86.25
275.408	105.25
275.64	159.25
275.872	181.25
276.104	153.25
276.335	109.25
276.567	129.25
276.799	189.25
277.031	250.25
277.262	358.25
277.494	251.25
277.726	131.25
277.957	109.25
278.189	95.25
278.421	93.25
278.652	103.25
278.884	107.25
279.115	99.25
279.347	112.25
279.579	131.25
279.81	188.25
280.042	356.25
280.273	541.25
280.505	332.25
280.736	142.25
280.968	111.25
281.199	101.25
281.431	88.25
281.662	95.25
281.894	99.25
282.125	119.25
282.356	132.25
282.588	178.25
282.819	144.25
283.051	108.25
283.282	88.25
283.513	86.25
283.745	80.25
283.976	100.25
284.207	83.25
284.439	95.25
284.67	107.25
284.901	95.25
285.132	96.25
285.364	92.25
285.595	96.25
285.826	87.25
286.057	101.25
286.288	88.25
286.52	95.25
286.751	100.25
286.982	97.25
287.213	78.25
287.444	101.25
287.675	103.25
287.906	88.25
288.138	86.25
288.369	87.25
288.6	94.25
288.831	88.25
289.062	96.25
289.293	92.25
289.524	70.25
289.755	105.25
289.986	98.25
290.217	88.25
290.448	82.25
290.679	79.25
290.91	103.25
291.141	89.25
291.371	97.25
291.602	101.25
291.833	89.25
292.064	91.25
292.295	86.25
292.526	87.25
292.757	91.25
292.987	104.25
293.218	101.25
293.449	85.25
293.68	105.25
293.91	94.25
294.141	94.25
294.372	108.25
294.603	98.25
294.833	90.25
295.064	87.25
295.295	88.25
295.525	100.25
295.756	116.25
295.987	151.25
296.217	163.25
296.448	137.25
296.679	104.25
296.909	95.25
297.14	87.25
297.37	94.25
297.601	94.25
297.831	96.25
298.062	91.25
298.292	104.25
298.523	88.25
298.753	88.25
298.984	99.25
299.214	96.25
299.445	94.25
299.675	108.25
299.905	90.25
300.136	90.25
300.366	78.25
300.597	81.25
300.827	102.25
301.057	130.25
301.288	132.25
301.518	107.25
301.748	115.25
301.979	134.25
302.209	117.25
302.439	112.25
302.669	98.25
302.9	91.25
303.13	113.25
303.36	113.25
303.59	169.25
303.82	197.25
304.051	128.25
304.281	96.25
304.511	88.25
304.741	100.25
304.971	96.25
305.201	97.25
305.431	93.25
305.661	91.25
305.891	101.25
306.121	113.25
306.352	123.25
306.582	108.25
306.812	132.25
307.042	167.25
307.272	279.25
307.502	293.25
307.731	247.25
307.961	187.25
308.191	104.25
308.421	90.25
308.651	92.25
308.881	96.25
309.111	110.25
309.341	119.25
309.571	111.25
309.8	113.25
310.03	105.25
310.26	107.25
310.49	97.25
310.72	118.25
310.949	129.25
311.179	107.25
311.409	113.25
311.639	100.25
311.868	95.25
312.098	103.25
312.328	105.25
312.557	121.25
312.787	128.25
313.017	120.25
313.246	95.25
313.476	98.25
313.706	102.25
313.935	97.25
314.165	122.25
314.394	108.25
314.624	110.25
314.853	120.25
315.083	89.25
315.312	88.25
315.542	97.25
315.771	93.25
316.001	94.25
316.23	103.25
316.46	91.25
316.689	88.25
316.919	98.25
317.148	105.25
317.377	107.25
317.607	101.25
317.836	98.25
318.065	104.25
318.295	111.25
318.524	98.25
318.753	90.25
318.983	98.25
319.212	116.25
319.441	139.25
319.67	115.25
319.9	111.25
320.129	97.25
320.358	97.25
320.587	106.25
320.816	125.25
321.046	126.25
321.275	95.25
321.504	111.25
321.733	108.25
321.962	98.25
322.191	113.25
322.42	109.25
322.649	129.25
322.878	108.25
323.108	136.25
323.337	155.25
323.566	155.25
323.795	165.25
324.024	231.25
324.253	418.25
324.482	884.25
324.71	1799.25
324.939	2449.25
325.168	942.25
325.397	278.25
325.626	172.25
325.855	139.25
326.084	146.25
326.313	144.25
326.542	168.25
326.77	240.25
326.999	453.25
327.228	891.25
327.457	1672.25
327.686	1432.25
327.914	657.25
328.143	890.25
328.372	1255.25
328.6	647.25
328.829	249.25
329.058	219.25
329.287	218.25
329.515	240.25
329.744	400.25
329.972	847.25
330.201	1905.25
330.43	2846.25
330.658	1138.25
330.887	393.25
331.115	227.25
331.344	145.25
331.572	137.25
331.801	144.25
332.03	136.25
332.258	134.25
332.486	116.25
332.715	121.25
332.943	122.25
333.172	131.25
333.4	162.25
333.629	213.25
333.857	331.25
334.085	698.25
334.314	1635.25
334.542	3398.25
334.771	3195.25
334.999	775.25
335.227	258.25
335.455	156.25
335.684	132.25
335.912	131.25
336.14	128.25
336.369	115.25
336.597	131.25
336.825	117.25
337.053	78.25
337.281	96.25
337.51	99.25
337.738	116.25
337.966	114.25
338.194	106.25
338.422	113.25
338.65	110.25
338.878	111.25
339.106	95.25
339.334	95.25
339.562	100.25
339.79	100.25
340.018	99.25
340.246	102.25
340.474	95.25
340.702	101.25
340.93	105.25
341.158	90.25
341.386	113.25
341.614	95.25
341.842	108.25
342.07	105.25
342.298	102.25
342.526	102.25
342.754	85.25
342.981	92.25
343.209	98.25
343.437	100.25
343.665	99.25
343.893	94.25
344.12	97.25
344.348	85.25
344.576	87.25
344.804	109.25
345.031	102.25
345.259	114.25
345.487	94.25
345.714	95.25
345.942	91.25
346.17	86.25
346.397	97.25
346.625	76.25
346.853	94.25
347.08	90.25
347.308	119.25
347.535	108.25
347.763	112.25
347.99	111.25
348.218	100.25
348.445	117.25
348.673	111.25
348.9	100.25
349.128	108.25
349.355	103.25
349.583	97.25
349.81	90.25
350.037	104.25
350.265	116.25
350.492	100.25
350.72	104.25
350.947	99.25
351.174	113.25
351.402	111.25
351.629	122.25
351.856	101.25
352.083	119.25
352.311	116.25
352.538	132.25
352.765	126.25
352.992	120.25
353.22	128.25
353.447	122.25
353.674	116.25
353.901	101.25
354.128	107.25
354.355	97.25
354.583	104.25
354.81	100.25
355.037	102.25
355.264	118.25
355.491	96.25
355.718	100.25
355.945	108.25
356.172	91.25
356.399	107.25
356.626	99.25
356.853	98.25
357.08	119.25
357.307	98.25
357.534	107.25
357.761	98.25
357.988	120.25
358.215	119.25
358.441	121.25
358.668	134.25
358.895	107.25
359.122	104.25
359.349	103.25
359.576	108.25
359.802	124.25
360.029	131.25
360.256	145.25
360.483	108.25
360.709	104.25
360.936	94.25
361.163	104.25
361.39	103.25
361.616	122.25
361.843	90.25
362.07	101.25
362.296	117.25
362.523	93.25
362.749	107.25
362.976	103.25
363.203	107.25
363.429	97.25
363.656	101.25
363.882	84.25
364.109	93.25
364.335	92.25
364.562	81.25
364.788	86.25
365.015	104.25
365.241	104.25
365.468	113.25
365.694	130.25
365.92	108.25
366.147	105.25
366.373	100.25
366.599	83.25
366.826	96.25
367.052	86.25
367.278	102.25
367.505	101.25
367.731	104.25
367.957	110.25
368.184	108.25
368.41	126.25
368.636	122.25
368.862	121.25
369.089	130.25
369.315	104.25
369.541	107.25
369.767	98.25
369.993	92.25
370.219	105.25
370.445	95.25
370.672	92.25
370.898	86.25
371.124	98.25
371.35	98.25
371.576	86.25
371.802	92.25
372.028	92.25
372.254	97.25
372.48	93.25
372.706	84.25
372.932	94.25
373.158	92.25
373.384	90.25
373.61	108.25
373.835	99.25
374.061	110.25
374.287	111.25
374.513	100.25
374.739	82.25
374.965	94.25
375.191	97.25
375.416	96.25
375.642	85.25
375.868	92.25
376.094	109.25
376.319	98.25
376.545	88.25
376.771	106.25
376.997	113.25
377.222	108.25
377.448	96.25
377.674	108.25
377.899	99.25
378.125	109.25
378.35	100.25
378.576	115.25
378.802	115.25
379.027	101.25
379.253	119.25
379.478	101.25
379.704	116.25
379.929	121.25
380.155	123.25
380.38	115.25
380.606	129.25
380.831	115.25
381.057	132.25
381.282	138.25
381.507	140.25
381.733	135.25
381.958	143.25
382.184	139.25
382.409	122.25
382.634	139.25
382.86	132.25
383.085	128.25
383.31	134.25
383.535	138.25
383.761	133.25
383.986	137.25
384.211	136.25
384.436	152.25
384.662	154.25
384.887	187.25
385.112	191.25
385.337	172.25
385.562	196.25
385.787	166.25
386.013	178.25
386.238	195.25
386.463	172.25
386.688	172.25
386.913	176.25
387.138	195.25
387.363	169.25
387.588	131.25
387.813	146.25
388.038	169.25
388.263	209.25
388.488	206.25
388.713	124.25
388.938	105.25
389.163	112.25
389.387	100.25
389.612	97.25
389.837	92.25
390.062	89.25
390.287	80.25
390.512	84.25
390.736	88.25
390.961	89.25
391.186	94.25
391.411	95.25
391.636	104.25
391.86	92.25
392.085	78.25
392.31	90.25
392.534	91.25
392.759	82.25
392.984	103.25
393.208	110.25
393.433	143.25
393.658	114.25
393.882	98.25
394.107	100.25
394.331	102.25
394.556	84.25
394.78	96.25
395.005	91.25
395.229	97.25
395.454	96.25
395.678	97.25
395.903	96.25
396.127	87.25
396.352	103.25
396.576	93.25
396.801	106.25
397.025	112.25
397.249	103.25
397.474	95.25
397.698	90.25
397.922	90.25
398.147	87.25
398.371	92.25
398.595	92.25
398.82	90.25
399.044	90.25
399.268	83.25
399.492	86.25
399.717	112.25
399.941	101.25
400.165	82.25
400.389	94.25
400.613	78.25
400.837	88.25
401.062	95.25
401.286	107.25
401.51	80.25
401.734	86.25
401.958	112.25
402.182	144.25
402.406	197.25
402.63	142.25
402.854	115.25
403.078	93.25
403.302	88.25
403.526	90.25
403.75	92.25
403.974	96.25
404.198	87.25
404.422	102.25
404.645	102.25
404.869	103.25
405.093	111.25
405.317	155.25
405.541	157.25
405.765	120.25
405.988	131.25
406.212	222.25
406.436	318.25
406.66	215.25
406.883	129.25
407.107	114.25
407.331	98.25
407.555	110.25
407.778	106.25
408.002	99.25
408.226	104.25
408.449	89.25
408.673	104.25
408.896	100.25
409.12	105.25
409.344	104.25
409.567	94.25
409.791	91.25
410.014	98.25
410.238	97.25
410.461	91.25
410.685	103.25
410.908	85.25
411.132	107.25
411.355	114.25
411.578	92.25
411.802	103.25
412.025	108.25
412.249	117.25
412.472	135.25
412.695	162.25
412.919	128.25
413.142	112.25
413.365	104.25
413.589	105.25
413.812	93.25
414.035	95.25
414.258	98.25
414.482	98.25
414.705	111.25
414.928	106.25
415.151	96.25
415.374	103.25
415.597	97.25
415.821	103.25
416.044	103.25
416.267	96.25
416.49	84.25
416.713	99.25
416.936	84.25
417.159	101.25
417.382	113.25
417.605	120.25
417.828	139.25
418.051	108.25
418.274	105.25
418.497	100.25
418.72	84.25
418.943	106.25
419.166	89.25
419.389	98.25
419.611	106.25
419.834	90.25
420.057	105.25
420.28	108.25
420.503	108.25
420.726	98.25
420.948	103.25
421.171	110.25
421.394	108.25
421.617	86.25
421.839	86.25
422.062	98.25
422.285	89.25
422.507	122.25
422.73	134.25
422.953	128.25
423.175	95.25
423.398	93.25
423.621	80.25
423.843	71.25
424.066	76.25
424.288	78.25
424.511	80.25
424.733	98.25
424.956	127.25
425.178	110.25
425.401	105.25
425.623	110.25
425.846	94.25
426.068	107.25
426.291	83.25
426.513	88.25
426.735	109.25
426.958	108.25
427.18	138.25
427.402	181.25
427.625	255.25
427.847	250.25
428.069	235.25
428.292	166.25
428.514	112.25
428.736	99.25
428.958	90.25
429.181	96.25
429.403	92.25
429.625	95.25
429.847	98.25
430.069	113.25
430.292	99.25
430.514	93.25
430.736	87.25
430.958	94.25
431.18	77.25
431.402	91.25
431.624	99.25
431.846	100.25
432.068	95.25
432.29	90.25
432.512	98.25
432.734	99.25
432.956	103.25
433.178	87.25
433.4	95.25
433.622	80.25
433.844	108.25
434.066	103.25
434.287	96.25
434.509	107.25
434.731	94.25
434.953	94.25
435.175	90.25
435.397	94.25
435.618	97.25
435.84	113.25
436.062	121.25
436.284	103.25
436.505	101.25
436.727	118.25
436.949	103.25
437.17	88.25
437.392	85.25
437.614	110.25
437.835	115.25
438.057	139.25
438.278	126.25
438.5	113.25
438.721	119.25
438.943	93.25
439.165	98.25
439.386	96.25
439.608	97.25
439.829	115.25
440.05	148.25
440.272	174.25
440.493	114.25
440.715	99.25
440.936	94.25
441.158	87.25
441.379	85.25
441.6	103.25
441.822	104.25
442.043	103.25
442.264	108.25
442.486	113.25
442.707	100.25
442.928	134.25
443.149	160.25
443.371	162.25
443.592	128.25
443.813	115.25
444.034	135.25
444.255	99.25
444.476	100.25
444.698	95.25
444.919	86.25
445.14	137.25
445.361	115.25
445.582	154.25
445.803	170.25
446.024	164.25
446.245	158.25
446.466	134.25
446.687	111.25
446.908	87.25
447.129	72.25
447.35	107.25
447.571	103.25
447.792	111.25
448.013	107.25
448.234	128.25
448.455	111.25
448.675	128.25
448.896	130.25
449.117	98.25
449.338	107.25
449.559	138.25
449.779	140.25
450	103.25
450.221	94.25
450.442	102.25
450.662	113.25
450.883	127.25
451.104	133.25
451.324	118.25
451.545	98.25
451.766	98.25
451.986	89.25
452.207	99.25
452.428	96.25
452.648	105.25
452.869	122.25
453.089	131.25
453.31	153.25
453.53	106.25
453.751	112.25
453.971	111.25
454.192	126.25
454.412	89.25
454.633	97.25
454.853	91.25
455.073	106.25
455.294	96.25
455.514	102.25
455.734	98.25
455.955	96.25
456.175	90.25
456.395	89.25
456.616	95.25
456.836	82.25
457.056	72.25
457.276	94.25
457.497	82.25
457.717	88.25
457.937	94.25
458.157	74.25
458.377	105.25
458.598	110.25
458.818	183.25
459.038	226.25
459.258	143.25
459.478	91.25
459.698	97.25
459.918	96.25
460.138	103.25
460.358	75.25
460.578	102.25
460.798	91.25
461.018	99.25
461.238	101.25
461.458	81.25
461.678	90.25
461.898	94.25
462.118	99.25
462.338	87.25
462.558	98.25
462.777	108.25
462.997	133.25
463.217	169.25
463.437	127.25
463.657	107.25
463.876	100.25
464.096	87.25
464.316	114.25
464.536	110.25
464.755	103.25
464.975	128.25
465.195	241.25
465.414	231.25
465.634	129.25
465.854	99.25
466.073	105.25
466.293	108.25
466.512	99.25
466.732	95.25
466.951	97.25
467.171	98.25
467.391	138.25
467.61	185.25
467.829	361.25
468.049	1254.25
468.268	1978.25
468.488	423.25
468.707	156.25
468.927	113.25
469.146	92.25
469.365	108.25
469.585	86.25
469.804	105.25
470.023	129.25
470.243	90.25
470.462	117.25
470.681	150.25
470.901	122.25
471.12	119.25
471.339	119.25
471.558	155.25
471.777	218.25
471.997	530.25
472.216	2213.25
472.435	5360.25
472.654	1120.25
472.873	254.25
473.092	129.25
473.311	116.25
473.53	113.25
473.749	111.25
473.968	96.25
474.187	123.25
474.406	100.25
474.625	94.25
474.844	94.25
475.063	92.25
475.282	96.25
475.501	99.25
475.72	100.25
475.939	98.25
476.158	90.25
476.377	84.25
476.596	107.25
476.814	114.25
477.033	125.25
477.252	101.25
477.471	101.25
477.69	97.25
477.908	95.25
478.127	106.25
478.346	109.25
478.564	97.25
478.783	122.25
479.002	129.25
479.22	116.25
479.439	131.25
479.658	158.25
479.876	143.25
480.095	153.25
480.313	186.25
480.532	247.25
480.751	471.25
480.969	1872.25
481.188	8640.25
481.406	4791.25
481.624	626.25
481.843	202.25
482.061	143.25
482.28	119.25
482.498	106.25
482.717	103.25
482.935	90.25
483.153	99.25
483.372	94.25
483.59	91.25
483.808	91.25
484.027	98.25
484.245	110.25
484.463	100.25
484.681	112.25
484.9	100.25
485.118	113.25
485.336	98.25
485.554	101.25
485.772	102.25
485.99	116.25
486.209	108.25
486.427	114.25
486.645	119.25
486.863	125.25
487.081	110.25
487.299	126.25
487.517	94.25
487.735	100.25
487.953	92.25
488.171	103.25
488.389	106.25
488.607	107.25
488.825	98.25
489.043	103.25
489.261	90.25
489.479	78.25
489.696	101.25
489.914	91.25
490.132	97.25
490.35	94.25
490.568	78.25
490.786	95.25
491.003	92.25
491.221	99.25
491.439	98.25
491.657	89.25
491.874	100.25
492.092	110.25
492.31	115.25
492.527	110.25
492.745	116.25
492.963	113.25
493.18	95.25
493.398	100.25
493.615	97.25
493.833	102.25
494.05	104.25
494.268	88.25
494.485	105.25
494.703	90.25
494.92	94.25
495.138	94.25
495.355	107.25
495.573	100.25
495.79	86.25
496.008	103.25
496.225	110.25
496.442	105.25
496.66	98.25
496.877	88.25
497.094	95.25
497.312	94.25
497.529	78.25
497.746	104.25
497.963	97.25
498.181	95.25
498.398	106.25
498.615	112.25
498.832	111.25
499.049	108.25
499.267	96.25
499.484	98.25
499.701	98.25
499.918	96.25
500.135	87.25
500.352	103.25
500.569	99.25
500.786	99.25
501.003	103.25
501.22	90.25
501.437	99.25
501.654	98.25
501.871	122.25
502.088	95.25
502.305	94.25
502.522	96.25
502.739	96.25
502.956	112.25
503.172	97.25
503.389	107.25
503.606	123.25
503.823	124.25
504.04	99.25
504.256	97.25
504.473	118.25
504.69	92.25
504.907	90.25
505.123	91.25
505.34	94.25
505.557	102.25
505.773	96.25
505.99	79.25
506.207	100.25
506.423	102.25
506.64	88.25
506.856	86.25
507.073	96.25
507.289	98.25
507.506	110.25
507.722	134.25
507.939	134.25
508.155	102.25
508.372	95.25
508.588	97.25
508.805	95.25
509.021	79.25
509.238	96.25
509.454	113.25
509.67	118.25
509.887	127.25
510.103	163.25
510.319	256.25
510.536	999.25
