Data from Circ_1988_H10_HRD10591_00070.txt Node
Date: Wed Jan 03 12:05:48 EST 2024
User: Yrep
Spectrometer: HR+D1059
Trigger mode: 1
Integration Time (sec): 1.000000E-1
Scans to average: 1
Electric dark correction enabled: true
Nonlinearity correction enabled: false
Boxcar width: 0
XAxis mode: Wavelengths
Number of Pixels in Spectrum: 2048
>>>>>Begin Spectral Data<<<<<
223.165	-19.81
223.4	-19.81
223.635	-19.81
223.869	-19.81
224.104	-24.81
224.338	-5.81
224.573	-9.81
224.808	-7.81
225.042	5.19
225.277	-1.81
225.511	-4.81
225.746	10.19
225.98	13.19
226.215	-4.81
226.449	12.19
226.683	12.19
226.918	11.19
227.152	35.19
227.387	39.19
227.621	44.19
227.856	41.19
228.09	45.19
228.324	39.19
228.559	51.19
228.793	61.19
229.027	69.19
229.262	66.19
229.496	62.19
229.73	104.19
229.964	113.19
230.199	83.19
230.433	65.19
230.667	75.19
230.901	69.19
231.136	83.19
231.37	84.19
231.604	96.19
231.838	85.19
232.072	76.19
232.306	74.19
232.541	90.19
232.775	82.19
233.009	88.19
233.243	95.19
233.477	79.19
233.711	81.19
233.945	80.19
234.179	89.19
234.413	88.19
234.647	70.19
234.881	90.19
235.115	91.19
235.349	73.19
235.583	90.19
235.817	69.19
236.051	90.19
236.285	93.19
236.519	103.19
236.753	68.19
236.987	89.19
237.221	90.19
237.455	97.19
237.689	92.19
237.922	87.19
238.156	83.19
238.39	59.19
238.624	73.19
238.858	87.19
239.091	88.19
239.325	92.19
239.559	93.19
239.793	83.19
240.027	89.19
240.26	83.19
240.494	86.19
240.728	75.19
240.961	84.19
241.195	82.19
241.429	75.19
241.662	83.19
241.896	82.19
242.13	76.19
242.363	77.19
242.597	66.19
242.83	71.19
243.064	78.19
243.298	79.19
243.531	92.19
243.765	86.19
243.998	83.19
244.232	97.19
244.465	104.19
244.699	93.19
244.932	71.19
245.166	85.19
245.399	88.19
245.633	87.19
245.866	81.19
246.099	81.19
246.333	84.19
246.566	75.19
246.8	82.19
247.033	81.19
247.266	84.19
247.5	92.19
247.733	92.19
247.966	90.19
248.2	92.19
248.433	97.19
248.666	85.19
248.899	92.19
249.133	88.19
249.366	96.19
249.599	108.19
249.832	97.19
250.066	80.19
250.299	103.19
250.532	112.19
250.765	92.19
250.998	83.19
251.231	77.19
251.465	98.19
251.698	100.19
251.931	96.19
252.164	98.19
252.397	69.19
252.63	91.19
252.863	75.19
253.096	85.19
253.329	82.19
253.562	90.19
253.795	93.19
254.028	76.19
254.261	76.19
254.494	76.19
254.727	97.19
254.96	104.19
255.193	94.19
255.426	81.19
255.659	97.19
255.892	134.19
256.124	138.19
256.357	104.19
256.59	79.19
256.823	92.19
257.056	91.19
257.289	97.19
257.521	95.19
257.754	100.19
257.987	101.19
258.22	117.19
258.452	117.19
258.685	128.19
258.918	104.19
259.151	92.19
259.383	95.19
259.616	87.19
259.849	100.19
260.081	95.19
260.314	96.19
260.547	97.19
260.779	121.19
261.012	135.19
261.244	149.19
261.477	119.19
261.71	119.19
261.942	140.19
262.175	148.19
262.407	100.19
262.64	90.19
262.872	91.19
263.105	97.19
263.337	91.19
263.57	87.19
263.802	105.19
264.035	95.19
264.267	92.19
264.499	79.19
264.732	103.19
264.964	82.19
265.197	95.19
265.429	81.19
265.661	77.19
265.894	91.19
266.126	80.19
266.358	73.19
266.591	88.19
266.823	87.19
267.055	86.19
267.287	95.19
267.52	84.19
267.752	75.19
267.984	100.19
268.216	98.19
268.448	80.19
268.681	88.19
268.913	95.19
269.145	90.19
269.377	89.19
269.609	83.19
269.841	86.19
270.073	92.19
270.306	87.19
270.538	98.19
270.77	98.19
271.002	88.19
271.234	92.19
271.466	104.19
271.698	85.19
271.93	84.19
272.162	97.19
272.394	99.19
272.626	99.19
272.858	89.19
273.09	87.19
273.322	81.19
273.553	93.19
273.785	84.19
274.017	101.19
274.249	108.19
274.481	102.19
274.713	99.19
274.945	106.19
275.176	104.19
275.408	116.19
275.64	157.19
275.872	187.19
276.104	135.19
276.335	130.19
276.567	133.19
276.799	204.19
277.031	292.19
277.262	369.19
277.494	258.19
277.726	139.19
277.957	108.19
278.189	97.19
278.421	104.19
278.652	88.19
278.884	102.19
279.115	114.19
279.347	115.19
279.579	133.19
279.81	212.19
280.042	377.19
280.273	525.19
280.505	333.19
280.736	160.19
280.968	106.19
281.199	101.19
281.431	109.19
281.662	98.19
281.894	104.19
282.125	108.19
282.356	153.19
282.588	184.19
282.819	136.19
283.051	94.19
283.282	99.19
283.513	88.19
283.745	102.19
283.976	98.19
284.207	102.19
284.439	90.19
284.67	104.19
284.901	93.19
285.132	91.19
285.364	75.19
285.595	97.19
285.826	92.19
286.057	91.19
286.288	90.19
286.52	92.19
286.751	86.19
286.982	101.19
287.213	100.19
287.444	100.19
287.675	87.19
287.906	98.19
288.138	100.19
288.369	109.19
288.6	99.19
288.831	83.19
289.062	93.19
289.293	96.19
289.524	81.19
289.755	93.19
289.986	71.19
290.217	82.19
290.448	95.19
290.679	103.19
290.91	87.19
291.141	85.19
291.371	85.19
291.602	97.19
291.833	98.19
292.064	108.19
292.295	110.19
292.526	84.19
292.757	85.19
292.987	74.19
293.218	74.19
293.449	99.19
293.68	103.19
293.91	99.19
294.141	92.19
294.372	85.19
294.603	95.19
294.833	86.19
295.064	79.19
295.295	90.19
295.525	97.19
295.756	115.19
295.987	141.19
296.217	185.19
296.448	166.19
296.679	106.19
296.909	87.19
297.14	89.19
297.37	103.19
297.601	104.19
297.831	119.19
298.062	97.19
298.292	102.19
298.523	92.19
298.753	96.19
298.984	95.19
299.214	87.19
299.445	96.19
299.675	100.19
299.905	108.19
300.136	113.19
300.366	94.19
300.597	107.19
300.827	102.19
301.057	114.19
301.288	118.19
301.518	110.19
301.748	113.19
301.979	137.19
302.209	122.19
302.439	100.19
302.669	92.19
302.9	103.19
303.13	99.19
303.36	126.19
303.59	180.19
303.82	179.19
304.051	128.19
304.281	100.19
304.511	89.19
304.741	91.19
304.971	105.19
305.201	91.19
305.431	103.19
305.661	93.19
305.891	92.19
306.121	104.19
306.352	115.19
306.582	126.19
306.812	137.19
307.042	168.19
307.272	273.19
307.502	310.19
307.731	276.19
307.961	175.19
308.191	118.19
308.421	106.19
308.651	98.19
308.881	105.19
309.111	99.19
309.341	107.19
309.571	109.19
309.8	114.19
310.03	110.19
310.26	115.19
310.49	121.19
310.72	105.19
310.949	125.19
311.179	124.19
311.409	96.19
311.639	98.19
311.868	106.19
312.098	90.19
312.328	122.19
312.557	115.19
312.787	130.19
313.017	109.19
313.246	96.19
313.476	98.19
313.706	93.19
313.935	104.19
314.165	131.19
314.394	120.19
314.624	112.19
314.853	128.19
315.083	90.19
315.312	96.19
315.542	99.19
315.771	95.19
316.001	97.19
316.23	104.19
316.46	94.19
316.689	97.19
316.919	101.19
317.148	110.19
317.377	101.19
317.607	114.19
317.836	98.19
318.065	96.19
318.295	99.19
318.524	102.19
318.753	106.19
318.983	112.19
319.212	120.19
319.441	125.19
319.67	125.19
319.9	91.19
320.129	91.19
320.358	110.19
320.587	107.19
320.816	118.19
321.046	127.19
321.275	96.19
321.504	106.19
321.733	113.19
321.962	112.19
322.191	115.19
322.42	126.19
322.649	129.19
322.878	133.19
323.108	149.19
323.337	146.19
323.566	152.19
323.795	187.19
324.024	233.19
324.253	448.19
324.482	896.19
324.71	1767.19
324.939	2367.19
325.168	913.19
325.397	278.19
325.626	180.19
325.855	155.19
326.084	140.19
326.313	161.19
326.542	171.19
326.77	255.19
326.999	464.19
327.228	885.19
327.457	1598.19
327.686	1399.19
327.914	682.19
328.143	946.19
328.372	1337.19
328.6	679.19
328.829	254.19
329.058	250.19
329.287	265.19
329.515	254.19
329.744	409.19
329.972	951.19
330.201	2048.19
330.43	3090.19
330.658	1251.19
330.887	419.19
331.115	265.19
331.344	154.19
331.572	144.19
331.801	158.19
332.03	147.19
332.258	132.19
332.486	126.19
332.715	125.19
332.943	137.19
333.172	133.19
333.4	180.19
333.629	214.19
333.857	385.19
334.085	783.19
334.314	1786.19
334.542	3670.19
334.771	3381.19
334.999	825.19
335.227	272.19
335.455	155.19
335.684	137.19
335.912	120.19
336.14	128.19
336.369	122.19
336.597	127.19
336.825	127.19
337.053	112.19
337.281	118.19
337.51	107.19
337.738	99.19
337.966	107.19
338.194	126.19
338.422	111.19
338.65	94.19
338.878	113.19
339.106	111.19
339.334	109.19
339.562	99.19
339.79	108.19
340.018	110.19
340.246	112.19
340.474	112.19
340.702	99.19
340.93	112.19
341.158	109.19
341.386	115.19
341.614	114.19
341.842	117.19
342.07	99.19
342.298	111.19
342.526	108.19
342.754	83.19
342.981	101.19
343.209	95.19
343.437	107.19
343.665	86.19
343.893	104.19
344.12	94.19
344.348	97.19
344.576	108.19
344.804	95.19
345.031	113.19
345.259	102.19
345.487	89.19
345.714	100.19
345.942	105.19
346.17	105.19
346.397	102.19
346.625	102.19
346.853	113.19
347.08	99.19
347.308	101.19
347.535	115.19
347.763	143.19
347.99	116.19
348.218	107.19
348.445	126.19
348.673	122.19
348.9	106.19
349.128	98.19
349.355	108.19
349.583	108.19
349.81	92.19
350.037	105.19
350.265	101.19
350.492	102.19
350.72	93.19
350.947	123.19
351.174	120.19
351.402	134.19
351.629	122.19
351.856	108.19
352.083	115.19
352.311	116.19
352.538	130.19
352.765	107.19
352.992	112.19
353.22	122.19
353.447	120.19
353.674	112.19
353.901	100.19
354.128	103.19
354.355	107.19
354.583	87.19
354.81	115.19
355.037	97.19
355.264	100.19
355.491	90.19
355.718	93.19
355.945	97.19
356.172	101.19
356.399	96.19
356.626	76.19
356.853	99.19
357.08	100.19
357.307	97.19
357.534	92.19
357.761	97.19
357.988	103.19
358.215	114.19
358.441	93.19
358.668	104.19
358.895	96.19
359.122	90.19
359.349	90.19
359.576	103.19
359.802	140.19
360.029	160.19
360.256	150.19
360.483	127.19
360.709	95.19
360.936	105.19
361.163	107.19
361.39	99.19
361.616	117.19
361.843	108.19
362.07	106.19
362.296	120.19
362.523	99.19
362.749	96.19
362.976	104.19
363.203	106.19
363.429	104.19
363.656	97.19
363.882	97.19
364.109	88.19
364.335	100.19
364.562	95.19
364.788	99.19
365.015	108.19
365.241	123.19
365.468	118.19
365.694	115.19
365.92	115.19
366.147	101.19
366.373	91.19
366.599	89.19
366.826	98.19
367.052	98.19
367.278	97.19
367.505	108.19
367.731	105.19
367.957	107.19
368.184	101.19
368.41	101.19
368.636	130.19
368.862	123.19
369.089	111.19
369.315	113.19
369.541	95.19
369.767	98.19
369.993	98.19
370.219	95.19
370.445	95.19
370.672	107.19
370.898	103.19
371.124	89.19
371.35	101.19
371.576	90.19
371.802	85.19
372.028	95.19
372.254	100.19
372.48	95.19
372.706	93.19
372.932	77.19
373.158	91.19
373.384	107.19
373.61	77.19
373.835	100.19
374.061	99.19
374.287	100.19
374.513	96.19
374.739	88.19
374.965	90.19
375.191	88.19
375.416	99.19
375.642	95.19
375.868	100.19
376.094	96.19
376.319	97.19
376.545	102.19
376.771	109.19
376.997	101.19
377.222	90.19
377.448	98.19
377.674	90.19
377.899	71.19
378.125	96.19
378.35	96.19
378.576	100.19
378.802	99.19
379.027	89.19
379.253	105.19
379.478	95.19
379.704	89.19
379.929	104.19
380.155	103.19
380.38	94.19
380.606	110.19
380.831	97.19
381.057	116.19
381.282	102.19
381.507	75.19
381.733	115.19
381.958	105.19
382.184	123.19
382.409	107.19
382.634	117.19
382.86	95.19
383.085	102.19
383.31	116.19
383.535	112.19
383.761	102.19
383.986	106.19
384.211	104.19
384.436	114.19
384.662	98.19
384.887	107.19
385.112	120.19
385.337	113.19
385.562	107.19
385.787	117.19
386.013	119.19
386.238	123.19
386.463	120.19
386.688	123.19
386.913	119.19
387.138	97.19
387.363	115.19
387.588	105.19
387.813	112.19
388.038	100.19
388.263	124.19
388.488	102.19
388.713	108.19
388.938	91.19
389.163	95.19
389.387	102.19
389.612	87.19
389.837	90.19
390.062	90.19
390.287	82.19
390.512	97.19
390.736	91.19
390.961	87.19
391.186	90.19
391.411	85.19
391.636	91.19
391.86	99.19
392.085	100.19
392.31	110.19
392.534	103.19
392.759	99.19
392.984	83.19
393.208	84.19
393.433	104.19
393.658	95.19
393.882	87.19
394.107	86.19
394.331	82.19
394.556	92.19
394.78	96.19
395.005	85.19
395.229	97.19
395.454	93.19
395.678	92.19
395.903	95.19
396.127	89.19
396.352	85.19
396.576	87.19
396.801	91.19
397.025	85.19
397.249	96.19
397.474	92.19
397.698	99.19
397.922	87.19
398.147	104.19
398.371	86.19
398.595	99.19
398.82	77.19
399.044	89.19
399.268	87.19
399.492	92.19
399.717	80.19
399.941	89.19
400.165	97.19
400.389	107.19
400.613	94.19
400.837	90.19
401.062	101.19
401.286	84.19
401.51	94.19
401.734	104.19
401.958	115.19
402.182	168.19
402.406	199.19
402.63	152.19
402.854	104.19
403.078	107.19
403.302	87.19
403.526	113.19
403.75	96.19
403.974	88.19
404.198	90.19
404.422	98.19
404.645	90.19
404.869	112.19
405.093	126.19
405.317	170.19
405.541	170.19
405.765	125.19
405.988	133.19
406.212	216.19
406.436	335.19
406.66	222.19
406.883	127.19
407.107	108.19
407.331	113.19
407.555	113.19
407.778	116.19
408.002	83.19
408.226	104.19
408.449	94.19
408.673	100.19
408.896	112.19
409.12	91.19
409.344	107.19
409.567	94.19
409.791	107.19
410.014	93.19
410.238	110.19
410.461	92.19
410.685	97.19
410.908	92.19
411.132	97.19
411.355	95.19
411.578	96.19
411.802	87.19
412.025	104.19
412.249	131.19
412.472	138.19
412.695	163.19
412.919	120.19
413.142	107.19
413.365	79.19
413.589	100.19
413.812	95.19
414.035	98.19
414.258	112.19
414.482	103.19
414.705	97.19
414.928	87.19
415.151	105.19
415.374	107.19
415.597	88.19
415.821	96.19
416.044	103.19
416.267	96.19
416.49	98.19
416.713	97.19
416.936	106.19
417.159	112.19
417.382	112.19
417.605	133.19
417.828	129.19
418.051	134.19
418.274	104.19
418.497	96.19
418.72	84.19
418.943	91.19
419.166	92.19
419.389	91.19
419.611	109.19
419.834	106.19
420.057	99.19
420.28	106.19
420.503	103.19
420.726	92.19
420.948	101.19
421.171	121.19
421.394	109.19
421.617	93.19
421.839	96.19
422.062	90.19
422.285	86.19
422.507	96.19
422.73	114.19
422.953	95.19
423.175	104.19
423.398	86.19
423.621	95.19
423.843	105.19
424.066	91.19
424.288	100.19
424.511	103.19
424.733	122.19
424.956	132.19
425.178	117.19
425.401	114.19
425.623	101.19
425.846	98.19
426.068	109.19
426.291	119.19
426.513	95.19
426.735	97.19
426.958	109.19
427.18	132.19
427.402	188.19
427.625	270.19
427.847	264.19
428.069	229.19
428.292	151.19
428.514	122.19
428.736	103.19
428.958	90.19
429.181	106.19
429.403	88.19
429.625	102.19
429.847	104.19
430.069	112.19
430.292	107.19
430.514	93.19
430.736	92.19
430.958	75.19
431.18	90.19
431.402	91.19
431.624	112.19
431.846	74.19
432.068	83.19
432.29	91.19
432.512	98.19
432.734	90.19
432.956	109.19
433.178	99.19
433.4	107.19
433.622	111.19
433.844	109.19
434.066	103.19
434.287	92.19
434.509	102.19
434.731	96.19
434.953	91.19
435.175	93.19
435.397	107.19
435.618	103.19
435.84	106.19
436.062	128.19
436.284	111.19
436.505	107.19
436.727	107.19
436.949	97.19
437.17	93.19
437.392	91.19
437.614	107.19
437.835	130.19
438.057	159.19
438.278	129.19
438.5	127.19
438.721	154.19
438.943	113.19
439.165	97.19
439.386	103.19
439.608	97.19
439.829	129.19
440.05	145.19
440.272	183.19
440.493	99.19
440.715	95.19
440.936	84.19
441.158	89.19
441.379	98.19
441.6	105.19
441.822	125.19
442.043	102.19
442.264	120.19
442.486	116.19
442.707	103.19
442.928	117.19
443.149	177.19
443.371	182.19
443.592	137.19
443.813	127.19
444.034	125.19
444.255	104.19
444.476	92.19
444.698	90.19
444.919	94.19
445.14	138.19
445.361	136.19
445.582	140.19
445.803	201.19
446.024	190.19
446.245	166.19
446.466	131.19
446.687	100.19
446.908	87.19
447.129	100.19
447.35	93.19
447.571	100.19
447.792	103.19
448.013	111.19
448.234	125.19
448.455	118.19
448.675	122.19
448.896	134.19
449.117	115.19
449.338	115.19
449.559	149.19
449.779	138.19
450	119.19
450.221	90.19
450.442	91.19
450.662	120.19
450.883	115.19
451.104	119.19
451.324	112.19
451.545	103.19
451.766	95.19
451.986	105.19
452.207	100.19
452.428	96.19
452.648	109.19
452.869	133.19
453.089	144.19
453.31	145.19
453.53	107.19
453.751	108.19
453.971	123.19
454.192	125.19
454.412	110.19
454.633	101.19
454.853	109.19
455.073	92.19
455.294	118.19
455.514	115.19
455.734	109.19
455.955	92.19
456.175	96.19
456.395	81.19
456.616	91.19
456.836	79.19
457.056	98.19
457.276	92.19
457.497	100.19
457.717	92.19
457.937	77.19
458.157	89.19
458.377	103.19
458.598	135.19
458.818	214.19
459.038	251.19
459.258	163.19
459.478	105.19
459.698	89.19
459.918	95.19
460.138	90.19
460.358	84.19
460.578	88.19
460.798	112.19
461.018	100.19
461.238	96.19
461.458	92.19
461.678	72.19
461.898	81.19
462.118	94.19
462.338	95.19
462.558	89.19
462.777	104.19
462.997	125.19
463.217	148.19
463.437	109.19
463.657	91.19
463.876	94.19
464.096	96.19
464.316	116.19
464.536	105.19
464.755	112.19
464.975	129.19
465.195	260.19
465.414	263.19
465.634	118.19
465.854	98.19
466.073	112.19
466.293	108.19
466.512	99.19
466.732	107.19
466.951	120.19
467.171	117.19
467.391	140.19
467.61	194.19
467.829	359.19
468.049	1241.19
468.268	1990.19
468.488	433.19
468.707	163.19
468.927	126.19
469.146	96.19
469.365	99.19
469.585	110.19
469.804	113.19
470.023	114.19
470.243	115.19
470.462	142.19
470.681	171.19
470.901	118.19
471.12	130.19
471.339	133.19
471.558	161.19
471.777	214.19
471.997	565.19
472.216	2351.19
472.435	5586.19
472.654	1143.19
472.873	260.19
473.092	131.19
473.311	127.19
473.53	102.19
473.749	92.19
473.968	101.19
474.187	132.19
474.406	120.19
474.625	103.19
474.844	108.19
475.063	91.19
475.282	89.19
475.501	83.19
475.72	102.19
475.939	95.19
476.158	96.19
476.377	102.19
476.596	99.19
476.814	109.19
477.033	91.19
477.252	101.19
477.471	112.19
477.69	89.19
477.908	91.19
478.127	98.19
478.346	95.19
478.564	114.19
478.783	125.19
479.002	103.19
479.22	114.19
479.439	147.19
479.658	153.19
479.876	148.19
480.095	161.19
480.313	179.19
480.532	256.19
480.751	486.19
480.969	1945.19
481.188	8883.19
481.406	4986.19
481.624	645.19
481.843	203.19
482.061	157.19
482.28	125.19
482.498	123.19
482.717	115.19
482.935	106.19
483.153	109.19
483.372	104.19
483.59	91.19
483.808	108.19
484.027	100.19
484.245	102.19
484.463	109.19
484.681	117.19
484.9	119.19
485.118	112.19
485.336	106.19
485.554	120.19
485.772	109.19
485.99	99.19
486.209	116.19
486.427	121.19
486.645	132.19
486.863	135.19
487.081	109.19
487.299	110.19
487.517	100.19
487.735	107.19
487.953	106.19
488.171	120.19
488.389	111.19
488.607	113.19
488.825	89.19
489.043	105.19
489.261	93.19
489.479	77.19
489.696	98.19
489.914	103.19
490.132	92.19
490.35	101.19
490.568	95.19
490.786	93.19
491.003	101.19
491.221	105.19
491.439	111.19
491.657	101.19
491.874	114.19
492.092	104.19
492.31	108.19
492.527	116.19
492.745	133.19
492.963	107.19
493.18	114.19
493.398	107.19
493.615	114.19
493.833	105.19
494.05	87.19
494.268	100.19
494.485	97.19
494.703	93.19
494.92	86.19
495.138	88.19
495.355	95.19
495.573	101.19
495.79	107.19
496.008	100.19
496.225	100.19
496.442	97.19
496.66	107.19
496.877	97.19
497.094	98.19
497.312	109.19
497.529	92.19
497.746	98.19
497.963	104.19
498.181	104.19
498.398	119.19
498.615	128.19
498.832	124.19
499.049	109.19
499.267	93.19
499.484	113.19
499.701	115.19
499.918	99.19
500.135	88.19
500.352	95.19
500.569	105.19
500.786	120.19
501.003	106.19
501.22	100.19
501.437	90.19
501.654	103.19
501.871	137.19
502.088	104.19
502.305	90.19
502.522	115.19
502.739	87.19
502.956	96.19
503.172	106.19
503.389	126.19
503.606	144.19
503.823	121.19
504.04	105.19
504.256	93.19
504.473	104.19
504.69	87.19
504.907	108.19
505.123	111.19
505.34	90.19
505.557	86.19
505.773	116.19
505.99	89.19
506.207	91.19
506.423	103.19
506.64	87.19
506.856	99.19
507.073	101.19
507.289	106.19
507.506	117.19
507.722	149.19
507.939	147.19
508.155	110.19
508.372	103.19
508.588	84.19
508.805	117.19
509.021	104.19
509.238	96.19
509.454	115.19
509.67	113.19
509.887	139.19
