Data from Circ_1988_H10_HRD10591_00062.txt Node
Date: Wed Jan 03 12:05:47 EST 2024
User: Yrep
Spectrometer: HR+D1059
Trigger mode: 1
Integration Time (sec): 1.000000E-1
Scans to average: 1
Electric dark correction enabled: true
Nonlinearity correction enabled: false
Boxcar width: 0
XAxis mode: Wavelengths
Number of Pixels in Spectrum: 2048
>>>>>Begin Spectral Data<<<<<
223.165	-15.81
223.4	-15.81
223.635	-15.81
223.869	-32.81
224.104	-23.81
224.338	-15.81
224.573	-8.81
224.808	-17.81
225.042	-3.81
225.277	-11.81
225.511	-0.81
225.746	6.19
225.98	6.19
226.215	14.19
226.449	23.19
226.683	22.19
226.918	33.19
227.152	26.19
227.387	27.19
227.621	41.19
227.856	45.19
228.09	49.19
228.324	42.19
228.559	50.19
228.793	64.19
229.027	71.19
229.262	69.19
229.496	70.19
229.73	115.19
229.964	94.19
230.199	65.19
230.433	62.19
230.667	78.19
230.901	78.19
231.136	62.19
231.37	67.19
231.604	74.19
231.838	76.19
232.072	65.19
232.306	86.19
232.541	92.19
232.775	77.19
233.009	90.19
233.243	82.19
233.477	67.19
233.711	82.19
233.945	77.19
234.179	65.19
234.413	84.19
234.647	84.19
234.881	91.19
235.115	75.19
235.349	70.19
235.583	79.19
235.817	87.19
236.051	87.19
236.285	86.19
236.519	60.19
236.753	79.19
236.987	89.19
237.221	96.19
237.455	95.19
237.689	85.19
237.922	70.19
238.156	80.19
238.39	89.19
238.624	66.19
238.858	86.19
239.091	71.19
239.325	78.19
239.559	71.19
239.793	66.19
240.027	87.19
240.26	85.19
240.494	59.19
240.728	65.19
240.961	71.19
241.195	96.19
241.429	90.19
241.662	77.19
241.896	89.19
242.13	89.19
242.363	82.19
242.597	86.19
242.83	95.19
243.064	86.19
243.298	79.19
243.531	72.19
243.765	81.19
243.998	87.19
244.232	80.19
244.465	81.19
244.699	80.19
244.932	72.19
245.166	80.19
245.399	87.19
245.633	77.19
245.866	85.19
246.099	79.19
246.333	78.19
246.566	87.19
246.8	76.19
247.033	72.19
247.266	70.19
247.5	74.19
247.733	68.19
247.966	80.19
248.2	91.19
248.433	80.19
248.666	63.19
248.899	96.19
249.133	100.19
249.366	95.19
249.599	111.19
249.832	80.19
250.066	88.19
250.299	91.19
250.532	84.19
250.765	82.19
250.998	85.19
251.231	77.19
251.465	93.19
251.698	88.19
251.931	103.19
252.164	78.19
252.397	86.19
252.63	82.19
252.863	77.19
253.096	83.19
253.329	93.19
253.562	93.19
253.795	83.19
254.028	81.19
254.261	68.19
254.494	81.19
254.727	75.19
254.96	67.19
255.193	81.19
255.426	90.19
255.659	85.19
255.892	126.19
256.124	116.19
256.357	80.19
256.59	90.19
256.823	84.19
257.056	103.19
257.289	102.19
257.521	96.19
257.754	80.19
257.987	86.19
258.22	101.19
258.452	114.19
258.685	111.19
258.918	79.19
259.151	78.19
259.383	80.19
259.616	96.19
259.849	82.19
260.081	82.19
260.314	96.19
260.547	102.19
260.779	120.19
261.012	140.19
261.244	142.19
261.477	116.19
261.71	122.19
261.942	136.19
262.175	142.19
262.407	106.19
262.64	71.19
262.872	88.19
263.105	93.19
263.337	83.19
263.57	76.19
263.802	84.19
264.035	71.19
264.267	68.19
264.499	74.19
264.732	73.19
264.964	95.19
265.197	90.19
265.429	94.19
265.661	97.19
265.894	96.19
266.126	101.19
266.358	79.19
266.591	95.19
266.823	74.19
267.055	98.19
267.287	77.19
267.52	76.19
267.752	79.19
267.984	97.19
268.216	83.19
268.448	102.19
268.681	94.19
268.913	90.19
269.145	75.19
269.377	86.19
269.609	77.19
269.841	74.19
270.073	85.19
270.306	93.19
270.538	107.19
270.77	90.19
271.002	91.19
271.234	97.19
271.466	99.19
271.698	94.19
271.93	87.19
272.162	90.19
272.394	94.19
272.626	90.19
272.858	95.19
273.09	87.19
273.322	94.19
273.553	78.19
273.785	94.19
274.017	80.19
274.249	75.19
274.481	90.19
274.713	99.19
274.945	99.19
275.176	102.19
275.408	116.19
275.64	147.19
275.872	172.19
276.104	138.19
276.335	115.19
276.567	130.19
276.799	194.19
277.031	257.19
277.262	334.19
277.494	237.19
277.726	147.19
277.957	100.19
278.189	102.19
278.421	104.19
278.652	89.19
278.884	94.19
279.115	101.19
279.347	95.19
279.579	124.19
279.81	191.19
280.042	343.19
280.273	513.19
280.505	336.19
280.736	142.19
280.968	98.19
281.199	100.19
281.431	84.19
281.662	95.19
281.894	89.19
282.125	133.19
282.356	134.19
282.588	177.19
282.819	132.19
283.051	92.19
283.282	99.19
283.513	87.19
283.745	92.19
283.976	97.19
284.207	97.19
284.439	96.19
284.67	90.19
284.901	86.19
285.132	86.19
285.364	69.19
285.595	76.19
285.826	92.19
286.057	97.19
286.288	83.19
286.52	91.19
286.751	70.19
286.982	87.19
287.213	90.19
287.444	90.19
287.675	88.19
287.906	101.19
288.138	88.19
288.369	85.19
288.6	95.19
288.831	82.19
289.062	93.19
289.293	86.19
289.524	94.19
289.755	100.19
289.986	82.19
290.217	89.19
290.448	90.19
290.679	95.19
290.91	95.19
291.141	85.19
291.371	75.19
291.602	87.19
291.833	81.19
292.064	83.19
292.295	79.19
292.526	102.19
292.757	91.19
292.987	84.19
293.218	88.19
293.449	98.19
293.68	94.19
293.91	83.19
294.141	88.19
294.372	92.19
294.603	89.19
294.833	95.19
295.064	84.19
295.295	91.19
295.525	84.19
295.756	113.19
295.987	135.19
296.217	175.19
296.448	155.19
296.679	109.19
296.909	105.19
297.14	85.19
297.37	99.19
297.601	91.19
297.831	92.19
298.062	103.19
298.292	94.19
298.523	89.19
298.753	86.19
298.984	84.19
299.214	80.19
299.445	85.19
299.675	97.19
299.905	113.19
300.136	98.19
300.366	93.19
300.597	84.19
300.827	96.19
301.057	111.19
301.288	99.19
301.518	111.19
301.748	129.19
301.979	124.19
302.209	115.19
302.439	103.19
302.669	86.19
302.9	99.19
303.13	112.19
303.36	107.19
303.59	162.19
303.82	208.19
304.051	131.19
304.281	96.19
304.511	98.19
304.741	82.19
304.971	86.19
305.201	78.19
305.431	82.19
305.661	92.19
305.891	99.19
306.121	104.19
306.352	126.19
306.582	138.19
306.812	129.19
307.042	166.19
307.272	256.19
307.502	281.19
307.731	250.19
307.961	183.19
308.191	111.19
308.421	102.19
308.651	95.19
308.881	86.19
309.111	99.19
309.341	98.19
309.571	118.19
309.8	105.19
310.03	119.19
310.26	112.19
310.49	99.19
310.72	118.19
310.949	123.19
311.179	106.19
311.409	89.19
311.639	107.19
311.868	103.19
312.098	108.19
312.328	105.19
312.557	122.19
312.787	131.19
313.017	111.19
313.246	103.19
313.476	96.19
313.706	98.19
313.935	92.19
314.165	107.19
314.394	117.19
314.624	103.19
314.853	118.19
315.083	92.19
315.312	88.19
315.542	83.19
315.771	104.19
316.001	86.19
316.23	103.19
316.46	93.19
316.689	86.19
316.919	98.19
317.148	92.19
317.377	89.19
317.607	99.19
317.836	94.19
318.065	91.19
318.295	89.19
318.524	88.19
318.753	100.19
318.983	110.19
319.212	108.19
319.441	102.19
319.67	124.19
319.9	95.19
320.129	103.19
320.358	96.19
320.587	93.19
320.816	105.19
321.046	108.19
321.275	107.19
321.504	96.19
321.733	101.19
321.962	115.19
322.191	113.19
322.42	120.19
322.649	126.19
322.878	116.19
323.108	119.19
323.337	135.19
323.566	140.19
323.795	174.19
324.024	212.19
324.253	423.19
324.482	872.19
324.71	1746.19
324.939	2354.19
325.168	901.19
325.397	274.19
325.626	163.19
325.855	139.19
326.084	152.19
326.313	134.19
326.542	150.19
326.77	230.19
326.999	430.19
327.228	868.19
327.457	1558.19
327.686	1377.19
327.914	669.19
328.143	902.19
328.372	1250.19
328.6	633.19
328.829	258.19
329.058	245.19
329.287	238.19
329.515	249.19
329.744	421.19
329.972	898.19
330.201	1977.19
330.43	2947.19
330.658	1166.19
330.887	409.19
331.115	232.19
331.344	152.19
331.572	140.19
331.801	153.19
332.03	131.19
332.258	128.19
332.486	108.19
332.715	123.19
332.943	136.19
333.172	151.19
333.4	160.19
333.629	206.19
333.857	338.19
334.085	753.19
334.314	1711.19
334.542	3485.19
334.771	3240.19
334.999	747.19
335.227	241.19
335.455	166.19
335.684	140.19
335.912	130.19
336.14	106.19
336.369	105.19
336.597	125.19
336.825	98.19
337.053	101.19
337.281	122.19
337.51	110.19
337.738	99.19
337.966	106.19
338.194	107.19
338.422	110.19
338.65	99.19
338.878	98.19
339.106	96.19
339.334	98.19
339.562	85.19
339.79	80.19
340.018	99.19
340.246	93.19
340.474	108.19
340.702	93.19
340.93	98.19
341.158	98.19
341.386	96.19
341.614	100.19
341.842	119.19
342.07	96.19
342.298	91.19
342.526	86.19
342.754	95.19
342.981	99.19
343.209	88.19
343.437	96.19
343.665	87.19
343.893	90.19
344.12	91.19
344.348	87.19
344.576	98.19
344.804	94.19
345.031	102.19
345.259	94.19
345.487	109.19
345.714	93.19
345.942	97.19
346.17	110.19
346.397	81.19
346.625	80.19
346.853	105.19
347.08	85.19
347.308	101.19
347.535	99.19
347.763	103.19
347.99	94.19
348.218	98.19
348.445	115.19
348.673	102.19
348.9	124.19
349.128	90.19
349.355	87.19
349.583	101.19
349.81	96.19
350.037	97.19
350.265	96.19
350.492	97.19
350.72	95.19
350.947	102.19
351.174	120.19
351.402	98.19
351.629	114.19
351.856	100.19
352.083	104.19
352.311	125.19
352.538	116.19
352.765	128.19
352.992	131.19
353.22	115.19
353.447	104.19
353.674	105.19
353.901	91.19
354.128	86.19
354.355	86.19
354.583	97.19
354.81	85.19
355.037	94.19
355.264	94.19
355.491	94.19
355.718	105.19
355.945	96.19
356.172	84.19
356.399	100.19
356.626	85.19
356.853	98.19
357.08	86.19
357.307	83.19
357.534	74.19
357.761	92.19
357.988	93.19
358.215	97.19
358.441	109.19
358.668	94.19
358.895	95.19
359.122	94.19
359.349	104.19
359.576	85.19
359.802	108.19
360.029	131.19
360.256	126.19
360.483	97.19
360.709	90.19
360.936	92.19
361.163	94.19
361.39	104.19
361.616	91.19
361.843	93.19
362.07	97.19
362.296	108.19
362.523	106.19
362.749	102.19
362.976	96.19
363.203	85.19
363.429	110.19
363.656	92.19
363.882	99.19
364.109	104.19
364.335	93.19
364.562	93.19
364.788	90.19
365.015	85.19
365.241	122.19
365.468	129.19
365.694	94.19
365.92	101.19
366.147	98.19
366.373	85.19
366.599	87.19
366.826	96.19
367.052	89.19
367.278	106.19
367.505	104.19
367.731	94.19
367.957	94.19
368.184	90.19
368.41	105.19
368.636	116.19
368.862	118.19
369.089	124.19
369.315	109.19
369.541	100.19
369.767	106.19
369.993	95.19
370.219	104.19
370.445	107.19
370.672	90.19
370.898	71.19
371.124	106.19
371.35	78.19
371.576	99.19
371.802	83.19
372.028	85.19
372.254	85.19
372.48	90.19
372.706	82.19
372.932	83.19
373.158	99.19
373.384	89.19
373.61	102.19
373.835	72.19
374.061	82.19
374.287	91.19
374.513	74.19
374.739	84.19
374.965	86.19
375.191	101.19
375.416	93.19
375.642	91.19
375.868	89.19
376.094	90.19
376.319	87.19
376.545	86.19
376.771	87.19
376.997	86.19
377.222	110.19
377.448	82.19
377.674	85.19
377.899	101.19
378.125	93.19
378.35	78.19
378.576	101.19
378.802	91.19
379.027	77.19
379.253	84.19
379.478	97.19
379.704	96.19
379.929	100.19
380.155	104.19
380.38	105.19
380.606	108.19
380.831	96.19
381.057	105.19
381.282	92.19
381.507	101.19
381.733	96.19
381.958	93.19
382.184	86.19
382.409	114.19
382.634	102.19
382.86	105.19
383.085	104.19
383.31	110.19
383.535	98.19
383.761	96.19
383.986	88.19
384.211	102.19
384.436	98.19
384.662	110.19
384.887	117.19
385.112	101.19
385.337	121.19
385.562	109.19
385.787	118.19
386.013	122.19
386.238	139.19
386.463	102.19
386.688	103.19
386.913	96.19
387.138	100.19
387.363	102.19
387.588	100.19
387.813	78.19
388.038	107.19
388.263	114.19
388.488	110.19
388.713	97.19
388.938	100.19
389.163	88.19
389.387	103.19
389.612	104.19
389.837	90.19
390.062	93.19
390.287	109.19
390.512	83.19
390.736	78.19
390.961	91.19
391.186	77.19
391.411	77.19
391.636	92.19
391.86	78.19
392.085	91.19
392.31	81.19
392.534	89.19
392.759	91.19
392.984	95.19
393.208	101.19
393.433	84.19
393.658	94.19
393.882	82.19
394.107	85.19
394.331	90.19
394.556	84.19
394.78	93.19
395.005	93.19
395.229	80.19
395.454	87.19
395.678	77.19
395.903	102.19
396.127	96.19
396.352	97.19
396.576	100.19
396.801	93.19
397.025	85.19
397.249	90.19
397.474	69.19
397.698	80.19
397.922	95.19
398.147	81.19
398.371	81.19
398.595	94.19
398.82	89.19
399.044	93.19
399.268	72.19
399.492	96.19
399.717	81.19
399.941	90.19
400.165	89.19
400.389	87.19
400.613	86.19
400.837	94.19
401.062	83.19
401.286	81.19
401.51	100.19
401.734	99.19
401.958	115.19
402.182	147.19
402.406	213.19
402.63	138.19
402.854	104.19
403.078	98.19
403.302	85.19
403.526	96.19
403.75	91.19
403.974	75.19
404.198	80.19
404.422	101.19
404.645	86.19
404.869	113.19
405.093	108.19
405.317	159.19
405.541	147.19
405.765	131.19
405.988	146.19
406.212	222.19
406.436	308.19
406.66	212.19
406.883	116.19
407.107	102.19
407.331	91.19
407.555	110.19
407.778	114.19
408.002	92.19
408.226	92.19
408.449	99.19
408.673	94.19
408.896	94.19
409.12	109.19
409.344	77.19
409.567	95.19
409.791	92.19
410.014	90.19
410.238	82.19
410.461	96.19
410.685	103.19
410.908	95.19
411.132	104.19
411.355	104.19
411.578	94.19
411.802	91.19
412.025	99.19
412.249	104.19
412.472	124.19
412.695	158.19
412.919	127.19
413.142	90.19
413.365	97.19
413.589	98.19
413.812	96.19
414.035	102.19
414.258	79.19
414.482	112.19
414.705	94.19
414.928	87.19
415.151	89.19
415.374	87.19
415.597	77.19
415.821	96.19
416.044	87.19
416.267	93.19
416.49	88.19
416.713	86.19
416.936	91.19
417.159	104.19
417.382	103.19
417.605	138.19
417.828	137.19
418.051	97.19
418.274	100.19
418.497	78.19
418.72	71.19
418.943	74.19
419.166	82.19
419.389	87.19
419.611	91.19
419.834	98.19
420.057	95.19
420.28	104.19
420.503	87.19
420.726	95.19
420.948	96.19
421.171	114.19
421.394	103.19
421.617	114.19
421.839	85.19
422.062	80.19
422.285	88.19
422.507	102.19
422.73	99.19
422.953	99.19
423.175	84.19
423.398	90.19
423.621	88.19
423.843	97.19
424.066	97.19
424.288	89.19
424.511	101.19
424.733	102.19
424.956	107.19
425.178	118.19
425.401	108.19
425.623	101.19
425.846	84.19
426.068	97.19
426.291	94.19
426.513	99.19
426.735	90.19
426.958	98.19
427.18	127.19
427.402	190.19
427.625	259.19
427.847	252.19
428.069	239.19
428.292	168.19
428.514	105.19
428.736	95.19
428.958	95.19
429.181	88.19
429.403	91.19
429.625	99.19
429.847	102.19
430.069	116.19
430.292	90.19
430.514	103.19
430.736	88.19
430.958	93.19
431.18	99.19
431.402	79.19
431.624	94.19
431.846	87.19
432.068	86.19
432.29	88.19
432.512	95.19
432.734	90.19
432.956	90.19
433.178	107.19
433.4	119.19
433.622	107.19
433.844	93.19
434.066	80.19
434.287	88.19
434.509	89.19
434.731	93.19
434.953	88.19
435.175	77.19
435.397	109.19
435.618	86.19
435.84	117.19
436.062	114.19
436.284	130.19
436.505	93.19
436.727	104.19
436.949	79.19
437.17	93.19
437.392	87.19
437.614	93.19
437.835	120.19
438.057	152.19
438.278	130.19
438.5	109.19
438.721	135.19
438.943	108.19
439.165	76.19
439.386	87.19
439.608	101.19
439.829	125.19
440.05	148.19
440.272	175.19
440.493	101.19
440.715	90.19
440.936	80.19
441.158	103.19
441.379	86.19
441.6	100.19
441.822	92.19
442.043	102.19
442.264	134.19
442.486	106.19
442.707	100.19
442.928	131.19
443.149	171.19
443.371	174.19
443.592	127.19
443.813	108.19
444.034	109.19
444.255	80.19
444.476	93.19
444.698	83.19
444.919	82.19
445.14	131.19
445.361	140.19
445.582	132.19
445.803	174.19
446.024	178.19
446.245	156.19
446.466	125.19
446.687	90.19
446.908	94.19
447.129	101.19
447.35	94.19
447.571	110.19
447.792	96.19
448.013	103.19
448.234	112.19
448.455	94.19
448.675	119.19
448.896	135.19
449.117	95.19
449.338	102.19
449.559	140.19
449.779	140.19
450	85.19
450.221	101.19
450.442	102.19
450.662	111.19
450.883	131.19
451.104	144.19
451.324	98.19
451.545	97.19
451.766	74.19
451.986	103.19
452.207	84.19
452.428	98.19
452.648	97.19
452.869	127.19
453.089	138.19
453.31	154.19
453.53	116.19
453.751	104.19
453.971	114.19
454.192	138.19
454.412	113.19
454.633	90.19
454.853	92.19
455.073	92.19
455.294	92.19
455.514	121.19
455.734	84.19
455.955	72.19
456.175	94.19
456.395	86.19
456.616	95.19
456.836	82.19
457.056	88.19
457.276	94.19
457.497	96.19
457.717	83.19
457.937	70.19
458.157	70.19
458.377	100.19
458.598	110.19
458.818	213.19
459.038	230.19
459.258	149.19
459.478	98.19
459.698	81.19
459.918	85.19
460.138	85.19
460.358	96.19
460.578	92.19
460.798	92.19
461.018	77.19
461.238	95.19
461.458	103.19
461.678	86.19
461.898	97.19
462.118	100.19
462.338	97.19
462.558	87.19
462.777	95.19
462.997	120.19
463.217	142.19
463.437	122.19
463.657	100.19
463.876	83.19
464.096	100.19
464.316	99.19
464.536	113.19
464.755	110.19
464.975	124.19
465.195	232.19
465.414	254.19
465.634	109.19
465.854	107.19
466.073	100.19
466.293	84.19
466.512	86.19
466.732	104.19
466.951	100.19
467.171	106.19
467.391	135.19
467.61	204.19
467.829	344.19
468.049	1210.19
468.268	1898.19
468.488	397.19
468.707	157.19
468.927	115.19
469.146	98.19
469.365	100.19
469.585	114.19
469.804	111.19
470.023	116.19
470.243	120.19
470.462	130.19
470.681	173.19
470.901	123.19
471.12	103.19
471.339	133.19
471.558	147.19
471.777	210.19
471.997	541.19
472.216	2209.19
472.435	5268.19
472.654	1104.19
472.873	245.19
473.092	149.19
473.311	112.19
473.53	111.19
473.749	113.19
473.968	105.19
474.187	127.19
474.406	112.19
474.625	119.19
474.844	103.19
475.063	88.19
475.282	93.19
475.501	98.19
475.72	101.19
475.939	97.19
476.158	90.19
476.377	104.19
476.596	90.19
476.814	112.19
477.033	100.19
477.252	79.19
477.471	99.19
477.69	87.19
477.908	107.19
478.127	86.19
478.346	102.19
478.564	88.19
478.783	109.19
479.002	135.19
479.22	123.19
479.439	153.19
479.658	165.19
479.876	151.19
480.095	138.19
480.313	184.19
480.532	229.19
480.751	471.19
480.969	1852.19
481.188	8389.19
481.406	4678.19
481.624	604.19
481.843	172.19
482.061	148.19
482.28	109.19
482.498	100.19
482.717	112.19
482.935	103.19
483.153	96.19
483.372	103.19
483.59	84.19
483.808	87.19
484.027	87.19
484.245	94.19
484.463	99.19
484.681	91.19
484.9	100.19
485.118	89.19
485.336	94.19
485.554	91.19
485.772	100.19
485.99	98.19
486.209	102.19
486.427	125.19
486.645	131.19
486.863	143.19
487.081	107.19
487.299	113.19
487.517	96.19
487.735	95.19
487.953	101.19
488.171	110.19
488.389	97.19
488.607	99.19
488.825	90.19
489.043	99.19
489.261	94.19
489.479	93.19
489.696	99.19
489.914	90.19
490.132	94.19
490.35	100.19
490.568	80.19
490.786	95.19
491.003	94.19
491.221	94.19
491.439	100.19
491.657	94.19
491.874	95.19
492.092	91.19
492.31	88.19
492.527	111.19
492.745	102.19
492.963	90.19
493.18	84.19
493.398	89.19
493.615	101.19
493.833	93.19
494.05	85.19
494.268	86.19
494.485	78.19
494.703	82.19
494.92	90.19
495.138	92.19
495.355	83.19
495.573	90.19
495.79	98.19
496.008	81.19
496.225	94.19
496.442	90.19
496.66	95.19
496.877	90.19
497.094	87.19
497.312	89.19
497.529	100.19
497.746	96.19
497.963	86.19
498.181	105.19
498.398	97.19
498.615	120.19
498.832	108.19
499.049	86.19
499.267	99.19
499.484	101.19
499.701	99.19
499.918	91.19
500.135	86.19
500.352	79.19
500.569	98.19
500.786	107.19
501.003	82.19
501.22	94.19
501.437	104.19
501.654	103.19
501.871	128.19
502.088	97.19
502.305	85.19
502.522	87.19
502.739	92.19
502.956	95.19
503.172	90.19
503.389	107.19
503.606	108.19
503.823	118.19
504.04	103.19
504.256	90.19
504.473	93.19
504.69	93.19
504.907	85.19
505.123	95.19
505.34	88.19
505.557	83.19
505.773	91.19
505.99	82.19
506.207	89.19
506.423	94.19
506.64	100.19
506.856	91.19
507.073	101.19
507.289	94.19
507.506	119.19
507.722	130.19
507.939	123.19
508.155	107.19
508.372	87.19
508.588	97.19
508.805	108.19
509.021	96.19
509.238	98.19
509.454	120.19
509.67	113.19
509.887	109.19
510.103	139.19
510.319	250.19
510.536	903.19
510.752	3382.19
510.968	879.19
511.184	178.19
511.401	133.19
511.617	117.19
511.833	131.19
512.049	119.19
512.265	108.19
