Data from Circ_1988_H10_HRD10591_00073.txt Node
Date: Wed Jan 03 12:05:49 EST 2024
User: Yrep
Spectrometer: HR+D1059
Trigger mode: 1
Integration Time (sec): 1.000000E-1
Scans to average: 1
Electric dark correction enabled: true
Nonlinearity correction enabled: false
Boxcar width: 0
XAxis mode: Wavelengths
Number of Pixels in Spectrum: 2048
>>>>>Begin Spectral Data<<<<<
223.165	-14
223.4	-14
223.635	-14
223.869	-23
224.104	-15
224.338	-9
224.573	-11
224.808	-27
225.042	2
225.277	-22
225.511	0
225.746	-1
225.98	12
226.215	4
226.449	17
226.683	18
226.918	32
227.152	37
227.387	40
227.621	30
227.856	39
228.09	36
228.324	41
228.559	53
228.793	52
229.027	56
229.262	65
229.496	74
229.73	86
229.964	80
230.199	86
230.433	73
230.667	83
230.901	92
231.136	82
231.37	77
231.604	79
231.838	93
232.072	86
232.306	79
232.541	76
232.775	76
233.009	76
233.243	79
233.477	73
233.711	87
233.945	91
234.179	87
234.413	88
234.647	87
234.881	80
235.115	80
235.349	76
235.583	89
235.817	86
236.051	68
236.285	80
236.519	92
236.753	87
236.987	87
237.221	88
237.455	96
237.689	74
237.922	83
238.156	89
238.39	71
238.624	87
238.858	80
239.091	91
239.325	98
239.559	95
239.793	82
240.027	81
240.26	88
240.494	74
240.728	78
240.961	78
241.195	86
241.429	76
241.662	81
241.896	74
242.13	89
242.363	87
242.597	64
242.83	82
243.064	82
243.298	102
243.531	89
243.765	84
243.998	87
244.232	71
244.465	77
244.699	76
244.932	71
245.166	81
245.399	76
245.633	79
245.866	87
246.099	70
246.333	81
246.566	78
246.8	73
247.033	77
247.266	80
247.5	76
247.733	92
247.966	90
248.2	91
248.433	85
248.666	81
248.899	92
249.133	85
249.366	100
249.599	103
249.832	89
250.066	80
250.299	93
250.532	98
250.765	74
250.998	80
251.231	85
251.465	107
251.698	87
251.931	96
252.164	94
252.397	73
252.63	93
252.863	84
253.096	80
253.329	97
253.562	96
253.795	87
254.028	79
254.261	88
254.494	84
254.727	75
254.96	90
255.193	78
255.426	81
255.659	80
255.892	103
256.124	114
256.357	97
256.59	103
256.823	92
257.056	109
257.289	84
257.521	79
257.754	104
257.987	93
258.22	104
258.452	114
258.685	112
258.918	84
259.151	89
259.383	91
259.616	92
259.849	88
260.081	86
260.314	88
260.547	105
260.779	98
261.012	142
261.244	143
261.477	106
261.71	116
261.942	133
262.175	158
262.407	88
262.64	96
262.872	80
263.105	87
263.337	73
263.57	88
263.802	90
264.035	95
264.267	82
264.499	85
264.732	75
264.964	83
265.197	85
265.429	96
265.661	90
265.894	80
266.126	85
266.358	96
266.591	80
266.823	98
267.055	96
267.287	90
267.52	70
267.752	89
267.984	86
268.216	101
268.448	89
268.681	96
268.913	78
269.145	87
269.377	74
269.609	85
269.841	102
270.073	84
270.306	73
270.538	84
270.77	82
271.002	96
271.234	90
271.466	88
271.698	85
271.93	88
272.162	89
272.394	95
272.626	87
272.858	92
273.09	78
273.322	90
273.553	73
273.785	98
274.017	96
274.249	86
274.481	91
274.713	84
274.945	84
275.176	94
275.408	105
275.64	136
275.872	168
276.104	126
276.335	119
276.567	117
276.799	175
277.031	238
277.262	307
277.494	229
277.726	124
277.957	118
278.189	98
278.421	90
278.652	84
278.884	89
279.115	101
279.347	85
279.579	122
279.81	185
280.042	324
280.273	475
280.505	305
280.736	119
280.968	95
281.199	106
281.431	89
281.662	89
281.894	101
282.125	113
282.356	145
282.588	177
282.819	130
283.051	91
283.282	69
283.513	98
283.745	96
283.976	94
284.207	91
284.439	91
284.67	88
284.901	92
285.132	72
285.364	90
285.595	100
285.826	98
286.057	103
286.288	79
286.52	88
286.751	84
286.982	93
287.213	82
287.444	88
287.675	93
287.906	73
288.138	88
288.369	106
288.6	84
288.831	78
289.062	100
289.293	89
289.524	93
289.755	88
289.986	83
290.217	95
290.448	77
290.679	93
290.91	82
291.141	83
291.371	89
291.602	86
291.833	91
292.064	83
292.295	98
292.526	92
292.757	96
292.987	97
293.218	92
293.449	89
293.68	86
293.91	87
294.141	85
294.372	85
294.603	103
294.833	95
295.064	101
295.295	88
295.525	80
295.756	107
295.987	129
296.217	159
296.448	145
296.679	105
296.909	95
297.14	81
297.37	95
297.601	85
297.831	81
298.062	88
298.292	93
298.523	87
298.753	83
298.984	85
299.214	81
299.445	105
299.675	94
299.905	115
300.136	96
300.366	89
300.597	94
300.827	102
301.057	109
301.288	118
301.518	116
301.748	104
301.979	126
302.209	124
302.439	96
302.669	96
302.9	104
303.13	107
303.36	119
303.59	166
303.82	196
304.051	119
304.281	99
304.511	87
304.741	79
304.971	95
305.201	96
305.431	97
305.661	85
305.891	100
306.121	111
306.352	112
306.582	128
306.812	113
307.042	163
307.272	227
307.502	286
307.731	265
307.961	167
308.191	100
308.421	97
308.651	95
308.881	94
309.111	105
309.341	111
309.571	103
309.8	97
310.03	101
310.26	112
310.49	105
310.72	111
310.949	104
311.179	104
311.409	96
311.639	105
311.868	111
312.098	98
312.328	108
312.557	117
312.787	119
313.017	108
313.246	101
313.476	99
313.706	92
313.935	112
314.165	103
314.394	101
314.624	109
314.853	112
315.083	98
315.312	95
315.542	92
315.771	97
316.001	83
316.23	83
316.46	90
316.689	93
316.919	99
317.148	91
317.377	101
317.607	94
317.836	87
318.065	101
318.295	110
318.524	93
318.753	106
318.983	97
319.212	96
319.441	119
319.67	114
319.9	100
320.129	94
320.358	110
320.587	113
320.816	110
321.046	126
321.275	120
321.504	94
321.733	89
321.962	116
322.191	109
322.42	114
322.649	109
322.878	128
323.108	134
323.337	138
323.566	136
323.795	171
324.024	199
324.253	377
324.482	780
324.71	1573
324.939	2074
325.168	810
325.397	255
325.626	168
325.855	136
326.084	121
326.313	137
326.542	160
326.77	234
326.999	417
327.228	822
327.457	1474
327.686	1209
327.914	626
328.143	802
328.372	1159
328.6	602
328.829	239
329.058	214
329.287	224
329.515	241
329.744	372
329.972	800
330.201	1682
330.43	2624
330.658	1064
330.887	384
331.115	216
331.344	135
331.572	133
331.801	138
332.03	137
332.258	130
332.486	118
332.715	124
332.943	130
333.172	120
333.4	146
333.629	190
333.857	308
334.085	640
334.314	1494
334.542	3068
334.771	2898
334.999	702
335.227	253
335.455	164
335.684	144
335.912	120
336.14	137
336.369	112
336.597	111
336.825	112
337.053	109
337.281	98
337.51	102
337.738	116
337.966	102
338.194	99
338.422	99
338.65	97
338.878	98
339.106	87
339.334	85
339.562	88
339.79	97
340.018	112
340.246	92
340.474	99
340.702	101
340.93	100
341.158	100
341.386	102
341.614	98
341.842	93
342.07	100
342.298	102
342.526	86
342.754	78
342.981	85
343.209	105
343.437	102
343.665	105
343.893	92
344.12	90
344.348	90
344.576	98
344.804	84
345.031	104
345.259	116
345.487	95
345.714	110
345.942	87
346.17	99
346.397	106
346.625	110
346.853	104
347.08	82
347.308	108
347.535	109
347.763	105
347.99	97
348.218	121
348.445	111
348.673	113
348.9	101
349.128	85
349.355	103
349.583	91
349.81	100
350.037	103
350.265	109
350.492	89
350.72	107
350.947	96
351.174	120
351.402	107
351.629	105
351.856	104
352.083	101
352.311	103
352.538	135
352.765	128
352.992	127
353.22	117
353.447	112
353.674	97
353.901	88
354.128	90
354.355	96
354.583	109
354.81	109
355.037	96
355.264	92
355.491	96
355.718	83
355.945	89
356.172	106
356.399	90
356.626	95
356.853	94
357.08	101
357.307	102
357.534	97
357.761	78
357.988	95
358.215	90
358.441	89
358.668	97
358.895	92
359.122	103
359.349	96
359.576	101
359.802	101
360.029	137
360.256	129
360.483	113
360.709	87
360.936	95
361.163	100
361.39	97
361.616	116
361.843	93
362.07	106
362.296	110
362.523	89
362.749	99
362.976	101
363.203	95
363.429	89
363.656	95
363.882	92
364.109	103
364.335	108
364.562	92
364.788	101
365.015	89
365.241	110
365.468	129
365.694	115
365.92	116
366.147	101
366.373	92
366.599	86
366.826	111
367.052	104
367.278	93
367.505	100
367.731	102
367.957	90
368.184	87
368.41	93
368.636	125
368.862	135
369.089	114
369.315	108
369.541	111
369.767	101
369.993	104
370.219	95
370.445	101
370.672	94
370.898	96
371.124	96
371.35	93
371.576	69
371.802	92
372.028	96
372.254	89
372.48	85
372.706	93
372.932	102
373.158	85
373.384	94
373.61	96
373.835	96
374.061	93
374.287	101
374.513	78
374.739	84
374.965	89
375.191	96
375.416	95
375.642	90
375.868	84
376.094	88
376.319	97
376.545	76
376.771	72
376.997	98
377.222	91
377.448	101
377.674	96
377.899	83
378.125	88
378.35	81
378.576	85
378.802	105
379.027	88
379.253	92
379.478	85
379.704	88
379.929	112
380.155	77
380.38	87
380.606	106
380.831	108
381.057	88
381.282	105
381.507	109
381.733	113
381.958	90
382.184	101
382.409	108
382.634	107
382.86	88
383.085	92
383.31	106
383.535	105
383.761	101
383.986	101
384.211	95
384.436	89
384.662	103
384.887	104
385.112	112
385.337	98
385.562	109
385.787	109
386.013	115
386.238	124
386.463	108
386.688	100
386.913	112
387.138	120
387.363	102
387.588	98
387.813	104
388.038	114
388.263	113
388.488	111
388.713	91
388.938	100
389.163	95
389.387	92
389.612	86
389.837	81
390.062	85
390.287	97
390.512	84
390.736	92
390.961	76
391.186	100
391.411	88
391.636	85
391.86	82
392.085	86
392.31	87
392.534	92
392.759	77
392.984	72
393.208	94
393.433	101
393.658	92
393.882	84
394.107	77
394.331	83
394.556	83
394.78	88
395.005	82
395.229	85
395.454	79
395.678	83
395.903	94
396.127	93
396.352	74
396.576	88
396.801	98
397.025	92
397.249	72
397.474	99
397.698	89
397.922	78
398.147	91
398.371	100
398.595	101
398.82	100
399.044	76
399.268	86
399.492	99
399.717	89
399.941	72
400.165	103
400.389	95
400.613	91
400.837	89
401.062	89
401.286	81
401.51	95
401.734	98
401.958	105
402.182	136
402.406	191
402.63	151
402.854	112
403.078	72
403.302	88
403.526	97
403.75	89
403.974	84
404.198	106
404.422	89
404.645	85
404.869	84
405.093	116
405.317	155
405.541	126
405.765	120
405.988	122
406.212	219
406.436	332
406.66	203
406.883	116
407.107	106
407.331	94
407.555	110
407.778	104
408.002	86
408.226	91
408.449	92
408.673	88
408.896	99
409.12	94
409.344	99
409.567	100
409.791	81
410.014	103
410.238	90
410.461	98
410.685	101
410.908	101
411.132	103
411.355	89
411.578	92
411.802	82
412.025	114
412.249	104
412.472	128
412.695	141
412.919	132
413.142	109
413.365	101
413.589	91
413.812	93
414.035	93
414.258	93
414.482	106
414.705	90
414.928	86
415.151	91
415.374	93
415.597	103
415.821	99
416.044	103
416.267	101
416.49	103
416.713	94
416.936	86
417.159	102
417.382	111
417.605	117
417.828	133
418.051	103
418.274	101
418.497	87
418.72	98
418.943	88
419.166	99
419.389	87
419.611	94
419.834	91
420.057	100
420.28	94
420.503	90
420.726	95
420.948	94
421.171	102
421.394	101
421.617	97
421.839	79
422.062	98
422.285	84
422.507	105
422.73	113
422.953	92
423.175	84
423.398	80
423.621	92
423.843	101
424.066	93
424.288	94
424.511	89
424.733	111
424.956	114
425.178	122
425.401	113
425.623	111
425.846	92
426.068	93
426.291	86
426.513	102
426.735	90
426.958	89
427.18	104
427.402	170
427.625	263
427.847	241
428.069	184
428.292	134
428.514	99
428.736	97
428.958	71
429.181	99
429.403	84
429.625	98
429.847	98
430.069	93
430.292	104
430.514	88
430.736	91
430.958	87
431.18	82
431.402	94
431.624	89
431.846	83
432.068	93
432.29	90
432.512	93
432.734	84
432.956	73
433.178	92
433.4	96
433.622	81
433.844	110
434.066	100
434.287	101
434.509	103
434.731	82
434.953	89
435.175	102
435.397	88
435.618	84
435.84	114
436.062	123
436.284	115
436.505	95
436.727	93
436.949	88
437.17	95
437.392	87
437.614	100
437.835	118
438.057	150
438.278	106
438.5	102
438.721	112
438.943	100
439.165	97
439.386	84
439.608	114
439.829	104
440.05	121
440.272	152
440.493	113
440.715	94
440.936	85
441.158	76
441.379	87
441.6	103
441.822	116
442.043	105
442.264	108
442.486	104
442.707	98
442.928	124
443.149	164
443.371	153
443.592	127
443.813	111
444.034	120
444.255	92
444.476	84
444.698	92
444.919	81
445.14	121
445.361	126
445.582	148
445.803	162
446.024	173
446.245	148
446.466	114
446.687	82
446.908	103
447.129	104
447.35	87
447.571	90
447.792	92
448.013	116
448.234	125
448.455	109
448.675	112
448.896	124
449.117	108
449.338	95
449.559	141
449.779	156
450	97
450.221	84
450.442	78
450.662	98
450.883	119
451.104	132
451.324	102
451.545	98
451.766	87
451.986	71
452.207	117
452.428	105
452.648	104
452.869	128
453.089	133
453.31	129
453.53	97
453.751	90
453.971	120
454.192	125
454.412	106
454.633	86
454.853	97
455.073	99
455.294	97
455.514	108
455.734	80
455.955	95
456.175	89
456.395	91
456.616	87
456.836	84
457.056	88
457.276	83
457.497	94
457.717	93
457.937	90
458.157	96
458.377	96
458.598	140
458.818	200
459.038	224
459.258	150
459.478	94
459.698	70
459.918	81
460.138	86
460.358	95
460.578	88
460.798	93
461.018	87
461.238	92
461.458	79
461.678	79
461.898	92
462.118	80
462.338	96
462.558	90
462.777	99
462.997	117
463.217	144
463.437	106
463.657	92
463.876	85
464.096	103
464.316	87
464.536	106
464.755	97
464.975	125
465.195	230
465.414	222
465.634	118
465.854	98
466.073	96
466.293	100
466.512	102
466.732	101
466.951	99
467.171	109
467.391	126
467.61	181
467.829	325
468.049	1116
468.268	1787
468.488	360
468.707	137
468.927	92
469.146	112
469.365	97
469.585	85
469.804	99
470.023	114
470.243	120
470.462	131
470.681	162
470.901	106
471.12	114
471.339	131
471.558	153
471.777	232
471.997	505
472.216	2049
472.435	4906
472.654	1017
472.873	237
473.092	122
473.311	110
473.53	95
473.749	87
473.968	98
474.187	145
474.406	121
474.625	108
474.844	96
475.063	102
475.282	93
475.501	84
475.72	88
475.939	100
476.158	97
476.377	105
476.596	99
476.814	99
477.033	98
477.252	102
477.471	98
477.69	101
477.908	104
478.127	89
478.346	87
478.564	102
478.783	115
479.002	124
479.22	122
479.439	130
479.658	142
479.876	124
480.095	160
480.313	183
480.532	232
480.751	443
480.969	1706
481.188	7798
481.406	4389
481.624	564
481.843	188
482.061	133
482.28	127
482.498	103
482.717	92
482.935	100
483.153	92
483.372	106
483.59	81
483.808	94
484.027	89
484.245	99
484.463	108
484.681	100
484.9	96
485.118	108
485.336	114
485.554	100
485.772	110
485.99	114
486.209	98
486.427	129
486.645	122
486.863	130
487.081	125
487.299	110
487.517	110
487.735	105
487.953	82
488.171	102
488.389	104
488.607	105
488.825	102
489.043	95
489.261	99
489.479	93
489.696	88
489.914	90
490.132	99
490.35	87
490.568	82
490.786	103
491.003	96
491.221	96
491.439	114
491.657	106
491.874	93
492.092	100
492.31	100
492.527	95
492.745	116
492.963	103
493.18	105
493.398	92
493.615	114
493.833	88
494.05	86
494.268	95
494.485	95
494.703	78
494.92	94
495.138	98
495.355	87
495.573	93
495.79	97
496.008	101
496.225	102
496.442	76
496.66	99
496.877	99
497.094	95
497.312	101
497.529	92
497.746	79
497.963	101
498.181	97
498.398	100
498.615	125
498.832	124
499.049	86
499.267	92
499.484	83
499.701	93
499.918	101
500.135	87
500.352	102
500.569	114
500.786	102
501.003	81
501.22	89
501.437	96
501.654	106
501.871	114
502.088	104
502.305	89
502.522	105
502.739	101
502.956	91
503.172	106
503.389	110
503.606	133
503.823	115
504.04	100
504.256	93
504.473	105
504.69	97
504.907	98
505.123	91
505.34	89
505.557	82
505.773	97
505.99	93
506.207	98
506.423	96
506.64	87
506.856	103
507.073	86
507.289	100
507.506	98
507.722	130
507.939	147
508.155	100
508.372	95
508.588	101
508.805	108
509.021	102
509.238	99
509.454	125
509.67	118
509.887	104
510.103	149
510.319	242
510.536	952
510.752	3410
510.968	908
511.184	196
511.401	135
511.617	105
511.833	108
512.049	108
512.265	97
512.481	106
512.698	96
512.914	90
513.13	85
513.346	100
513.562	99
513.778	109
513.994	111
514.21	129
514.426	134
514.642	176
514.858	155
515.074	224
515.29	689
515.506	2528
515.721	888
515.937	215
516.153	127
516.369	118
516.585	115
516.801	121
517.016	94
517.232	104
517.448	108
517.664	102
517.879	99
518.095	102
518.311	157
518.527	145
518.742	112
518.958	101
519.173	99
519.389	105
519.605	97
519.82	104
520.036	125
520.251	165
520.467	137
520.682	115
520.898	116
521.113	136
521.329	177
521.544	303
521.76	901
521.975	4282
522.19	2474
522.406	519
522.621	166
522.836	113
523.052	103
523.267	107
523.482	105
523.698	118
523.913	166
524.128	124
524.343	97
524.559	96
524.774	100
524.989	109
525.204	108
525.419	114
525.634	115
525.849	109
526.064	96
526.28	101
526.495	87
526.71	93
526.925	82
527.14	89
527.355	92
527.57	97
527.785	96
527.999	87
528.214	101
528.429	88
528.644	82
528.859	90
529.074	92
529.289	134
529.503	268
529.718	108
529.933	92
530.148	92
530.363	93
530.577	92
530.792	86
531.007	86
531.221	100
531.436	94
531.651	84
531.865	110
532.08	102
532.295	85
532.509	73
532.724	90
532.938	77
533.153	102
533.367	82
533.582	90
533.796	85
534.011	95
534.225	86
534.44	86
534.654	88
534.868	95
535.083	98
535.297	96
535.511	119
535.726	111
535.94	109
536.154	96
536.369	98
536.583	100
536.797	85
537.011	81
537.225	88
537.44	88
537.654	85
537.868	83
538.082	94
538.296	102
538.51	88
538.724	93
538.938	89
539.153	99
539.367	127
539.581	87
539.795	88
540.009	79
540.222	98
540.436	100
540.65	96
540.864	105
541.078	110
541.292	92
541.506	83
541.72	82
541.934	94
542.147	102
542.361	98
542.575	104
542.789	101
543.002	72
543.216	90
543.43	112
543.644	112
543.857	86
544.071	86
544.285	85
544.498	99
544.712	93
544.925	82
545.139	94
545.352	93
545.566	87
545.779	89
545.993	93
546.206	86
546.42	94
546.633	97
546.847	111
547.06	95
547.274	97
547.487	94
547.7	83
547.914	92
548.127	76
548.34	94
548.554	100
548.767	91
548.98	97
549.193	85
549.407	84
549.62	100
549.833	82
550.046	94
550.259	82
550.473	96
550.686	88
550.899	84
551.112	86
551.325	100
551.538	130
551.751	100
551.964	114
552.177	82
552.39	102
552.603	95
552.816	101
553.029	89
553.242	101
553.455	103
553.667	130
553.88	117
554.093	101
554.306	113
554.519	146
554.732	106
554.944	98
555.157	104
555.37	97
555.583	76
555.795	94
556.008	99
556.221	96
556.433	98
556.646	90
556.859	93
557.071	70
557.284	70
557.496	84
557.709	80
557.921	98
558.134	88
558.346	90
558.559	96
558.771	87
558.984	97
559.196	93
559.409	98
559.621	91
559.833	104
560.046	120
560.258	152
560.47	182
560.683	119
560.895	92
561.107	99
561.32	92
561.532	91
561.744	78
561.956	99
562.168	95
562.381	102
562.593	87
562.805	101
563.017	100
563.229	86
563.441	90
563.653	85
563.865	81
564.077	96
564.289	94
564.501	89
564.713	85
564.925	100
565.137	106
565.349	96
565.561	81
565.773	98
565.985	106
566.197	99
566.408	102
566.62	86
566.832	74
567.044	94
567.255	93
567.467	93
567.679	88
567.891	100
568.102	90
568.314	86
568.526	95
568.737	95
568.949	100
569.161	92
569.372	89
569.584	92
569.795	94
570.007	126
570.218	295
570.43	160
570.641	92
570.853	79
571.064	92
571.276	101
571.487	93
571.698	91
571.91	90
572.121	86
572.333	84
572.544	81
572.755	87
572.966	80
573.178	84
573.389	92
573.6	92
573.811	85
574.023	92
574.234	102
574.445	93
574.656	87
574.867	80
575.078	87
575.289	86
575.501	94
575.712	85
575.923	87
576.134	85
576.345	85
576.556	88
576.767	93
576.978	85
577.188	101
577.399	103
577.61	90
577.821	101
578.032	114
578.243	319
578.454	1020
