Data from Circ_1988_H10_HRD10591_00086.txt Node
Date: Wed Jan 03 12:05:52 EST 2024
User: Yrep
Spectrometer: HR+D1059
Trigger mode: 1
Integration Time (sec): 1.000000E-1
Scans to average: 1
Electric dark correction enabled: true
Nonlinearity correction enabled: false
Boxcar width: 0
XAxis mode: Wavelengths
Number of Pixels in Spectrum: 2048
>>>>>Begin Spectral Data<<<<<
223.165	-17.19
223.4	-17.19
223.635	-17.19
223.869	-18.19
224.104	-23.19
224.338	-15.19
224.573	-31.19
224.808	-10.19
225.042	1.81
225.277	-3.19
225.511	-3.19
225.746	6.81
225.98	16.81
226.215	7.81
226.449	13.81
226.683	13.81
226.918	29.81
227.152	30.81
227.387	35.81
227.621	25.81
227.856	39.81
228.09	47.81
228.324	44.81
228.559	58.81
228.793	61.81
229.027	78.81
229.262	64.81
229.496	70.81
229.73	91.81
229.964	95.81
230.199	84.81
230.433	74.81
230.667	79.81
230.901	65.81
231.136	79.81
231.37	70.81
231.604	94.81
231.838	75.81
232.072	81.81
232.306	78.81
232.541	80.81
232.775	72.81
233.009	91.81
233.243	76.81
233.477	87.81
233.711	99.81
233.945	87.81
234.179	70.81
234.413	78.81
234.647	79.81
234.881	101.81
235.115	81.81
235.349	63.81
235.583	71.81
235.817	96.81
236.051	88.81
236.285	76.81
236.519	82.81
236.753	86.81
236.987	70.81
237.221	95.81
237.455	91.81
237.689	87.81
237.922	67.81
238.156	82.81
238.39	89.81
238.624	84.81
238.858	68.81
239.091	75.81
239.325	86.81
239.559	69.81
239.793	86.81
240.027	85.81
240.26	83.81
240.494	86.81
240.728	72.81
240.961	72.81
241.195	84.81
241.429	81.81
241.662	72.81
241.896	67.81
242.13	81.81
242.363	95.81
242.597	91.81
242.83	76.81
243.064	76.81
243.298	76.81
243.531	97.81
243.765	78.81
243.998	78.81
244.232	78.81
244.465	97.81
244.699	100.81
244.932	76.81
245.166	51.81
245.399	84.81
245.633	73.81
245.866	88.81
246.099	86.81
246.333	80.81
246.566	94.81
246.8	81.81
247.033	89.81
247.266	71.81
247.5	78.81
247.733	71.81
247.966	84.81
248.2	93.81
248.433	99.81
248.666	83.81
248.899	90.81
249.133	84.81
249.366	101.81
249.599	106.81
249.832	87.81
250.066	86.81
250.299	87.81
250.532	100.81
250.765	79.81
250.998	73.81
251.231	77.81
251.465	93.81
251.698	82.81
251.931	93.81
252.164	98.81
252.397	77.81
252.63	95.81
252.863	92.81
253.096	71.81
253.329	73.81
253.562	58.81
253.795	90.81
254.028	72.81
254.261	75.81
254.494	91.81
254.727	89.81
254.96	79.81
255.193	76.81
255.426	78.81
255.659	90.81
255.892	92.81
256.124	121.81
256.357	109.81
256.59	89.81
256.823	95.81
257.056	85.81
257.289	93.81
257.521	94.81
257.754	100.81
257.987	84.81
258.22	95.81
258.452	130.81
258.685	109.81
258.918	99.81
259.151	81.81
259.383	88.81
259.616	85.81
259.849	74.81
260.081	99.81
260.314	79.81
260.547	91.81
260.779	114.81
261.012	143.81
261.244	135.81
261.477	109.81
261.71	94.81
261.942	132.81
262.175	144.81
262.407	94.81
262.64	86.81
262.872	73.81
263.105	90.81
263.337	87.81
263.57	89.81
263.802	85.81
264.035	78.81
264.267	92.81
264.499	81.81
264.732	90.81
264.964	78.81
265.197	99.81
265.429	89.81
265.661	85.81
265.894	82.81
266.126	85.81
266.358	85.81
266.591	98.81
266.823	79.81
267.055	85.81
267.287	88.81
267.52	107.81
267.752	94.81
267.984	91.81
268.216	100.81
268.448	93.81
268.681	89.81
268.913	80.81
269.145	90.81
269.377	100.81
269.609	91.81
269.841	103.81
270.073	86.81
270.306	82.81
270.538	91.81
270.77	85.81
271.002	100.81
271.234	90.81
271.466	92.81
271.698	100.81
271.93	95.81
272.162	87.81
272.394	97.81
272.626	80.81
272.858	95.81
273.09	88.81
273.322	83.81
273.553	87.81
273.785	87.81
274.017	77.81
274.249	84.81
274.481	80.81
274.713	82.81
274.945	88.81
275.176	102.81
275.408	117.81
275.64	144.81
275.872	168.81
276.104	129.81
276.335	102.81
276.567	131.81
276.799	168.81
277.031	259.81
277.262	322.81
277.494	235.81
277.726	126.81
277.957	107.81
278.189	98.81
278.421	103.81
278.652	94.81
278.884	102.81
279.115	96.81
279.347	109.81
279.579	116.81
279.81	181.81
280.042	341.81
280.273	484.81
280.505	301.81
280.736	132.81
280.968	102.81
281.199	93.81
281.431	111.81
281.662	84.81
281.894	104.81
282.125	109.81
282.356	130.81
282.588	174.81
282.819	142.81
283.051	78.81
283.282	80.81
283.513	85.81
283.745	97.81
283.976	82.81
284.207	98.81
284.439	85.81
284.67	96.81
284.901	91.81
285.132	80.81
285.364	95.81
285.595	92.81
285.826	88.81
286.057	89.81
286.288	84.81
286.52	96.81
286.751	93.81
286.982	94.81
287.213	91.81
287.444	102.81
287.675	83.81
287.906	83.81
288.138	80.81
288.369	100.81
288.6	105.81
288.831	103.81
289.062	93.81
289.293	82.81
289.524	97.81
289.755	93.81
289.986	84.81
290.217	73.81
290.448	81.81
290.679	77.81
290.91	91.81
291.141	92.81
291.371	99.81
291.602	86.81
291.833	90.81
292.064	84.81
292.295	82.81
292.526	95.81
292.757	109.81
292.987	86.81
293.218	91.81
293.449	92.81
293.68	83.81
293.91	89.81
294.141	101.81
294.372	91.81
294.603	93.81
294.833	84.81
295.064	89.81
295.295	88.81
295.525	96.81
295.756	104.81
295.987	123.81
296.217	160.81
296.448	144.81
296.679	99.81
296.909	96.81
297.14	99.81
297.37	97.81
297.601	92.81
297.831	86.81
298.062	98.81
298.292	88.81
298.523	107.81
298.753	99.81
298.984	98.81
299.214	101.81
299.445	110.81
299.675	115.81
299.905	107.81
300.136	98.81
300.366	99.81
300.597	103.81
300.827	111.81
301.057	120.81
301.288	130.81
301.518	100.81
301.748	103.81
301.979	122.81
302.209	117.81
302.439	107.81
302.669	97.81
302.9	81.81
303.13	114.81
303.36	127.81
303.59	177.81
303.82	170.81
304.051	121.81
304.281	101.81
304.511	104.81
304.741	89.81
304.971	102.81
305.201	82.81
305.431	94.81
305.661	100.81
305.891	79.81
306.121	99.81
306.352	104.81
306.582	123.81
306.812	116.81
307.042	165.81
307.272	272.81
307.502	268.81
307.731	270.81
307.961	180.81
308.191	115.81
308.421	81.81
308.651	102.81
308.881	111.81
309.111	94.81
309.341	96.81
309.571	103.81
309.8	94.81
310.03	111.81
310.26	114.81
310.49	110.81
310.72	104.81
310.949	125.81
311.179	108.81
311.409	91.81
311.639	103.81
311.868	96.81
312.098	102.81
312.328	94.81
312.557	112.81
312.787	132.81
313.017	115.81
313.246	112.81
313.476	84.81
313.706	99.81
313.935	105.81
314.165	93.81
314.394	129.81
314.624	95.81
314.853	112.81
315.083	110.81
315.312	98.81
315.542	115.81
315.771	98.81
316.001	89.81
316.23	111.81
316.46	85.81
316.689	80.81
316.919	89.81
317.148	115.81
317.377	108.81
317.607	93.81
317.836	107.81
318.065	98.81
318.295	97.81
318.524	92.81
318.753	89.81
318.983	100.81
319.212	107.81
319.441	123.81
319.67	113.81
319.9	99.81
320.129	94.81
320.358	103.81
320.587	101.81
320.816	110.81
321.046	125.81
321.275	110.81
321.504	102.81
321.733	101.81
321.962	111.81
322.191	104.81
322.42	106.81
322.649	104.81
322.878	115.81
323.108	135.81
323.337	126.81
323.566	158.81
323.795	169.81
324.024	219.81
324.253	406.81
324.482	833.81
324.71	1667.81
324.939	2177.81
325.168	872.81
325.397	296.81
325.626	167.81
325.855	129.81
326.084	133.81
326.313	154.81
326.542	166.81
326.77	244.81
326.999	429.81
327.228	832.81
327.457	1499.81
327.686	1285.81
327.914	623.81
328.143	892.81
328.372	1249.81
328.6	628.81
328.829	244.81
329.058	214.81
329.287	227.81
329.515	236.81
329.744	381.81
329.972	853.81
330.201	1872.81
330.43	2883.81
330.658	1154.81
330.887	391.81
331.115	231.81
331.344	154.81
331.572	151.81
331.801	117.81
332.03	134.81
332.258	126.81
332.486	131.81
332.715	124.81
332.943	146.81
333.172	167.81
333.4	151.81
333.629	205.81
333.857	331.81
334.085	671.81
334.314	1612.81
334.542	3288.81
334.771	3168.81
334.999	750.81
335.227	236.81
335.455	154.81
335.684	141.81
335.912	122.81
336.14	126.81
336.369	120.81
336.597	135.81
336.825	109.81
337.053	105.81
337.281	115.81
337.51	101.81
337.738	92.81
337.966	120.81
338.194	130.81
338.422	88.81
338.65	108.81
338.878	88.81
339.106	107.81
339.334	96.81
339.562	107.81
339.79	106.81
340.018	111.81
340.246	108.81
340.474	104.81
340.702	107.81
340.93	110.81
341.158	98.81
341.386	98.81
341.614	99.81
341.842	100.81
342.07	95.81
342.298	91.81
342.526	97.81
342.754	88.81
342.981	93.81
343.209	87.81
343.437	99.81
343.665	95.81
343.893	94.81
344.12	93.81
344.348	97.81
344.576	107.81
344.804	91.81
345.031	107.81
345.259	107.81
345.487	99.81
345.714	96.81
345.942	92.81
346.17	103.81
346.397	115.81
346.625	98.81
346.853	108.81
347.08	105.81
347.308	107.81
347.535	108.81
347.763	110.81
347.99	106.81
348.218	109.81
348.445	119.81
348.673	93.81
348.9	99.81
349.128	91.81
349.355	99.81
349.583	92.81
349.81	96.81
350.037	114.81
350.265	96.81
350.492	101.81
350.72	89.81
350.947	111.81
351.174	98.81
351.402	117.81
351.629	113.81
351.856	100.81
352.083	110.81
352.311	111.81
352.538	112.81
352.765	105.81
352.992	107.81
353.22	115.81
353.447	107.81
353.674	102.81
353.901	96.81
354.128	93.81
354.355	100.81
354.583	97.81
354.81	91.81
355.037	95.81
355.264	88.81
355.491	100.81
355.718	104.81
355.945	103.81
356.172	96.81
356.399	81.81
356.626	88.81
356.853	86.81
357.08	97.81
357.307	94.81
357.534	97.81
357.761	101.81
357.988	100.81
358.215	96.81
358.441	105.81
358.668	99.81
358.895	93.81
359.122	87.81
359.349	79.81
359.576	83.81
359.802	118.81
360.029	143.81
360.256	120.81
360.483	101.81
360.709	96.81
360.936	89.81
361.163	98.81
361.39	110.81
361.616	110.81
361.843	95.81
362.07	113.81
362.296	102.81
362.523	99.81
362.749	100.81
362.976	86.81
363.203	89.81
363.429	88.81
363.656	93.81
363.882	81.81
364.109	97.81
364.335	93.81
364.562	88.81
364.788	98.81
365.015	98.81
365.241	104.81
365.468	119.81
365.694	121.81
365.92	97.81
366.147	102.81
366.373	100.81
366.599	85.81
366.826	86.81
367.052	89.81
367.278	104.81
367.505	93.81
367.731	106.81
367.957	98.81
368.184	90.81
368.41	121.81
368.636	126.81
368.862	136.81
369.089	120.81
369.315	101.81
369.541	90.81
369.767	103.81
369.993	104.81
370.219	85.81
370.445	97.81
370.672	95.81
370.898	78.81
371.124	86.81
371.35	84.81
371.576	93.81
371.802	86.81
372.028	92.81
372.254	86.81
372.48	87.81
372.706	84.81
372.932	98.81
373.158	70.81
373.384	83.81
373.61	78.81
373.835	77.81
374.061	76.81
374.287	100.81
374.513	105.81
374.739	87.81
374.965	77.81
375.191	86.81
375.416	82.81
375.642	109.81
375.868	93.81
376.094	91.81
376.319	96.81
376.545	71.81
376.771	76.81
376.997	75.81
377.222	91.81
377.448	91.81
377.674	102.81
377.899	93.81
378.125	93.81
378.35	96.81
378.576	93.81
378.802	86.81
379.027	96.81
379.253	94.81
379.478	107.81
379.704	92.81
379.929	105.81
380.155	95.81
380.38	91.81
380.606	107.81
380.831	92.81
381.057	102.81
381.282	91.81
381.507	80.81
381.733	81.81
381.958	99.81
382.184	107.81
382.409	102.81
382.634	100.81
382.86	109.81
383.085	111.81
383.31	105.81
383.535	108.81
383.761	106.81
383.986	88.81
384.211	94.81
384.436	91.81
384.662	103.81
384.887	104.81
385.112	119.81
385.337	103.81
385.562	102.81
385.787	123.81
386.013	129.81
386.238	132.81
386.463	108.81
386.688	131.81
386.913	93.81
387.138	108.81
387.363	111.81
387.588	101.81
387.813	112.81
388.038	107.81
388.263	111.81
388.488	121.81
388.713	104.81
388.938	83.81
389.163	99.81
389.387	91.81
389.612	78.81
389.837	93.81
390.062	89.81
390.287	80.81
390.512	79.81
390.736	79.81
390.961	84.81
391.186	89.81
391.411	94.81
391.636	87.81
391.86	89.81
392.085	89.81
392.31	86.81
392.534	93.81
392.759	100.81
392.984	82.81
393.208	97.81
393.433	103.81
393.658	106.81
393.882	80.81
394.107	101.81
394.331	95.81
394.556	101.81
394.78	89.81
395.005	93.81
395.229	91.81
395.454	85.81
395.678	79.81
395.903	89.81
396.127	96.81
396.352	84.81
396.576	86.81
396.801	89.81
397.025	88.81
397.249	80.81
397.474	86.81
397.698	84.81
397.922	81.81
398.147	91.81
398.371	97.81
398.595	84.81
398.82	95.81
399.044	93.81
399.268	92.81
399.492	92.81
399.717	83.81
399.941	93.81
400.165	92.81
400.389	87.81
400.613	99.81
400.837	76.81
401.062	83.81
401.286	97.81
401.51	85.81
401.734	94.81
401.958	108.81
402.182	123.81
402.406	189.81
402.63	156.81
402.854	109.81
403.078	89.81
403.302	102.81
403.526	99.81
403.75	78.81
403.974	100.81
404.198	80.81
404.422	96.81
404.645	91.81
404.869	105.81
405.093	127.81
405.317	149.81
405.541	161.81
405.765	131.81
405.988	153.81
406.212	205.81
406.436	334.81
406.66	197.81
406.883	121.81
407.107	92.81
407.331	105.81
407.555	101.81
407.778	100.81
408.002	105.81
408.226	98.81
408.449	91.81
408.673	77.81
408.896	108.81
409.12	88.81
409.344	86.81
409.567	97.81
409.791	92.81
410.014	102.81
410.238	85.81
410.461	93.81
410.685	93.81
410.908	98.81
411.132	106.81
411.355	105.81
411.578	90.81
411.802	88.81
412.025	97.81
412.249	110.81
412.472	135.81
412.695	158.81
412.919	109.81
413.142	113.81
413.365	101.81
413.589	91.81
413.812	81.81
414.035	103.81
414.258	109.81
414.482	107.81
414.705	100.81
414.928	103.81
415.151	91.81
415.374	97.81
415.597	99.81
415.821	99.81
416.044	71.81
416.267	87.81
416.49	85.81
416.713	93.81
416.936	110.81
417.159	102.81
417.382	106.81
417.605	125.81
417.828	120.81
418.051	108.81
418.274	100.81
418.497	98.81
418.72	94.81
418.943	97.81
419.166	91.81
419.389	99.81
419.611	91.81
419.834	92.81
420.057	83.81
420.28	117.81
420.503	91.81
420.726	94.81
420.948	98.81
421.171	104.81
421.394	102.81
421.617	87.81
421.839	92.81
422.062	96.81
422.285	100.81
422.507	97.81
422.73	118.81
422.953	103.81
423.175	89.81
423.398	92.81
423.621	99.81
423.843	86.81
424.066	72.81
424.288	92.81
424.511	95.81
424.733	115.81
424.956	119.81
425.178	113.81
425.401	113.81
425.623	111.81
425.846	95.81
426.068	95.81
426.291	88.81
426.513	101.81
426.735	84.81
426.958	100.81
427.18	124.81
427.402	187.81
427.625	268.81
427.847	224.81
428.069	203.81
428.292	138.81
428.514	110.81
428.736	95.81
428.958	104.81
429.181	100.81
429.403	98.81
429.625	92.81
429.847	112.81
430.069	112.81
430.292	97.81
430.514	90.81
430.736	88.81
430.958	96.81
431.18	96.81
431.402	88.81
431.624	91.81
431.846	89.81
432.068	91.81
432.29	95.81
432.512	85.81
432.734	102.81
432.956	96.81
433.178	92.81
433.4	88.81
433.622	91.81
433.844	101.81
434.066	98.81
434.287	99.81
434.509	87.81
434.731	97.81
434.953	93.81
435.175	87.81
435.397	94.81
435.618	104.81
435.84	123.81
436.062	132.81
436.284	127.81
436.505	115.81
436.727	93.81
436.949	95.81
437.17	92.81
437.392	85.81
437.614	99.81
437.835	121.81
438.057	136.81
438.278	124.81
438.5	111.81
438.721	133.81
438.943	117.81
439.165	103.81
439.386	89.81
439.608	105.81
439.829	120.81
440.05	130.81
440.272	164.81
440.493	109.81
440.715	95.81
440.936	88.81
441.158	99.81
441.379	91.81
441.6	101.81
441.822	112.81
442.043	90.81
442.264	116.81
442.486	129.81
442.707	108.81
442.928	120.81
443.149	177.81
443.371	168.81
443.592	126.81
443.813	130.81
444.034	104.81
444.255	99.81
444.476	90.81
444.698	102.81
444.919	85.81
445.14	129.81
445.361	111.81
445.582	127.81
445.803	168.81
446.024	153.81
446.245	139.81
446.466	109.81
446.687	100.81
446.908	88.81
447.129	91.81
447.35	102.81
447.571	89.81
447.792	99.81
448.013	100.81
448.234	106.81
448.455	128.81
448.675	121.81
448.896	131.81
449.117	111.81
449.338	113.81
449.559	129.81
449.779	133.81
450	96.81
450.221	100.81
450.442	81.81
450.662	100.81
450.883	133.81
451.104	139.81
451.324	92.81
451.545	99.81
451.766	89.81
451.986	82.81
452.207	91.81
452.428	97.81
452.648	100.81
452.869	129.81
453.089	137.81
453.31	134.81
453.53	105.81
453.751	111.81
453.971	123.81
454.192	120.81
454.412	92.81
454.633	92.81
454.853	85.81
455.073	84.81
455.294	96.81
455.514	118.81
455.734	88.81
455.955	100.81
456.175	81.81
456.395	80.81
456.616	83.81
456.836	103.81
457.056	109.81
457.276	91.81
457.497	94.81
457.717	96.81
457.937	106.81
458.157	99.81
458.377	88.81
458.598	117.81
458.818	189.81
459.038	225.81
459.258	148.81
459.478	91.81
459.698	93.81
459.918	86.81
460.138	77.81
460.358	91.81
460.578	78.81
460.798	104.81
461.018	89.81
461.238	98.81
461.458	93.81
461.678	71.81
461.898	85.81
462.118	99.81
462.338	94.81
462.558	87.81
462.777	97.81
462.997	117.81
463.217	145.81
463.437	101.81
463.657	96.81
463.876	97.81
464.096	88.81
464.316	89.81
464.536	111.81
464.755	118.81
464.975	123.81
465.195	239.81
465.414	243.81
465.634	107.81
465.854	90.81
466.073	95.81
466.293	91.81
466.512	90.81
466.732	97.81
466.951	106.81
467.171	113.81
467.391	119.81
467.61	179.81
467.829	340.81
468.049	1202.81
468.268	1903.81
468.488	386.81
468.707	145.81
468.927	105.81
469.146	105.81
469.365	86.81
469.585	100.81
469.804	128.81
470.023	105.81
470.243	104.81
470.462	116.81
470.681	155.81
470.901	120.81
471.12	117.81
471.339	127.81
471.558	166.81
471.777	220.81
471.997	525.81
472.216	2249.81
472.435	5314.81
472.654	1090.81
472.873	240.81
473.092	136.81
473.311	108.81
473.53	103.81
473.749	102.81
473.968	112.81
474.187	115.81
474.406	95.81
474.625	99.81
474.844	106.81
475.063	91.81
475.282	97.81
475.501	94.81
475.72	87.81
475.939	95.81
476.158	93.81
476.377	94.81
476.596	93.81
476.814	105.81
477.033	105.81
477.252	101.81
477.471	91.81
477.69	103.81
477.908	104.81
478.127	91.81
478.346	96.81
478.564	114.81
478.783	131.81
479.002	131.81
479.22	119.81
479.439	131.81
479.658	154.81
479.876	137.81
480.095	122.81
480.313	169.81
480.532	233.81
480.751	461.81
480.969	1937.81
481.188	8703.81
481.406	4791.81
481.624	615.81
481.843	189.81
482.061	124.81
482.28	121.81
482.498	98.81
482.717	105.81
482.935	95.81
483.153	102.81
483.372	98.81
483.59	98.81
483.808	79.81
484.027	104.81
484.245	95.81
484.463	94.81
484.681	109.81
484.9	102.81
485.118	99.81
485.336	112.81
485.554	112.81
485.772	101.81
485.99	109.81
486.209	112.81
486.427	135.81
486.645	133.81
486.863	126.81
487.081	115.81
487.299	105.81
487.517	104.81
487.735	102.81
487.953	91.81
488.171	91.81
488.389	109.81
488.607	108.81
488.825	105.81
489.043	100.81
489.261	98.81
489.479	66.81
489.696	93.81
489.914	90.81
490.132	91.81
490.35	100.81
490.568	99.81
490.786	81.81
491.003	87.81
491.221	85.81
491.439	89.81
491.657	88.81
491.874	95.81
492.092	96.81
492.31	118.81
492.527	100.81
492.745	104.81
492.963	98.81
493.18	92.81
493.398	84.81
493.615	84.81
493.833	96.81
494.05	91.81
494.268	89.81
494.485	96.81
494.703	93.81
494.92	99.81
495.138	82.81
495.355	99.81
495.573	95.81
495.79	99.81
496.008	91.81
496.225	108.81
496.442	113.81
496.66	89.81
496.877	91.81
497.094	97.81
497.312	85.81
497.529	85.81
497.746	92.81
497.963	99.81
498.181	107.81
498.398	107.81
498.615	121.81
498.832	103.81
499.049	87.81
499.267	98.81
499.484	105.81
499.701	94.81
499.918	96.81
500.135	95.81
500.352	95.81
500.569	100.81
500.786	104.81
501.003	91.81
501.22	99.81
501.437	100.81
501.654	109.81
501.871	113.81
502.088	96.81
502.305	99.81
502.522	93.81
502.739	91.81
502.956	97.81
503.172	89.81
503.389	105.81
503.606	131.81
503.823	115.81
504.04	84.81
504.256	101.81
504.473	100.81
504.69	94.81
504.907	70.81
505.123	103.81
505.34	104.81
505.557	87.81
505.773	97.81
505.99	82.81
506.207	85.81
506.423	90.81
506.64	91.81
506.856	102.81
507.073	83.81
507.289	111.81
507.506	98.81
507.722	116.81
507.939	123.81
508.155	107.81
508.372	104.81
508.588	89.81
508.805	107.81
509.021	102.81
509.238	103.81
509.454	113.81
509.67	96.81
509.887	120.81
510.103	157.81
510.319	276.81
510.536	1054.81
510.752	3666.81
510.968	963.81
511.184	193.81
511.401	128.81
511.617	123.81
