Data from Circ_1988_H10_HRD10591_00083.txt Node
Date: Wed Jan 03 12:05:51 EST 2024
User: Yrep
Spectrometer: HR+D1059
Trigger mode: 1
Integration Time (sec): 1.000000E-1
Scans to average: 1
Electric dark correction enabled: true
Nonlinearity correction enabled: false
Boxcar width: 0
XAxis mode: Wavelengths
Number of Pixels in Spectrum: 2048
>>>>>Begin Spectral Data<<<<<
223.165	-30.25
223.4	-30.25
223.635	-30.25
223.869	-24.25
224.104	-9.25
224.338	-22.25
224.573	-11.25
224.808	-17.25
225.042	4.75
225.277	-5.25
225.511	3.75
225.746	1.75
225.98	1.75
226.215	10.75
226.449	14.75
226.683	20.75
226.918	38.75
227.152	22.75
227.387	32.75
227.621	23.75
227.856	38.75
228.09	56.75
228.324	56.75
228.559	55.75
228.793	60.75
229.027	74.75
229.262	67.75
229.496	68.75
229.73	94.75
229.964	88.75
230.199	75.75
230.433	79.75
230.667	88.75
230.901	80.75
231.136	71.75
231.37	74.75
231.604	80.75
231.838	77.75
232.072	67.75
232.306	85.75
232.541	70.75
232.775	88.75
233.009	90.75
233.243	86.75
233.477	83.75
233.711	70.75
233.945	86.75
234.179	84.75
234.413	86.75
234.647	80.75
234.881	74.75
235.115	83.75
235.349	88.75
235.583	72.75
235.817	70.75
236.051	72.75
236.285	71.75
236.519	80.75
236.753	85.75
236.987	82.75
237.221	87.75
237.455	80.75
237.689	90.75
237.922	83.75
238.156	79.75
238.39	81.75
238.624	77.75
238.858	78.75
239.091	87.75
239.325	89.75
239.559	79.75
239.793	69.75
240.027	74.75
240.26	82.75
240.494	71.75
240.728	74.75
240.961	79.75
241.195	85.75
241.429	80.75
241.662	63.75
241.896	81.75
242.13	60.75
242.363	66.75
242.597	71.75
242.83	85.75
243.064	78.75
243.298	59.75
243.531	84.75
243.765	91.75
243.998	86.75
244.232	84.75
244.465	87.75
244.699	87.75
244.932	67.75
245.166	63.75
245.399	92.75
245.633	85.75
245.866	67.75
246.099	98.75
246.333	95.75
246.566	77.75
246.8	88.75
247.033	80.75
247.266	66.75
247.5	78.75
247.733	83.75
247.966	86.75
248.2	67.75
248.433	83.75
248.666	79.75
248.899	80.75
249.133	95.75
249.366	107.75
249.599	92.75
249.832	77.75
250.066	70.75
250.299	90.75
250.532	78.75
250.765	88.75
250.998	82.75
251.231	80.75
251.465	78.75
251.698	97.75
251.931	99.75
252.164	84.75
252.397	78.75
252.63	71.75
252.863	81.75
253.096	78.75
253.329	85.75
253.562	80.75
253.795	91.75
254.028	88.75
254.261	81.75
254.494	96.75
254.727	102.75
254.96	71.75
255.193	79.75
255.426	76.75
255.659	91.75
255.892	107.75
256.124	116.75
256.357	86.75
256.59	87.75
256.823	88.75
257.056	91.75
257.289	94.75
257.521	94.75
257.754	88.75
257.987	99.75
258.22	106.75
258.452	115.75
258.685	105.75
258.918	95.75
259.151	90.75
259.383	91.75
259.616	74.75
259.849	75.75
260.081	92.75
260.314	98.75
260.547	99.75
260.779	114.75
261.012	155.75
261.244	132.75
261.477	98.75
261.71	96.75
261.942	132.75
262.175	139.75
262.407	108.75
262.64	99.75
262.872	67.75
263.105	92.75
263.337	90.75
263.57	85.75
263.802	94.75
264.035	81.75
264.267	85.75
264.499	80.75
264.732	84.75
264.964	88.75
265.197	84.75
265.429	77.75
265.661	78.75
265.894	87.75
266.126	90.75
266.358	71.75
266.591	66.75
266.823	71.75
267.055	92.75
267.287	88.75
267.52	85.75
267.752	81.75
267.984	89.75
268.216	94.75
268.448	94.75
268.681	89.75
268.913	83.75
269.145	94.75
269.377	78.75
269.609	87.75
269.841	83.75
270.073	71.75
270.306	79.75
270.538	82.75
270.77	91.75
271.002	90.75
271.234	97.75
271.466	96.75
271.698	83.75
271.93	101.75
272.162	89.75
272.394	85.75
272.626	69.75
272.858	84.75
273.09	77.75
273.322	92.75
273.553	91.75
273.785	82.75
274.017	87.75
274.249	90.75
274.481	93.75
274.713	87.75
274.945	96.75
275.176	93.75
275.408	119.75
275.64	158.75
275.872	160.75
276.104	141.75
276.335	112.75
276.567	122.75
276.799	186.75
277.031	246.75
277.262	334.75
277.494	229.75
277.726	120.75
277.957	106.75
278.189	104.75
278.421	90.75
278.652	93.75
278.884	90.75
279.115	86.75
279.347	101.75
279.579	104.75
279.81	162.75
280.042	342.75
280.273	496.75
280.505	300.75
280.736	142.75
280.968	114.75
281.199	90.75
281.431	85.75
281.662	92.75
281.894	96.75
282.125	101.75
282.356	141.75
282.588	177.75
282.819	131.75
283.051	85.75
283.282	90.75
283.513	94.75
283.745	84.75
283.976	95.75
284.207	92.75
284.439	89.75
284.67	96.75
284.901	78.75
285.132	100.75
285.364	94.75
285.595	76.75
285.826	92.75
286.057	88.75
286.288	95.75
286.52	85.75
286.751	79.75
286.982	82.75
287.213	86.75
287.444	92.75
287.675	87.75
287.906	92.75
288.138	92.75
288.369	92.75
288.6	94.75
288.831	91.75
289.062	93.75
289.293	108.75
289.524	85.75
289.755	77.75
289.986	80.75
290.217	75.75
290.448	84.75
290.679	96.75
290.91	82.75
291.141	92.75
291.371	91.75
291.602	90.75
291.833	93.75
292.064	100.75
292.295	90.75
292.526	83.75
292.757	91.75
292.987	85.75
293.218	85.75
293.449	80.75
293.68	90.75
293.91	90.75
294.141	91.75
294.372	86.75
294.603	94.75
294.833	92.75
295.064	78.75
295.295	91.75
295.525	85.75
295.756	99.75
295.987	124.75
296.217	161.75
296.448	141.75
296.679	91.75
296.909	85.75
297.14	80.75
297.37	88.75
297.601	96.75
297.831	91.75
298.062	89.75
298.292	100.75
298.523	94.75
298.753	87.75
298.984	91.75
299.214	86.75
299.445	83.75
299.675	94.75
299.905	100.75
300.136	100.75
300.366	85.75
300.597	108.75
300.827	93.75
301.057	108.75
301.288	114.75
301.518	123.75
301.748	107.75
301.979	128.75
302.209	115.75
302.439	89.75
302.669	94.75
302.9	95.75
303.13	111.75
303.36	124.75
303.59	162.75
303.82	202.75
304.051	117.75
304.281	88.75
304.511	110.75
304.741	95.75
304.971	74.75
305.201	85.75
305.431	91.75
305.661	87.75
305.891	96.75
306.121	112.75
306.352	114.75
306.582	133.75
306.812	123.75
307.042	160.75
307.272	242.75
307.502	288.75
307.731	266.75
307.961	179.75
308.191	96.75
308.421	111.75
308.651	94.75
308.881	100.75
309.111	98.75
309.341	92.75
309.571	96.75
309.8	92.75
310.03	95.75
310.26	122.75
310.49	100.75
310.72	112.75
310.949	114.75
311.179	112.75
311.409	105.75
311.639	96.75
311.868	114.75
312.098	94.75
312.328	98.75
312.557	112.75
312.787	126.75
313.017	108.75
313.246	120.75
313.476	86.75
313.706	86.75
313.935	111.75
314.165	110.75
314.394	107.75
314.624	92.75
314.853	108.75
315.083	107.75
315.312	82.75
315.542	91.75
315.771	94.75
316.001	99.75
316.23	110.75
316.46	83.75
316.689	96.75
316.919	91.75
317.148	96.75
317.377	109.75
317.607	96.75
317.836	109.75
318.065	90.75
318.295	92.75
318.524	103.75
318.753	104.75
318.983	94.75
319.212	102.75
319.441	125.75
319.67	110.75
319.9	101.75
320.129	111.75
320.358	103.75
320.587	114.75
320.816	97.75
321.046	107.75
321.275	130.75
321.504	101.75
321.733	86.75
321.962	93.75
322.191	109.75
322.42	110.75
322.649	124.75
322.878	127.75
323.108	124.75
323.337	124.75
323.566	155.75
323.795	176.75
324.024	213.75
324.253	394.75
324.482	821.75
324.71	1596.75
324.939	2106.75
325.168	833.75
325.397	274.75
325.626	164.75
325.855	133.75
326.084	140.75
326.313	128.75
326.542	160.75
326.77	243.75
326.999	424.75
327.228	797.75
327.457	1480.75
327.686	1267.75
327.914	622.75
328.143	826.75
328.372	1230.75
328.6	632.75
328.829	234.75
329.058	207.75
329.287	226.75
329.515	248.75
329.744	382.75
329.972	840.75
330.201	1828.75
330.43	2816.75
330.658	1128.75
330.887	396.75
331.115	226.75
331.344	142.75
331.572	121.75
331.801	133.75
332.03	142.75
332.258	129.75
332.486	126.75
332.715	123.75
332.943	122.75
333.172	144.75
333.4	165.75
333.629	213.75
333.857	335.75
334.085	686.75
334.314	1584.75
334.542	3322.75
334.771	3173.75
334.999	747.75
335.227	262.75
335.455	166.75
335.684	133.75
335.912	121.75
336.14	122.75
336.369	115.75
336.597	115.75
336.825	115.75
337.053	108.75
337.281	106.75
337.51	110.75
337.738	100.75
337.966	117.75
338.194	119.75
338.422	95.75
338.65	95.75
338.878	108.75
339.106	103.75
339.334	82.75
339.562	102.75
339.79	83.75
340.018	93.75
340.246	99.75
340.474	91.75
340.702	104.75
340.93	103.75
341.158	95.75
341.386	115.75
341.614	106.75
341.842	100.75
342.07	94.75
342.298	100.75
342.526	98.75
342.754	80.75
342.981	87.75
343.209	106.75
343.437	91.75
343.665	104.75
343.893	91.75
344.12	84.75
344.348	100.75
344.576	100.75
344.804	94.75
345.031	114.75
345.259	111.75
345.487	102.75
345.714	85.75
345.942	91.75
346.17	110.75
346.397	112.75
346.625	106.75
346.853	101.75
347.08	102.75
347.308	110.75
347.535	114.75
347.763	115.75
347.99	96.75
348.218	113.75
348.445	122.75
348.673	107.75
348.9	93.75
349.128	105.75
349.355	88.75
349.583	101.75
349.81	110.75
350.037	97.75
350.265	106.75
350.492	108.75
350.72	103.75
350.947	103.75
351.174	124.75
351.402	123.75
351.629	113.75
351.856	110.75
352.083	95.75
352.311	96.75
352.538	125.75
352.765	116.75
352.992	120.75
353.22	140.75
353.447	100.75
353.674	104.75
353.901	89.75
354.128	96.75
354.355	92.75
354.583	89.75
354.81	91.75
355.037	75.75
355.264	98.75
355.491	99.75
355.718	78.75
355.945	95.75
356.172	97.75
356.399	86.75
356.626	90.75
356.853	91.75
357.08	96.75
357.307	87.75
357.534	80.75
357.761	76.75
357.988	97.75
358.215	92.75
358.441	86.75
358.668	107.75
358.895	99.75
359.122	83.75
359.349	70.75
359.576	92.75
359.802	116.75
360.029	129.75
360.256	129.75
360.483	109.75
360.709	95.75
360.936	106.75
361.163	90.75
361.39	94.75
361.616	86.75
361.843	77.75
362.07	99.75
362.296	111.75
362.523	102.75
362.749	107.75
362.976	88.75
363.203	99.75
363.429	84.75
363.656	97.75
363.882	97.75
364.109	93.75
364.335	95.75
364.562	94.75
364.788	100.75
365.015	88.75
365.241	104.75
365.468	114.75
365.694	108.75
365.92	108.75
366.147	91.75
366.373	96.75
366.599	93.75
366.826	92.75
367.052	103.75
367.278	91.75
367.505	77.75
367.731	107.75
367.957	89.75
368.184	91.75
368.41	95.75
368.636	118.75
368.862	122.75
369.089	120.75
369.315	88.75
369.541	81.75
369.767	93.75
369.993	103.75
370.219	95.75
370.445	94.75
370.672	93.75
370.898	95.75
371.124	87.75
371.35	78.75
371.576	79.75
371.802	83.75
372.028	84.75
372.254	102.75
372.48	76.75
372.706	94.75
372.932	71.75
373.158	84.75
373.384	104.75
373.61	96.75
373.835	108.75
374.061	78.75
374.287	98.75
374.513	89.75
374.739	95.75
374.965	110.75
375.191	85.75
375.416	94.75
375.642	84.75
375.868	83.75
376.094	92.75
376.319	89.75
376.545	87.75
376.771	93.75
376.997	95.75
377.222	89.75
377.448	94.75
377.674	83.75
377.899	94.75
378.125	98.75
378.35	98.75
378.576	85.75
378.802	82.75
379.027	101.75
379.253	92.75
379.478	80.75
379.704	86.75
379.929	94.75
380.155	93.75
380.38	87.75
380.606	94.75
380.831	94.75
381.057	86.75
381.282	93.75
381.507	88.75
381.733	110.75
381.958	99.75
382.184	105.75
382.409	103.75
382.634	93.75
382.86	103.75
383.085	96.75
383.31	100.75
383.535	85.75
383.761	98.75
383.986	98.75
384.211	90.75
384.436	105.75
384.662	103.75
384.887	109.75
385.112	109.75
385.337	111.75
385.562	115.75
385.787	96.75
386.013	104.75
386.238	123.75
386.463	105.75
386.688	112.75
386.913	116.75
387.138	114.75
387.363	105.75
387.588	109.75
387.813	102.75
388.038	105.75
388.263	110.75
388.488	113.75
388.713	95.75
388.938	85.75
389.163	94.75
389.387	91.75
389.612	80.75
389.837	85.75
390.062	83.75
390.287	85.75
390.512	94.75
390.736	93.75
390.961	99.75
391.186	85.75
391.411	80.75
391.636	80.75
391.86	99.75
392.085	95.75
392.31	91.75
392.534	88.75
392.759	90.75
392.984	90.75
393.208	87.75
393.433	94.75
393.658	91.75
393.882	70.75
394.107	74.75
394.331	87.75
394.556	91.75
394.78	77.75
395.005	103.75
395.229	86.75
395.454	84.75
395.678	86.75
395.903	90.75
396.127	96.75
396.352	90.75
396.576	92.75
396.801	95.75
397.025	99.75
397.249	91.75
397.474	65.75
397.698	87.75
397.922	92.75
398.147	91.75
398.371	103.75
398.595	100.75
398.82	83.75
399.044	94.75
399.268	94.75
399.492	79.75
399.717	95.75
399.941	92.75
400.165	88.75
400.389	98.75
400.613	81.75
400.837	89.75
401.062	91.75
401.286	88.75
401.51	89.75
401.734	87.75
401.958	102.75
402.182	133.75
402.406	212.75
402.63	158.75
402.854	107.75
403.078	92.75
403.302	93.75
403.526	84.75
403.75	97.75
403.974	92.75
404.198	95.75
404.422	95.75
404.645	98.75
404.869	111.75
405.093	121.75
405.317	163.75
405.541	154.75
405.765	133.75
405.988	143.75
406.212	214.75
406.436	308.75
406.66	206.75
406.883	106.75
407.107	100.75
407.331	100.75
407.555	106.75
407.778	123.75
408.002	92.75
408.226	100.75
408.449	91.75
408.673	99.75
408.896	92.75
409.12	100.75
409.344	86.75
409.567	94.75
409.791	91.75
410.014	98.75
410.238	108.75
410.461	82.75
410.685	90.75
410.908	102.75
411.132	100.75
411.355	102.75
411.578	93.75
411.802	94.75
412.025	90.75
412.249	98.75
412.472	121.75
412.695	136.75
412.919	123.75
413.142	109.75
413.365	89.75
413.589	88.75
413.812	101.75
414.035	100.75
414.258	91.75
414.482	99.75
414.705	80.75
414.928	93.75
415.151	89.75
415.374	105.75
415.597	98.75
415.821	78.75
416.044	89.75
416.267	86.75
416.49	85.75
416.713	95.75
416.936	84.75
417.159	74.75
417.382	95.75
417.605	108.75
417.828	113.75
418.051	107.75
418.274	96.75
418.497	83.75
418.72	82.75
418.943	102.75
419.166	91.75
419.389	85.75
419.611	103.75
419.834	95.75
420.057	113.75
420.28	98.75
420.503	92.75
420.726	95.75
420.948	103.75
421.171	113.75
421.394	100.75
421.617	103.75
421.839	91.75
422.062	98.75
422.285	94.75
422.507	101.75
422.73	120.75
422.953	91.75
423.175	101.75
423.398	100.75
423.621	90.75
423.843	88.75
424.066	95.75
424.288	83.75
424.511	83.75
424.733	105.75
424.956	129.75
425.178	99.75
425.401	98.75
425.623	113.75
425.846	98.75
426.068	108.75
426.291	96.75
426.513	92.75
426.735	100.75
426.958	92.75
427.18	136.75
427.402	173.75
427.625	249.75
427.847	232.75
428.069	199.75
428.292	139.75
428.514	101.75
428.736	84.75
428.958	98.75
429.181	93.75
429.403	84.75
429.625	90.75
429.847	107.75
430.069	104.75
430.292	106.75
430.514	84.75
430.736	83.75
430.958	86.75
431.18	91.75
431.402	93.75
431.624	91.75
431.846	95.75
432.068	99.75
432.29	79.75
432.512	86.75
432.734	89.75
432.956	84.75
433.178	102.75
433.4	90.75
433.622	94.75
433.844	87.75
434.066	101.75
434.287	109.75
434.509	86.75
434.731	97.75
434.953	97.75
435.175	100.75
435.397	99.75
435.618	95.75
435.84	111.75
436.062	117.75
436.284	130.75
436.505	101.75
436.727	103.75
436.949	98.75
437.17	101.75
437.392	91.75
437.614	111.75
437.835	122.75
438.057	138.75
438.278	115.75
438.5	114.75
438.721	123.75
438.943	108.75
439.165	93.75
439.386	104.75
439.608	102.75
439.829	108.75
440.05	150.75
440.272	159.75
440.493	108.75
440.715	82.75
440.936	92.75
441.158	97.75
441.379	94.75
441.6	103.75
441.822	100.75
442.043	109.75
442.264	116.75
442.486	109.75
442.707	88.75
442.928	123.75
443.149	164.75
443.371	170.75
443.592	134.75
443.813	124.75
444.034	115.75
444.255	101.75
444.476	109.75
444.698	92.75
444.919	98.75
445.14	135.75
445.361	110.75
445.582	124.75
445.803	164.75
446.024	166.75
446.245	143.75
446.466	133.75
446.687	99.75
446.908	86.75
447.129	90.75
447.35	99.75
447.571	101.75
447.792	104.75
448.013	113.75
448.234	119.75
448.455	108.75
448.675	122.75
448.896	147.75
449.117	109.75
449.338	99.75
449.559	144.75
449.779	156.75
450	94.75
450.221	90.75
450.442	84.75
450.662	99.75
450.883	114.75
451.104	135.75
451.324	99.75
451.545	89.75
451.766	99.75
451.986	102.75
452.207	88.75
452.428	100.75
452.648	107.75
452.869	132.75
453.089	127.75
453.31	141.75
453.53	107.75
453.751	99.75
453.971	109.75
454.192	111.75
454.412	99.75
454.633	92.75
454.853	102.75
455.073	99.75
455.294	89.75
455.514	115.75
455.734	89.75
455.955	102.75
456.175	94.75
456.395	91.75
456.616	82.75
456.836	76.75
457.056	78.75
457.276	90.75
457.497	90.75
457.717	96.75
457.937	93.75
458.157	87.75
458.377	90.75
458.598	106.75
458.818	221.75
459.038	239.75
459.258	147.75
459.478	102.75
459.698	96.75
459.918	87.75
460.138	99.75
460.358	107.75
460.578	96.75
460.798	83.75
461.018	76.75
461.238	82.75
461.458	78.75
461.678	88.75
461.898	92.75
462.118	86.75
462.338	75.75
462.558	88.75
462.777	88.75
462.997	114.75
463.217	140.75
463.437	112.75
463.657	97.75
463.876	96.75
464.096	93.75
464.316	104.75
464.536	94.75
464.755	103.75
464.975	118.75
465.195	230.75
465.414	231.75
465.634	106.75
465.854	104.75
466.073	95.75
466.293	106.75
466.512	97.75
466.732	103.75
466.951	101.75
467.171	127.75
467.391	119.75
467.61	189.75
467.829	351.75
468.049	1224.75
468.268	1896.75
468.488	401.75
468.707	147.75
468.927	106.75
469.146	96.75
469.365	99.75
469.585	99.75
469.804	99.75
470.023	116.75
470.243	113.75
470.462	122.75
470.681	147.75
470.901	140.75
471.12	120.75
471.339	126.75
471.558	139.75
471.777	218.75
471.997	505.75
472.216	2190.75
472.435	5329.75
472.654	1116.75
472.873	247.75
473.092	139.75
473.311	120.75
473.53	101.75
473.749	108.75
473.968	117.75
474.187	142.75
474.406	104.75
474.625	100.75
474.844	101.75
475.063	79.75
475.282	94.75
475.501	89.75
475.72	101.75
475.939	95.75
476.158	84.75
476.377	105.75
476.596	98.75
476.814	113.75
477.033	110.75
477.252	107.75
477.471	99.75
477.69	95.75
477.908	114.75
478.127	94.75
478.346	110.75
478.564	119.75
478.783	127.75
479.002	116.75
479.22	102.75
479.439	128.75
479.658	151.75
479.876	144.75
480.095	144.75
480.313	178.75
480.532	230.75
480.751	453.75
480.969	1871.75
481.188	8520.75
481.406	4736.75
481.624	618.75
481.843	197.75
482.061	123.75
482.28	113.75
482.498	108.75
482.717	109.75
482.935	105.75
483.153	88.75
483.372	110.75
483.59	99.75
483.808	106.75
484.027	92.75
484.245	103.75
484.463	108.75
484.681	102.75
484.9	95.75
485.118	95.75
485.336	101.75
485.554	111.75
485.772	109.75
485.99	119.75
486.209	115.75
486.427	126.75
486.645	129.75
486.863	128.75
487.081	119.75
487.299	108.75
487.517	95.75
487.735	114.75
487.953	102.75
488.171	104.75
488.389	103.75
488.607	111.75
488.825	84.75
489.043	100.75
489.261	95.75
489.479	87.75
489.696	95.75
489.914	98.75
490.132	98.75
490.35	91.75
490.568	92.75
490.786	84.75
491.003	104.75
491.221	106.75
491.439	109.75
491.657	108.75
491.874	100.75
492.092	97.75
492.31	81.75
492.527	110.75
492.745	102.75
492.963	106.75
493.18	103.75
493.398	97.75
493.615	90.75
493.833	108.75
494.05	100.75
494.268	96.75
494.485	91.75
494.703	79.75
494.92	83.75
495.138	88.75
495.355	85.75
495.573	91.75
495.79	94.75
496.008	101.75
496.225	92.75
496.442	84.75
496.66	68.75
496.877	83.75
497.094	102.75
497.312	100.75
497.529	106.75
497.746	101.75
497.963	82.75
498.181	85.75
498.398	92.75
498.615	110.75
498.832	116.75
499.049	88.75
499.267	84.75
499.484	95.75
499.701	103.75
499.918	94.75
500.135	84.75
500.352	92.75
500.569	107.75
500.786	115.75
501.003	92.75
501.22	96.75
501.437	102.75
501.654	113.75
501.871	132.75
502.088	102.75
502.305	91.75
502.522	72.75
502.739	94.75
502.956	97.75
503.172	98.75
503.389	110.75
503.606	121.75
503.823	113.75
504.04	99.75
504.256	97.75
504.473	102.75
504.69	99.75
504.907	108.75
505.123	100.75
505.34	99.75
505.557	87.75
505.773	91.75
505.99	85.75
506.207	111.75
506.423	96.75
506.64	89.75
506.856	90.75
507.073	108.75
507.289	110.75
507.506	110.75
507.722	134.75
507.939	140.75
508.155	103.75
508.372	98.75
508.588	85.75
508.805	96.75
509.021	106.75
509.238	90.75
509.454	118.75
509.67	112.75
509.887	128.75
510.103	147.75
510.319	252.75
510.536	1027.75
510.752	3596.75
510.968	935.75
511.184	175.75
511.401	133.75
511.617	114.75
511.833	126.75
512.049	95.75
