Data from Circ_1988_H10_HRD10591_00011.txt Node
Date: Wed Jan 03 12:05:37 EST 2024
User: Yrep
Spectrometer: HR+D1059
Trigger mode: 1
Integration Time (sec): 1.000000E-1
Scans to average: 1
Electric dark correction enabled: true
Nonlinearity correction enabled: false
Boxcar width: 0
XAxis mode: Wavelengths
Number of Pixels in Spectrum: 2048
>>>>>Begin Spectral Data<<<<<
223.165	-17.69
223.4	-17.69
223.635	-17.69
223.869	-24.69
224.104	-16.69
224.338	-13.69
224.573	4.31
224.808	-12.69
225.042	5.31
225.277	-11.69
225.511	-15.69
225.746	0.31
225.98	9.31
226.215	11.31
226.449	10.31
226.683	25.31
226.918	21.31
227.152	25.31
227.387	28.31
227.621	33.31
227.856	45.31
228.09	38.31
228.324	36.31
228.559	48.31
228.793	61.31
229.027	65.31
229.262	66.31
229.496	64.31
229.73	103.31
229.964	81.31
230.199	86.31
230.433	83.31
230.667	82.31
230.901	86.31
231.136	79.31
231.37	86.31
231.604	71.31
231.838	82.31
232.072	75.31
232.306	76.31
232.541	82.31
232.775	75.31
233.009	79.31
233.243	98.31
233.477	77.31
233.711	69.31
233.945	93.31
234.179	81.31
234.413	77.31
234.647	73.31
234.881	78.31
235.115	85.31
235.349	83.31
235.583	62.31
235.817	75.31
236.051	87.31
236.285	67.31
236.519	75.31
236.753	88.31
236.987	85.31
237.221	92.31
237.455	100.31
237.689	76.31
237.922	66.31
238.156	63.31
238.39	77.31
238.624	73.31
238.858	97.31
239.091	80.31
239.325	87.31
239.559	83.31
239.793	70.31
240.027	75.31
240.26	79.31
240.494	75.31
240.728	63.31
240.961	85.31
241.195	79.31
241.429	81.31
241.662	62.31
241.896	59.31
242.13	72.31
242.363	88.31
242.597	79.31
242.83	85.31
243.064	81.31
243.298	95.31
243.531	96.31
243.765	78.31
243.998	69.31
244.232	89.31
244.465	78.31
244.699	68.31
244.932	78.31
245.166	73.31
245.399	90.31
245.633	91.31
245.866	77.31
246.099	87.31
246.333	80.31
246.566	77.31
246.8	82.31
247.033	77.31
247.266	87.31
247.5	77.31
247.733	86.31
247.966	100.31
248.2	103.31
248.433	86.31
248.666	77.31
248.899	88.31
249.133	92.31
249.366	106.31
249.599	116.31
249.832	103.31
250.066	89.31
250.299	96.31
250.532	84.31
250.765	79.31
250.998	75.31
251.231	71.31
251.465	96.31
251.698	95.31
251.931	87.31
252.164	94.31
252.397	79.31
252.63	75.31
252.863	98.31
253.096	77.31
253.329	94.31
253.562	76.31
253.795	71.31
254.028	77.31
254.261	76.31
254.494	82.31
254.727	85.31
254.96	90.31
255.193	91.31
255.426	99.31
255.659	96.31
255.892	114.31
256.124	112.31
256.357	91.31
256.59	79.31
256.823	96.31
257.056	99.31
257.289	105.31
257.521	95.31
257.754	96.31
257.987	93.31
258.22	108.31
258.452	127.31
258.685	123.31
258.918	83.31
259.151	90.31
259.383	96.31
259.616	84.31
259.849	83.31
260.081	84.31
260.314	103.31
260.547	96.31
260.779	123.31
261.012	158.31
261.244	144.31
261.477	113.31
261.71	123.31
261.942	141.31
262.175	157.31
262.407	94.31
262.64	99.31
262.872	91.31
263.105	82.31
263.337	95.31
263.57	81.31
263.802	85.31
264.035	87.31
264.267	104.31
264.499	102.31
264.732	81.31
264.964	86.31
265.197	88.31
265.429	70.31
265.661	92.31
265.894	91.31
266.126	98.31
266.358	88.31
266.591	91.31
266.823	87.31
267.055	81.31
267.287	94.31
267.52	98.31
267.752	91.31
267.984	75.31
268.216	92.31
268.448	85.31
268.681	95.31
268.913	102.31
269.145	92.31
269.377	83.31
269.609	79.31
269.841	89.31
270.073	88.31
270.306	79.31
270.538	82.31
270.77	85.31
271.002	85.31
271.234	85.31
271.466	104.31
271.698	78.31
271.93	95.31
272.162	81.31
272.394	85.31
272.626	87.31
272.858	85.31
273.09	84.31
273.322	83.31
273.553	96.31
273.785	87.31
274.017	78.31
274.249	93.31
274.481	93.31
274.713	91.31
274.945	92.31
275.176	95.31
275.408	126.31
275.64	160.31
275.872	185.31
276.104	142.31
276.335	121.31
276.567	135.31
276.799	199.31
277.031	274.31
277.262	351.31
277.494	260.31
277.726	139.31
277.957	109.31
278.189	93.31
278.421	84.31
278.652	93.31
278.884	91.31
279.115	100.31
279.347	107.31
279.579	140.31
279.81	191.31
280.042	378.31
280.273	547.31
280.505	331.31
280.736	151.31
280.968	119.31
281.199	105.31
281.431	95.31
281.662	99.31
281.894	83.31
282.125	109.31
282.356	139.31
282.588	171.31
282.819	143.31
283.051	85.31
283.282	87.31
283.513	94.31
283.745	93.31
283.976	102.31
284.207	98.31
284.439	94.31
284.67	89.31
284.901	94.31
285.132	73.31
285.364	94.31
285.595	101.31
285.826	101.31
286.057	74.31
286.288	91.31
286.52	87.31
286.751	85.31
286.982	94.31
287.213	96.31
287.444	92.31
287.675	93.31
287.906	85.31
288.138	87.31
288.369	97.31
288.6	99.31
288.831	87.31
289.062	104.31
289.293	77.31
289.524	98.31
289.755	93.31
289.986	79.31
290.217	85.31
290.448	94.31
290.679	104.31
290.91	78.31
291.141	93.31
291.371	97.31
291.602	88.31
291.833	99.31
292.064	86.31
292.295	89.31
292.526	92.31
292.757	85.31
292.987	85.31
293.218	78.31
293.449	93.31
293.68	81.31
293.91	88.31
294.141	80.31
294.372	77.31
294.603	91.31
294.833	102.31
295.064	94.31
295.295	93.31
295.525	99.31
295.756	99.31
295.987	131.31
296.217	175.31
296.448	146.31
296.679	106.31
296.909	90.31
297.14	78.31
297.37	95.31
297.601	98.31
297.831	83.31
298.062	96.31
298.292	108.31
298.523	93.31
298.753	87.31
298.984	77.31
299.214	83.31
299.445	95.31
299.675	102.31
299.905	103.31
300.136	84.31
300.366	103.31
300.597	97.31
300.827	99.31
301.057	105.31
301.288	112.31
301.518	116.31
301.748	113.31
301.979	141.31
302.209	123.31
302.439	102.31
302.669	104.31
302.9	91.31
303.13	107.31
303.36	135.31
303.59	189.31
303.82	206.31
304.051	133.31
304.281	95.31
304.511	97.31
304.741	89.31
304.971	93.31
305.201	98.31
305.431	97.31
305.661	115.31
305.891	109.31
306.121	104.31
306.352	117.31
306.582	127.31
306.812	133.31
307.042	167.31
307.272	273.31
307.502	297.31
307.731	262.31
307.961	175.31
308.191	105.31
308.421	85.31
308.651	92.31
308.881	108.31
309.111	94.31
309.341	104.31
309.571	104.31
309.8	98.31
310.03	104.31
310.26	98.31
310.49	90.31
310.72	106.31
310.949	102.31
311.179	123.31
311.409	100.31
311.639	91.31
311.868	97.31
312.098	82.31
312.328	114.31
312.557	96.31
312.787	122.31
313.017	107.31
313.246	89.31
313.476	88.31
313.706	95.31
313.935	96.31
314.165	113.31
314.394	120.31
314.624	110.31
314.853	112.31
315.083	94.31
315.312	91.31
315.542	91.31
315.771	94.31
316.001	98.31
316.23	86.31
316.46	95.31
316.689	82.31
316.919	106.31
317.148	99.31
317.377	86.31
317.607	95.31
317.836	108.31
318.065	89.31
318.295	95.31
318.524	109.31
318.753	96.31
318.983	109.31
319.212	113.31
319.441	109.31
319.67	115.31
319.9	105.31
320.129	98.31
320.358	98.31
320.587	102.31
320.816	98.31
321.046	103.31
321.275	86.31
321.504	101.31
321.733	108.31
321.962	108.31
322.191	99.31
322.42	116.31
322.649	113.31
322.878	126.31
323.108	127.31
323.337	144.31
323.566	146.31
323.795	188.31
324.024	243.31
324.253	414.31
324.482	952.31
324.71	1851.31
324.939	2492.31
325.168	971.31
325.397	285.31
325.626	164.31
325.855	159.31
326.084	146.31
326.313	135.31
326.542	173.31
326.77	244.31
326.999	454.31
327.228	952.31
327.457	1701.31
327.686	1480.31
327.914	712.31
328.143	947.31
328.372	1335.31
328.6	683.31
328.829	255.31
329.058	212.31
329.287	223.31
329.515	243.31
329.744	413.31
329.972	923.31
330.201	2083.31
330.43	3084.31
330.658	1211.31
330.887	411.31
331.115	233.31
331.344	155.31
331.572	149.31
331.801	143.31
332.03	139.31
332.258	132.31
332.486	120.31
332.715	115.31
332.943	136.31
333.172	148.31
333.4	139.31
333.629	223.31
333.857	358.31
334.085	756.31
334.314	1775.31
334.542	3713.31
334.771	3382.31
334.999	785.31
335.227	270.31
335.455	158.31
335.684	134.31
335.912	128.31
336.14	115.31
336.369	138.31
336.597	126.31
336.825	113.31
337.053	117.31
337.281	94.31
337.51	91.31
337.738	109.31
337.966	107.31
338.194	102.31
338.422	105.31
338.65	93.31
338.878	100.31
339.106	88.31
339.334	94.31
339.562	105.31
339.79	93.31
340.018	100.31
340.246	90.31
340.474	109.31
340.702	112.31
340.93	104.31
341.158	102.31
341.386	110.31
341.614	106.31
341.842	101.31
342.07	100.31
342.298	109.31
342.526	93.31
342.754	92.31
342.981	91.31
343.209	96.31
343.437	94.31
343.665	98.31
343.893	88.31
344.12	101.31
344.348	115.31
344.576	92.31
344.804	113.31
345.031	112.31
345.259	102.31
345.487	92.31
345.714	105.31
345.942	102.31
346.17	95.31
346.397	94.31
346.625	87.31
346.853	104.31
347.08	99.31
347.308	100.31
347.535	103.31
347.763	113.31
347.99	83.31
348.218	111.31
348.445	108.31
348.673	105.31
348.9	84.31
349.128	99.31
349.355	88.31
349.583	106.31
349.81	87.31
350.037	101.31
350.265	95.31
350.492	89.31
350.72	103.31
350.947	105.31
351.174	126.31
351.402	107.31
351.629	106.31
351.856	103.31
352.083	103.31
352.311	110.31
352.538	117.31
352.765	119.31
352.992	137.31
353.22	116.31
353.447	106.31
353.674	108.31
353.901	96.31
354.128	112.31
354.355	80.31
354.583	107.31
354.81	93.31
355.037	98.31
355.264	97.31
355.491	95.31
355.718	97.31
355.945	97.31
356.172	99.31
356.399	100.31
356.626	96.31
356.853	106.31
357.08	85.31
357.307	96.31
357.534	95.31
357.761	111.31
357.988	111.31
358.215	111.31
358.441	103.31
358.668	121.31
358.895	109.31
359.122	97.31
359.349	100.31
359.576	98.31
359.802	98.31
360.029	134.31
360.256	142.31
360.483	117.31
360.709	107.31
360.936	108.31
361.163	92.31
361.39	108.31
361.616	103.31
361.843	87.31
362.07	88.31
362.296	120.31
362.523	91.31
362.749	96.31
362.976	111.31
363.203	92.31
363.429	94.31
363.656	84.31
363.882	88.31
364.109	107.31
364.335	103.31
364.562	98.31
364.788	86.31
365.015	90.31
365.241	111.31
365.468	111.31
365.694	105.31
365.92	105.31
366.147	103.31
366.373	106.31
366.599	100.31
366.826	95.31
367.052	104.31
367.278	99.31
367.505	89.31
367.731	102.31
367.957	94.31
368.184	105.31
368.41	108.31
368.636	120.31
368.862	133.31
369.089	107.31
369.315	83.31
369.541	94.31
369.767	93.31
369.993	101.31
370.219	97.31
370.445	87.31
370.672	90.31
370.898	91.31
371.124	93.31
371.35	94.31
371.576	96.31
371.802	96.31
372.028	88.31
372.254	87.31
372.48	94.31
372.706	83.31
372.932	92.31
373.158	96.31
373.384	84.31
373.61	90.31
373.835	93.31
374.061	96.31
374.287	106.31
374.513	87.31
374.739	92.31
374.965	103.31
375.191	95.31
375.416	101.31
375.642	100.31
375.868	91.31
376.094	95.31
376.319	95.31
376.545	80.31
376.771	103.31
376.997	98.31
377.222	95.31
377.448	112.31
377.674	100.31
377.899	105.31
378.125	100.31
378.35	102.31
378.576	93.31
378.802	103.31
379.027	112.31
379.253	100.31
379.478	89.31
379.704	111.31
379.929	102.31
380.155	111.31
380.38	111.31
380.606	120.31
380.831	117.31
381.057	123.31
381.282	116.31
381.507	127.31
381.733	107.31
381.958	131.31
382.184	130.31
382.409	121.31
382.634	143.31
382.86	127.31
383.085	131.31
383.31	128.31
383.535	123.31
383.761	132.31
383.986	136.31
384.211	135.31
384.436	140.31
384.662	146.31
384.887	159.31
385.112	174.31
385.337	168.31
385.562	167.31
385.787	165.31
386.013	167.31
386.238	189.31
386.463	182.31
386.688	163.31
386.913	180.31
387.138	162.31
387.363	158.31
387.588	131.31
387.813	136.31
388.038	148.31
388.263	191.31
388.488	173.31
388.713	109.31
388.938	93.31
389.163	95.31
389.387	94.31
389.612	97.31
389.837	89.31
390.062	99.31
390.287	99.31
390.512	95.31
390.736	80.31
390.961	87.31
391.186	86.31
391.411	91.31
391.636	91.31
391.86	87.31
392.085	91.31
392.31	79.31
392.534	95.31
392.759	90.31
392.984	91.31
393.208	116.31
393.433	120.31
393.658	99.31
393.882	83.31
394.107	70.31
394.331	86.31
394.556	76.31
394.78	83.31
395.005	83.31
395.229	81.31
395.454	84.31
395.678	88.31
395.903	87.31
396.127	100.31
396.352	87.31
396.576	79.31
396.801	88.31
397.025	119.31
397.249	95.31
397.474	88.31
397.698	99.31
397.922	87.31
398.147	84.31
398.371	83.31
398.595	87.31
398.82	85.31
399.044	83.31
399.268	91.31
399.492	85.31
399.717	88.31
399.941	98.31
400.165	97.31
400.389	92.31
400.613	89.31
400.837	88.31
401.062	85.31
401.286	97.31
401.51	91.31
401.734	101.31
401.958	105.31
402.182	153.31
402.406	195.31
402.63	140.31
402.854	104.31
403.078	104.31
403.302	102.31
403.526	86.31
403.75	95.31
403.974	88.31
404.198	80.31
404.422	94.31
404.645	97.31
404.869	95.31
405.093	118.31
405.317	164.31
405.541	157.31
405.765	123.31
405.988	153.31
406.212	218.31
406.436	307.31
406.66	213.31
406.883	132.31
407.107	102.31
407.331	105.31
407.555	114.31
407.778	99.31
408.002	98.31
408.226	91.31
408.449	85.31
408.673	95.31
408.896	87.31
409.12	100.31
409.344	95.31
409.567	79.31
409.791	108.31
410.014	98.31
410.238	100.31
410.461	100.31
410.685	94.31
410.908	107.31
411.132	109.31
411.355	111.31
411.578	89.31
411.802	88.31
412.025	97.31
412.249	109.31
412.472	134.31
412.695	175.31
412.919	109.31
413.142	116.31
413.365	91.31
413.589	87.31
413.812	102.31
414.035	86.31
414.258	97.31
414.482	105.31
414.705	106.31
414.928	94.31
415.151	101.31
415.374	105.31
415.597	91.31
415.821	103.31
416.044	113.31
416.267	102.31
416.49	95.31
416.713	90.31
416.936	99.31
417.159	98.31
417.382	111.31
417.605	139.31
417.828	147.31
418.051	117.31
418.274	109.31
418.497	90.31
418.72	105.31
418.943	96.31
419.166	94.31
419.389	103.31
419.611	93.31
419.834	108.31
420.057	91.31
420.28	110.31
420.503	107.31
420.726	87.31
420.948	84.31
421.171	119.31
421.394	92.31
421.617	105.31
421.839	89.31
422.062	84.31
422.285	97.31
422.507	102.31
422.73	120.31
422.953	110.31
423.175	85.31
423.398	95.31
423.621	95.31
423.843	87.31
424.066	92.31
424.288	99.31
424.511	89.31
424.733	98.31
424.956	109.31
425.178	99.31
425.401	95.31
425.623	97.31
425.846	89.31
426.068	97.31
426.291	103.31
426.513	91.31
426.735	96.31
426.958	103.31
427.18	127.31
427.402	186.31
427.625	271.31
427.847	262.31
428.069	239.31
428.292	149.31
428.514	98.31
428.736	96.31
428.958	94.31
429.181	97.31
429.403	92.31
429.625	108.31
429.847	96.31
430.069	124.31
430.292	86.31
430.514	69.31
430.736	85.31
430.958	65.31
431.18	82.31
431.402	89.31
431.624	93.31
431.846	85.31
432.068	88.31
432.29	95.31
432.512	91.31
432.734	92.31
432.956	95.31
433.178	99.31
433.4	90.31
433.622	83.31
433.844	108.31
434.066	92.31
434.287	99.31
434.509	78.31
434.731	93.31
434.953	77.31
435.175	101.31
435.397	99.31
435.618	87.31
435.84	99.31
436.062	124.31
436.284	114.31
436.505	89.31
436.727	88.31
436.949	80.31
437.17	95.31
437.392	86.31
437.614	111.31
437.835	125.31
438.057	152.31
438.278	121.31
438.5	110.31
438.721	117.31
438.943	103.31
439.165	95.31
439.386	89.31
439.608	88.31
439.829	104.31
440.05	139.31
440.272	188.31
440.493	111.31
440.715	99.31
440.936	82.31
441.158	94.31
441.379	101.31
441.6	100.31
441.822	99.31
442.043	93.31
442.264	105.31
442.486	121.31
442.707	87.31
442.928	126.31
443.149	179.31
443.371	181.31
443.592	141.31
443.813	124.31
444.034	134.31
444.255	94.31
444.476	81.31
444.698	92.31
444.919	104.31
445.14	131.31
445.361	127.31
445.582	119.31
445.803	172.31
446.024	169.31
446.245	150.31
446.466	119.31
446.687	103.31
446.908	95.31
447.129	100.31
447.35	90.31
447.571	108.31
447.792	102.31
448.013	103.31
448.234	135.31
448.455	111.31
448.675	104.31
448.896	139.31
449.117	102.31
449.338	107.31
449.559	131.31
449.779	142.31
450	112.31
450.221	96.31
450.442	89.31
450.662	110.31
450.883	116.31
451.104	137.31
451.324	104.31
451.545	87.31
451.766	93.31
451.986	96.31
452.207	97.31
452.428	88.31
452.648	112.31
452.869	123.31
453.089	131.31
453.31	124.31
453.53	111.31
453.751	87.31
453.971	117.31
454.192	133.31
454.412	98.31
454.633	85.31
454.853	86.31
455.073	103.31
455.294	85.31
455.514	123.31
455.734	109.31
455.955	85.31
456.175	83.31
456.395	81.31
456.616	88.31
456.836	90.31
457.056	87.31
457.276	98.31
457.497	88.31
457.717	87.31
457.937	96.31
458.157	94.31
458.377	115.31
458.598	128.31
458.818	200.31
459.038	226.31
459.258	136.31
459.478	107.31
459.698	89.31
459.918	92.31
460.138	80.31
460.358	96.31
460.578	96.31
460.798	94.31
461.018	83.31
461.238	87.31
461.458	89.31
461.678	88.31
461.898	91.31
462.118	97.31
462.338	89.31
462.558	98.31
462.777	109.31
462.997	119.31
463.217	152.31
463.437	114.31
463.657	98.31
463.876	81.31
464.096	77.31
464.316	96.31
464.536	99.31
464.755	101.31
464.975	128.31
465.195	255.31
465.414	233.31
465.634	113.31
465.854	87.31
466.073	85.31
466.293	101.31
466.512	103.31
466.732	96.31
466.951	98.31
467.171	110.31
467.391	138.31
467.61	196.31
467.829	375.31
468.049	1331.31
468.268	2061.31
468.488	441.31
468.707	155.31
468.927	109.31
469.146	102.31
469.365	87.31
469.585	95.31
469.804	124.31
470.023	132.31
470.243	103.31
470.462	133.31
470.681	140.31
470.901	117.31
471.12	123.31
471.339	118.31
471.558	163.31
471.777	242.31
471.997	547.31
472.216	2354.31
472.435	5655.31
472.654	1159.31
472.873	250.31
473.092	134.31
473.311	116.31
473.53	102.31
473.749	99.31
473.968	123.31
474.187	129.31
474.406	125.31
474.625	103.31
474.844	100.31
475.063	99.31
475.282	97.31
475.501	112.31
475.72	100.31
475.939	92.31
476.158	99.31
476.377	80.31
476.596	100.31
476.814	93.31
477.033	103.31
477.252	114.31
477.471	109.31
477.69	69.31
477.908	99.31
478.127	92.31
478.346	99.31
478.564	112.31
478.783	119.31
479.002	117.31
479.22	126.31
479.439	142.31
479.658	165.31
479.876	136.31
480.095	146.31
480.313	181.31
480.532	254.31
480.751	463.31
480.969	2010.31
481.188	8922.31
481.406	5067.31
481.624	637.31
481.843	218.31
482.061	161.31
482.28	120.31
482.498	93.31
482.717	101.31
482.935	98.31
483.153	111.31
483.372	87.31
483.59	92.31
483.808	100.31
484.027	101.31
484.245	91.31
484.463	110.31
484.681	100.31
484.9	87.31
485.118	99.31
485.336	108.31
485.554	112.31
485.772	104.31
485.99	104.31
486.209	120.31
486.427	130.31
486.645	119.31
486.863	129.31
487.081	121.31
487.299	95.31
487.517	94.31
487.735	93.31
487.953	108.31
488.171	102.31
488.389	121.31
488.607	109.31
488.825	97.31
489.043	87.31
489.261	89.31
489.479	95.31
489.696	92.31
489.914	87.31
490.132	102.31
490.35	84.31
490.568	95.31
490.786	102.31
491.003	104.31
491.221	102.31
491.439	111.31
491.657	87.31
491.874	98.31
492.092	96.31
492.31	94.31
492.527	116.31
492.745	104.31
492.963	84.31
493.18	97.31
493.398	102.31
493.615	97.31
493.833	92.31
494.05	108.31
494.268	113.31
494.485	87.31
494.703	86.31
494.92	82.31
495.138	92.31
495.355	90.31
495.573	93.31
495.79	96.31
496.008	93.31
496.225	96.31
496.442	95.31
496.66	99.31
496.877	92.31
497.094	101.31
497.312	82.31
497.529	93.31
497.746	102.31
497.963	95.31
498.181	100.31
498.398	105.31
498.615	125.31
498.832	114.31
499.049	98.31
499.267	101.31
499.484	94.31
499.701	102.31
499.918	103.31
500.135	92.31
500.352	103.31
500.569	103.31
500.786	101.31
501.003	104.31
501.22	90.31
501.437	99.31
501.654	97.31
501.871	112.31
502.088	95.31
502.305	96.31
502.522	79.31
502.739	87.31
502.956	102.31
503.172	95.31
503.389	110.31
503.606	136.31
503.823	98.31
504.04	100.31
504.256	96.31
504.473	100.31
504.69	86.31
504.907	98.31
505.123	71.31
505.34	98.31
505.557	95.31
505.773	92.31
505.99	97.31
506.207	99.31
506.423	87.31
506.64	90.31
506.856	103.31
507.073	88.31
507.289	91.31
507.506	107.31
507.722	130.31
507.939	139.31
508.155	87.31
508.372	96.31
508.588	97.31
508.805	111.31
509.021	97.31
509.238	102.31
509.454	103.31
509.67	120.31
509.887	104.31
510.103	146.31
510.319	253.31
510.536	971.31
510.752	3627.31
510.968	935.31
511.184	188.31
511.401	136.31
