Data from Circ_1988_H10_HRD10591_00100.txt Node
Date: Wed Jan 03 12:05:54 EST 2024
User: Yrep
Spectrometer: HR+D1059
Trigger mode: 1
Integration Time (sec): 1.000000E-1
Scans to average: 1
Electric dark correction enabled: true
Nonlinearity correction enabled: false
Boxcar width: 0
XAxis mode: Wavelengths
Number of Pixels in Spectrum: 2048
>>>>>Begin Spectral Data<<<<<
223.165	-24.56
223.4	-24.56
223.635	-24.56
223.869	-9.56
224.104	-14.56
224.338	-15.56
224.573	-15.56
224.808	-10.56
225.042	0.44
225.277	-11.56
225.511	-6.56
225.746	-0.56
225.98	1.44
226.215	1.44
226.449	17.44
226.683	12.44
226.918	32.44
227.152	43.44
227.387	22.44
227.621	41.44
227.856	59.44
228.09	40.44
228.324	62.44
228.559	45.44
228.793	53.44
229.027	69.44
229.262	52.44
229.496	78.44
229.73	78.44
229.964	92.44
230.199	60.44
230.433	81.44
230.667	75.44
230.901	73.44
231.136	70.44
231.37	76.44
231.604	80.44
231.838	83.44
232.072	85.44
232.306	71.44
232.541	79.44
232.775	66.44
233.009	89.44
233.243	79.44
233.477	74.44
233.711	83.44
233.945	80.44
234.179	66.44
234.413	69.44
234.647	92.44
234.881	73.44
235.115	71.44
235.349	92.44
235.583	77.44
235.817	93.44
236.051	81.44
236.285	77.44
236.519	69.44
236.753	82.44
236.987	73.44
237.221	85.44
237.455	89.44
237.689	81.44
237.922	83.44
238.156	60.44
238.39	86.44
238.624	82.44
238.858	78.44
239.091	85.44
239.325	90.44
239.559	96.44
239.793	86.44
240.027	85.44
240.26	87.44
240.494	79.44
240.728	72.44
240.961	84.44
241.195	86.44
241.429	86.44
241.662	74.44
241.896	82.44
242.13	76.44
242.363	74.44
242.597	80.44
242.83	69.44
243.064	77.44
243.298	77.44
243.531	80.44
243.765	94.44
243.998	79.44
244.232	90.44
244.465	89.44
244.699	80.44
244.932	81.44
245.166	78.44
245.399	85.44
245.633	89.44
245.866	86.44
246.099	98.44
246.333	77.44
246.566	87.44
246.8	93.44
247.033	79.44
247.266	83.44
247.5	77.44
247.733	72.44
247.966	85.44
248.2	80.44
248.433	76.44
248.666	69.44
248.899	84.44
249.133	89.44
249.366	105.44
249.599	111.44
249.832	97.44
250.066	83.44
250.299	77.44
250.532	98.44
250.765	80.44
250.998	90.44
251.231	86.44
251.465	84.44
251.698	88.44
251.931	104.44
252.164	87.44
252.397	93.44
252.63	89.44
252.863	72.44
253.096	89.44
253.329	82.44
253.562	88.44
253.795	82.44
254.028	78.44
254.261	82.44
254.494	82.44
254.727	97.44
254.96	83.44
255.193	92.44
255.426	89.44
255.659	87.44
255.892	101.44
256.124	100.44
256.357	104.44
256.59	90.44
256.823	81.44
257.056	89.44
257.289	89.44
257.521	85.44
257.754	102.44
257.987	93.44
258.22	81.44
258.452	102.44
258.685	113.44
258.918	81.44
259.151	70.44
259.383	80.44
259.616	97.44
259.849	96.44
260.081	86.44
260.314	81.44
260.547	101.44
260.779	106.44
261.012	129.44
261.244	133.44
261.477	106.44
261.71	95.44
261.942	143.44
262.175	133.44
262.407	96.44
262.64	87.44
262.872	84.44
263.105	87.44
263.337	72.44
263.57	76.44
263.802	69.44
264.035	77.44
264.267	93.44
264.499	93.44
264.732	95.44
264.964	77.44
265.197	79.44
265.429	74.44
265.661	74.44
265.894	82.44
266.126	70.44
266.358	91.44
266.591	87.44
266.823	82.44
267.055	84.44
267.287	90.44
267.52	86.44
267.752	93.44
267.984	96.44
268.216	96.44
268.448	94.44
268.681	90.44
268.913	97.44
269.145	104.44
269.377	95.44
269.609	78.44
269.841	81.44
270.073	74.44
270.306	78.44
270.538	81.44
270.77	88.44
271.002	78.44
271.234	93.44
271.466	95.44
271.698	112.44
271.93	89.44
272.162	96.44
272.394	101.44
272.626	95.44
272.858	95.44
273.09	91.44
273.322	82.44
273.553	85.44
273.785	90.44
274.017	91.44
274.249	82.44
274.481	81.44
274.713	94.44
274.945	105.44
275.176	102.44
275.408	110.44
275.64	159.44
275.872	140.44
276.104	131.44
276.335	117.44
276.567	124.44
276.799	158.44
277.031	227.44
277.262	290.44
277.494	197.44
277.726	112.44
277.957	98.44
278.189	93.44
278.421	94.44
278.652	100.44
278.884	118.44
279.115	86.44
279.347	109.44
279.579	110.44
279.81	170.44
280.042	296.44
280.273	419.44
280.505	248.44
280.736	128.44
280.968	94.44
281.199	92.44
281.431	109.44
281.662	82.44
281.894	93.44
282.125	107.44
282.356	143.44
282.588	165.44
282.819	140.44
283.051	98.44
283.282	95.44
283.513	97.44
283.745	104.44
283.976	93.44
284.207	87.44
284.439	88.44
284.67	97.44
284.901	89.44
285.132	92.44
285.364	82.44
285.595	86.44
285.826	86.44
286.057	92.44
286.288	93.44
286.52	101.44
286.751	95.44
286.982	88.44
287.213	78.44
287.444	92.44
287.675	99.44
287.906	102.44
288.138	101.44
288.369	96.44
288.6	102.44
288.831	92.44
289.062	100.44
289.293	89.44
289.524	89.44
289.755	98.44
289.986	89.44
290.217	102.44
290.448	108.44
290.679	87.44
290.91	83.44
291.141	81.44
291.371	95.44
291.602	86.44
291.833	97.44
292.064	103.44
292.295	78.44
292.526	88.44
292.757	87.44
292.987	83.44
293.218	89.44
293.449	96.44
293.68	92.44
293.91	80.44
294.141	103.44
294.372	97.44
294.603	87.44
294.833	90.44
295.064	94.44
295.295	89.44
295.525	93.44
295.756	97.44
295.987	125.44
296.217	168.44
296.448	145.44
296.679	100.44
296.909	105.44
297.14	89.44
297.37	87.44
297.601	81.44
297.831	88.44
298.062	100.44
298.292	100.44
298.523	94.44
298.753	97.44
298.984	92.44
299.214	92.44
299.445	102.44
299.675	89.44
299.905	97.44
300.136	88.44
300.366	95.44
300.597	89.44
300.827	97.44
301.057	115.44
301.288	115.44
301.518	102.44
301.748	100.44
301.979	125.44
302.209	106.44
302.439	105.44
302.669	99.44
302.9	104.44
303.13	112.44
303.36	114.44
303.59	157.44
303.82	180.44
304.051	110.44
304.281	97.44
304.511	98.44
304.741	102.44
304.971	88.44
305.201	93.44
305.431	98.44
305.661	79.44
305.891	90.44
306.121	116.44
306.352	115.44
306.582	116.44
306.812	121.44
307.042	136.44
307.272	217.44
307.502	264.44
307.731	236.44
307.961	159.44
308.191	105.44
308.421	98.44
308.651	111.44
308.881	103.44
309.111	106.44
309.341	103.44
309.571	96.44
309.8	91.44
310.03	110.44
310.26	99.44
310.49	110.44
310.72	96.44
310.949	118.44
311.179	112.44
311.409	87.44
311.639	98.44
311.868	93.44
312.098	99.44
312.328	100.44
312.557	125.44
312.787	113.44
313.017	112.44
313.246	108.44
313.476	84.44
313.706	108.44
313.935	112.44
314.165	104.44
314.394	96.44
314.624	98.44
314.853	105.44
315.083	99.44
315.312	104.44
315.542	90.44
315.771	93.44
316.001	95.44
316.23	91.44
316.46	100.44
316.689	101.44
316.919	104.44
317.148	96.44
317.377	113.44
317.607	100.44
317.836	109.44
318.065	92.44
318.295	92.44
318.524	91.44
318.753	88.44
318.983	88.44
319.212	107.44
319.441	126.44
319.67	118.44
319.9	101.44
320.129	89.44
320.358	100.44
320.587	97.44
320.816	112.44
321.046	84.44
321.275	98.44
321.504	101.44
321.733	87.44
321.962	97.44
322.191	100.44
322.42	110.44
322.649	112.44
322.878	118.44
323.108	120.44
323.337	132.44
323.566	140.44
323.795	163.44
324.024	197.44
324.253	358.44
324.482	706.44
324.71	1434.44
324.939	1862.44
325.168	735.44
325.397	238.44
325.626	154.44
325.855	126.44
326.084	142.44
326.313	136.44
326.542	165.44
326.77	214.44
326.999	380.44
327.228	716.44
327.457	1300.44
327.686	1130.44
327.914	548.44
328.143	734.44
328.372	1037.44
328.6	533.44
328.829	218.44
329.058	190.44
329.287	197.44
329.515	194.44
329.744	349.44
329.972	709.44
330.201	1534.44
330.43	2371.44
330.658	961.44
330.887	327.44
331.115	191.44
331.344	135.44
331.572	129.44
331.801	134.44
332.03	139.44
332.258	124.44
332.486	104.44
332.715	118.44
332.943	125.44
333.172	141.44
333.4	147.44
333.629	185.44
333.857	272.44
334.085	571.44
334.314	1301.44
334.542	2728.44
334.771	2623.44
334.999	612.44
335.227	204.44
335.455	134.44
335.684	127.44
335.912	117.44
336.14	129.44
336.369	119.44
336.597	102.44
336.825	118.44
337.053	100.44
337.281	107.44
337.51	99.44
337.738	103.44
337.966	99.44
338.194	102.44
338.422	96.44
338.65	116.44
338.878	91.44
339.106	89.44
339.334	109.44
339.562	100.44
339.79	105.44
340.018	102.44
340.246	98.44
340.474	94.44
340.702	95.44
340.93	86.44
341.158	89.44
341.386	87.44
341.614	99.44
341.842	100.44
342.07	92.44
342.298	96.44
342.526	97.44
342.754	97.44
342.981	75.44
343.209	82.44
343.437	78.44
343.665	86.44
343.893	89.44
344.12	89.44
344.348	95.44
344.576	88.44
344.804	93.44
345.031	112.44
345.259	102.44
345.487	96.44
345.714	103.44
345.942	111.44
346.17	86.44
346.397	104.44
346.625	94.44
346.853	93.44
347.08	97.44
347.308	89.44
347.535	101.44
347.763	94.44
347.99	100.44
348.218	111.44
348.445	106.44
348.673	104.44
348.9	109.44
349.128	94.44
349.355	84.44
349.583	90.44
349.81	91.44
350.037	93.44
350.265	95.44
350.492	83.44
350.72	91.44
350.947	95.44
351.174	106.44
351.402	97.44
351.629	105.44
351.856	97.44
352.083	109.44
352.311	124.44
352.538	119.44
352.765	116.44
352.992	106.44
353.22	130.44
353.447	94.44
353.674	89.44
353.901	94.44
354.128	81.44
354.355	84.44
354.583	80.44
354.81	92.44
355.037	95.44
355.264	90.44
355.491	100.44
355.718	85.44
355.945	84.44
356.172	93.44
356.399	95.44
356.626	87.44
356.853	94.44
357.08	88.44
357.307	92.44
357.534	86.44
357.761	91.44
357.988	89.44
358.215	88.44
358.441	81.44
358.668	100.44
358.895	91.44
359.122	101.44
359.349	78.44
359.576	88.44
359.802	102.44
360.029	141.44
360.256	127.44
360.483	109.44
360.709	90.44
360.936	87.44
361.163	95.44
361.39	96.44
361.616	92.44
361.843	104.44
362.07	98.44
362.296	97.44
362.523	98.44
362.749	95.44
362.976	89.44
363.203	85.44
363.429	103.44
363.656	89.44
363.882	91.44
364.109	88.44
364.335	87.44
364.562	85.44
364.788	93.44
365.015	93.44
365.241	116.44
365.468	129.44
365.694	113.44
365.92	101.44
366.147	94.44
366.373	95.44
366.599	96.44
366.826	96.44
367.052	74.44
367.278	76.44
367.505	104.44
367.731	93.44
367.957	102.44
368.184	84.44
368.41	100.44
368.636	126.44
368.862	125.44
369.089	139.44
369.315	90.44
369.541	91.44
369.767	89.44
369.993	83.44
370.219	69.44
370.445	98.44
370.672	78.44
370.898	89.44
371.124	95.44
371.35	93.44
371.576	85.44
371.802	90.44
372.028	90.44
372.254	89.44
372.48	99.44
372.706	89.44
372.932	87.44
373.158	82.44
373.384	85.44
373.61	77.44
373.835	95.44
374.061	103.44
374.287	85.44
374.513	68.44
374.739	92.44
374.965	94.44
375.191	87.44
375.416	81.44
375.642	90.44
375.868	86.44
376.094	87.44
376.319	91.44
376.545	85.44
376.771	84.44
376.997	79.44
377.222	85.44
377.448	77.44
377.674	81.44
377.899	90.44
378.125	92.44
378.35	90.44
378.576	104.44
378.802	92.44
379.027	94.44
379.253	99.44
379.478	95.44
379.704	92.44
379.929	81.44
380.155	97.44
380.38	87.44
380.606	86.44
380.831	86.44
381.057	98.44
381.282	103.44
381.507	95.44
381.733	89.44
381.958	91.44
382.184	89.44
382.409	82.44
382.634	102.44
382.86	102.44
383.085	88.44
383.31	97.44
383.535	101.44
383.761	89.44
383.986	91.44
384.211	94.44
384.436	99.44
384.662	105.44
384.887	115.44
385.112	87.44
385.337	104.44
385.562	110.44
385.787	104.44
386.013	112.44
386.238	111.44
386.463	110.44
386.688	108.44
386.913	110.44
387.138	136.44
387.363	109.44
387.588	86.44
387.813	79.44
388.038	111.44
388.263	97.44
388.488	133.44
388.713	85.44
388.938	96.44
389.163	81.44
389.387	88.44
389.612	106.44
389.837	94.44
390.062	94.44
390.287	106.44
390.512	94.44
390.736	91.44
390.961	97.44
391.186	86.44
391.411	94.44
391.636	85.44
391.86	80.44
392.085	81.44
392.31	86.44
392.534	78.44
392.759	92.44
392.984	99.44
393.208	78.44
393.433	95.44
393.658	91.44
393.882	80.44
394.107	86.44
394.331	92.44
394.556	90.44
394.78	94.44
395.005	86.44
395.229	84.44
395.454	93.44
395.678	99.44
395.903	100.44
396.127	90.44
396.352	93.44
396.576	86.44
396.801	81.44
397.025	89.44
397.249	94.44
397.474	97.44
397.698	89.44
397.922	78.44
398.147	81.44
398.371	84.44
398.595	82.44
398.82	83.44
399.044	78.44
399.268	82.44
399.492	96.44
399.717	91.44
399.941	100.44
400.165	93.44
400.389	104.44
400.613	78.44
400.837	92.44
401.062	85.44
401.286	94.44
401.51	100.44
401.734	94.44
401.958	98.44
402.182	133.44
402.406	178.44
402.63	134.44
402.854	102.44
403.078	94.44
403.302	78.44
403.526	72.44
403.75	92.44
403.974	84.44
404.198	82.44
404.422	89.44
404.645	87.44
404.869	110.44
405.093	110.44
405.317	151.44
405.541	123.44
405.765	114.44
405.988	143.44
406.212	196.44
406.436	276.44
406.66	197.44
406.883	117.44
407.107	89.44
407.331	102.44
407.555	97.44
407.778	99.44
408.002	90.44
408.226	84.44
408.449	87.44
408.673	82.44
408.896	90.44
409.12	84.44
409.344	100.44
409.567	90.44
409.791	88.44
410.014	73.44
410.238	92.44
410.461	87.44
410.685	106.44
410.908	104.44
411.132	105.44
411.355	106.44
411.578	93.44
411.802	80.44
412.025	81.44
412.249	118.44
412.472	112.44
412.695	153.44
412.919	120.44
413.142	102.44
413.365	95.44
413.589	91.44
413.812	96.44
414.035	88.44
414.258	95.44
414.482	99.44
414.705	87.44
414.928	81.44
415.151	85.44
415.374	89.44
415.597	98.44
415.821	86.44
416.044	97.44
416.267	101.44
416.49	89.44
416.713	89.44
416.936	78.44
417.159	101.44
417.382	97.44
417.605	113.44
417.828	122.44
418.051	100.44
418.274	100.44
418.497	79.44
418.72	93.44
418.943	89.44
419.166	87.44
419.389	102.44
419.611	88.44
419.834	92.44
420.057	86.44
420.28	97.44
420.503	101.44
420.726	98.44
420.948	105.44
421.171	100.44
421.394	106.44
421.617	88.44
421.839	82.44
422.062	91.44
422.285	104.44
422.507	97.44
422.73	102.44
422.953	88.44
423.175	79.44
423.398	80.44
423.621	85.44
423.843	93.44
424.066	83.44
424.288	70.44
424.511	93.44
424.733	89.44
424.956	119.44
425.178	109.44
425.401	110.44
425.623	112.44
425.846	92.44
426.068	94.44
426.291	99.44
426.513	93.44
426.735	78.44
426.958	98.44
427.18	110.44
427.402	157.44
427.625	230.44
427.847	211.44
428.069	193.44
428.292	128.44
428.514	103.44
428.736	99.44
428.958	83.44
429.181	90.44
429.403	89.44
429.625	98.44
429.847	91.44
430.069	100.44
430.292	90.44
430.514	90.44
430.736	85.44
430.958	82.44
431.18	84.44
431.402	69.44
431.624	94.44
431.846	70.44
432.068	95.44
432.29	88.44
432.512	88.44
432.734	92.44
432.956	89.44
433.178	89.44
433.4	101.44
433.622	94.44
433.844	89.44
434.066	92.44
434.287	90.44
434.509	107.44
434.731	93.44
434.953	86.44
435.175	110.44
435.397	105.44
435.618	112.44
435.84	101.44
436.062	123.44
436.284	108.44
436.505	80.44
436.727	91.44
436.949	91.44
437.17	94.44
437.392	87.44
437.614	102.44
437.835	102.44
438.057	133.44
438.278	127.44
438.5	99.44
438.721	131.44
438.943	111.44
439.165	94.44
439.386	84.44
439.608	102.44
439.829	114.44
440.05	146.44
440.272	154.44
440.493	119.44
440.715	93.44
440.936	103.44
441.158	100.44
441.379	91.44
441.6	96.44
441.822	101.44
442.043	98.44
442.264	119.44
442.486	107.44
442.707	97.44
442.928	115.44
443.149	175.44
443.371	142.44
443.592	129.44
443.813	119.44
444.034	126.44
444.255	109.44
444.476	99.44
444.698	105.44
444.919	86.44
445.14	115.44
445.361	125.44
445.582	121.44
445.803	154.44
446.024	160.44
446.245	145.44
446.466	130.44
446.687	102.44
446.908	102.44
447.129	103.44
447.35	99.44
447.571	87.44
447.792	89.44
448.013	99.44
448.234	132.44
448.455	93.44
448.675	119.44
448.896	117.44
449.117	95.44
449.338	119.44
449.559	152.44
449.779	133.44
450	94.44
450.221	98.44
450.442	80.44
450.662	98.44
450.883	120.44
451.104	125.44
451.324	109.44
451.545	88.44
451.766	92.44
451.986	80.44
452.207	98.44
452.428	88.44
452.648	92.44
452.869	122.44
453.089	127.44
453.31	142.44
453.53	100.44
453.751	102.44
453.971	101.44
454.192	122.44
454.412	106.44
454.633	81.44
454.853	89.44
455.073	90.44
455.294	95.44
455.514	100.44
455.734	87.44
455.955	87.44
456.175	79.44
456.395	87.44
456.616	92.44
456.836	79.44
457.056	96.44
457.276	96.44
457.497	69.44
457.717	89.44
457.937	96.44
458.157	82.44
458.377	112.44
458.598	130.44
458.818	191.44
459.038	208.44
459.258	146.44
459.478	93.44
459.698	92.44
459.918	72.44
460.138	101.44
460.358	85.44
460.578	99.44
460.798	106.44
461.018	84.44
461.238	89.44
461.458	72.44
461.678	84.44
461.898	96.44
462.118	71.44
462.338	95.44
462.558	104.44
462.777	91.44
462.997	113.44
463.217	143.44
463.437	92.44
463.657	86.44
463.876	95.44
464.096	93.44
464.316	110.44
464.536	108.44
464.755	94.44
464.975	123.44
465.195	215.44
465.414	213.44
465.634	113.44
465.854	104.44
466.073	97.44
466.293	98.44
466.512	89.44
466.732	94.44
466.951	94.44
467.171	112.44
467.391	112.44
467.61	169.44
467.829	297.44
468.049	1051.44
468.268	1591.44
468.488	355.44
468.707	130.44
468.927	101.44
469.146	93.44
469.365	90.44
469.585	98.44
469.804	99.44
470.023	109.44
470.243	107.44
470.462	116.44
470.681	124.44
470.901	116.44
471.12	106.44
471.339	118.44
471.558	148.44
471.777	203.44
471.997	470.44
472.216	1878.44
472.435	4580.44
472.654	950.44
472.873	225.44
473.092	125.44
473.311	105.44
473.53	88.44
473.749	96.44
473.968	112.44
474.187	126.44
474.406	112.44
474.625	94.44
474.844	90.44
475.063	89.44
475.282	95.44
475.501	98.44
475.72	99.44
475.939	77.44
476.158	94.44
476.377	102.44
476.596	104.44
476.814	100.44
477.033	100.44
477.252	93.44
477.471	90.44
477.69	88.44
477.908	102.44
478.127	93.44
478.346	94.44
478.564	111.44
478.783	114.44
479.002	93.44
479.22	102.44
479.439	117.44
479.658	139.44
479.876	145.44
480.095	143.44
480.313	157.44
480.532	222.44
480.751	410.44
480.969	1596.44
481.188	7266.44
481.406	4099.44
481.624	526.44
481.843	182.44
482.061	127.44
482.28	103.44
482.498	120.44
482.717	100.44
482.935	97.44
483.153	97.44
483.372	93.44
483.59	94.44
483.808	101.44
484.027	100.44
484.245	116.44
484.463	97.44
484.681	103.44
484.9	92.44
485.118	110.44
485.336	96.44
485.554	113.44
485.772	114.44
485.99	106.44
486.209	114.44
486.427	137.44
486.645	117.44
486.863	122.44
487.081	118.44
487.299	104.44
487.517	104.44
487.735	102.44
487.953	111.44
488.171	98.44
488.389	113.44
488.607	106.44
488.825	94.44
489.043	100.44
489.261	70.44
489.479	90.44
489.696	102.44
489.914	88.44
490.132	90.44
490.35	79.44
490.568	89.44
490.786	90.44
491.003	86.44
491.221	96.44
491.439	102.44
491.657	106.44
491.874	102.44
492.092	83.44
492.31	103.44
492.527	93.44
492.745	101.44
492.963	97.44
493.18	86.44
493.398	89.44
493.615	94.44
493.833	113.44
494.05	99.44
494.268	85.44
494.485	101.44
494.703	94.44
494.92	87.44
495.138	92.44
495.355	87.44
495.573	90.44
495.79	93.44
496.008	93.44
496.225	101.44
496.442	92.44
496.66	93.44
496.877	103.44
497.094	95.44
497.312	89.44
497.529	100.44
497.746	83.44
497.963	88.44
498.181	102.44
498.398	108.44
498.615	115.44
498.832	118.44
499.049	96.44
499.267	89.44
499.484	94.44
499.701	96.44
499.918	86.44
500.135	92.44
500.352	104.44
500.569	92.44
500.786	94.44
501.003	95.44
501.22	91.44
501.437	82.44
501.654	105.44
501.871	101.44
502.088	101.44
502.305	84.44
502.522	88.44
502.739	92.44
502.956	92.44
503.172	102.44
503.389	103.44
503.606	125.44
503.823	93.44
504.04	84.44
504.256	87.44
504.473	90.44
504.69	95.44
504.907	100.44
505.123	99.44
505.34	105.44
505.557	95.44
505.773	103.44
505.99	93.44
506.207	97.44
506.423	80.44
506.64	102.44
506.856	89.44
507.073	104.44
507.289	105.44
507.506	90.44
507.722	129.44
507.939	129.44
508.155	91.44
508.372	95.44
508.588	109.44
508.805	95.44
509.021	104.44
509.238	116.44
509.454	96.44
509.67	112.44
509.887	121.44
510.103	136.44
510.319	241.44
510.536	918.44
510.752	3222.44
510.968	819.44
511.184	176.44
511.401	133.44
511.617	92.44
511.833	126.44
512.049	105.44
512.265	105.44
512.481	98.44
512.698	106.44
