Data from Circ_1988_H10_HRD10591_00063.txt Node
Date: Wed Jan 03 12:05:47 EST 2024
User: Yrep
Spectrometer: HR+D1059
Trigger mode: 1
Integration Time (sec): 1.000000E-1
Scans to average: 1
Electric dark correction enabled: true
Nonlinearity correction enabled: false
Boxcar width: 0
XAxis mode: Wavelengths
Number of Pixels in Spectrum: 2048
>>>>>Begin Spectral Data<<<<<
223.165	-26.62
223.4	-26.62
223.635	-26.62
223.869	-27.62
224.104	-19.62
224.338	-3.62
224.573	-20.62
224.808	-2.62
225.042	-19.62
225.277	-8.62
225.511	9.38
225.746	-1.62
225.98	9.38
226.215	20.38
226.449	14.38
226.683	29.38
226.918	23.38
227.152	24.38
227.387	37.38
227.621	32.38
227.856	44.38
228.09	40.38
228.324	54.38
228.559	66.38
228.793	54.38
229.027	58.38
229.262	63.38
229.496	84.38
229.73	103.38
229.964	102.38
230.199	70.38
230.433	81.38
230.667	89.38
230.901	84.38
231.136	80.38
231.37	71.38
231.604	86.38
231.838	86.38
232.072	83.38
232.306	80.38
232.541	87.38
232.775	78.38
233.009	75.38
233.243	81.38
233.477	84.38
233.711	70.38
233.945	77.38
234.179	80.38
234.413	82.38
234.647	78.38
234.881	85.38
235.115	85.38
235.349	89.38
235.583	96.38
235.817	80.38
236.051	86.38
236.285	98.38
236.519	91.38
236.753	92.38
236.987	83.38
237.221	108.38
237.455	100.38
237.689	81.38
237.922	79.38
238.156	83.38
238.39	76.38
238.624	88.38
238.858	88.38
239.091	85.38
239.325	90.38
239.559	93.38
239.793	87.38
240.027	75.38
240.26	76.38
240.494	85.38
240.728	92.38
240.961	78.38
241.195	80.38
241.429	73.38
241.662	80.38
241.896	86.38
242.13	89.38
242.363	68.38
242.597	82.38
242.83	92.38
243.064	99.38
243.298	87.38
243.531	86.38
243.765	88.38
243.998	84.38
244.232	70.38
244.465	97.38
244.699	92.38
244.932	88.38
245.166	85.38
245.399	76.38
245.633	75.38
245.866	85.38
246.099	85.38
246.333	99.38
246.566	78.38
246.8	95.38
247.033	99.38
247.266	78.38
247.5	80.38
247.733	77.38
247.966	84.38
248.2	77.38
248.433	106.38
248.666	90.38
248.899	79.38
249.133	93.38
249.366	104.38
249.599	114.38
249.832	96.38
250.066	84.38
250.299	94.38
250.532	101.38
250.765	77.38
250.998	73.38
251.231	100.38
251.465	81.38
251.698	112.38
251.931	98.38
252.164	90.38
252.397	88.38
252.63	95.38
252.863	89.38
253.096	107.38
253.329	97.38
253.562	98.38
253.795	89.38
254.028	92.38
254.261	78.38
254.494	88.38
254.727	93.38
254.96	88.38
255.193	89.38
255.426	77.38
255.659	107.38
255.892	131.38
256.124	122.38
256.357	96.38
256.59	87.38
256.823	100.38
257.056	102.38
257.289	111.38
257.521	102.38
257.754	96.38
257.987	111.38
258.22	108.38
258.452	138.38
258.685	133.38
258.918	87.38
259.151	90.38
259.383	93.38
259.616	91.38
259.849	93.38
260.081	97.38
260.314	103.38
260.547	108.38
260.779	120.38
261.012	143.38
261.244	183.38
261.477	120.38
261.71	130.38
261.942	158.38
262.175	152.38
262.407	108.38
262.64	94.38
262.872	65.38
263.105	98.38
263.337	104.38
263.57	89.38
263.802	90.38
264.035	80.38
264.267	79.38
264.499	85.38
264.732	76.38
264.964	92.38
265.197	93.38
265.429	87.38
265.661	91.38
265.894	86.38
266.126	89.38
266.358	88.38
266.591	86.38
266.823	91.38
267.055	82.38
267.287	86.38
267.52	93.38
267.752	86.38
267.984	82.38
268.216	92.38
268.448	88.38
268.681	96.38
268.913	97.38
269.145	90.38
269.377	88.38
269.609	96.38
269.841	93.38
270.073	86.38
270.306	89.38
270.538	89.38
270.77	85.38
271.002	86.38
271.234	113.38
271.466	109.38
271.698	94.38
271.93	82.38
272.162	101.38
272.394	81.38
272.626	86.38
272.858	102.38
273.09	93.38
273.322	80.38
273.553	95.38
273.785	100.38
274.017	100.38
274.249	95.38
274.481	108.38
274.713	91.38
274.945	93.38
275.176	110.38
275.408	121.38
275.64	166.38
275.872	206.38
276.104	169.38
276.335	127.38
276.567	147.38
276.799	198.38
277.031	316.38
277.262	412.38
277.494	287.38
277.726	143.38
277.957	109.38
278.189	106.38
278.421	104.38
278.652	97.38
278.884	93.38
279.115	100.38
279.347	120.38
279.579	152.38
279.81	237.38
280.042	419.38
280.273	623.38
280.505	384.38
280.736	161.38
280.968	125.38
281.199	89.38
281.431	90.38
281.662	87.38
281.894	103.38
282.125	116.38
282.356	133.38
282.588	182.38
282.819	133.38
283.051	116.38
283.282	80.38
283.513	95.38
283.745	95.38
283.976	88.38
284.207	88.38
284.439	101.38
284.67	103.38
284.901	83.38
285.132	86.38
285.364	86.38
285.595	98.38
285.826	95.38
286.057	92.38
286.288	91.38
286.52	81.38
286.751	94.38
286.982	88.38
287.213	80.38
287.444	89.38
287.675	105.38
287.906	92.38
288.138	90.38
288.369	100.38
288.6	94.38
288.831	97.38
289.062	90.38
289.293	91.38
289.524	92.38
289.755	95.38
289.986	96.38
290.217	83.38
290.448	81.38
290.679	79.38
290.91	90.38
291.141	81.38
291.371	94.38
291.602	89.38
291.833	92.38
292.064	106.38
292.295	90.38
292.526	75.38
292.757	97.38
292.987	97.38
293.218	77.38
293.449	78.38
293.68	89.38
293.91	96.38
294.141	107.38
294.372	87.38
294.603	91.38
294.833	96.38
295.064	97.38
295.295	99.38
295.525	104.38
295.756	120.38
295.987	117.38
296.217	187.38
296.448	140.38
296.679	103.38
296.909	82.38
297.14	94.38
297.37	88.38
297.601	101.38
297.831	101.38
298.062	91.38
298.292	85.38
298.523	75.38
298.753	83.38
298.984	104.38
299.214	83.38
299.445	86.38
299.675	102.38
299.905	113.38
300.136	92.38
300.366	99.38
300.597	93.38
300.827	100.38
301.057	124.38
301.288	124.38
301.518	100.38
301.748	113.38
301.979	158.38
302.209	125.38
302.439	118.38
302.669	98.38
302.9	111.38
303.13	103.38
303.36	139.38
303.59	193.38
303.82	236.38
304.051	118.38
304.281	109.38
304.511	86.38
304.741	112.38
304.971	100.38
305.201	95.38
305.431	102.38
305.661	112.38
305.891	88.38
306.121	97.38
306.352	117.38
306.582	136.38
306.812	134.38
307.042	200.38
307.272	282.38
307.502	336.38
307.731	265.38
307.961	180.38
308.191	117.38
308.421	99.38
308.651	104.38
308.881	97.38
309.111	100.38
309.341	108.38
309.571	117.38
309.8	118.38
310.03	102.38
310.26	125.38
310.49	104.38
310.72	117.38
310.949	124.38
311.179	132.38
311.409	103.38
311.639	110.38
311.868	103.38
312.098	97.38
312.328	109.38
312.557	110.38
312.787	124.38
313.017	122.38
313.246	102.38
313.476	106.38
313.706	98.38
313.935	102.38
314.165	132.38
314.394	128.38
314.624	107.38
314.853	94.38
315.083	84.38
315.312	100.38
315.542	94.38
315.771	98.38
316.001	89.38
316.23	82.38
316.46	103.38
316.689	104.38
316.919	105.38
317.148	105.38
317.377	116.38
317.607	112.38
317.836	103.38
318.065	102.38
318.295	105.38
318.524	95.38
318.753	77.38
318.983	95.38
319.212	119.38
319.441	129.38
319.67	122.38
319.9	98.38
320.129	114.38
320.358	100.38
320.587	92.38
320.816	107.38
321.046	109.38
321.275	92.38
321.504	108.38
321.733	105.38
321.962	110.38
322.191	127.38
322.42	116.38
322.649	111.38
322.878	119.38
323.108	150.38
323.337	160.38
323.566	180.38
323.795	189.38
324.024	247.38
324.253	476.38
324.482	1024.38
324.71	2066.38
324.939	2718.38
325.168	988.38
325.397	304.38
325.626	172.38
325.855	166.38
326.084	152.38
326.313	167.38
326.542	189.38
326.77	260.38
326.999	495.38
327.228	1029.38
327.457	1906.38
327.686	1607.38
327.914	789.38
328.143	1120.38
328.372	1618.38
328.6	770.38
328.829	313.38
329.058	270.38
329.287	281.38
329.515	289.38
329.744	497.38
329.972	1117.38
330.201	2536.38
330.43	3695.38
330.658	1417.38
330.887	482.38
331.115	266.38
331.344	166.38
331.572	154.38
331.801	144.38
332.03	146.38
332.258	138.38
332.486	130.38
332.715	121.38
332.943	142.38
333.172	169.38
333.4	182.38
333.629	233.38
333.857	386.38
334.085	932.38
334.314	2218.38
334.542	4526.38
334.771	4150.38
334.999	938.38
335.227	308.38
335.455	180.38
335.684	154.38
335.912	150.38
336.14	141.38
336.369	125.38
336.597	126.38
336.825	130.38
337.053	100.38
337.281	84.38
337.51	108.38
337.738	101.38
337.966	107.38
338.194	127.38
338.422	118.38
338.65	103.38
338.878	121.38
339.106	112.38
339.334	101.38
339.562	101.38
339.79	97.38
340.018	87.38
340.246	105.38
340.474	102.38
340.702	92.38
340.93	102.38
341.158	89.38
341.386	114.38
341.614	107.38
341.842	111.38
342.07	97.38
342.298	97.38
342.526	99.38
342.754	82.38
342.981	90.38
343.209	94.38
343.437	100.38
343.665	89.38
343.893	100.38
344.12	106.38
344.348	90.38
344.576	83.38
344.804	105.38
345.031	107.38
345.259	104.38
345.487	113.38
345.714	100.38
345.942	84.38
346.17	106.38
346.397	94.38
346.625	113.38
346.853	109.38
347.08	89.38
347.308	99.38
347.535	99.38
347.763	106.38
347.99	112.38
348.218	127.38
348.445	136.38
348.673	116.38
348.9	99.38
349.128	100.38
349.355	85.38
349.583	92.38
349.81	90.38
350.037	122.38
350.265	103.38
350.492	94.38
350.72	95.38
350.947	104.38
351.174	113.38
351.402	126.38
351.629	107.38
351.856	106.38
352.083	128.38
352.311	116.38
352.538	120.38
352.765	127.38
352.992	116.38
353.22	132.38
353.447	114.38
353.674	102.38
353.901	81.38
354.128	88.38
354.355	85.38
354.583	97.38
354.81	87.38
355.037	92.38
355.264	90.38
355.491	94.38
355.718	95.38
355.945	95.38
356.172	93.38
356.399	113.38
356.626	95.38
356.853	111.38
357.08	93.38
357.307	90.38
357.534	111.38
357.761	95.38
357.988	100.38
358.215	84.38
358.441	92.38
358.668	92.38
358.895	103.38
359.122	85.38
359.349	81.38
359.576	94.38
359.802	128.38
360.029	154.38
360.256	142.38
360.483	117.38
360.709	96.38
360.936	107.38
361.163	103.38
361.39	88.38
361.616	102.38
361.843	92.38
362.07	101.38
362.296	114.38
362.523	105.38
362.749	110.38
362.976	92.38
363.203	101.38
363.429	84.38
363.656	110.38
363.882	106.38
364.109	97.38
364.335	104.38
364.562	93.38
364.788	116.38
365.015	100.38
365.241	119.38
365.468	119.38
365.694	113.38
365.92	91.38
366.147	96.38
366.373	96.38
366.599	100.38
366.826	87.38
367.052	85.38
367.278	100.38
367.505	98.38
367.731	109.38
367.957	108.38
368.184	107.38
368.41	108.38
368.636	126.38
368.862	131.38
369.089	129.38
369.315	108.38
369.541	101.38
369.767	99.38
369.993	84.38
370.219	106.38
370.445	87.38
370.672	95.38
370.898	93.38
371.124	82.38
371.35	95.38
371.576	101.38
371.802	85.38
372.028	78.38
372.254	92.38
372.48	90.38
372.706	94.38
372.932	96.38
373.158	86.38
373.384	95.38
373.61	102.38
373.835	94.38
374.061	86.38
374.287	102.38
374.513	100.38
374.739	106.38
374.965	109.38
375.191	96.38
375.416	76.38
375.642	84.38
375.868	110.38
376.094	98.38
376.319	96.38
376.545	92.38
376.771	101.38
376.997	97.38
377.222	93.38
377.448	97.38
377.674	92.38
377.899	94.38
378.125	94.38
378.35	102.38
378.576	112.38
378.802	94.38
379.027	97.38
379.253	89.38
379.478	96.38
379.704	86.38
379.929	100.38
380.155	103.38
380.38	101.38
380.606	86.38
380.831	98.38
381.057	99.38
381.282	106.38
381.507	90.38
381.733	104.38
381.958	111.38
382.184	99.38
382.409	113.38
382.634	112.38
382.86	95.38
383.085	110.38
383.31	111.38
383.535	115.38
383.761	104.38
383.986	116.38
384.211	104.38
384.436	113.38
384.662	99.38
384.887	100.38
385.112	113.38
385.337	108.38
385.562	121.38
385.787	110.38
386.013	120.38
386.238	130.38
386.463	116.38
386.688	109.38
386.913	116.38
387.138	115.38
387.363	103.38
387.588	106.38
387.813	111.38
388.038	116.38
388.263	115.38
388.488	117.38
388.713	83.38
388.938	84.38
389.163	89.38
389.387	94.38
389.612	95.38
389.837	105.38
390.062	98.38
390.287	98.38
390.512	91.38
390.736	83.38
390.961	82.38
391.186	87.38
391.411	92.38
391.636	88.38
391.86	90.38
392.085	100.38
392.31	89.38
392.534	84.38
392.759	77.38
392.984	100.38
393.208	104.38
393.433	130.38
393.658	121.38
393.882	90.38
394.107	92.38
394.331	90.38
394.556	92.38
394.78	80.38
395.005	91.38
395.229	91.38
395.454	87.38
395.678	83.38
395.903	103.38
396.127	105.38
396.352	101.38
396.576	103.38
396.801	98.38
397.025	97.38
397.249	97.38
397.474	87.38
397.698	97.38
397.922	83.38
398.147	102.38
398.371	100.38
398.595	99.38
398.82	101.38
399.044	94.38
399.268	96.38
399.492	90.38
399.717	91.38
399.941	86.38
400.165	89.38
400.389	112.38
400.613	101.38
400.837	92.38
401.062	82.38
401.286	103.38
401.51	95.38
401.734	92.38
401.958	103.38
402.182	134.38
402.406	210.38
402.63	162.38
402.854	105.38
403.078	105.38
403.302	95.38
403.526	95.38
403.75	76.38
403.974	90.38
404.198	102.38
404.422	100.38
404.645	94.38
404.869	114.38
405.093	129.38
405.317	184.38
405.541	178.38
405.765	136.38
405.988	150.38
406.212	236.38
406.436	308.38
406.66	222.38
406.883	141.38
407.107	109.38
407.331	111.38
407.555	108.38
407.778	115.38
408.002	94.38
408.226	108.38
408.449	106.38
408.673	81.38
408.896	104.38
409.12	98.38
409.344	101.38
409.567	94.38
409.791	87.38
410.014	96.38
410.238	96.38
410.461	92.38
410.685	93.38
410.908	96.38
411.132	110.38
411.355	118.38
411.578	108.38
411.802	111.38
412.025	102.38
412.249	104.38
412.472	157.38
412.695	185.38
412.919	141.38
413.142	121.38
413.365	93.38
413.589	96.38
413.812	105.38
414.035	111.38
414.258	95.38
414.482	94.38
414.705	94.38
414.928	100.38
415.151	82.38
415.374	89.38
415.597	106.38
415.821	102.38
416.044	101.38
416.267	98.38
416.49	97.38
416.713	103.38
416.936	110.38
417.159	110.38
417.382	104.38
417.605	138.38
417.828	150.38
418.051	111.38
418.274	87.38
418.497	84.38
418.72	82.38
418.943	95.38
419.166	100.38
419.389	92.38
419.611	93.38
419.834	100.38
420.057	108.38
420.28	111.38
420.503	91.38
420.726	98.38
420.948	95.38
421.171	119.38
421.394	108.38
421.617	78.38
421.839	98.38
422.062	96.38
422.285	78.38
422.507	113.38
422.73	129.38
422.953	121.38
423.175	90.38
423.398	91.38
423.621	92.38
423.843	105.38
424.066	92.38
424.288	102.38
424.511	92.38
424.733	100.38
424.956	128.38
425.178	116.38
425.401	116.38
425.623	104.38
425.846	110.38
426.068	108.38
426.291	113.38
426.513	100.38
426.735	87.38
426.958	122.38
427.18	130.38
427.402	192.38
427.625	319.38
427.847	299.38
428.069	266.38
428.292	160.38
428.514	108.38
428.736	98.38
428.958	82.38
429.181	104.38
429.403	96.38
429.625	82.38
429.847	110.38
430.069	118.38
430.292	88.38
430.514	80.38
430.736	74.38
430.958	95.38
431.18	82.38
431.402	94.38
431.624	94.38
431.846	90.38
432.068	86.38
432.29	91.38
432.512	96.38
432.734	95.38
432.956	101.38
433.178	112.38
433.4	99.38
433.622	105.38
433.844	109.38
434.066	98.38
434.287	97.38
434.509	98.38
434.731	93.38
434.953	85.38
435.175	92.38
435.397	93.38
435.618	94.38
435.84	117.38
436.062	145.38
436.284	122.38
436.505	110.38
436.727	117.38
436.949	104.38
437.17	95.38
437.392	88.38
437.614	92.38
437.835	145.38
438.057	157.38
438.278	128.38
438.5	117.38
438.721	122.38
438.943	122.38
439.165	99.38
439.386	97.38
439.608	108.38
439.829	118.38
440.05	162.38
440.272	181.38
440.493	113.38
440.715	88.38
440.936	95.38
441.158	100.38
441.379	104.38
441.6	105.38
441.822	112.38
442.043	105.38
442.264	124.38
442.486	120.38
442.707	112.38
442.928	142.38
443.149	201.38
443.371	187.38
443.592	140.38
443.813	142.38
444.034	127.38
444.255	100.38
444.476	95.38
444.698	86.38
444.919	86.38
445.14	153.38
445.361	132.38
445.582	135.38
445.803	205.38
446.024	186.38
446.245	170.38
446.466	137.38
446.687	97.38
446.908	97.38
447.129	88.38
447.35	100.38
447.571	101.38
447.792	107.38
448.013	120.38
448.234	118.38
448.455	124.38
448.675	133.38
448.896	144.38
449.117	103.38
449.338	122.38
449.559	135.38
449.779	140.38
450	101.38
450.221	104.38
450.442	102.38
450.662	110.38
450.883	145.38
451.104	144.38
451.324	117.38
451.545	98.38
451.766	103.38
451.986	92.38
452.207	101.38
452.428	107.38
452.648	121.38
452.869	142.38
453.089	140.38
453.31	145.38
453.53	106.38
453.751	92.38
453.971	122.38
454.192	142.38
454.412	102.38
454.633	86.38
454.853	109.38
455.073	98.38
455.294	97.38
455.514	111.38
455.734	106.38
455.955	98.38
456.175	89.38
456.395	80.38
456.616	87.38
456.836	89.38
457.056	98.38
457.276	94.38
457.497	94.38
457.717	83.38
457.937	97.38
458.157	96.38
458.377	99.38
458.598	126.38
458.818	248.38
459.038	266.38
459.258	178.38
459.478	104.38
459.698	97.38
459.918	89.38
460.138	97.38
460.358	84.38
460.578	98.38
460.798	105.38
461.018	93.38
461.238	96.38
461.458	104.38
461.678	88.38
461.898	95.38
462.118	92.38
462.338	82.38
462.558	93.38
462.777	97.38
462.997	101.38
463.217	156.38
463.437	122.38
463.657	83.38
463.876	106.38
464.096	113.38
464.316	97.38
464.536	121.38
464.755	117.38
464.975	158.38
465.195	269.38
465.414	263.38
465.634	121.38
465.854	99.38
466.073	94.38
466.293	106.38
466.512	102.38
466.732	116.38
466.951	114.38
467.171	113.38
467.391	133.38
467.61	217.38
467.829	422.38
468.049	1423.38
468.268	2287.38
468.488	472.38
468.707	158.38
468.927	127.38
469.146	108.38
469.365	102.38
469.585	111.38
469.804	119.38
470.023	126.38
470.243	112.38
470.462	148.38
470.681	174.38
470.901	120.38
471.12	115.38
471.339	147.38
471.558	167.38
471.777	255.38
471.997	629.38
472.216	2729.38
472.435	6340.38
472.654	1274.38
472.873	284.38
473.092	164.38
473.311	118.38
473.53	108.38
473.749	105.38
473.968	124.38
474.187	137.38
474.406	112.38
474.625	106.38
474.844	107.38
475.063	87.38
475.282	101.38
475.501	95.38
475.72	105.38
475.939	90.38
476.158	104.38
476.377	97.38
476.596	97.38
476.814	112.38
477.033	100.38
477.252	103.38
477.471	105.38
477.69	94.38
477.908	95.38
478.127	103.38
478.346	101.38
478.564	114.38
478.783	127.38
479.002	126.38
479.22	132.38
479.439	164.38
479.658	170.38
479.876	163.38
480.095	170.38
480.313	196.38
480.532	296.38
480.751	549.38
480.969	2294.38
481.188	10182.38
481.406	5650.38
481.624	716.38
481.843	216.38
482.061	160.38
482.28	122.38
482.498	105.38
482.717	113.38
482.935	108.38
483.153	101.38
483.372	107.38
483.59	97.38
483.808	93.38
484.027	102.38
484.245	103.38
484.463	94.38
484.681	104.38
484.9	102.38
485.118	120.38
485.336	100.38
485.554	105.38
485.772	92.38
485.99	112.38
486.209	110.38
486.427	126.38
486.645	137.38
486.863	137.38
487.081	124.38
487.299	116.38
487.517	106.38
487.735	99.38
487.953	109.38
488.171	102.38
488.389	98.38
488.607	109.38
488.825	95.38
489.043	98.38
489.261	95.38
489.479	93.38
489.696	102.38
489.914	92.38
490.132	94.38
490.35	108.38
490.568	91.38
490.786	96.38
491.003	93.38
491.221	105.38
491.439	112.38
491.657	95.38
491.874	99.38
492.092	100.38
492.31	116.38
492.527	131.38
492.745	119.38
492.963	109.38
493.18	106.38
493.398	102.38
493.615	100.38
493.833	106.38
494.05	97.38
494.268	95.38
494.485	78.38
494.703	106.38
494.92	113.38
495.138	89.38
495.355	102.38
495.573	91.38
495.79	81.38
496.008	101.38
496.225	82.38
496.442	100.38
496.66	89.38
496.877	91.38
497.094	96.38
497.312	93.38
497.529	95.38
497.746	81.38
497.963	96.38
498.181	109.38
498.398	105.38
498.615	133.38
498.832	117.38
499.049	90.38
499.267	98.38
499.484	91.38
499.701	93.38
499.918	100.38
500.135	93.38
500.352	93.38
500.569	112.38
500.786	128.38
501.003	103.38
501.22	108.38
501.437	105.38
501.654	105.38
501.871	133.38
502.088	98.38
502.305	96.38
502.522	108.38
502.739	93.38
502.956	103.38
503.172	98.38
503.389	127.38
503.606	127.38
503.823	115.38
504.04	102.38
504.256	108.38
504.473	98.38
504.69	113.38
504.907	101.38
505.123	101.38
505.34	103.38
505.557	99.38
505.773	92.38
505.99	71.38
506.207	98.38
506.423	93.38
506.64	94.38
506.856	88.38
507.073	104.38
507.289	119.38
507.506	111.38
507.722	146.38
507.939	165.38
508.155	117.38
508.372	96.38
508.588	100.38
508.805	97.38
509.021	128.38
509.238	103.38
509.454	100.38
509.67	84.38
509.887	118.38
