Data from Circ_1988_H10_HRD10591_00048.txt Node
Date: Wed Jan 03 12:05:44 EST 2024
User: Yrep
Spectrometer: HR+D1059
Trigger mode: 1
Integration Time (sec): 1.000000E-1
Scans to average: 1
Electric dark correction enabled: true
Nonlinearity correction enabled: false
Boxcar width: 0
XAxis mode: Wavelengths
Number of Pixels in Spectrum: 2048
>>>>>Begin Spectral Data<<<<<
223.165	-26.75
223.4	-26.75
223.635	-26.75
223.869	-7.75
224.104	-21.75
224.338	-18.75
224.573	-13.75
224.808	-22.75
225.042	-8.75
225.277	-14.75
225.511	2.25
225.746	15.25
225.98	1.25
226.215	8.25
226.449	33.25
226.683	20.25
226.918	27.25
227.152	27.25
227.387	33.25
227.621	28.25
227.856	53.25
228.09	47.25
228.324	45.25
228.559	56.25
228.793	62.25
229.027	62.25
229.262	65.25
229.496	83.25
229.73	93.25
229.964	96.25
230.199	64.25
230.433	86.25
230.667	75.25
230.901	77.25
231.136	85.25
231.37	80.25
231.604	92.25
231.838	79.25
232.072	87.25
232.306	51.25
232.541	91.25
232.775	82.25
233.009	72.25
233.243	79.25
233.477	87.25
233.711	82.25
233.945	81.25
234.179	77.25
234.413	71.25
234.647	101.25
234.881	80.25
235.115	66.25
235.349	59.25
235.583	88.25
235.817	95.25
236.051	68.25
236.285	79.25
236.519	77.25
236.753	84.25
236.987	85.25
237.221	82.25
237.455	100.25
237.689	81.25
237.922	71.25
238.156	88.25
238.39	66.25
238.624	56.25
238.858	95.25
239.091	90.25
239.325	86.25
239.559	77.25
239.793	96.25
240.027	79.25
240.26	90.25
240.494	86.25
240.728	75.25
240.961	72.25
241.195	77.25
241.429	75.25
241.662	92.25
241.896	94.25
242.13	87.25
242.363	75.25
242.597	89.25
242.83	81.25
243.064	84.25
243.298	92.25
243.531	71.25
243.765	75.25
243.998	78.25
244.232	84.25
244.465	72.25
244.699	79.25
244.932	81.25
245.166	64.25
245.399	79.25
245.633	71.25
245.866	76.25
246.099	89.25
246.333	80.25
246.566	95.25
246.8	67.25
247.033	82.25
247.266	71.25
247.5	87.25
247.733	75.25
247.966	73.25
248.2	81.25
248.433	84.25
248.666	76.25
248.899	98.25
249.133	91.25
249.366	116.25
249.599	109.25
249.832	92.25
250.066	92.25
250.299	95.25
250.532	105.25
250.765	71.25
250.998	81.25
251.231	80.25
251.465	85.25
251.698	86.25
251.931	101.25
252.164	89.25
252.397	88.25
252.63	80.25
252.863	84.25
253.096	68.25
253.329	92.25
253.562	69.25
253.795	78.25
254.028	89.25
254.261	78.25
254.494	94.25
254.727	101.25
254.96	97.25
255.193	96.25
255.426	74.25
255.659	93.25
255.892	125.25
256.124	117.25
256.357	95.25
256.59	88.25
256.823	97.25
257.056	91.25
257.289	98.25
257.521	95.25
257.754	110.25
257.987	102.25
258.22	96.25
258.452	117.25
258.685	107.25
258.918	85.25
259.151	79.25
259.383	101.25
259.616	91.25
259.849	95.25
260.081	82.25
260.314	106.25
260.547	97.25
260.779	108.25
261.012	142.25
261.244	147.25
261.477	132.25
261.71	109.25
261.942	148.25
262.175	136.25
262.407	104.25
262.64	91.25
262.872	85.25
263.105	89.25
263.337	91.25
263.57	70.25
263.802	92.25
264.035	97.25
264.267	99.25
264.499	81.25
264.732	82.25
264.964	75.25
265.197	88.25
265.429	88.25
265.661	87.25
265.894	84.25
266.126	94.25
266.358	89.25
266.591	97.25
266.823	92.25
267.055	84.25
267.287	80.25
267.52	71.25
267.752	74.25
267.984	80.25
268.216	97.25
268.448	94.25
268.681	111.25
268.913	87.25
269.145	84.25
269.377	79.25
269.609	99.25
269.841	96.25
270.073	92.25
270.306	83.25
270.538	80.25
270.77	70.25
271.002	103.25
271.234	91.25
271.466	109.25
271.698	82.25
271.93	90.25
272.162	93.25
272.394	99.25
272.626	99.25
272.858	86.25
273.09	94.25
273.322	96.25
273.553	67.25
273.785	85.25
274.017	93.25
274.249	96.25
274.481	81.25
274.713	100.25
274.945	100.25
275.176	91.25
275.408	116.25
275.64	162.25
275.872	185.25
276.104	132.25
276.335	115.25
276.567	126.25
276.799	192.25
277.031	294.25
277.262	387.25
277.494	252.25
277.726	117.25
277.957	110.25
278.189	113.25
278.421	102.25
278.652	115.25
278.884	94.25
279.115	82.25
279.347	102.25
279.579	128.25
279.81	213.25
280.042	377.25
280.273	549.25
280.505	339.25
280.736	152.25
280.968	85.25
281.199	105.25
281.431	91.25
281.662	92.25
281.894	92.25
282.125	116.25
282.356	128.25
282.588	194.25
282.819	143.25
283.051	95.25
283.282	86.25
283.513	87.25
283.745	86.25
283.976	103.25
284.207	92.25
284.439	88.25
284.67	87.25
284.901	98.25
285.132	93.25
285.364	83.25
285.595	85.25
285.826	95.25
286.057	89.25
286.288	93.25
286.52	93.25
286.751	93.25
286.982	77.25
287.213	85.25
287.444	84.25
287.675	103.25
287.906	85.25
288.138	91.25
288.369	89.25
288.6	96.25
288.831	89.25
289.062	90.25
289.293	107.25
289.524	91.25
289.755	84.25
289.986	97.25
290.217	87.25
290.448	91.25
290.679	99.25
290.91	84.25
291.141	105.25
291.371	79.25
291.602	95.25
291.833	93.25
292.064	80.25
292.295	88.25
292.526	90.25
292.757	81.25
292.987	86.25
293.218	91.25
293.449	97.25
293.68	96.25
293.91	97.25
294.141	102.25
294.372	77.25
294.603	93.25
294.833	93.25
295.064	92.25
295.295	100.25
295.525	91.25
295.756	97.25
295.987	129.25
296.217	177.25
296.448	155.25
296.679	105.25
296.909	99.25
297.14	108.25
297.37	89.25
297.601	90.25
297.831	97.25
298.062	88.25
298.292	102.25
298.523	91.25
298.753	85.25
298.984	88.25
299.214	94.25
299.445	110.25
299.675	100.25
299.905	91.25
300.136	96.25
300.366	100.25
300.597	102.25
300.827	97.25
301.057	100.25
301.288	109.25
301.518	101.25
301.748	105.25
301.979	135.25
302.209	115.25
302.439	107.25
302.669	96.25
302.9	93.25
303.13	115.25
303.36	120.25
303.59	176.25
303.82	203.25
304.051	123.25
304.281	100.25
304.511	113.25
304.741	91.25
304.971	93.25
305.201	103.25
305.431	107.25
305.661	88.25
305.891	91.25
306.121	93.25
306.352	110.25
306.582	131.25
306.812	138.25
307.042	151.25
307.272	265.25
307.502	316.25
307.731	258.25
307.961	168.25
308.191	119.25
308.421	97.25
308.651	92.25
308.881	105.25
309.111	112.25
309.341	113.25
309.571	105.25
309.8	103.25
310.03	124.25
310.26	107.25
310.49	107.25
310.72	105.25
310.949	115.25
311.179	107.25
311.409	98.25
311.639	95.25
311.868	89.25
312.098	103.25
312.328	118.25
312.557	113.25
312.787	121.25
313.017	110.25
313.246	114.25
313.476	90.25
313.706	104.25
313.935	105.25
314.165	117.25
314.394	127.25
314.624	87.25
314.853	105.25
315.083	106.25
315.312	102.25
315.542	89.25
315.771	86.25
316.001	89.25
316.23	91.25
316.46	90.25
316.689	101.25
316.919	90.25
317.148	113.25
317.377	104.25
317.607	87.25
317.836	111.25
318.065	92.25
318.295	83.25
318.524	100.25
318.753	95.25
318.983	97.25
319.212	116.25
319.441	120.25
319.67	120.25
319.9	104.25
320.129	97.25
320.358	103.25
320.587	99.25
320.816	109.25
321.046	118.25
321.275	107.25
321.504	103.25
321.733	98.25
321.962	99.25
322.191	108.25
322.42	99.25
322.649	110.25
322.878	109.25
323.108	120.25
323.337	140.25
323.566	132.25
323.795	172.25
324.024	223.25
324.253	421.25
324.482	881.25
324.71	1786.25
324.939	2380.25
325.168	894.25
325.397	274.25
325.626	164.25
325.855	159.25
326.084	127.25
326.313	134.25
326.542	176.25
326.77	246.25
326.999	448.25
327.228	893.25
327.457	1658.25
327.686	1380.25
327.914	693.25
328.143	941.25
328.372	1368.25
328.6	668.25
328.829	255.25
329.058	237.25
329.287	243.25
329.515	230.25
329.744	450.25
329.972	940.25
330.201	2099.25
330.43	3143.25
330.658	1235.25
330.887	423.25
331.115	238.25
331.344	165.25
331.572	141.25
331.801	139.25
332.03	143.25
332.258	129.25
332.486	125.25
332.715	126.25
332.943	159.25
333.172	144.25
333.4	162.25
333.629	221.25
333.857	359.25
334.085	761.25
334.314	1799.25
334.542	3731.25
334.771	3433.25
334.999	818.25
335.227	264.25
335.455	170.25
335.684	146.25
335.912	143.25
336.14	127.25
336.369	115.25
336.597	126.25
336.825	122.25
337.053	105.25
337.281	95.25
337.51	103.25
337.738	96.25
337.966	92.25
338.194	101.25
338.422	105.25
338.65	109.25
338.878	86.25
339.106	87.25
339.334	109.25
339.562	89.25
339.79	88.25
340.018	94.25
340.246	97.25
340.474	101.25
340.702	110.25
340.93	103.25
341.158	92.25
341.386	111.25
341.614	105.25
341.842	87.25
342.07	95.25
342.298	83.25
342.526	83.25
342.754	92.25
342.981	87.25
343.209	97.25
343.437	105.25
343.665	101.25
343.893	92.25
344.12	96.25
344.348	95.25
344.576	93.25
344.804	93.25
345.031	96.25
345.259	119.25
345.487	115.25
345.714	99.25
345.942	84.25
346.17	89.25
346.397	87.25
346.625	75.25
346.853	119.25
347.08	86.25
347.308	96.25
347.535	108.25
347.763	106.25
347.99	99.25
348.218	110.25
348.445	114.25
348.673	96.25
348.9	99.25
349.128	105.25
349.355	92.25
349.583	103.25
349.81	103.25
350.037	97.25
350.265	91.25
350.492	96.25
350.72	97.25
350.947	105.25
351.174	120.25
351.402	113.25
351.629	103.25
351.856	105.25
352.083	118.25
352.311	117.25
352.538	117.25
352.765	116.25
352.992	117.25
353.22	104.25
353.447	107.25
353.674	115.25
353.901	111.25
354.128	97.25
354.355	99.25
354.583	88.25
354.81	96.25
355.037	77.25
355.264	108.25
355.491	91.25
355.718	100.25
355.945	92.25
356.172	91.25
356.399	99.25
356.626	87.25
356.853	105.25
357.08	77.25
357.307	92.25
357.534	71.25
357.761	93.25
357.988	90.25
358.215	98.25
358.441	96.25
358.668	104.25
358.895	91.25
359.122	88.25
359.349	81.25
359.576	108.25
359.802	105.25
360.029	151.25
360.256	134.25
360.483	120.25
360.709	95.25
360.936	107.25
361.163	107.25
361.39	116.25
361.616	104.25
361.843	90.25
362.07	86.25
362.296	108.25
362.523	91.25
362.749	99.25
362.976	95.25
363.203	92.25
363.429	98.25
363.656	88.25
363.882	85.25
364.109	100.25
364.335	89.25
364.562	108.25
364.788	86.25
365.015	103.25
365.241	125.25
365.468	129.25
365.694	118.25
365.92	97.25
366.147	95.25
366.373	96.25
366.599	93.25
366.826	97.25
367.052	92.25
367.278	97.25
367.505	94.25
367.731	90.25
367.957	119.25
368.184	105.25
368.41	102.25
368.636	113.25
368.862	122.25
369.089	124.25
369.315	94.25
369.541	84.25
369.767	102.25
369.993	92.25
370.219	83.25
370.445	99.25
370.672	98.25
370.898	88.25
371.124	88.25
371.35	84.25
371.576	92.25
371.802	95.25
372.028	86.25
372.254	95.25
372.48	95.25
372.706	89.25
372.932	93.25
373.158	86.25
373.384	88.25
373.61	86.25
373.835	85.25
374.061	85.25
374.287	94.25
374.513	91.25
374.739	93.25
374.965	81.25
375.191	83.25
375.416	92.25
375.642	91.25
375.868	89.25
376.094	84.25
376.319	94.25
376.545	98.25
376.771	91.25
376.997	100.25
377.222	104.25
377.448	98.25
377.674	97.25
377.899	91.25
378.125	86.25
378.35	102.25
378.576	93.25
378.802	96.25
379.027	81.25
379.253	92.25
379.478	100.25
379.704	100.25
379.929	93.25
380.155	105.25
380.38	108.25
380.606	108.25
380.831	100.25
381.057	104.25
381.282	98.25
381.507	80.25
381.733	91.25
381.958	111.25
382.184	89.25
382.409	102.25
382.634	108.25
382.86	95.25
383.085	103.25
383.31	105.25
383.535	97.25
383.761	100.25
383.986	100.25
384.211	112.25
384.436	104.25
384.662	107.25
384.887	101.25
385.112	120.25
385.337	119.25
385.562	126.25
385.787	113.25
386.013	103.25
386.238	137.25
386.463	111.25
386.688	108.25
386.913	105.25
387.138	121.25
387.363	109.25
387.588	90.25
387.813	112.25
388.038	111.25
388.263	129.25
388.488	115.25
388.713	83.25
388.938	98.25
389.163	93.25
389.387	67.25
389.612	93.25
389.837	95.25
390.062	88.25
390.287	72.25
390.512	78.25
390.736	93.25
390.961	87.25
391.186	95.25
391.411	105.25
391.636	79.25
391.86	90.25
392.085	92.25
392.31	86.25
392.534	103.25
392.759	81.25
392.984	88.25
393.208	82.25
393.433	97.25
393.658	70.25
393.882	89.25
394.107	78.25
394.331	75.25
394.556	95.25
394.78	91.25
395.005	88.25
395.229	91.25
395.454	84.25
395.678	75.25
395.903	82.25
396.127	89.25
396.352	93.25
396.576	88.25
396.801	87.25
397.025	101.25
397.249	97.25
397.474	98.25
397.698	83.25
397.922	75.25
398.147	86.25
398.371	84.25
398.595	86.25
398.82	97.25
399.044	91.25
399.268	97.25
399.492	96.25
399.717	92.25
399.941	99.25
400.165	98.25
400.389	94.25
400.613	80.25
400.837	81.25
401.062	91.25
401.286	93.25
401.51	110.25
401.734	89.25
401.958	102.25
402.182	141.25
402.406	197.25
402.63	147.25
402.854	94.25
403.078	106.25
403.302	97.25
403.526	99.25
403.75	107.25
403.974	84.25
404.198	89.25
404.422	86.25
404.645	99.25
404.869	109.25
405.093	115.25
405.317	167.25
405.541	149.25
405.765	126.25
405.988	156.25
406.212	207.25
406.436	307.25
406.66	223.25
406.883	113.25
407.107	99.25
407.331	102.25
407.555	103.25
407.778	102.25
408.002	91.25
408.226	97.25
408.449	83.25
408.673	95.25
408.896	87.25
409.12	110.25
409.344	101.25
409.567	91.25
409.791	93.25
410.014	92.25
410.238	104.25
410.461	102.25
410.685	88.25
410.908	91.25
411.132	110.25
411.355	88.25
411.578	109.25
411.802	94.25
412.025	99.25
412.249	108.25
412.472	140.25
412.695	161.25
412.919	104.25
413.142	102.25
413.365	96.25
413.589	88.25
413.812	93.25
414.035	100.25
414.258	99.25
414.482	92.25
414.705	84.25
414.928	83.25
415.151	92.25
415.374	93.25
415.597	92.25
415.821	79.25
416.044	98.25
416.267	90.25
416.49	95.25
416.713	105.25
416.936	107.25
417.159	115.25
417.382	104.25
417.605	113.25
417.828	130.25
418.051	106.25
418.274	94.25
418.497	107.25
418.72	97.25
418.943	95.25
419.166	96.25
419.389	104.25
419.611	103.25
419.834	94.25
420.057	89.25
420.28	106.25
420.503	97.25
420.726	95.25
420.948	99.25
421.171	94.25
421.394	91.25
421.617	99.25
421.839	84.25
422.062	88.25
422.285	91.25
422.507	116.25
422.73	101.25
422.953	88.25
423.175	99.25
423.398	91.25
423.621	95.25
423.843	86.25
424.066	100.25
424.288	94.25
424.511	85.25
424.733	111.25
424.956	122.25
425.178	104.25
425.401	107.25
425.623	104.25
425.846	100.25
426.068	93.25
426.291	99.25
426.513	91.25
426.735	97.25
426.958	105.25
427.18	112.25
427.402	185.25
427.625	273.25
427.847	270.25
428.069	230.25
428.292	144.25
428.514	110.25
428.736	94.25
428.958	94.25
429.181	94.25
429.403	95.25
429.625	100.25
429.847	101.25
430.069	104.25
430.292	94.25
430.514	75.25
430.736	94.25
430.958	89.25
431.18	83.25
431.402	95.25
431.624	76.25
431.846	83.25
432.068	108.25
432.29	101.25
432.512	79.25
432.734	91.25
432.956	89.25
433.178	89.25
433.4	97.25
433.622	88.25
433.844	115.25
434.066	111.25
434.287	82.25
434.509	103.25
434.731	91.25
434.953	102.25
435.175	80.25
435.397	94.25
435.618	98.25
435.84	101.25
436.062	132.25
436.284	118.25
436.505	103.25
436.727	99.25
436.949	102.25
437.17	86.25
437.392	88.25
437.614	112.25
437.835	119.25
438.057	151.25
438.278	139.25
438.5	104.25
438.721	133.25
438.943	99.25
439.165	99.25
439.386	88.25
439.608	91.25
439.829	123.25
440.05	148.25
440.272	179.25
440.493	122.25
440.715	87.25
440.936	86.25
441.158	97.25
441.379	86.25
441.6	96.25
441.822	101.25
442.043	102.25
442.264	122.25
442.486	112.25
442.707	84.25
442.928	115.25
443.149	176.25
443.371	167.25
443.592	121.25
443.813	127.25
444.034	110.25
444.255	106.25
444.476	93.25
444.698	89.25
444.919	96.25
445.14	137.25
445.361	115.25
445.582	134.25
445.803	162.25
446.024	164.25
446.245	142.25
446.466	118.25
446.687	103.25
446.908	95.25
447.129	91.25
447.35	86.25
447.571	110.25
447.792	104.25
448.013	109.25
448.234	121.25
448.455	102.25
448.675	120.25
448.896	142.25
449.117	101.25
449.338	104.25
449.559	127.25
449.779	140.25
450	98.25
450.221	91.25
450.442	95.25
450.662	105.25
450.883	129.25
451.104	125.25
451.324	115.25
451.545	103.25
451.766	90.25
451.986	95.25
452.207	99.25
452.428	94.25
452.648	112.25
452.869	131.25
453.089	128.25
453.31	156.25
453.53	113.25
453.751	108.25
453.971	111.25
454.192	134.25
454.412	102.25
454.633	94.25
454.853	89.25
455.073	103.25
455.294	103.25
455.514	119.25
455.734	104.25
455.955	90.25
456.175	69.25
456.395	88.25
456.616	85.25
456.836	99.25
457.056	76.25
457.276	97.25
457.497	96.25
457.717	100.25
457.937	91.25
458.157	95.25
458.377	102.25
458.598	127.25
458.818	199.25
459.038	231.25
459.258	140.25
459.478	103.25
459.698	81.25
459.918	95.25
460.138	82.25
460.358	89.25
460.578	72.25
460.798	107.25
461.018	89.25
461.238	91.25
461.458	105.25
461.678	101.25
461.898	91.25
462.118	100.25
462.338	107.25
462.558	90.25
462.777	92.25
462.997	104.25
463.217	152.25
463.437	146.25
463.657	100.25
463.876	86.25
464.096	91.25
464.316	110.25
464.536	109.25
464.755	93.25
464.975	124.25
465.195	256.25
465.414	246.25
465.634	100.25
465.854	94.25
466.073	86.25
466.293	93.25
466.512	88.25
466.732	100.25
466.951	105.25
467.171	108.25
467.391	136.25
467.61	195.25
467.829	367.25
468.049	1293.25
468.268	2016.25
468.488	427.25
468.707	145.25
468.927	115.25
469.146	103.25
469.365	99.25
469.585	112.25
469.804	118.25
470.023	122.25
470.243	120.25
470.462	128.25
470.681	144.25
470.901	109.25
471.12	127.25
471.339	139.25
471.558	148.25
471.777	228.25
471.997	536.25
472.216	2345.25
472.435	5620.25
472.654	1167.25
472.873	263.25
473.092	146.25
473.311	104.25
473.53	93.25
473.749	96.25
473.968	93.25
474.187	124.25
474.406	108.25
474.625	114.25
474.844	108.25
475.063	87.25
475.282	85.25
475.501	93.25
475.72	93.25
475.939	105.25
476.158	100.25
476.377	100.25
476.596	104.25
476.814	105.25
477.033	88.25
477.252	99.25
477.471	97.25
477.69	107.25
477.908	97.25
478.127	100.25
478.346	95.25
478.564	114.25
478.783	112.25
479.002	103.25
479.22	113.25
479.439	127.25
479.658	155.25
479.876	132.25
480.095	155.25
480.313	178.25
480.532	246.25
480.751	479.25
480.969	1975.25
481.188	8934.25
481.406	4985.25
481.624	664.25
481.843	200.25
482.061	146.25
482.28	133.25
482.498	123.25
482.717	110.25
482.935	108.25
483.153	115.25
483.372	96.25
483.59	100.25
483.808	92.25
484.027	98.25
484.245	95.25
484.463	99.25
484.681	107.25
484.9	102.25
485.118	110.25
485.336	119.25
485.554	109.25
485.772	99.25
485.99	105.25
486.209	92.25
486.427	110.25
486.645	125.25
486.863	146.25
487.081	116.25
487.299	115.25
487.517	114.25
487.735	86.25
487.953	107.25
488.171	99.25
488.389	88.25
488.607	105.25
488.825	88.25
489.043	77.25
489.261	94.25
489.479	84.25
489.696	87.25
489.914	87.25
490.132	78.25
490.35	94.25
490.568	92.25
490.786	90.25
491.003	84.25
491.221	101.25
491.439	121.25
491.657	99.25
491.874	101.25
492.092	104.25
492.31	102.25
492.527	110.25
492.745	95.25
492.963	100.25
493.18	102.25
493.398	90.25
493.615	106.25
493.833	99.25
494.05	84.25
494.268	88.25
494.485	88.25
494.703	87.25
494.92	85.25
495.138	102.25
495.355	96.25
495.573	85.25
495.79	102.25
496.008	81.25
496.225	103.25
496.442	97.25
496.66	100.25
496.877	102.25
497.094	83.25
497.312	81.25
497.529	87.25
497.746	94.25
497.963	103.25
498.181	91.25
498.398	109.25
498.615	113.25
498.832	119.25
499.049	103.25
499.267	88.25
499.484	96.25
499.701	83.25
499.918	92.25
500.135	100.25
500.352	78.25
500.569	102.25
500.786	112.25
501.003	94.25
501.22	80.25
501.437	98.25
501.654	119.25
501.871	132.25
502.088	94.25
502.305	98.25
502.522	98.25
502.739	86.25
502.956	96.25
503.172	92.25
503.389	107.25
503.606	136.25
503.823	110.25
504.04	88.25
504.256	92.25
504.473	87.25
504.69	103.25
504.907	98.25
505.123	91.25
505.34	105.25
505.557	97.25
505.773	95.25
505.99	87.25
506.207	93.25
506.423	90.25
506.64	89.25
506.856	99.25
507.073	98.25
507.289	115.25
507.506	111.25
507.722	139.25
507.939	132.25
508.155	108.25
508.372	91.25
508.588	96.25
508.805	100.25
509.021	95.25
509.238	87.25
509.454	94.25
509.67	111.25
509.887	107.25
510.103	148.25
510.319	269.25
510.536	972.25
510.752	3515.25
510.968	931.25
511.184	197.25
511.401	132.25
511.617	126.25
