Data from Circ_1988_H10_HRD10591_00053.txt Node
Date: Wed Jan 03 12:05:45 EST 2024
User: Yrep
Spectrometer: HR+D1059
Trigger mode: 1
Integration Time (sec): 1.000000E-1
Scans to average: 1
Electric dark correction enabled: true
Nonlinearity correction enabled: false
Boxcar width: 0
XAxis mode: Wavelengths
Number of Pixels in Spectrum: 2048
>>>>>Begin Spectral Data<<<<<
223.165	2
223.4	2
223.635	2
223.869	-31
224.104	-24
224.338	-6
224.573	-11
224.808	-12
225.042	-10
225.277	-6
225.511	3
225.746	-5
225.98	-1
226.215	13
226.449	23
226.683	15
226.918	23
227.152	27
227.387	35
227.621	35
227.856	45
228.09	38
228.324	61
228.559	41
228.793	62
229.027	58
229.262	63
229.496	80
229.73	96
229.964	94
230.199	95
230.433	72
230.667	85
230.901	79
231.136	88
231.37	87
231.604	86
231.838	83
232.072	66
232.306	65
232.541	100
232.775	73
233.009	85
233.243	82
233.477	91
233.711	78
233.945	88
234.179	79
234.413	92
234.647	80
234.881	82
235.115	92
235.349	84
235.583	73
235.817	69
236.051	83
236.285	95
236.519	77
236.753	80
236.987	91
237.221	86
237.455	98
237.689	86
237.922	56
238.156	77
238.39	82
238.624	90
238.858	81
239.091	74
239.325	86
239.559	81
239.793	95
240.027	70
240.26	68
240.494	80
240.728	84
240.961	82
241.195	96
241.429	82
241.662	78
241.896	81
242.13	72
242.363	90
242.597	86
242.83	87
243.064	90
243.298	92
243.531	87
243.765	71
243.998	87
244.232	75
244.465	96
244.699	87
244.932	84
245.166	76
245.399	86
245.633	81
245.866	72
246.099	84
246.333	86
246.566	95
246.8	86
247.033	76
247.266	71
247.5	73
247.733	87
247.966	77
248.2	100
248.433	98
248.666	96
248.899	89
249.133	82
249.366	102
249.599	111
249.832	106
250.066	86
250.299	97
250.532	106
250.765	109
250.998	97
251.231	92
251.465	73
251.698	84
251.931	88
252.164	78
252.397	79
252.63	94
252.863	76
253.096	94
253.329	72
253.562	74
253.795	85
254.028	78
254.261	94
254.494	86
254.727	95
254.96	83
255.193	82
255.426	84
255.659	99
255.892	118
256.124	141
256.357	91
256.59	96
256.823	96
257.056	116
257.289	112
257.521	96
257.754	94
257.987	102
258.22	113
258.452	118
258.685	130
258.918	103
259.151	81
259.383	84
259.616	101
259.849	94
260.081	86
260.314	96
260.547	95
260.779	116
261.012	160
261.244	161
261.477	128
261.71	106
261.942	146
262.175	147
262.407	84
262.64	100
262.872	106
263.105	89
263.337	98
263.57	80
263.802	91
264.035	95
264.267	83
264.499	94
264.732	86
264.964	76
265.197	79
265.429	98
265.661	85
265.894	85
266.126	72
266.358	84
266.591	85
266.823	98
267.055	78
267.287	96
267.52	87
267.752	100
267.984	74
268.216	90
268.448	96
268.681	98
268.913	82
269.145	73
269.377	89
269.609	92
269.841	86
270.073	89
270.306	105
270.538	92
270.77	100
271.002	91
271.234	109
271.466	112
271.698	99
271.93	90
272.162	102
272.394	101
272.626	79
272.858	82
273.09	103
273.322	79
273.553	104
273.785	77
274.017	95
274.249	78
274.481	80
274.713	88
274.945	82
275.176	101
275.408	133
275.64	169
275.872	176
276.104	148
276.335	118
276.567	137
276.799	205
277.031	282
277.262	387
277.494	259
277.726	136
277.957	108
278.189	111
278.421	108
278.652	86
278.884	93
279.115	97
279.347	109
279.579	140
279.81	200
280.042	381
280.273	562
280.505	334
280.736	168
280.968	120
281.199	96
281.431	96
281.662	97
281.894	90
282.125	109
282.356	144
282.588	188
282.819	117
283.051	80
283.282	84
283.513	95
283.745	92
283.976	89
284.207	85
284.439	105
284.67	95
284.901	97
285.132	99
285.364	100
285.595	100
285.826	77
286.057	97
286.288	96
286.52	93
286.751	97
286.982	91
287.213	91
287.444	82
287.675	86
287.906	84
288.138	88
288.369	90
288.6	104
288.831	90
289.062	101
289.293	85
289.524	86
289.755	94
289.986	98
290.217	94
290.448	96
290.679	84
290.91	79
291.141	85
291.371	78
291.602	88
291.833	87
292.064	87
292.295	96
292.526	85
292.757	96
292.987	95
293.218	88
293.449	76
293.68	81
293.91	82
294.141	94
294.372	83
294.603	95
294.833	94
295.064	90
295.295	81
295.525	88
295.756	106
295.987	118
296.217	167
296.448	162
296.679	95
296.909	84
297.14	72
297.37	91
297.601	84
297.831	92
298.062	101
298.292	92
298.523	97
298.753	86
298.984	94
299.214	91
299.445	96
299.675	93
299.905	104
300.136	89
300.366	79
300.597	94
300.827	110
301.057	120
301.288	105
301.518	109
301.748	115
301.979	137
302.209	113
302.439	102
302.669	111
302.9	95
303.13	114
303.36	126
303.59	176
303.82	209
304.051	125
304.281	100
304.511	99
304.741	87
304.971	85
305.201	109
305.431	94
305.661	91
305.891	91
306.121	106
306.352	119
306.582	126
306.812	135
307.042	175
307.272	255
307.502	302
307.731	261
307.961	169
308.191	104
308.421	97
308.651	94
308.881	108
309.111	94
309.341	103
309.571	105
309.8	94
310.03	121
310.26	96
310.49	106
310.72	119
310.949	130
311.179	100
311.409	106
311.639	92
311.868	117
312.098	101
312.328	123
312.557	136
312.787	133
313.017	114
313.246	93
313.476	104
313.706	85
313.935	109
314.165	112
314.394	120
314.624	126
314.853	97
315.083	103
315.312	93
315.542	100
315.771	113
316.001	100
316.23	99
316.46	112
316.689	105
316.919	89
317.148	116
317.377	103
317.607	93
317.836	104
318.065	94
318.295	96
318.524	104
318.753	102
318.983	99
319.212	114
319.441	129
319.67	116
319.9	95
320.129	96
320.358	88
320.587	103
320.816	104
321.046	111
321.275	113
321.504	99
321.733	102
321.962	110
322.191	119
322.42	113
322.649	113
322.878	124
323.108	124
323.337	134
323.566	148
323.795	183
324.024	242
324.253	431
324.482	915
324.71	1822
324.939	2404
325.168	942
325.397	279
325.626	184
325.855	139
326.084	161
326.313	169
326.542	187
326.77	238
326.999	462
327.228	903
327.457	1692
327.686	1460
327.914	695
328.143	1002
328.372	1390
328.6	711
328.829	263
329.058	232
329.287	244
329.515	250
329.744	436
329.972	990
330.201	2155
330.43	3214
330.658	1282
330.887	433
331.115	236
331.344	160
331.572	150
331.801	144
332.03	138
332.258	111
332.486	105
332.715	128
332.943	147
333.172	177
333.4	175
333.629	220
333.857	344
334.085	809
334.314	1880
334.542	3849
334.771	3528
334.999	846
335.227	263
335.455	172
335.684	136
335.912	118
336.14	123
336.369	124
336.597	135
336.825	114
337.053	106
337.281	109
337.51	113
337.738	106
337.966	98
338.194	120
338.422	96
338.65	98
338.878	104
339.106	100
339.334	111
339.562	100
339.79	106
340.018	93
340.246	102
340.474	116
340.702	108
340.93	98
341.158	104
341.386	96
341.614	101
341.842	105
342.07	105
342.298	104
342.526	89
342.754	97
342.981	95
343.209	91
343.437	104
343.665	79
343.893	84
344.12	88
344.348	83
344.576	105
344.804	88
345.031	112
345.259	114
345.487	110
345.714	110
345.942	104
346.17	80
346.397	95
346.625	99
346.853	104
347.08	106
347.308	94
347.535	112
347.763	120
347.99	107
348.218	109
348.445	126
348.673	102
348.9	113
349.128	100
349.355	95
349.583	82
349.81	95
350.037	104
350.265	97
350.492	110
350.72	96
350.947	113
351.174	109
351.402	129
351.629	96
351.856	96
352.083	119
352.311	105
352.538	135
352.765	115
352.992	131
353.22	130
353.447	101
353.674	106
353.901	94
354.128	89
354.355	115
354.583	91
354.81	91
355.037	99
355.264	97
355.491	85
355.718	88
355.945	98
356.172	98
356.399	100
356.626	90
356.853	98
357.08	90
357.307	90
357.534	95
357.761	92
357.988	105
358.215	108
358.441	102
358.668	111
358.895	110
359.122	101
359.349	89
359.576	96
359.802	137
360.029	166
360.256	138
360.483	125
360.709	107
360.936	85
361.163	106
361.39	96
361.616	94
361.843	92
362.07	112
362.296	102
362.523	110
362.749	104
362.976	104
363.203	103
363.429	101
363.656	95
363.882	87
364.109	93
364.335	101
364.562	101
364.788	95
365.015	96
365.241	112
365.468	109
365.694	105
365.92	106
366.147	96
366.373	93
366.599	102
366.826	85
367.052	92
367.278	96
367.505	95
367.731	98
367.957	89
368.184	112
368.41	111
368.636	126
368.862	125
369.089	115
369.315	109
369.541	104
369.767	86
369.993	77
370.219	102
370.445	101
370.672	94
370.898	93
371.124	81
371.35	88
371.576	93
371.802	76
372.028	80
372.254	102
372.48	83
372.706	70
372.932	102
373.158	94
373.384	85
373.61	93
373.835	89
374.061	96
374.287	86
374.513	84
374.739	76
374.965	81
375.191	104
375.416	100
375.642	86
375.868	98
376.094	89
376.319	105
376.545	108
376.771	78
376.997	104
377.222	102
377.448	93
377.674	93
377.899	84
378.125	105
378.35	103
378.576	99
378.802	89
379.027	98
379.253	90
379.478	102
379.704	95
379.929	112
380.155	106
380.38	106
380.606	97
380.831	95
381.057	120
381.282	107
381.507	92
381.733	104
381.958	103
382.184	112
382.409	105
382.634	106
382.86	114
383.085	114
383.31	115
383.535	106
383.761	104
383.986	102
384.211	116
384.436	106
384.662	97
384.887	109
385.112	112
385.337	129
385.562	129
385.787	116
386.013	152
386.238	133
386.463	124
386.688	122
386.913	122
387.138	120
387.363	113
387.588	108
387.813	124
388.038	137
388.263	130
388.488	126
388.713	100
388.938	94
389.163	96
389.387	95
389.612	92
389.837	86
390.062	90
390.287	92
390.512	90
390.736	90
390.961	91
391.186	87
391.411	84
391.636	92
391.86	90
392.085	92
392.31	88
392.534	87
392.759	100
392.984	100
393.208	88
393.433	118
393.658	125
393.882	76
394.107	91
394.331	97
394.556	88
394.78	96
395.005	82
395.229	62
395.454	88
395.678	93
395.903	74
396.127	86
396.352	97
396.576	97
396.801	103
397.025	114
397.249	98
397.474	78
397.698	95
397.922	89
398.147	92
398.371	100
398.595	103
398.82	81
399.044	81
399.268	112
399.492	74
399.717	92
399.941	80
400.165	102
400.389	98
400.613	103
400.837	77
401.062	105
401.286	86
401.51	105
401.734	102
401.958	105
402.182	151
402.406	200
402.63	149
402.854	112
403.078	84
403.302	82
403.526	99
403.75	98
403.974	85
404.198	103
404.422	104
404.645	98
404.869	117
405.093	135
405.317	155
405.541	148
405.765	128
405.988	142
406.212	202
406.436	327
406.66	217
406.883	126
407.107	112
407.331	109
407.555	103
407.778	105
408.002	99
408.226	92
408.449	88
408.673	95
408.896	99
409.12	91
409.344	81
409.567	87
409.791	89
410.014	87
410.238	90
410.461	89
410.685	94
410.908	93
411.132	100
411.355	106
411.578	91
411.802	99
412.025	101
412.249	105
412.472	137
412.695	166
412.919	124
413.142	109
413.365	96
413.589	84
413.812	87
414.035	97
414.258	104
414.482	95
414.705	96
414.928	86
415.151	90
415.374	106
415.597	104
415.821	98
416.044	93
416.267	95
416.49	79
416.713	98
416.936	97
417.159	104
417.382	106
417.605	130
417.828	136
418.051	120
418.274	116
418.497	96
418.72	89
418.943	78
419.166	70
419.389	95
419.611	100
419.834	94
420.057	97
420.28	112
420.503	101
420.726	106
420.948	94
421.171	103
421.394	106
421.617	104
421.839	89
422.062	77
422.285	102
422.507	118
422.73	132
422.953	113
423.175	88
423.398	91
423.621	90
423.843	96
424.066	90
424.288	98
424.511	92
424.733	108
424.956	118
425.178	107
425.401	126
425.623	109
425.846	93
426.068	102
426.291	101
426.513	94
426.735	99
426.958	90
427.18	121
427.402	180
427.625	285
427.847	257
428.069	229
428.292	154
428.514	97
428.736	92
428.958	77
429.181	101
429.403	97
429.625	89
429.847	97
430.069	102
430.292	102
430.514	69
430.736	89
430.958	89
431.18	65
431.402	72
431.624	84
431.846	85
432.068	97
432.29	89
432.512	83
432.734	96
432.956	100
433.178	104
433.4	86
433.622	94
433.844	93
434.066	85
434.287	94
434.509	83
434.731	88
434.953	86
435.175	78
435.397	93
435.618	92
435.84	115
436.062	122
436.284	118
436.505	98
436.727	105
436.949	86
437.17	95
437.392	88
437.614	96
437.835	121
438.057	142
438.278	130
438.5	112
438.721	128
438.943	90
439.165	78
439.386	94
439.608	98
439.829	104
440.05	160
440.272	182
440.493	112
440.715	94
440.936	97
441.158	98
441.379	93
441.6	101
441.822	103
442.043	110
442.264	120
442.486	114
442.707	96
442.928	106
443.149	192
443.371	192
443.592	132
443.813	146
444.034	113
444.255	95
444.476	82
444.698	89
444.919	80
445.14	144
445.361	138
445.582	137
445.803	184
446.024	159
446.245	172
446.466	112
446.687	82
446.908	105
447.129	102
447.35	98
447.571	117
447.792	100
448.013	106
448.234	124
448.455	109
448.675	129
448.896	133
449.117	103
449.338	101
449.559	127
449.779	150
450	99
450.221	100
450.442	93
450.662	100
450.883	130
451.104	143
451.324	106
451.545	90
451.766	95
451.986	90
452.207	102
452.428	94
452.648	111
452.869	128
453.089	136
453.31	144
453.53	97
453.751	118
453.971	118
454.192	140
454.412	118
454.633	74
454.853	80
455.073	83
455.294	89
455.514	116
455.734	104
455.955	90
456.175	89
456.395	90
456.616	85
456.836	95
457.056	97
457.276	95
457.497	89
457.717	77
457.937	93
458.157	99
458.377	100
458.598	140
458.818	219
459.038	237
459.258	142
459.478	94
459.698	93
459.918	86
460.138	87
460.358	88
460.578	108
460.798	99
461.018	101
461.238	96
461.458	86
461.678	92
461.898	100
462.118	80
462.338	93
462.558	87
462.777	106
462.997	129
463.217	151
463.437	110
463.657	105
463.876	101
464.096	89
464.316	103
464.536	102
464.755	121
464.975	146
465.195	245
465.414	238
465.634	117
465.854	99
466.073	101
466.293	98
466.512	92
466.732	89
466.951	103
467.171	121
467.391	144
467.61	201
467.829	360
468.049	1342
468.268	2100
468.488	452
468.707	140
468.927	110
469.146	119
469.365	94
469.585	103
469.804	124
470.023	110
470.243	110
470.462	136
470.681	151
470.901	127
471.12	134
471.339	133
471.558	134
471.777	230
471.997	584
472.216	2398
472.435	5762
472.654	1184
472.873	265
473.092	134
473.311	111
473.53	97
473.749	101
473.968	105
474.187	134
474.406	120
474.625	88
474.844	93
475.063	90
475.282	96
475.501	108
475.72	93
475.939	90
476.158	78
476.377	101
476.596	99
476.814	106
477.033	104
477.252	92
477.471	98
477.69	92
477.908	106
478.127	114
478.346	111
478.564	96
478.783	102
479.002	120
479.22	119
479.439	140
479.658	168
479.876	155
480.095	159
480.313	185
480.532	249
480.751	514
480.969	2031
481.188	8999
481.406	5135
481.624	658
481.843	203
482.061	148
482.28	116
482.498	104
482.717	98
482.935	101
483.153	102
483.372	124
483.59	112
483.808	104
484.027	103
484.245	94
484.463	98
484.681	103
484.9	109
485.118	98
485.336	89
485.554	106
485.772	109
485.99	102
486.209	108
486.427	123
486.645	120
486.863	132
487.081	124
487.299	110
487.517	108
487.735	89
487.953	101
488.171	98
488.389	99
488.607	111
488.825	82
489.043	95
489.261	101
489.479	86
489.696	93
489.914	95
490.132	101
490.35	82
490.568	86
490.786	104
491.003	83
491.221	113
491.439	114
491.657	97
491.874	96
492.092	104
492.31	109
492.527	131
492.745	124
492.963	118
493.18	92
493.398	97
493.615	94
493.833	97
494.05	92
494.268	92
494.485	102
494.703	83
494.92	82
495.138	102
495.355	108
495.573	92
495.79	82
496.008	118
496.225	103
496.442	101
496.66	88
496.877	106
497.094	109
497.312	89
497.529	81
497.746	89
497.963	99
498.181	115
498.398	120
498.615	129
498.832	125
499.049	98
499.267	117
499.484	86
499.701	90
499.918	93
500.135	98
500.352	96
500.569	120
500.786	100
501.003	101
501.22	81
501.437	106
501.654	110
501.871	135
502.088	117
502.305	97
502.522	82
502.739	96
502.956	95
503.172	118
503.389	125
503.606	130
503.823	106
504.04	101
504.256	86
504.473	100
504.69	91
504.907	102
505.123	101
505.34	99
505.557	108
505.773	91
505.99	99
506.207	96
506.423	84
506.64	91
506.856	88
507.073	96
507.289	115
507.506	102
507.722	138
507.939	140
508.155	103
508.372	116
508.588	96
508.805	88
509.021	110
509.238	106
509.454	108
509.67	106
509.887	123
510.103	146
510.319	254
510.536	1004
510.752	3618
510.968	950
511.184	192
511.401	137
511.617	108
511.833	128
512.049	105
512.265	105
512.481	106
512.698	102
512.914	100
513.13	104
513.346	106
513.562	110
513.778	110
513.994	113
514.21	140
514.426	160
514.642	178
514.858	163
515.074	232
515.29	766
515.506	2784
515.721	947
515.937	229
516.153	140
516.369	116
516.585	120
516.801	130
517.016	120
517.232	106
517.448	102
517.664	110
517.879	108
518.095	98
518.311	118
518.527	134
518.742	117
518.958	92
519.173	115
519.389	110
519.605	96
519.82	114
520.036	119
520.251	157
520.467	137
520.682	116
520.898	124
521.113	149
521.329	212
521.544	327
521.76	1026
521.975	4645
522.19	2666
522.406	546
522.621	184
522.836	119
523.052	93
523.267	103
523.482	105
523.698	122
523.913	142
524.128	116
524.343	98
524.559	98
524.774	102
524.989	103
525.204	113
525.419	106
525.634	104
525.849	97
526.064	92
526.28	104
526.495	95
526.71	93
526.925	85
527.14	84
527.355	93
527.57	92
527.785	92
527.999	98
528.214	85
528.429	106
528.644	101
528.859	97
529.074	92
529.289	146
529.503	288
529.718	140
529.933	100
530.148	105
530.363	87
530.577	94
530.792	86
531.007	106
531.221	101
531.436	88
531.651	103
531.865	97
532.08	94
532.295	88
532.509	92
532.724	103
532.938	101
533.153	90
533.367	98
533.582	103
533.796	95
534.011	96
534.225	89
534.44	92
534.654	101
534.868	105
535.083	101
535.297	100
535.511	121
535.726	115
535.94	102
536.154	102
536.369	93
536.583	87
536.797	88
537.011	97
537.225	104
537.44	92
537.654	98
537.868	84
538.082	90
538.296	97
538.51	86
538.724	92
538.938	92
539.153	111
539.367	124
539.581	97
539.795	79
540.009	84
540.222	90
540.436	97
540.65	89
540.864	88
541.078	106
541.292	91
541.506	78
541.72	79
541.934	93
542.147	72
542.361	82
542.575	98
542.789	88
543.002	104
543.216	88
543.43	114
543.644	92
543.857	92
544.071	96
544.285	97
544.498	87
544.712	90
544.925	86
545.139	92
545.352	98
545.566	96
545.779	87
545.993	89
546.206	95
546.42	85
546.633	102
546.847	88
547.06	87
547.274	89
547.487	87
547.7	85
547.914	86
548.127	81
548.34	92
548.554	96
548.767	102
548.98	99
549.193	89
549.407	100
549.62	104
549.833	96
550.046	96
550.259	97
550.473	104
550.686	100
550.899	86
551.112	99
551.325	93
551.538	126
551.751	119
551.964	95
552.177	100
552.39	105
552.603	82
552.816	98
553.029	113
553.242	114
553.455	106
553.667	129
553.88	140
554.093	120
554.306	156
554.519	176
554.732	115
554.944	100
555.157	87
555.37	90
555.583	93
555.795	104
556.008	79
556.221	96
556.433	93
556.646	110
556.859	101
557.071	122
557.284	91
557.496	108
557.709	100
557.921	108
558.134	73
558.346	80
558.559	76
558.771	87
558.984	95
559.196	100
559.409	86
559.621	103
559.833	100
560.046	88
560.258	166
560.47	208
560.683	140
560.895	118
561.107	104
561.32	102
561.532	87
561.744	113
561.956	85
562.168	103
562.381	96
562.593	93
562.805	97
563.017	90
563.229	92
563.441	93
563.653	96
563.865	95
564.077	102
564.289	92
564.501	100
564.713	101
564.925	89
565.137	109
565.349	98
565.561	89
565.773	93
565.985	101
566.197	96
566.408	85
566.62	67
566.832	94
567.044	79
567.255	97
567.467	98
567.679	88
567.891	89
568.102	84
568.314	86
568.526	94
568.737	86
568.949	96
569.161	98
569.372	88
569.584	89
569.795	111
570.007	131
570.218	295
570.43	151
570.641	103
570.853	91
571.064	93
571.276	86
571.487	93
571.698	96
571.91	83
572.121	89
572.333	93
572.544	87
572.755	89
572.966	96
573.178	90
573.389	101
573.6	86
573.811	82
574.023	83
574.234	89
574.445	92
574.656	91
574.867	92
575.078	80
575.289	77
575.501	97
575.712	94
575.923	103
576.134	100
576.345	86
576.556	88
576.767	93
576.978	92
