Data from Circ_1988_H10_HRD10591_00005.txt Node
Date: Wed Jan 03 12:05:35 EST 2024
User: Yrep
Spectrometer: HR+D1059
Trigger mode: 1
Integration Time (sec): 1.000000E-1
Scans to average: 1
Electric dark correction enabled: true
Nonlinearity correction enabled: false
Boxcar width: 0
XAxis mode: Wavelengths
Number of Pixels in Spectrum: 2048
>>>>>Begin Spectral Data<<<<<
223.165	-14.31
223.4	-14.31
223.635	-14.31
223.869	-19.31
224.104	-11.31
224.338	-13.31
224.573	-14.31
224.808	-19.31
225.042	-12.31
225.277	-9.31
225.511	7.69
225.746	7.69
225.98	-5.31
226.215	14.69
226.449	19.69
226.683	22.69
226.918	22.69
227.152	23.69
227.387	36.69
227.621	46.69
227.856	37.69
228.09	60.69
228.324	53.69
228.559	55.69
228.793	62.69
229.027	72.69
229.262	67.69
229.496	86.69
229.73	94.69
229.964	92.69
230.199	76.69
230.433	79.69
230.667	72.69
230.901	74.69
231.136	84.69
231.37	76.69
231.604	81.69
231.838	84.69
232.072	86.69
232.306	89.69
232.541	86.69
232.775	84.69
233.009	65.69
233.243	73.69
233.477	69.69
233.711	85.69
233.945	81.69
234.179	76.69
234.413	77.69
234.647	77.69
234.881	74.69
235.115	94.69
235.349	97.69
235.583	79.69
235.817	75.69
236.051	86.69
236.285	66.69
236.519	73.69
236.753	78.69
236.987	76.69
237.221	82.69
237.455	93.69
237.689	80.69
237.922	72.69
238.156	73.69
238.39	79.69
238.624	88.69
238.858	64.69
239.091	80.69
239.325	85.69
239.559	82.69
239.793	77.69
240.027	83.69
240.26	92.69
240.494	75.69
240.728	78.69
240.961	78.69
241.195	72.69
241.429	66.69
241.662	81.69
241.896	84.69
242.13	76.69
242.363	84.69
242.597	90.69
242.83	76.69
243.064	73.69
243.298	64.69
243.531	78.69
243.765	90.69
243.998	87.69
244.232	88.69
244.465	88.69
244.699	79.69
244.932	82.69
245.166	70.69
245.399	82.69
245.633	81.69
245.866	93.69
246.099	89.69
246.333	71.69
246.566	89.69
246.8	77.69
247.033	74.69
247.266	79.69
247.5	78.69
247.733	98.69
247.966	80.69
248.2	101.69
248.433	94.69
248.666	82.69
248.899	80.69
249.133	92.69
249.366	99.69
249.599	98.69
249.832	109.69
250.066	94.69
250.299	107.69
250.532	83.69
250.765	82.69
250.998	86.69
251.231	77.69
251.465	89.69
251.698	99.69
251.931	91.69
252.164	95.69
252.397	90.69
252.63	85.69
252.863	69.69
253.096	85.69
253.329	82.69
253.562	76.69
253.795	79.69
254.028	81.69
254.261	71.69
254.494	105.69
254.727	92.69
254.96	78.69
255.193	80.69
255.426	92.69
255.659	86.69
255.892	99.69
256.124	122.69
256.357	94.69
256.59	88.69
256.823	95.69
257.056	112.69
257.289	99.69
257.521	97.69
257.754	98.69
257.987	78.69
258.22	106.69
258.452	117.69
258.685	123.69
258.918	95.69
259.151	79.69
259.383	100.69
259.616	96.69
259.849	90.69
260.081	80.69
260.314	93.69
260.547	101.69
260.779	142.69
261.012	166.69
261.244	161.69
261.477	122.69
261.71	121.69
261.942	144.69
262.175	142.69
262.407	99.69
262.64	83.69
262.872	91.69
263.105	89.69
263.337	90.69
263.57	89.69
263.802	88.69
264.035	76.69
264.267	81.69
264.499	86.69
264.732	73.69
264.964	80.69
265.197	92.69
265.429	104.69
265.661	89.69
265.894	82.69
266.126	97.69
266.358	87.69
266.591	68.69
266.823	78.69
267.055	84.69
267.287	97.69
267.52	84.69
267.752	87.69
267.984	86.69
268.216	92.69
268.448	100.69
268.681	99.69
268.913	83.69
269.145	90.69
269.377	89.69
269.609	77.69
269.841	92.69
270.073	80.69
270.306	85.69
270.538	94.69
270.77	96.69
271.002	87.69
271.234	96.69
271.466	98.69
271.698	94.69
271.93	88.69
272.162	86.69
272.394	98.69
272.626	82.69
272.858	88.69
273.09	96.69
273.322	91.69
273.553	81.69
273.785	103.69
274.017	78.69
274.249	93.69
274.481	93.69
274.713	99.69
274.945	101.69
275.176	110.69
275.408	117.69
275.64	156.69
275.872	206.69
276.104	160.69
276.335	129.69
276.567	144.69
276.799	188.69
277.031	302.69
277.262	393.69
277.494	272.69
277.726	145.69
277.957	105.69
278.189	102.69
278.421	97.69
278.652	98.69
278.884	81.69
279.115	106.69
279.347	111.69
279.579	147.69
279.81	217.69
280.042	400.69
280.273	611.69
280.505	382.69
280.736	173.69
280.968	101.69
281.199	110.69
281.431	102.69
281.662	90.69
281.894	97.69
282.125	114.69
282.356	119.69
282.588	172.69
282.819	146.69
283.051	109.69
283.282	80.69
283.513	105.69
283.745	88.69
283.976	87.69
284.207	84.69
284.439	91.69
284.67	92.69
284.901	94.69
285.132	100.69
285.364	80.69
285.595	92.69
285.826	82.69
286.057	86.69
286.288	87.69
286.52	91.69
286.751	91.69
286.982	94.69
287.213	97.69
287.444	96.69
287.675	98.69
287.906	103.69
288.138	96.69
288.369	103.69
288.6	101.69
288.831	93.69
289.062	99.69
289.293	87.69
289.524	86.69
289.755	83.69
289.986	79.69
290.217	91.69
290.448	78.69
290.679	84.69
290.91	110.69
291.141	94.69
291.371	92.69
291.602	96.69
291.833	103.69
292.064	98.69
292.295	100.69
292.526	95.69
292.757	88.69
292.987	89.69
293.218	103.69
293.449	91.69
293.68	88.69
293.91	79.69
294.141	93.69
294.372	84.69
294.603	93.69
294.833	88.69
295.064	96.69
295.295	101.69
295.525	88.69
295.756	95.69
295.987	142.69
296.217	183.69
296.448	157.69
296.679	102.69
296.909	94.69
297.14	102.69
297.37	99.69
297.601	96.69
297.831	95.69
298.062	90.69
298.292	84.69
298.523	96.69
298.753	82.69
298.984	96.69
299.214	89.69
299.445	92.69
299.675	96.69
299.905	98.69
300.136	104.69
300.366	102.69
300.597	88.69
300.827	101.69
301.057	116.69
301.288	115.69
301.518	113.69
301.748	116.69
301.979	144.69
302.209	113.69
302.439	101.69
302.669	89.69
302.9	88.69
303.13	116.69
303.36	126.69
303.59	190.69
303.82	219.69
304.051	132.69
304.281	116.69
304.511	102.69
304.741	93.69
304.971	93.69
305.201	88.69
305.431	87.69
305.661	109.69
305.891	110.69
306.121	107.69
306.352	120.69
306.582	134.69
306.812	131.69
307.042	176.69
307.272	277.69
307.502	342.69
307.731	288.69
307.961	182.69
308.191	101.69
308.421	105.69
308.651	90.69
308.881	110.69
309.111	84.69
309.341	100.69
309.571	97.69
309.8	104.69
310.03	104.69
310.26	101.69
310.49	105.69
310.72	112.69
310.949	130.69
311.179	131.69
311.409	118.69
311.639	119.69
311.868	102.69
312.098	107.69
312.328	112.69
312.557	112.69
312.787	122.69
313.017	125.69
313.246	105.69
313.476	104.69
313.706	97.69
313.935	105.69
314.165	106.69
314.394	112.69
314.624	110.69
314.853	104.69
315.083	102.69
315.312	101.69
315.542	92.69
315.771	74.69
316.001	87.69
316.23	94.69
316.46	93.69
316.689	109.69
316.919	97.69
317.148	112.69
317.377	112.69
317.607	112.69
317.836	104.69
318.065	101.69
318.295	103.69
318.524	97.69
318.753	82.69
318.983	102.69
319.212	103.69
319.441	117.69
319.67	120.69
319.9	96.69
320.129	101.69
320.358	98.69
320.587	111.69
320.816	107.69
321.046	116.69
321.275	106.69
321.504	108.69
321.733	111.69
321.962	110.69
322.191	108.69
322.42	104.69
322.649	115.69
322.878	132.69
323.108	119.69
323.337	137.69
323.566	153.69
323.795	182.69
324.024	241.69
324.253	418.69
324.482	880.69
324.71	1779.69
324.939	2356.69
325.168	932.69
325.397	297.69
325.626	165.69
325.855	153.69
326.084	136.69
326.313	160.69
326.542	191.69
326.77	247.69
326.999	467.69
327.228	906.69
327.457	1701.69
327.686	1422.69
327.914	697.69
328.143	975.69
328.372	1467.69
328.6	738.69
328.829	262.69
329.058	239.69
329.287	247.69
329.515	258.69
329.744	450.69
329.972	978.69
330.201	2177.69
330.43	3298.69
330.658	1297.69
330.887	421.69
331.115	219.69
331.344	148.69
331.572	143.69
331.801	146.69
332.03	140.69
332.258	125.69
332.486	128.69
332.715	132.69
332.943	138.69
333.172	160.69
333.4	180.69
333.629	234.69
333.857	370.69
334.085	818.69
334.314	1838.69
334.542	3858.69
334.771	3613.69
334.999	857.69
335.227	296.69
335.455	177.69
335.684	151.69
335.912	138.69
336.14	122.69
336.369	113.69
336.597	125.69
336.825	105.69
337.053	108.69
337.281	98.69
337.51	111.69
337.738	104.69
337.966	111.69
338.194	108.69
338.422	102.69
338.65	116.69
338.878	119.69
339.106	106.69
339.334	96.69
339.562	110.69
339.79	104.69
340.018	86.69
340.246	105.69
340.474	95.69
340.702	95.69
340.93	92.69
341.158	105.69
341.386	114.69
341.614	113.69
341.842	99.69
342.07	116.69
342.298	103.69
342.526	89.69
342.754	97.69
342.981	85.69
343.209	102.69
343.437	105.69
343.665	85.69
343.893	94.69
344.12	113.69
344.348	115.69
344.576	92.69
344.804	109.69
345.031	100.69
345.259	106.69
345.487	102.69
345.714	110.69
345.942	104.69
346.17	95.69
346.397	94.69
346.625	102.69
346.853	103.69
347.08	98.69
347.308	96.69
347.535	114.69
347.763	115.69
347.99	91.69
348.218	112.69
348.445	103.69
348.673	98.69
348.9	103.69
349.128	105.69
349.355	99.69
349.583	102.69
349.81	90.69
350.037	101.69
350.265	91.69
350.492	94.69
350.72	89.69
350.947	98.69
351.174	119.69
351.402	130.69
351.629	111.69
351.856	115.69
352.083	106.69
352.311	117.69
352.538	136.69
352.765	121.69
352.992	116.69
353.22	125.69
353.447	112.69
353.674	100.69
353.901	92.69
354.128	111.69
354.355	89.69
354.583	103.69
354.81	109.69
355.037	92.69
355.264	92.69
355.491	97.69
355.718	104.69
355.945	82.69
356.172	102.69
356.399	112.69
356.626	87.69
356.853	90.69
357.08	106.69
357.307	90.69
357.534	78.69
357.761	98.69
357.988	114.69
358.215	109.69
358.441	115.69
358.668	119.69
358.895	99.69
359.122	84.69
359.349	96.69
359.576	106.69
359.802	127.69
360.029	150.69
360.256	136.69
360.483	119.69
360.709	96.69
360.936	118.69
361.163	106.69
361.39	115.69
361.616	110.69
361.843	93.69
362.07	106.69
362.296	105.69
362.523	107.69
362.749	106.69
362.976	95.69
363.203	100.69
363.429	93.69
363.656	98.69
363.882	100.69
364.109	96.69
364.335	94.69
364.562	106.69
364.788	115.69
365.015	102.69
365.241	119.69
365.468	125.69
365.694	142.69
365.92	104.69
366.147	102.69
366.373	86.69
366.599	105.69
366.826	90.69
367.052	93.69
367.278	94.69
367.505	85.69
367.731	109.69
367.957	98.69
368.184	89.69
368.41	100.69
368.636	119.69
368.862	132.69
369.089	114.69
369.315	113.69
369.541	73.69
369.767	104.69
369.993	83.69
370.219	101.69
370.445	105.69
370.672	106.69
370.898	92.69
371.124	88.69
371.35	83.69
371.576	93.69
371.802	100.69
372.028	95.69
372.254	97.69
372.48	83.69
372.706	97.69
372.932	99.69
373.158	96.69
373.384	85.69
373.61	105.69
373.835	91.69
374.061	90.69
374.287	104.69
374.513	93.69
374.739	90.69
374.965	102.69
375.191	96.69
375.416	92.69
375.642	93.69
375.868	102.69
376.094	97.69
376.319	95.69
376.545	89.69
376.771	95.69
376.997	95.69
377.222	107.69
377.448	105.69
377.674	96.69
377.899	99.69
378.125	107.69
378.35	101.69
378.576	103.69
378.802	93.69
379.027	120.69
379.253	116.69
379.478	111.69
379.704	100.69
379.929	101.69
380.155	111.69
380.38	116.69
380.606	117.69
380.831	124.69
381.057	122.69
381.282	124.69
381.507	115.69
381.733	126.69
381.958	118.69
382.184	132.69
382.409	126.69
382.634	141.69
382.86	120.69
383.085	129.69
383.31	140.69
383.535	130.69
383.761	148.69
383.986	144.69
384.211	137.69
384.436	142.69
384.662	150.69
384.887	169.69
385.112	177.69
385.337	168.69
385.562	178.69
385.787	182.69
386.013	185.69
386.238	196.69
386.463	187.69
386.688	174.69
386.913	164.69
387.138	197.69
387.363	175.69
387.588	153.69
387.813	140.69
388.038	170.69
388.263	198.69
388.488	185.69
388.713	108.69
388.938	88.69
389.163	78.69
389.387	95.69
389.612	75.69
389.837	78.69
390.062	86.69
390.287	94.69
390.512	86.69
390.736	87.69
390.961	79.69
391.186	80.69
391.411	93.69
391.636	105.69
391.86	76.69
392.085	88.69
392.31	90.69
392.534	98.69
392.759	94.69
392.984	103.69
393.208	109.69
393.433	143.69
393.658	133.69
393.882	72.69
394.107	89.69
394.331	92.69
394.556	81.69
394.78	84.69
395.005	93.69
395.229	89.69
395.454	84.69
395.678	83.69
395.903	91.69
396.127	95.69
396.352	94.69
396.576	88.69
396.801	110.69
397.025	112.69
397.249	87.69
397.474	88.69
397.698	76.69
397.922	80.69
398.147	84.69
398.371	87.69
398.595	90.69
398.82	89.69
399.044	89.69
399.268	98.69
399.492	82.69
399.717	83.69
399.941	92.69
400.165	106.69
400.389	104.69
400.613	72.69
400.837	85.69
401.062	88.69
401.286	93.69
401.51	86.69
401.734	107.69
401.958	102.69
402.182	144.69
402.406	204.69
402.63	142.69
402.854	113.69
403.078	105.69
403.302	80.69
403.526	93.69
403.75	92.69
403.974	89.69
404.198	97.69
404.422	87.69
404.645	103.69
404.869	99.69
405.093	119.69
405.317	130.69
405.541	119.69
405.765	132.69
405.988	137.69
406.212	227.69
406.436	341.69
406.66	220.69
406.883	124.69
407.107	106.69
407.331	98.69
407.555	110.69
407.778	102.69
408.002	108.69
408.226	89.69
408.449	96.69
408.673	98.69
408.896	84.69
409.12	95.69
409.344	96.69
409.567	97.69
409.791	88.69
410.014	90.69
410.238	100.69
410.461	113.69
410.685	112.69
410.908	109.69
411.132	105.69
411.355	107.69
411.578	88.69
411.802	100.69
412.025	104.69
412.249	112.69
412.472	125.69
412.695	137.69
412.919	133.69
413.142	87.69
413.365	90.69
413.589	106.69
413.812	84.69
414.035	109.69
414.258	104.69
414.482	114.69
414.705	93.69
414.928	105.69
415.151	106.69
415.374	111.69
415.597	92.69
415.821	91.69
416.044	97.69
416.267	104.69
416.49	99.69
416.713	104.69
416.936	99.69
417.159	109.69
417.382	125.69
417.605	126.69
417.828	132.69
418.051	128.69
418.274	95.69
418.497	99.69
418.72	94.69
418.943	82.69
419.166	85.69
419.389	86.69
419.611	97.69
419.834	83.69
420.057	85.69
420.28	96.69
420.503	91.69
420.726	97.69
420.948	108.69
421.171	131.69
421.394	105.69
421.617	101.69
421.839	95.69
422.062	88.69
422.285	85.69
422.507	106.69
422.73	146.69
422.953	117.69
423.175	103.69
423.398	103.69
423.621	91.69
423.843	80.69
424.066	81.69
424.288	90.69
424.511	88.69
424.733	93.69
424.956	106.69
425.178	104.69
425.401	98.69
425.623	101.69
425.846	104.69
426.068	104.69
426.291	97.69
426.513	98.69
426.735	91.69
426.958	93.69
427.18	116.69
427.402	170.69
427.625	268.69
427.847	274.69
428.069	225.69
428.292	138.69
428.514	110.69
428.736	87.69
428.958	82.69
429.181	89.69
429.403	100.69
429.625	100.69
429.847	92.69
430.069	106.69
430.292	103.69
430.514	90.69
430.736	83.69
430.958	79.69
431.18	79.69
431.402	92.69
431.624	80.69
431.846	82.69
432.068	101.69
432.29	104.69
432.512	91.69
432.734	85.69
432.956	110.69
433.178	98.69
433.4	92.69
433.622	80.69
433.844	87.69
434.066	94.69
434.287	83.69
434.509	81.69
434.731	96.69
434.953	100.69
435.175	79.69
435.397	97.69
435.618	97.69
435.84	118.69
436.062	126.69
436.284	127.69
436.505	93.69
436.727	95.69
436.949	101.69
437.17	83.69
437.392	80.69
437.614	92.69
437.835	114.69
438.057	143.69
438.278	126.69
438.5	105.69
438.721	137.69
438.943	105.69
439.165	91.69
439.386	92.69
439.608	93.69
439.829	108.69
440.05	147.69
440.272	141.69
440.493	110.69
440.715	87.69
440.936	101.69
441.158	88.69
441.379	110.69
441.6	98.69
441.822	99.69
442.043	97.69
442.264	122.69
442.486	116.69
442.707	115.69
442.928	131.69
443.149	185.69
443.371	181.69
443.592	130.69
443.813	134.69
444.034	127.69
444.255	112.69
444.476	97.69
444.698	89.69
444.919	99.69
445.14	134.69
445.361	118.69
445.582	111.69
445.803	158.69
446.024	172.69
446.245	152.69
446.466	113.69
446.687	104.69
446.908	84.69
447.129	96.69
447.35	91.69
447.571	99.69
447.792	101.69
448.013	101.69
448.234	119.69
448.455	122.69
448.675	125.69
448.896	124.69
449.117	109.69
449.338	112.69
449.559	144.69
449.779	144.69
450	99.69
450.221	104.69
450.442	95.69
450.662	105.69
450.883	128.69
451.104	121.69
451.324	107.69
451.545	102.69
451.766	96.69
451.986	85.69
452.207	94.69
452.428	107.69
452.648	104.69
452.869	129.69
453.089	147.69
453.31	148.69
453.53	98.69
453.751	106.69
453.971	116.69
454.192	143.69
454.412	101.69
454.633	100.69
454.853	83.69
455.073	89.69
455.294	95.69
455.514	100.69
455.734	92.69
455.955	90.69
456.175	78.69
456.395	88.69
456.616	98.69
456.836	92.69
457.056	88.69
457.276	86.69
457.497	87.69
457.717	88.69
457.937	94.69
458.157	65.69
458.377	96.69
458.598	117.69
458.818	210.69
459.038	227.69
459.258	162.69
459.478	103.69
459.698	83.69
459.918	87.69
460.138	81.69
460.358	93.69
460.578	102.69
460.798	92.69
461.018	110.69
461.238	97.69
461.458	97.69
461.678	86.69
461.898	86.69
462.118	90.69
462.338	89.69
462.558	85.69
462.777	98.69
462.997	128.69
463.217	161.69
463.437	107.69
463.657	104.69
463.876	100.69
464.096	94.69
464.316	103.69
464.536	112.69
464.755	114.69
464.975	112.69
465.195	222.69
465.414	240.69
465.634	105.69
465.854	104.69
466.073	81.69
466.293	110.69
466.512	104.69
466.732	102.69
466.951	113.69
467.171	127.69
467.391	143.69
467.61	195.69
467.829	405.69
468.049	1463.69
468.268	2348.69
468.488	489.69
468.707	172.69
468.927	113.69
469.146	107.69
469.365	107.69
469.585	115.69
469.804	110.69
470.023	122.69
470.243	107.69
470.462	128.69
470.681	150.69
470.901	106.69
471.12	122.69
471.339	115.69
471.558	154.69
471.777	240.69
471.997	602.69
472.216	2557.69
472.435	6104.69
472.654	1263.69
472.873	276.69
473.092	158.69
473.311	120.69
473.53	106.69
473.749	104.69
473.968	105.69
474.187	127.69
474.406	106.69
474.625	101.69
474.844	111.69
475.063	111.69
475.282	90.69
475.501	88.69
475.72	106.69
475.939	96.69
476.158	98.69
476.377	100.69
476.596	109.69
476.814	107.69
477.033	116.69
477.252	115.69
477.471	95.69
477.69	107.69
477.908	95.69
478.127	92.69
478.346	90.69
478.564	112.69
478.783	129.69
479.002	120.69
479.22	121.69
479.439	133.69
479.658	152.69
479.876	160.69
480.095	154.69
480.313	188.69
480.532	261.69
480.751	524.69
480.969	2109.69
481.188	9612.69
481.406	5415.69
481.624	700.69
481.843	233.69
482.061	154.69
482.28	132.69
482.498	122.69
482.717	101.69
482.935	103.69
483.153	104.69
483.372	92.69
483.59	112.69
483.808	82.69
484.027	94.69
484.245	104.69
484.463	97.69
484.681	87.69
484.9	101.69
485.118	100.69
485.336	100.69
485.554	93.69
485.772	102.69
485.99	123.69
486.209	109.69
486.427	119.69
486.645	119.69
486.863	138.69
487.081	115.69
487.299	118.69
487.517	84.69
487.735	94.69
487.953	107.69
488.171	94.69
488.389	97.69
488.607	102.69
488.825	98.69
489.043	98.69
489.261	97.69
489.479	108.69
489.696	105.69
489.914	86.69
490.132	96.69
490.35	101.69
490.568	71.69
490.786	99.69
491.003	100.69
491.221	98.69
491.439	93.69
491.657	95.69
491.874	93.69
492.092	94.69
492.31	96.69
492.527	105.69
492.745	82.69
492.963	104.69
493.18	106.69
493.398	91.69
493.615	91.69
493.833	96.69
494.05	84.69
494.268	96.69
494.485	98.69
494.703	83.69
494.92	83.69
495.138	96.69
495.355	92.69
495.573	99.69
495.79	111.69
496.008	116.69
496.225	97.69
496.442	100.69
496.66	92.69
496.877	79.69
497.094	88.69
497.312	91.69
497.529	91.69
497.746	87.69
497.963	91.69
498.181	85.69
498.398	105.69
498.615	120.69
498.832	113.69
499.049	106.69
499.267	101.69
499.484	93.69
499.701	92.69
499.918	101.69
500.135	102.69
500.352	113.69
500.569	105.69
500.786	101.69
501.003	111.69
501.22	84.69
501.437	84.69
501.654	99.69
501.871	128.69
502.088	108.69
502.305	97.69
502.522	92.69
502.739	89.69
502.956	88.69
503.172	106.69
503.389	120.69
503.606	142.69
503.823	112.69
504.04	92.69
504.256	94.69
504.473	97.69
504.69	94.69
504.907	107.69
505.123	106.69
505.34	107.69
505.557	101.69
505.773	88.69
505.99	87.69
506.207	93.69
506.423	96.69
506.64	90.69
506.856	92.69
507.073	99.69
507.289	101.69
507.506	115.69
507.722	125.69
507.939	128.69
508.155	97.69
508.372	99.69
508.588	84.69
508.805	122.69
509.021	112.69
509.238	117.69
509.454	95.69
509.67	100.69
509.887	103.69
510.103	157.69
510.319	268.69
510.536	1029.69
