Data from Circ_1988_H10_HRD10591_00068.txt Node
Date: Wed Jan 03 12:05:48 EST 2024
User: Yrep
Spectrometer: HR+D1059
Trigger mode: 1
Integration Time (sec): 1.000000E-1
Scans to average: 1
Electric dark correction enabled: true
Nonlinearity correction enabled: false
Boxcar width: 0
XAxis mode: Wavelengths
Number of Pixels in Spectrum: 2048
>>>>>Begin Spectral Data<<<<<
223.165	-25.88
223.4	-25.88
223.635	-25.88
223.869	-17.88
224.104	-24.88
224.338	-5.88
224.573	-5.88
224.808	-10.88
225.042	-15.88
225.277	-0.88
225.511	2.12
225.746	12.12
225.98	5.12
226.215	9.12
226.449	19.12
226.683	15.12
226.918	21.12
227.152	24.12
227.387	41.12
227.621	34.12
227.856	43.12
228.09	50.12
228.324	53.12
228.559	50.12
228.793	53.12
229.027	61.12
229.262	71.12
229.496	79.12
229.73	94.12
229.964	88.12
230.199	65.12
230.433	71.12
230.667	78.12
230.901	85.12
231.136	74.12
231.37	77.12
231.604	104.12
231.838	88.12
232.072	74.12
232.306	72.12
232.541	92.12
232.775	73.12
233.009	81.12
233.243	74.12
233.477	80.12
233.711	89.12
233.945	76.12
234.179	90.12
234.413	85.12
234.647	78.12
234.881	90.12
235.115	77.12
235.349	92.12
235.583	82.12
235.817	72.12
236.051	83.12
236.285	71.12
236.519	77.12
236.753	84.12
236.987	90.12
237.221	100.12
237.455	101.12
237.689	84.12
237.922	64.12
238.156	76.12
238.39	79.12
238.624	84.12
238.858	78.12
239.091	83.12
239.325	82.12
239.559	88.12
239.793	79.12
240.027	88.12
240.26	89.12
240.494	86.12
240.728	91.12
240.961	94.12
241.195	84.12
241.429	81.12
241.662	80.12
241.896	75.12
242.13	80.12
242.363	69.12
242.597	78.12
242.83	82.12
243.064	80.12
243.298	73.12
243.531	75.12
243.765	76.12
243.998	78.12
244.232	76.12
244.465	100.12
244.699	78.12
244.932	78.12
245.166	93.12
245.399	75.12
245.633	81.12
245.866	78.12
246.099	97.12
246.333	69.12
246.566	80.12
246.8	74.12
247.033	84.12
247.266	79.12
247.5	76.12
247.733	80.12
247.966	97.12
248.2	89.12
248.433	82.12
248.666	76.12
248.899	81.12
249.133	102.12
249.366	114.12
249.599	111.12
249.832	86.12
250.066	110.12
250.299	89.12
250.532	86.12
250.765	81.12
250.998	82.12
251.231	79.12
251.465	86.12
251.698	82.12
251.931	93.12
252.164	101.12
252.397	85.12
252.63	76.12
252.863	78.12
253.096	88.12
253.329	90.12
253.562	90.12
253.795	79.12
254.028	86.12
254.261	88.12
254.494	76.12
254.727	86.12
254.96	92.12
255.193	82.12
255.426	83.12
255.659	82.12
255.892	104.12
256.124	118.12
256.357	82.12
256.59	86.12
256.823	80.12
257.056	88.12
257.289	96.12
257.521	97.12
257.754	96.12
257.987	87.12
258.22	100.12
258.452	120.12
258.685	118.12
258.918	97.12
259.151	89.12
259.383	77.12
259.616	85.12
259.849	88.12
260.081	98.12
260.314	86.12
260.547	93.12
260.779	115.12
261.012	138.12
261.244	157.12
261.477	109.12
261.71	110.12
261.942	129.12
262.175	144.12
262.407	89.12
262.64	85.12
262.872	88.12
263.105	95.12
263.337	91.12
263.57	89.12
263.802	87.12
264.035	82.12
264.267	98.12
264.499	92.12
264.732	76.12
264.964	79.12
265.197	89.12
265.429	86.12
265.661	79.12
265.894	75.12
266.126	81.12
266.358	72.12
266.591	81.12
266.823	90.12
267.055	87.12
267.287	94.12
267.52	82.12
267.752	85.12
267.984	92.12
268.216	95.12
268.448	89.12
268.681	102.12
268.913	81.12
269.145	84.12
269.377	73.12
269.609	81.12
269.841	73.12
270.073	98.12
270.306	82.12
270.538	77.12
270.77	78.12
271.002	89.12
271.234	103.12
271.466	96.12
271.698	89.12
271.93	80.12
272.162	99.12
272.394	92.12
272.626	84.12
272.858	79.12
273.09	68.12
273.322	87.12
273.553	89.12
273.785	74.12
274.017	93.12
274.249	90.12
274.481	90.12
274.713	87.12
274.945	89.12
275.176	99.12
275.408	119.12
275.64	151.12
275.872	169.12
276.104	126.12
276.335	133.12
276.567	129.12
276.799	183.12
277.031	272.12
277.262	352.12
277.494	244.12
277.726	133.12
277.957	102.12
278.189	105.12
278.421	113.12
278.652	82.12
278.884	100.12
279.115	102.12
279.347	107.12
279.579	126.12
279.81	188.12
280.042	344.12
280.273	503.12
280.505	323.12
280.736	154.12
280.968	115.12
281.199	105.12
281.431	102.12
281.662	87.12
281.894	97.12
282.125	122.12
282.356	142.12
282.588	180.12
282.819	154.12
283.051	88.12
283.282	97.12
283.513	96.12
283.745	88.12
283.976	93.12
284.207	93.12
284.439	83.12
284.67	78.12
284.901	93.12
285.132	89.12
285.364	82.12
285.595	94.12
285.826	90.12
286.057	94.12
286.288	100.12
286.52	90.12
286.751	77.12
286.982	95.12
287.213	73.12
287.444	88.12
287.675	92.12
287.906	91.12
288.138	89.12
288.369	114.12
288.6	90.12
288.831	87.12
289.062	75.12
289.293	85.12
289.524	82.12
289.755	82.12
289.986	78.12
290.217	93.12
290.448	79.12
290.679	87.12
290.91	84.12
291.141	88.12
291.371	100.12
291.602	70.12
291.833	95.12
292.064	102.12
292.295	97.12
292.526	89.12
292.757	82.12
292.987	96.12
293.218	86.12
293.449	85.12
293.68	80.12
293.91	102.12
294.141	96.12
294.372	87.12
294.603	99.12
294.833	96.12
295.064	89.12
295.295	102.12
295.525	91.12
295.756	110.12
295.987	126.12
296.217	180.12
296.448	170.12
296.679	111.12
296.909	87.12
297.14	98.12
297.37	66.12
297.601	81.12
297.831	94.12
298.062	100.12
298.292	102.12
298.523	90.12
298.753	108.12
298.984	96.12
299.214	96.12
299.445	107.12
299.675	99.12
299.905	112.12
300.136	93.12
300.366	85.12
300.597	86.12
300.827	110.12
301.057	109.12
301.288	112.12
301.518	108.12
301.748	124.12
301.979	128.12
302.209	111.12
302.439	101.12
302.669	86.12
302.9	104.12
303.13	100.12
303.36	124.12
303.59	184.12
303.82	216.12
304.051	130.12
304.281	99.12
304.511	88.12
304.741	103.12
304.971	96.12
305.201	82.12
305.431	81.12
305.661	83.12
305.891	102.12
306.121	100.12
306.352	114.12
306.582	126.12
306.812	130.12
307.042	166.12
307.272	252.12
307.502	282.12
307.731	248.12
307.961	150.12
308.191	109.12
308.421	94.12
308.651	96.12
308.881	90.12
309.111	100.12
309.341	106.12
309.571	106.12
309.8	105.12
310.03	98.12
310.26	106.12
310.49	89.12
310.72	110.12
310.949	122.12
311.179	112.12
311.409	87.12
311.639	103.12
311.868	105.12
312.098	104.12
312.328	103.12
312.557	109.12
312.787	128.12
313.017	109.12
313.246	101.12
313.476	97.12
313.706	94.12
313.935	100.12
314.165	109.12
314.394	114.12
314.624	109.12
314.853	115.12
315.083	106.12
315.312	92.12
315.542	103.12
315.771	96.12
316.001	90.12
316.23	85.12
316.46	85.12
316.689	90.12
316.919	112.12
317.148	108.12
317.377	99.12
317.607	92.12
317.836	89.12
318.065	92.12
318.295	94.12
318.524	97.12
318.753	99.12
318.983	102.12
319.212	101.12
319.441	124.12
319.67	122.12
319.9	100.12
320.129	85.12
320.358	109.12
320.587	106.12
320.816	109.12
321.046	106.12
321.275	112.12
321.504	109.12
321.733	100.12
321.962	103.12
322.191	101.12
322.42	109.12
322.649	130.12
322.878	127.12
323.108	113.12
323.337	145.12
323.566	136.12
323.795	171.12
324.024	212.12
324.253	407.12
324.482	860.12
324.71	1719.12
324.939	2275.12
325.168	868.12
325.397	287.12
325.626	168.12
325.855	144.12
326.084	130.12
326.313	144.12
326.542	168.12
326.77	244.12
326.999	439.12
327.228	855.12
327.457	1574.12
327.686	1336.12
327.914	664.12
328.143	887.12
328.372	1295.12
328.6	641.12
328.829	250.12
329.058	238.12
329.287	226.12
329.515	237.12
329.744	407.12
329.972	873.12
330.201	2001.12
330.43	2916.12
330.658	1176.12
330.887	399.12
331.115	223.12
331.344	154.12
331.572	144.12
331.801	140.12
332.03	144.12
332.258	124.12
332.486	103.12
332.715	136.12
332.943	149.12
333.172	158.12
333.4	162.12
333.629	219.12
333.857	351.12
334.085	733.12
334.314	1698.12
334.542	3519.12
334.771	3279.12
334.999	782.12
335.227	265.12
335.455	165.12
335.684	137.12
335.912	140.12
336.14	121.12
336.369	108.12
336.597	127.12
336.825	118.12
337.053	97.12
337.281	105.12
337.51	111.12
337.738	117.12
337.966	86.12
338.194	105.12
338.422	127.12
338.65	111.12
338.878	95.12
339.106	95.12
339.334	94.12
339.562	94.12
339.79	94.12
340.018	105.12
340.246	101.12
340.474	112.12
340.702	105.12
340.93	104.12
341.158	102.12
341.386	100.12
341.614	126.12
341.842	106.12
342.07	94.12
342.298	106.12
342.526	110.12
342.754	86.12
342.981	81.12
343.209	97.12
343.437	92.12
343.665	93.12
343.893	88.12
344.12	94.12
344.348	92.12
344.576	86.12
344.804	95.12
345.031	101.12
345.259	114.12
345.487	94.12
345.714	87.12
345.942	87.12
346.17	97.12
346.397	105.12
346.625	111.12
346.853	106.12
347.08	93.12
347.308	107.12
347.535	102.12
347.763	110.12
347.99	98.12
348.218	103.12
348.445	121.12
348.673	116.12
348.9	97.12
349.128	86.12
349.355	97.12
349.583	95.12
349.81	88.12
350.037	88.12
350.265	93.12
350.492	104.12
350.72	109.12
350.947	116.12
351.174	113.12
351.402	128.12
351.629	119.12
351.856	109.12
352.083	114.12
352.311	111.12
352.538	120.12
352.765	124.12
352.992	126.12
353.22	132.12
353.447	112.12
353.674	109.12
353.901	97.12
354.128	83.12
354.355	101.12
354.583	98.12
354.81	110.12
355.037	107.12
355.264	101.12
355.491	75.12
355.718	108.12
355.945	88.12
356.172	86.12
356.399	89.12
356.626	101.12
356.853	92.12
357.08	76.12
357.307	84.12
357.534	92.12
357.761	93.12
357.988	109.12
358.215	77.12
358.441	96.12
358.668	96.12
358.895	102.12
359.122	91.12
359.349	88.12
359.576	98.12
359.802	115.12
360.029	148.12
360.256	142.12
360.483	112.12
360.709	95.12
360.936	106.12
361.163	108.12
361.39	106.12
361.616	97.12
361.843	103.12
362.07	94.12
362.296	101.12
362.523	98.12
362.749	107.12
362.976	112.12
363.203	99.12
363.429	87.12
363.656	92.12
363.882	89.12
364.109	107.12
364.335	102.12
364.562	104.12
364.788	90.12
365.015	103.12
365.241	116.12
365.468	125.12
365.694	106.12
365.92	107.12
366.147	98.12
366.373	97.12
366.599	109.12
366.826	111.12
367.052	86.12
367.278	97.12
367.505	88.12
367.731	84.12
367.957	85.12
368.184	108.12
368.41	115.12
368.636	128.12
368.862	127.12
369.089	120.12
369.315	116.12
369.541	97.12
369.767	91.12
369.993	104.12
370.219	99.12
370.445	102.12
370.672	88.12
370.898	90.12
371.124	90.12
371.35	82.12
371.576	94.12
371.802	98.12
372.028	88.12
372.254	76.12
372.48	100.12
372.706	89.12
372.932	79.12
373.158	101.12
373.384	94.12
373.61	100.12
373.835	70.12
374.061	77.12
374.287	111.12
374.513	90.12
374.739	83.12
374.965	92.12
375.191	92.12
375.416	99.12
375.642	99.12
375.868	109.12
376.094	95.12
376.319	101.12
376.545	85.12
376.771	114.12
376.997	78.12
377.222	92.12
377.448	82.12
377.674	86.12
377.899	100.12
378.125	81.12
378.35	97.12
378.576	85.12
378.802	92.12
379.027	94.12
379.253	93.12
379.478	101.12
379.704	106.12
379.929	109.12
380.155	106.12
380.38	100.12
380.606	91.12
380.831	107.12
381.057	107.12
381.282	94.12
381.507	89.12
381.733	93.12
381.958	109.12
382.184	106.12
382.409	110.12
382.634	97.12
382.86	104.12
383.085	97.12
383.31	94.12
383.535	104.12
383.761	106.12
383.986	112.12
384.211	86.12
384.436	100.12
384.662	105.12
384.887	101.12
385.112	111.12
385.337	102.12
385.562	111.12
385.787	110.12
386.013	107.12
386.238	133.12
386.463	107.12
386.688	127.12
386.913	101.12
387.138	107.12
387.363	100.12
387.588	87.12
387.813	98.12
388.038	106.12
388.263	102.12
388.488	107.12
388.713	107.12
388.938	88.12
389.163	81.12
389.387	89.12
389.612	89.12
389.837	81.12
390.062	92.12
390.287	88.12
390.512	90.12
390.736	96.12
390.961	94.12
391.186	109.12
391.411	93.12
391.636	67.12
391.86	76.12
392.085	100.12
392.31	94.12
392.534	93.12
392.759	109.12
392.984	102.12
393.208	92.12
393.433	93.12
393.658	92.12
393.882	95.12
394.107	72.12
394.331	74.12
394.556	80.12
394.78	80.12
395.005	78.12
395.229	80.12
395.454	88.12
395.678	94.12
395.903	100.12
396.127	99.12
396.352	88.12
396.576	87.12
396.801	105.12
397.025	92.12
397.249	80.12
397.474	85.12
397.698	89.12
397.922	95.12
398.147	90.12
398.371	88.12
398.595	102.12
398.82	88.12
399.044	87.12
399.268	89.12
399.492	76.12
399.717	102.12
399.941	92.12
400.165	101.12
400.389	86.12
400.613	90.12
400.837	90.12
401.062	90.12
401.286	92.12
401.51	86.12
401.734	92.12
401.958	112.12
402.182	144.12
402.406	182.12
402.63	152.12
402.854	92.12
403.078	87.12
403.302	80.12
403.526	101.12
403.75	91.12
403.974	94.12
404.198	80.12
404.422	106.12
404.645	84.12
404.869	110.12
405.093	135.12
405.317	163.12
405.541	167.12
405.765	135.12
405.988	130.12
406.212	208.12
406.436	311.12
406.66	191.12
406.883	122.12
407.107	112.12
407.331	99.12
407.555	114.12
407.778	102.12
408.002	96.12
408.226	95.12
408.449	95.12
408.673	76.12
408.896	107.12
409.12	103.12
409.344	95.12
409.567	84.12
409.791	80.12
410.014	96.12
410.238	88.12
410.461	97.12
410.685	102.12
410.908	99.12
411.132	112.12
411.355	89.12
411.578	94.12
411.802	90.12
412.025	112.12
412.249	118.12
412.472	140.12
412.695	146.12
412.919	125.12
413.142	106.12
413.365	85.12
413.589	92.12
413.812	88.12
414.035	98.12
414.258	103.12
414.482	86.12
414.705	97.12
414.928	96.12
415.151	100.12
415.374	87.12
415.597	89.12
415.821	99.12
416.044	102.12
416.267	96.12
416.49	98.12
416.713	86.12
416.936	104.12
417.159	93.12
417.382	117.12
417.605	120.12
417.828	134.12
418.051	120.12
418.274	105.12
418.497	98.12
418.72	96.12
418.943	82.12
419.166	95.12
419.389	92.12
419.611	99.12
419.834	102.12
420.057	104.12
420.28	103.12
420.503	88.12
420.726	100.12
420.948	86.12
421.171	112.12
421.394	101.12
421.617	97.12
421.839	88.12
422.062	95.12
422.285	97.12
422.507	98.12
422.73	116.12
422.953	96.12
423.175	81.12
423.398	78.12
423.621	88.12
423.843	77.12
424.066	96.12
424.288	93.12
424.511	111.12
424.733	109.12
424.956	118.12
425.178	110.12
425.401	103.12
425.623	111.12
425.846	87.12
426.068	117.12
426.291	99.12
426.513	90.12
426.735	81.12
426.958	103.12
427.18	134.12
427.402	195.12
427.625	258.12
427.847	258.12
428.069	230.12
428.292	158.12
428.514	121.12
428.736	95.12
428.958	87.12
429.181	103.12
429.403	90.12
429.625	90.12
429.847	110.12
430.069	113.12
430.292	109.12
430.514	85.12
430.736	87.12
430.958	68.12
431.18	83.12
431.402	86.12
431.624	74.12
431.846	75.12
432.068	89.12
432.29	87.12
432.512	85.12
432.734	88.12
432.956	100.12
433.178	107.12
433.4	98.12
433.622	87.12
433.844	100.12
434.066	94.12
434.287	84.12
434.509	88.12
434.731	107.12
434.953	90.12
435.175	102.12
435.397	82.12
435.618	97.12
435.84	98.12
436.062	126.12
436.284	113.12
436.505	109.12
436.727	99.12
436.949	99.12
437.17	71.12
437.392	91.12
437.614	95.12
437.835	125.12
438.057	175.12
438.278	140.12
438.5	118.12
438.721	146.12
438.943	100.12
439.165	108.12
439.386	93.12
439.608	90.12
439.829	112.12
440.05	145.12
440.272	187.12
440.493	106.12
440.715	110.12
440.936	106.12
441.158	100.12
441.379	86.12
441.6	105.12
441.822	114.12
442.043	113.12
442.264	132.12
442.486	113.12
442.707	109.12
442.928	135.12
443.149	186.12
443.371	189.12
443.592	135.12
443.813	133.12
444.034	120.12
444.255	113.12
444.476	92.12
444.698	94.12
444.919	92.12
445.14	138.12
445.361	134.12
445.582	132.12
445.803	188.12
446.024	190.12
446.245	163.12
446.466	117.12
446.687	97.12
446.908	78.12
447.129	94.12
447.35	97.12
447.571	92.12
447.792	85.12
448.013	106.12
448.234	128.12
448.455	117.12
448.675	123.12
448.896	140.12
449.117	114.12
449.338	106.12
449.559	153.12
449.779	144.12
450	99.12
450.221	104.12
450.442	105.12
450.662	101.12
450.883	133.12
451.104	145.12
451.324	122.12
451.545	104.12
451.766	91.12
451.986	86.12
452.207	84.12
452.428	104.12
452.648	114.12
452.869	126.12
453.089	134.12
453.31	145.12
453.53	103.12
453.751	107.12
453.971	122.12
454.192	144.12
454.412	100.12
454.633	90.12
454.853	88.12
455.073	84.12
455.294	84.12
455.514	121.12
455.734	96.12
455.955	95.12
456.175	86.12
456.395	87.12
456.616	88.12
456.836	86.12
457.056	94.12
457.276	101.12
457.497	94.12
457.717	89.12
457.937	92.12
458.157	97.12
458.377	95.12
458.598	128.12
458.818	225.12
459.038	233.12
459.258	161.12
459.478	119.12
459.698	94.12
459.918	73.12
460.138	103.12
460.358	83.12
460.578	108.12
460.798	95.12
461.018	97.12
461.238	90.12
461.458	95.12
461.678	100.12
461.898	84.12
462.118	82.12
462.338	96.12
462.558	101.12
462.777	99.12
462.997	106.12
463.217	130.12
463.437	133.12
463.657	111.12
463.876	90.12
464.096	110.12
464.316	108.12
464.536	109.12
464.755	111.12
464.975	129.12
465.195	244.12
465.414	251.12
465.634	114.12
465.854	89.12
466.073	98.12
466.293	84.12
466.512	97.12
466.732	104.12
466.951	106.12
467.171	114.12
467.391	128.12
467.61	202.12
467.829	349.12
468.049	1212.12
468.268	1910.12
468.488	428.12
468.707	138.12
468.927	116.12
469.146	125.12
469.365	92.12
469.585	114.12
469.804	106.12
470.023	132.12
470.243	112.12
470.462	115.12
470.681	155.12
470.901	121.12
471.12	106.12
471.339	137.12
471.558	156.12
471.777	240.12
471.997	532.12
472.216	2217.12
472.435	5283.12
472.654	1120.12
472.873	254.12
473.092	147.12
473.311	114.12
473.53	113.12
473.749	106.12
473.968	109.12
474.187	127.12
474.406	133.12
474.625	91.12
474.844	99.12
475.063	99.12
475.282	106.12
475.501	110.12
475.72	110.12
475.939	112.12
476.158	105.12
476.377	100.12
476.596	94.12
476.814	108.12
477.033	110.12
477.252	94.12
477.471	98.12
477.69	109.12
477.908	102.12
478.127	112.12
478.346	117.12
478.564	112.12
478.783	125.12
479.002	113.12
479.22	135.12
479.439	140.12
479.658	150.12
479.876	144.12
480.095	165.12
480.313	180.12
480.532	232.12
480.751	467.12
480.969	1915.12
481.188	8563.12
481.406	4753.12
481.624	608.12
481.843	193.12
482.061	145.12
482.28	121.12
482.498	112.12
482.717	96.12
482.935	92.12
483.153	92.12
483.372	93.12
483.59	106.12
483.808	114.12
484.027	106.12
484.245	101.12
484.463	103.12
484.681	108.12
484.9	96.12
485.118	98.12
485.336	97.12
485.554	103.12
485.772	116.12
485.99	120.12
486.209	108.12
486.427	116.12
486.645	117.12
486.863	140.12
487.081	104.12
487.299	104.12
487.517	112.12
487.735	100.12
487.953	86.12
488.171	92.12
488.389	89.12
488.607	114.12
488.825	85.12
489.043	97.12
489.261	97.12
489.479	93.12
489.696	97.12
489.914	93.12
490.132	93.12
490.35	91.12
490.568	93.12
490.786	79.12
491.003	73.12
491.221	98.12
491.439	113.12
491.657	104.12
491.874	111.12
492.092	88.12
492.31	94.12
492.527	104.12
492.745	97.12
492.963	96.12
493.18	106.12
493.398	94.12
493.615	102.12
493.833	113.12
494.05	104.12
494.268	96.12
494.485	98.12
494.703	96.12
494.92	90.12
495.138	83.12
495.355	88.12
495.573	101.12
495.79	86.12
496.008	95.12
496.225	96.12
496.442	110.12
496.66	108.12
496.877	93.12
497.094	101.12
497.312	96.12
497.529	92.12
497.746	102.12
497.963	96.12
498.181	97.12
498.398	80.12
498.615	122.12
498.832	110.12
499.049	86.12
499.267	85.12
499.484	88.12
499.701	87.12
499.918	108.12
500.135	100.12
500.352	91.12
500.569	97.12
500.786	109.12
501.003	95.12
501.22	89.12
501.437	94.12
501.654	109.12
501.871	111.12
502.088	96.12
502.305	98.12
502.522	95.12
502.739	92.12
502.956	96.12
503.172	84.12
503.389	106.12
503.606	119.12
503.823	113.12
504.04	105.12
504.256	103.12
504.473	93.12
504.69	93.12
504.907	103.12
505.123	94.12
505.34	99.12
505.557	89.12
505.773	93.12
505.99	97.12
506.207	97.12
506.423	108.12
506.64	95.12
506.856	79.12
507.073	96.12
507.289	92.12
507.506	107.12
507.722	136.12
507.939	133.12
508.155	90.12
508.372	105.12
508.588	111.12
508.805	105.12
509.021	96.12
509.238	116.12
509.454	109.12
509.67	104.12
509.887	112.12
510.103	132.12
510.319	249.12
510.536	950.12
510.752	3322.12
510.968	904.12
511.184	193.12
