Data from Circ_1988_H10_HRD10591_00077.txt Node
Date: Wed Jan 03 12:05:50 EST 2024
User: Yrep
Spectrometer: HR+D1059
Trigger mode: 1
Integration Time (sec): 1.000000E-1
Scans to average: 1
Electric dark correction enabled: true
Nonlinearity correction enabled: false
Boxcar width: 0
XAxis mode: Wavelengths
Number of Pixels in Spectrum: 2048
>>>>>Begin Spectral Data<<<<<
223.165	-15.19
223.4	-15.19
223.635	-15.19
223.869	-24.19
224.104	-3.19
224.338	-16.19
224.573	-13.19
224.808	-5.19
225.042	-12.19
225.277	-1.19
225.511	-7.19
225.746	3.81
225.98	1.81
226.215	6.81
226.449	11.81
226.683	26.81
226.918	25.81
227.152	20.81
227.387	33.81
227.621	43.81
227.856	41.81
228.09	49.81
228.324	64.81
228.559	53.81
228.793	48.81
229.027	70.81
229.262	62.81
229.496	79.81
229.73	98.81
229.964	93.81
230.199	75.81
230.433	69.81
230.667	89.81
230.901	79.81
231.136	85.81
231.37	69.81
231.604	85.81
231.838	81.81
232.072	79.81
232.306	83.81
232.541	89.81
232.775	75.81
233.009	76.81
233.243	100.81
233.477	94.81
233.711	80.81
233.945	84.81
234.179	82.81
234.413	78.81
234.647	63.81
234.881	87.81
235.115	84.81
235.349	78.81
235.583	67.81
235.817	88.81
236.051	87.81
236.285	85.81
236.519	63.81
236.753	83.81
236.987	98.81
237.221	86.81
237.455	90.81
237.689	72.81
237.922	73.81
238.156	79.81
238.39	87.81
238.624	71.81
238.858	74.81
239.091	83.81
239.325	71.81
239.559	89.81
239.793	82.81
240.027	96.81
240.26	75.81
240.494	99.81
240.728	88.81
240.961	86.81
241.195	90.81
241.429	67.81
241.662	81.81
241.896	65.81
242.13	86.81
242.363	74.81
242.597	81.81
242.83	74.81
243.064	77.81
243.298	85.81
243.531	79.81
243.765	88.81
243.998	83.81
244.232	74.81
244.465	88.81
244.699	85.81
244.932	80.81
245.166	77.81
245.399	74.81
245.633	69.81
245.866	85.81
246.099	86.81
246.333	87.81
246.566	93.81
246.8	80.81
247.033	80.81
247.266	79.81
247.5	82.81
247.733	95.81
247.966	87.81
248.2	94.81
248.433	80.81
248.666	88.81
248.899	85.81
249.133	96.81
249.366	99.81
249.599	103.81
249.832	80.81
250.066	83.81
250.299	93.81
250.532	98.81
250.765	83.81
250.998	85.81
251.231	91.81
251.465	90.81
251.698	89.81
251.931	98.81
252.164	91.81
252.397	87.81
252.63	81.81
252.863	71.81
253.096	82.81
253.329	95.81
253.562	78.81
253.795	80.81
254.028	99.81
254.261	78.81
254.494	86.81
254.727	90.81
254.96	84.81
255.193	87.81
255.426	94.81
255.659	85.81
255.892	101.81
256.124	120.81
256.357	95.81
256.59	94.81
256.823	91.81
257.056	87.81
257.289	103.81
257.521	97.81
257.754	96.81
257.987	106.81
258.22	97.81
258.452	103.81
258.685	119.81
258.918	94.81
259.151	91.81
259.383	85.81
259.616	94.81
259.849	103.81
260.081	85.81
260.314	90.81
260.547	81.81
260.779	104.81
261.012	137.81
261.244	157.81
261.477	114.81
261.71	112.81
261.942	133.81
262.175	146.81
262.407	98.81
262.64	71.81
262.872	89.81
263.105	101.81
263.337	104.81
263.57	86.81
263.802	97.81
264.035	69.81
264.267	83.81
264.499	77.81
264.732	86.81
264.964	83.81
265.197	78.81
265.429	100.81
265.661	75.81
265.894	85.81
266.126	101.81
266.358	74.81
266.591	80.81
266.823	71.81
267.055	91.81
267.287	88.81
267.52	90.81
267.752	96.81
267.984	86.81
268.216	81.81
268.448	93.81
268.681	90.81
268.913	82.81
269.145	95.81
269.377	90.81
269.609	97.81
269.841	71.81
270.073	75.81
270.306	85.81
270.538	79.81
270.77	94.81
271.002	87.81
271.234	98.81
271.466	102.81
271.698	95.81
271.93	94.81
272.162	101.81
272.394	93.81
272.626	86.81
272.858	89.81
273.09	100.81
273.322	96.81
273.553	85.81
273.785	92.81
274.017	73.81
274.249	84.81
274.481	90.81
274.713	96.81
274.945	104.81
275.176	95.81
275.408	96.81
275.64	149.81
275.872	165.81
276.104	129.81
276.335	128.81
276.567	137.81
276.799	179.81
277.031	258.81
277.262	329.81
277.494	230.81
277.726	129.81
277.957	98.81
278.189	94.81
278.421	91.81
278.652	86.81
278.884	89.81
279.115	103.81
279.347	116.81
279.579	120.81
279.81	187.81
280.042	323.81
280.273	512.81
280.505	299.81
280.736	152.81
280.968	97.81
281.199	90.81
281.431	86.81
281.662	90.81
281.894	88.81
282.125	114.81
282.356	131.81
282.588	167.81
282.819	134.81
283.051	101.81
283.282	96.81
283.513	95.81
283.745	79.81
283.976	95.81
284.207	93.81
284.439	78.81
284.67	91.81
284.901	94.81
285.132	101.81
285.364	87.81
285.595	87.81
285.826	98.81
286.057	98.81
286.288	80.81
286.52	93.81
286.751	91.81
286.982	87.81
287.213	84.81
287.444	100.81
287.675	101.81
287.906	95.81
288.138	95.81
288.369	87.81
288.6	90.81
288.831	97.81
289.062	89.81
289.293	87.81
289.524	95.81
289.755	89.81
289.986	80.81
290.217	97.81
290.448	90.81
290.679	95.81
290.91	85.81
291.141	93.81
291.371	93.81
291.602	111.81
291.833	94.81
292.064	89.81
292.295	88.81
292.526	105.81
292.757	84.81
292.987	82.81
293.218	92.81
293.449	87.81
293.68	91.81
293.91	89.81
294.141	83.81
294.372	89.81
294.603	102.81
294.833	104.81
295.064	85.81
295.295	101.81
295.525	90.81
295.756	105.81
295.987	144.81
296.217	173.81
296.448	163.81
296.679	113.81
296.909	109.81
297.14	87.81
297.37	90.81
297.601	88.81
297.831	93.81
298.062	101.81
298.292	102.81
298.523	94.81
298.753	104.81
298.984	94.81
299.214	101.81
299.445	80.81
299.675	92.81
299.905	109.81
300.136	88.81
300.366	94.81
300.597	83.81
300.827	93.81
301.057	109.81
301.288	118.81
301.518	103.81
301.748	117.81
301.979	134.81
302.209	127.81
302.439	100.81
302.669	94.81
302.9	91.81
303.13	122.81
303.36	137.81
303.59	157.81
303.82	183.81
304.051	136.81
304.281	100.81
304.511	99.81
304.741	92.81
304.971	88.81
305.201	102.81
305.431	87.81
305.661	90.81
305.891	100.81
306.121	114.81
306.352	125.81
306.582	123.81
306.812	146.81
307.042	165.81
307.272	237.81
307.502	277.81
307.731	234.81
307.961	181.81
308.191	108.81
308.421	87.81
308.651	101.81
308.881	97.81
309.111	86.81
309.341	115.81
309.571	119.81
309.8	110.81
310.03	113.81
310.26	112.81
310.49	99.81
310.72	105.81
310.949	127.81
311.179	122.81
311.409	104.81
311.639	114.81
311.868	101.81
312.098	97.81
312.328	103.81
312.557	120.81
312.787	130.81
313.017	119.81
313.246	102.81
313.476	94.81
313.706	109.81
313.935	114.81
314.165	118.81
314.394	119.81
314.624	106.81
314.853	105.81
315.083	107.81
315.312	96.81
315.542	82.81
315.771	104.81
316.001	78.81
316.23	94.81
316.46	89.81
316.689	84.81
316.919	107.81
317.148	99.81
317.377	101.81
317.607	111.81
317.836	110.81
318.065	110.81
318.295	110.81
318.524	96.81
318.753	85.81
318.983	109.81
319.212	105.81
319.441	125.81
319.67	114.81
319.9	94.81
320.129	99.81
320.358	100.81
320.587	95.81
320.816	103.81
321.046	96.81
321.275	117.81
321.504	97.81
321.733	94.81
321.962	109.81
322.191	112.81
322.42	105.81
322.649	122.81
322.878	125.81
323.108	114.81
323.337	147.81
323.566	142.81
323.795	171.81
324.024	235.81
324.253	391.81
324.482	842.81
324.71	1635.81
324.939	2277.81
325.168	850.81
325.397	274.81
325.626	168.81
325.855	147.81
326.084	143.81
326.313	149.81
326.542	171.81
326.77	225.81
326.999	424.81
327.228	832.81
327.457	1498.81
327.686	1332.81
327.914	624.81
328.143	849.81
328.372	1247.81
328.6	635.81
328.829	254.81
329.058	218.81
329.287	236.81
329.515	241.81
329.744	387.81
329.972	842.81
330.201	1825.81
330.43	2814.81
330.658	1119.81
330.887	390.81
331.115	223.81
331.344	149.81
331.572	147.81
331.801	141.81
332.03	134.81
332.258	131.81
332.486	123.81
332.715	120.81
332.943	126.81
333.172	147.81
333.4	181.81
333.629	201.81
333.857	326.81
334.085	697.81
334.314	1567.81
334.542	3263.81
334.771	3106.81
334.999	741.81
335.227	249.81
335.455	166.81
335.684	157.81
335.912	128.81
336.14	115.81
336.369	122.81
336.597	128.81
336.825	121.81
337.053	103.81
337.281	104.81
337.51	99.81
337.738	104.81
337.966	108.81
338.194	101.81
338.422	113.81
338.65	98.81
338.878	93.81
339.106	90.81
339.334	99.81
339.562	100.81
339.79	97.81
340.018	105.81
340.246	104.81
340.474	118.81
340.702	117.81
340.93	97.81
341.158	87.81
341.386	97.81
341.614	112.81
341.842	98.81
342.07	112.81
342.298	101.81
342.526	89.81
342.754	93.81
342.981	94.81
343.209	98.81
343.437	92.81
343.665	101.81
343.893	81.81
344.12	104.81
344.348	97.81
344.576	89.81
344.804	92.81
345.031	102.81
345.259	101.81
345.487	112.81
345.714	112.81
345.942	101.81
346.17	96.81
346.397	86.81
346.625	117.81
346.853	98.81
347.08	98.81
347.308	94.81
347.535	98.81
347.763	115.81
347.99	104.81
348.218	94.81
348.445	108.81
348.673	113.81
348.9	99.81
349.128	89.81
349.355	79.81
349.583	97.81
349.81	106.81
350.037	88.81
350.265	109.81
350.492	103.81
350.72	101.81
350.947	101.81
351.174	114.81
351.402	127.81
351.629	101.81
351.856	106.81
352.083	101.81
352.311	113.81
352.538	118.81
352.765	112.81
352.992	127.81
353.22	125.81
353.447	104.81
353.674	116.81
353.901	99.81
354.128	107.81
354.355	118.81
354.583	97.81
354.81	90.81
355.037	93.81
355.264	91.81
355.491	90.81
355.718	83.81
355.945	108.81
356.172	95.81
356.399	95.81
356.626	89.81
356.853	96.81
357.08	94.81
357.307	96.81
357.534	84.81
357.761	93.81
357.988	92.81
358.215	102.81
358.441	117.81
358.668	91.81
358.895	87.81
359.122	90.81
359.349	81.81
359.576	108.81
359.802	114.81
360.029	136.81
360.256	133.81
360.483	115.81
360.709	97.81
360.936	90.81
361.163	90.81
361.39	106.81
361.616	98.81
361.843	92.81
362.07	107.81
362.296	102.81
362.523	92.81
362.749	102.81
362.976	99.81
363.203	95.81
363.429	81.81
363.656	90.81
363.882	96.81
364.109	102.81
364.335	98.81
364.562	118.81
364.788	102.81
365.015	93.81
365.241	110.81
365.468	106.81
365.694	115.81
365.92	109.81
366.147	103.81
366.373	82.81
366.599	94.81
366.826	88.81
367.052	93.81
367.278	89.81
367.505	100.81
367.731	106.81
367.957	92.81
368.184	97.81
368.41	122.81
368.636	125.81
368.862	122.81
369.089	112.81
369.315	104.81
369.541	97.81
369.767	88.81
369.993	101.81
370.219	97.81
370.445	93.81
370.672	89.81
370.898	105.81
371.124	92.81
371.35	94.81
371.576	88.81
371.802	95.81
372.028	70.81
372.254	94.81
372.48	109.81
372.706	89.81
372.932	104.81
373.158	93.81
373.384	85.81
373.61	83.81
373.835	92.81
374.061	91.81
374.287	102.81
374.513	95.81
374.739	82.81
374.965	98.81
375.191	92.81
375.416	97.81
375.642	103.81
375.868	86.81
376.094	98.81
376.319	98.81
376.545	88.81
376.771	88.81
376.997	80.81
377.222	94.81
377.448	95.81
377.674	86.81
377.899	97.81
378.125	101.81
378.35	98.81
378.576	91.81
378.802	71.81
379.027	100.81
379.253	85.81
379.478	89.81
379.704	84.81
379.929	102.81
380.155	109.81
380.38	99.81
380.606	109.81
380.831	100.81
381.057	101.81
381.282	97.81
381.507	110.81
381.733	102.81
381.958	99.81
382.184	102.81
382.409	118.81
382.634	103.81
382.86	98.81
383.085	106.81
383.31	104.81
383.535	104.81
383.761	109.81
383.986	108.81
384.211	100.81
384.436	103.81
384.662	95.81
384.887	101.81
385.112	95.81
385.337	105.81
385.562	117.81
385.787	103.81
386.013	122.81
386.238	125.81
386.463	113.81
386.688	119.81
386.913	97.81
387.138	124.81
387.363	119.81
387.588	105.81
387.813	101.81
388.038	94.81
388.263	110.81
388.488	121.81
388.713	85.81
388.938	78.81
389.163	89.81
389.387	97.81
389.612	88.81
389.837	91.81
390.062	104.81
390.287	90.81
390.512	91.81
390.736	78.81
390.961	89.81
391.186	93.81
391.411	98.81
391.636	107.81
391.86	87.81
392.085	87.81
392.31	96.81
392.534	83.81
392.759	84.81
392.984	94.81
393.208	93.81
393.433	96.81
393.658	92.81
393.882	80.81
394.107	93.81
394.331	83.81
394.556	73.81
394.78	92.81
395.005	89.81
395.229	84.81
395.454	81.81
395.678	90.81
395.903	98.81
396.127	78.81
396.352	82.81
396.576	85.81
396.801	89.81
397.025	98.81
397.249	89.81
397.474	100.81
397.698	94.81
397.922	87.81
398.147	92.81
398.371	81.81
398.595	85.81
398.82	75.81
399.044	100.81
399.268	95.81
399.492	96.81
399.717	89.81
399.941	105.81
400.165	118.81
400.389	91.81
400.613	104.81
400.837	94.81
401.062	104.81
401.286	96.81
401.51	93.81
401.734	96.81
401.958	119.81
402.182	142.81
402.406	217.81
402.63	157.81
402.854	105.81
403.078	101.81
403.302	103.81
403.526	87.81
403.75	92.81
403.974	86.81
404.198	102.81
404.422	87.81
404.645	94.81
404.869	89.81
405.093	131.81
405.317	136.81
405.541	142.81
405.765	116.81
405.988	139.81
406.212	212.81
406.436	319.81
406.66	225.81
406.883	116.81
407.107	109.81
407.331	102.81
407.555	93.81
407.778	107.81
408.002	99.81
408.226	94.81
408.449	87.81
408.673	92.81
408.896	90.81
409.12	99.81
409.344	104.81
409.567	89.81
409.791	88.81
410.014	96.81
410.238	96.81
410.461	107.81
410.685	92.81
410.908	102.81
411.132	102.81
411.355	105.81
411.578	101.81
411.802	87.81
412.025	85.81
412.249	108.81
412.472	126.81
412.695	146.81
412.919	117.81
413.142	112.81
413.365	106.81
413.589	80.81
413.812	98.81
414.035	91.81
414.258	109.81
414.482	98.81
414.705	89.81
414.928	80.81
415.151	90.81
415.374	105.81
415.597	93.81
415.821	117.81
416.044	95.81
416.267	88.81
416.49	94.81
416.713	88.81
416.936	109.81
417.159	105.81
417.382	108.81
417.605	114.81
417.828	121.81
418.051	94.81
418.274	77.81
418.497	99.81
418.72	79.81
418.943	78.81
419.166	102.81
419.389	95.81
419.611	104.81
419.834	105.81
420.057	91.81
420.28	84.81
420.503	83.81
420.726	92.81
420.948	107.81
421.171	113.81
421.394	88.81
421.617	100.81
421.839	95.81
422.062	90.81
422.285	82.81
422.507	90.81
422.73	125.81
422.953	97.81
423.175	88.81
423.398	93.81
423.621	91.81
423.843	87.81
424.066	77.81
424.288	100.81
424.511	87.81
424.733	114.81
424.956	116.81
425.178	103.81
425.401	109.81
425.623	109.81
425.846	115.81
426.068	90.81
426.291	99.81
426.513	93.81
426.735	88.81
426.958	107.81
427.18	131.81
427.402	172.81
427.625	249.81
427.847	254.81
428.069	219.81
428.292	121.81
428.514	102.81
428.736	107.81
428.958	102.81
429.181	98.81
429.403	85.81
429.625	82.81
429.847	112.81
430.069	126.81
430.292	106.81
430.514	96.81
430.736	98.81
430.958	92.81
431.18	78.81
431.402	74.81
431.624	82.81
431.846	83.81
432.068	99.81
432.29	96.81
432.512	85.81
432.734	102.81
432.956	96.81
433.178	98.81
433.4	111.81
433.622	91.81
433.844	90.81
434.066	97.81
434.287	104.81
434.509	92.81
434.731	81.81
434.953	87.81
435.175	97.81
435.397	90.81
435.618	95.81
435.84	99.81
436.062	133.81
436.284	128.81
436.505	97.81
436.727	96.81
436.949	104.81
437.17	101.81
437.392	78.81
437.614	99.81
437.835	118.81
438.057	146.81
438.278	130.81
438.5	118.81
438.721	133.81
438.943	108.81
439.165	101.81
439.386	89.81
439.608	96.81
439.829	110.81
440.05	150.81
440.272	182.81
440.493	103.81
440.715	107.81
440.936	96.81
441.158	104.81
441.379	91.81
441.6	101.81
441.822	106.81
442.043	110.81
442.264	121.81
442.486	118.81
442.707	98.81
442.928	123.81
443.149	173.81
443.371	169.81
443.592	142.81
443.813	130.81
444.034	114.81
444.255	106.81
444.476	84.81
444.698	99.81
444.919	100.81
445.14	129.81
445.361	121.81
445.582	133.81
445.803	173.81
446.024	173.81
446.245	161.81
446.466	125.81
446.687	103.81
446.908	88.81
447.129	94.81
447.35	99.81
447.571	103.81
447.792	108.81
448.013	111.81
448.234	119.81
448.455	117.81
448.675	111.81
448.896	128.81
449.117	113.81
449.338	103.81
449.559	136.81
449.779	139.81
450	103.81
450.221	103.81
450.442	74.81
450.662	86.81
450.883	123.81
451.104	145.81
451.324	97.81
451.545	90.81
451.766	97.81
451.986	90.81
452.207	100.81
452.428	103.81
452.648	125.81
452.869	122.81
453.089	150.81
453.31	137.81
453.53	105.81
453.751	106.81
453.971	113.81
454.192	137.81
454.412	102.81
454.633	91.81
454.853	97.81
455.073	86.81
455.294	77.81
455.514	98.81
455.734	97.81
455.955	99.81
456.175	88.81
456.395	86.81
456.616	100.81
456.836	99.81
457.056	83.81
457.276	84.81
457.497	91.81
457.717	72.81
457.937	88.81
458.157	98.81
458.377	92.81
458.598	125.81
458.818	211.81
459.038	232.81
459.258	166.81
459.478	107.81
459.698	86.81
459.918	88.81
460.138	91.81
460.358	98.81
460.578	83.81
460.798	101.81
461.018	110.81
461.238	82.81
461.458	112.81
461.678	88.81
461.898	100.81
462.118	94.81
462.338	89.81
462.558	81.81
462.777	86.81
462.997	125.81
463.217	131.81
463.437	132.81
463.657	103.81
463.876	94.81
464.096	104.81
464.316	97.81
464.536	116.81
464.755	117.81
464.975	127.81
465.195	250.81
465.414	236.81
465.634	132.81
465.854	104.81
466.073	85.81
466.293	110.81
466.512	97.81
466.732	95.81
466.951	101.81
467.171	114.81
467.391	128.81
467.61	196.81
467.829	342.81
468.049	1202.81
468.268	1908.81
468.488	399.81
468.707	131.81
468.927	93.81
469.146	111.81
469.365	97.81
469.585	105.81
469.804	124.81
470.023	137.81
470.243	105.81
470.462	133.81
470.681	166.81
470.901	124.81
471.12	117.81
471.339	136.81
471.558	146.81
471.777	217.81
471.997	506.81
472.216	2112.81
472.435	5238.81
472.654	1089.81
472.873	273.81
473.092	133.81
473.311	104.81
473.53	124.81
473.749	105.81
473.968	109.81
474.187	127.81
474.406	122.81
474.625	98.81
474.844	107.81
475.063	85.81
475.282	84.81
475.501	96.81
475.72	118.81
475.939	99.81
476.158	85.81
476.377	104.81
476.596	102.81
476.814	107.81
477.033	108.81
477.252	106.81
477.471	101.81
477.69	110.81
477.908	113.81
478.127	108.81
478.346	108.81
478.564	113.81
478.783	122.81
479.002	123.81
479.22	115.81
479.439	146.81
479.658	160.81
479.876	151.81
480.095	145.81
480.313	173.81
480.532	237.81
480.751	437.81
480.969	1856.81
481.188	8365.81
481.406	4701.81
481.624	608.81
481.843	191.81
482.061	130.81
482.28	119.81
482.498	109.81
482.717	101.81
482.935	104.81
483.153	115.81
483.372	105.81
483.59	105.81
483.808	111.81
484.027	106.81
484.245	88.81
484.463	85.81
484.681	105.81
484.9	114.81
485.118	102.81
485.336	118.81
485.554	108.81
485.772	114.81
485.99	118.81
486.209	102.81
486.427	113.81
486.645	133.81
486.863	151.81
487.081	120.81
487.299	111.81
487.517	103.81
487.735	105.81
487.953	95.81
488.171	98.81
488.389	96.81
488.607	101.81
488.825	89.81
489.043	102.81
489.261	97.81
489.479	85.81
489.696	84.81
489.914	66.81
490.132	94.81
490.35	113.81
490.568	91.81
490.786	97.81
491.003	88.81
491.221	88.81
491.439	107.81
491.657	96.81
491.874	100.81
492.092	93.81
492.31	99.81
492.527	91.81
492.745	103.81
492.963	93.81
493.18	87.81
493.398	99.81
493.615	109.81
493.833	109.81
494.05	101.81
494.268	99.81
494.485	95.81
494.703	103.81
494.92	100.81
495.138	91.81
495.355	102.81
495.573	102.81
495.79	91.81
496.008	100.81
496.225	75.81
496.442	110.81
496.66	102.81
496.877	96.81
497.094	98.81
497.312	93.81
497.529	93.81
497.746	94.81
497.963	107.81
498.181	106.81
498.398	90.81
498.615	119.81
498.832	126.81
499.049	99.81
499.267	104.81
499.484	99.81
499.701	90.81
499.918	89.81
500.135	93.81
500.352	94.81
500.569	118.81
500.786	99.81
501.003	93.81
501.22	94.81
501.437	101.81
501.654	88.81
501.871	135.81
502.088	111.81
502.305	118.81
502.522	109.81
502.739	104.81
502.956	94.81
503.172	90.81
503.389	114.81
503.606	132.81
503.823	93.81
504.04	94.81
504.256	84.81
504.473	93.81
504.69	86.81
504.907	89.81
505.123	83.81
505.34	109.81
505.557	82.81
505.773	97.81
505.99	98.81
506.207	101.81
506.423	106.81
506.64	90.81
506.856	108.81
507.073	73.81
507.289	89.81
507.506	101.81
507.722	145.81
507.939	129.81
508.155	95.81
508.372	100.81
508.588	87.81
508.805	105.81
509.021	105.81
509.238	113.81
509.454	98.81
509.67	90.81
509.887	132.81
510.103	149.81
510.319	264.81
510.536	991.81
510.752	3586.81
510.968	922.81
511.184	191.81
