Data from Circ_1988_H10_HRD10591_00075.txt Node
Date: Wed Jan 03 12:05:49 EST 2024
User: Yrep
Spectrometer: HR+D1059
Trigger mode: 1
Integration Time (sec): 1.000000E-1
Scans to average: 1
Electric dark correction enabled: true
Nonlinearity correction enabled: false
Boxcar width: 0
XAxis mode: Wavelengths
Number of Pixels in Spectrum: 2048
>>>>>Begin Spectral Data<<<<<
223.165	-13
223.4	-13
223.635	-13
223.869	-27
224.104	-8
224.338	-6
224.573	-24
224.808	-14
225.042	-18
225.277	-8
225.511	-5
225.746	3
225.98	18
226.215	8
226.449	15
226.683	24
226.918	28
227.152	27
227.387	35
227.621	39
227.856	47
228.09	32
228.324	52
228.559	64
228.793	69
229.027	61
229.262	64
229.496	80
229.73	92
229.964	96
230.199	80
230.433	77
230.667	82
230.901	80
231.136	73
231.37	72
231.604	69
231.838	94
232.072	91
232.306	69
232.541	94
232.775	87
233.009	86
233.243	77
233.477	89
233.711	70
233.945	70
234.179	95
234.413	94
234.647	65
234.881	79
235.115	66
235.349	64
235.583	81
235.817	84
236.051	84
236.285	74
236.519	68
236.753	77
236.987	78
237.221	83
237.455	88
237.689	91
237.922	81
238.156	79
238.39	71
238.624	76
238.858	57
239.091	73
239.325	71
239.559	84
239.793	80
240.027	92
240.26	81
240.494	67
240.728	62
240.961	73
241.195	71
241.429	87
241.662	75
241.896	80
242.13	67
242.363	76
242.597	72
242.83	100
243.064	69
243.298	83
243.531	60
243.765	70
243.998	80
244.232	72
244.465	90
244.699	100
244.932	88
245.166	81
245.399	73
245.633	85
245.866	77
246.099	78
246.333	80
246.566	86
246.8	85
247.033	67
247.266	83
247.5	97
247.733	83
247.966	93
248.2	85
248.433	86
248.666	72
248.899	86
249.133	93
249.366	109
249.599	101
249.832	83
250.066	92
250.299	97
250.532	90
250.765	92
250.998	78
251.231	72
251.465	88
251.698	93
251.931	97
252.164	77
252.397	83
252.63	87
252.863	79
253.096	77
253.329	88
253.562	79
253.795	78
254.028	90
254.261	88
254.494	97
254.727	82
254.96	80
255.193	87
255.426	83
255.659	92
255.892	110
256.124	115
256.357	86
256.59	87
256.823	84
257.056	92
257.289	82
257.521	88
257.754	92
257.987	93
258.22	105
258.452	126
258.685	101
258.918	95
259.151	101
259.383	93
259.616	88
259.849	84
260.081	104
260.314	93
260.547	105
260.779	117
261.012	118
261.244	140
261.477	95
261.71	97
261.942	117
262.175	143
262.407	88
262.64	86
262.872	72
263.105	88
263.337	92
263.57	98
263.802	92
264.035	89
264.267	81
264.499	85
264.732	88
264.964	78
265.197	73
265.429	88
265.661	80
265.894	82
266.126	86
266.358	79
266.591	85
266.823	79
267.055	80
267.287	79
267.52	87
267.752	84
267.984	77
268.216	92
268.448	86
268.681	77
268.913	88
269.145	90
269.377	81
269.609	76
269.841	94
270.073	71
270.306	85
270.538	101
270.77	82
271.002	93
271.234	103
271.466	96
271.698	99
271.93	90
272.162	85
272.394	97
272.626	89
272.858	92
273.09	84
273.322	102
273.553	88
273.785	80
274.017	90
274.249	104
274.481	90
274.713	81
274.945	87
275.176	86
275.408	98
275.64	139
275.872	155
276.104	127
276.335	120
276.567	119
276.799	171
277.031	230
277.262	312
277.494	238
277.726	130
277.957	110
278.189	98
278.421	81
278.652	93
278.884	98
279.115	94
279.347	111
279.579	118
279.81	182
280.042	304
280.273	454
280.505	288
280.736	130
280.968	107
281.199	92
281.431	99
281.662	96
281.894	94
282.125	100
282.356	132
282.588	166
282.819	118
283.051	103
283.282	90
283.513	91
283.745	93
283.976	80
284.207	93
284.439	73
284.67	92
284.901	86
285.132	89
285.364	88
285.595	85
285.826	88
286.057	92
286.288	92
286.52	101
286.751	95
286.982	85
287.213	87
287.444	99
287.675	98
287.906	87
288.138	105
288.369	90
288.6	99
288.831	92
289.062	88
289.293	101
289.524	97
289.755	82
289.986	84
290.217	90
290.448	104
290.679	85
290.91	100
291.141	82
291.371	86
291.602	88
291.833	81
292.064	95
292.295	96
292.526	92
292.757	99
292.987	89
293.218	77
293.449	94
293.68	102
293.91	88
294.141	86
294.372	95
294.603	100
294.833	90
295.064	80
295.295	89
295.525	93
295.756	102
295.987	125
296.217	166
296.448	140
296.679	97
296.909	85
297.14	82
297.37	90
297.601	89
297.831	84
298.062	90
298.292	90
298.523	96
298.753	94
298.984	92
299.214	93
299.445	94
299.675	95
299.905	108
300.136	94
300.366	89
300.597	102
300.827	94
301.057	114
301.288	109
301.518	114
301.748	113
301.979	146
302.209	110
302.439	105
302.669	102
302.9	95
303.13	103
303.36	131
303.59	155
303.82	184
304.051	116
304.281	83
304.511	100
304.741	76
304.971	95
305.201	101
305.431	97
305.661	99
305.891	102
306.121	121
306.352	115
306.582	137
306.812	128
307.042	154
307.272	230
307.502	274
307.731	229
307.961	153
308.191	110
308.421	79
308.651	88
308.881	86
309.111	98
309.341	112
309.571	110
309.8	105
310.03	106
310.26	111
310.49	92
310.72	100
310.949	116
311.179	109
311.409	108
311.639	102
311.868	95
312.098	93
312.328	99
312.557	94
312.787	121
313.017	112
313.246	96
313.476	99
313.706	103
313.935	99
314.165	104
314.394	116
314.624	95
314.853	104
315.083	96
315.312	100
315.542	93
315.771	94
316.001	80
316.23	73
316.46	93
316.689	92
316.919	96
317.148	94
317.377	101
317.607	95
317.836	102
318.065	89
318.295	85
318.524	96
318.753	89
318.983	82
319.212	113
319.441	112
319.67	116
319.9	99
320.129	89
320.358	89
320.587	116
320.816	94
321.046	112
321.275	94
321.504	86
321.733	80
321.962	108
322.191	105
322.42	105
322.649	104
322.878	123
323.108	113
323.337	145
323.566	155
323.795	167
324.024	207
324.253	368
324.482	779
324.71	1568
324.939	2159
325.168	848
325.397	279
325.626	176
325.855	137
326.084	136
326.313	159
326.542	161
326.77	212
326.999	388
327.228	806
327.457	1442
327.686	1283
327.914	607
328.143	777
328.372	1152
328.6	598
328.829	245
329.058	190
329.287	232
329.515	240
329.744	357
329.972	777
330.201	1740
330.43	2632
330.658	1066
330.887	373
331.115	210
331.344	137
331.572	126
331.801	121
332.03	126
332.258	119
332.486	119
332.715	124
332.943	135
333.172	140
333.4	154
333.629	206
333.857	321
334.085	654
334.314	1537
334.542	3070
334.771	2915
334.999	711
335.227	250
335.455	158
335.684	122
335.912	116
336.14	113
336.369	122
336.597	121
336.825	108
337.053	99
337.281	102
337.51	99
337.738	96
337.966	89
338.194	106
338.422	99
338.65	105
338.878	111
339.106	91
339.334	96
339.562	93
339.79	101
340.018	105
340.246	112
340.474	97
340.702	99
340.93	90
341.158	108
341.386	88
341.614	100
341.842	91
342.07	93
342.298	85
342.526	97
342.754	107
342.981	99
343.209	102
343.437	104
343.665	90
343.893	90
344.12	90
344.348	84
344.576	81
344.804	86
345.031	102
345.259	104
345.487	97
345.714	110
345.942	103
346.17	95
346.397	90
346.625	98
346.853	89
347.08	97
347.308	91
347.535	98
347.763	116
347.99	104
348.218	110
348.445	101
348.673	104
348.9	106
349.128	94
349.355	108
349.583	106
349.81	80
350.037	100
350.265	93
350.492	71
350.72	101
350.947	103
351.174	120
351.402	125
351.629	109
351.856	110
352.083	105
352.311	98
352.538	122
352.765	117
352.992	114
353.22	106
353.447	97
353.674	89
353.901	89
354.128	93
354.355	86
354.583	89
354.81	101
355.037	101
355.264	99
355.491	83
355.718	99
355.945	87
356.172	80
356.399	86
356.626	96
356.853	93
357.08	94
357.307	95
357.534	93
357.761	101
357.988	87
358.215	88
358.441	91
358.668	93
358.895	99
359.122	87
359.349	83
359.576	96
359.802	99
360.029	144
360.256	139
360.483	114
360.709	88
360.936	84
361.163	99
361.39	100
361.616	109
361.843	106
362.07	97
362.296	113
362.523	93
362.749	102
362.976	105
363.203	96
363.429	80
363.656	100
363.882	96
364.109	90
364.335	88
364.562	95
364.788	82
365.015	89
365.241	104
365.468	113
365.694	104
365.92	110
366.147	89
366.373	97
366.599	78
366.826	94
367.052	90
367.278	76
367.505	84
367.731	94
367.957	89
368.184	84
368.41	97
368.636	124
368.862	120
369.089	117
369.315	118
369.541	108
369.767	104
369.993	93
370.219	101
370.445	81
370.672	73
370.898	96
371.124	84
371.35	89
371.576	91
371.802	90
372.028	86
372.254	88
372.48	79
372.706	90
372.932	87
373.158	100
373.384	82
373.61	78
373.835	89
374.061	84
374.287	87
374.513	97
374.739	88
374.965	93
375.191	105
375.416	93
375.642	103
375.868	86
376.094	103
376.319	92
376.545	85
376.771	103
376.997	87
377.222	88
377.448	95
377.674	92
377.899	91
378.125	92
378.35	87
378.576	103
378.802	84
379.027	100
379.253	93
379.478	110
379.704	91
379.929	96
380.155	82
380.38	89
380.606	86
380.831	104
381.057	89
381.282	101
381.507	94
381.733	99
381.958	105
382.184	102
382.409	106
382.634	97
382.86	105
383.085	105
383.31	93
383.535	103
383.761	98
383.986	110
384.211	107
384.436	108
384.662	98
384.887	107
385.112	104
385.337	109
385.562	126
385.787	105
386.013	125
386.238	112
386.463	109
386.688	122
386.913	111
387.138	115
387.363	100
387.588	110
387.813	109
388.038	97
388.263	114
388.488	112
388.713	89
388.938	105
389.163	92
389.387	84
389.612	88
389.837	98
390.062	86
390.287	84
390.512	87
390.736	87
390.961	88
391.186	94
391.411	82
391.636	92
391.86	76
392.085	64
392.31	77
392.534	89
392.759	93
392.984	84
393.208	80
393.433	85
393.658	94
393.882	93
394.107	92
394.331	88
394.556	84
394.78	93
395.005	92
395.229	97
395.454	95
395.678	100
395.903	103
396.127	90
396.352	92
396.576	87
396.801	91
397.025	76
397.249	90
397.474	101
397.698	104
397.922	84
398.147	90
398.371	77
398.595	89
398.82	77
399.044	78
399.268	78
399.492	87
399.717	91
399.941	88
400.165	88
400.389	97
400.613	100
400.837	82
401.062	84
401.286	92
401.51	89
401.734	95
401.958	108
402.182	133
402.406	180
402.63	131
402.854	97
403.078	93
403.302	92
403.526	96
403.75	91
403.974	81
404.198	97
404.422	89
404.645	105
404.869	95
405.093	114
405.317	158
405.541	146
405.765	114
405.988	132
406.212	204
406.436	301
406.66	201
406.883	114
407.107	103
407.331	109
407.555	123
407.778	94
408.002	88
408.226	98
408.449	92
408.673	80
408.896	102
409.12	109
409.344	91
409.567	96
409.791	84
410.014	110
410.238	97
410.461	89
410.685	93
410.908	105
411.132	109
411.355	97
411.578	94
411.802	100
412.025	95
412.249	110
412.472	131
412.695	156
412.919	135
413.142	102
413.365	93
413.589	84
413.812	85
414.035	88
414.258	97
414.482	104
414.705	96
414.928	101
415.151	80
415.374	94
415.597	79
415.821	105
416.044	111
416.267	94
416.49	94
416.713	86
416.936	86
417.159	92
417.382	110
417.605	127
417.828	129
418.051	97
418.274	101
418.497	82
418.72	80
418.943	100
419.166	92
419.389	97
419.611	90
419.834	87
420.057	94
420.28	101
420.503	104
420.726	96
420.948	104
421.171	109
421.394	98
421.617	91
421.839	104
422.062	96
422.285	99
422.507	97
422.73	121
422.953	99
423.175	89
423.398	86
423.621	87
423.843	99
424.066	92
424.288	90
424.511	101
424.733	102
424.956	108
425.178	111
425.401	102
425.623	108
425.846	95
426.068	106
426.291	108
426.513	107
426.735	92
426.958	91
427.18	119
427.402	168
427.625	251
427.847	228
428.069	194
428.292	143
428.514	112
428.736	104
428.958	91
429.181	98
429.403	94
429.625	98
429.847	106
430.069	107
430.292	105
430.514	104
430.736	86
430.958	92
431.18	77
431.402	87
431.624	104
431.846	81
432.068	79
432.29	84
432.512	87
432.734	79
432.956	103
433.178	101
433.4	109
433.622	90
433.844	89
434.066	98
434.287	96
434.509	84
434.731	96
434.953	85
435.175	87
435.397	101
435.618	91
435.84	117
436.062	141
436.284	117
436.505	98
436.727	102
436.949	96
437.17	83
437.392	76
437.614	85
437.835	125
438.057	142
438.278	128
438.5	122
438.721	136
438.943	110
439.165	111
439.386	96
439.608	118
439.829	97
440.05	137
440.272	166
440.493	105
440.715	83
440.936	80
441.158	94
441.379	87
441.6	104
441.822	110
442.043	88
442.264	110
442.486	114
442.707	117
442.928	121
443.149	163
443.371	160
443.592	118
443.813	122
444.034	105
444.255	103
444.476	98
444.698	95
444.919	77
445.14	137
445.361	125
445.582	128
445.803	162
446.024	168
446.245	147
446.466	124
446.687	97
446.908	80
447.129	87
447.35	88
447.571	96
447.792	88
448.013	104
448.234	116
448.455	99
448.675	122
448.896	118
449.117	102
449.338	114
449.559	133
449.779	132
450	103
450.221	97
450.442	104
450.662	101
450.883	115
451.104	132
451.324	110
451.545	89
451.766	96
451.986	83
452.207	88
452.428	98
452.648	111
452.869	130
453.089	124
453.31	136
453.53	102
453.751	101
453.971	117
454.192	134
454.412	94
454.633	88
454.853	77
455.073	82
455.294	89
455.514	104
455.734	91
455.955	80
456.175	87
456.395	92
456.616	86
456.836	99
457.056	94
457.276	86
457.497	104
457.717	99
457.937	92
458.157	89
458.377	88
458.598	108
458.818	202
459.038	215
459.258	165
459.478	100
459.698	90
459.918	80
460.138	106
460.358	95
460.578	96
460.798	92
461.018	87
461.238	89
461.458	78
461.678	80
461.898	103
462.118	94
462.338	92
462.558	89
462.777	105
462.997	106
463.217	145
463.437	117
463.657	90
463.876	94
464.096	92
464.316	109
464.536	100
464.755	103
464.975	120
465.195	216
465.414	230
465.634	109
465.854	100
466.073	102
466.293	91
466.512	108
466.732	100
466.951	90
467.171	122
467.391	134
467.61	168
467.829	340
468.049	1127
468.268	1734
468.488	382
468.707	148
468.927	108
469.146	84
469.365	106
469.585	115
469.804	107
470.023	127
470.243	115
470.462	125
470.681	158
470.901	121
471.12	108
471.339	115
471.558	133
471.777	213
471.997	488
472.216	2008
472.435	4913
472.654	1027
472.873	228
473.092	126
473.311	123
473.53	105
473.749	117
473.968	119
474.187	140
474.406	118
474.625	103
474.844	98
475.063	94
475.282	93
475.501	76
475.72	89
475.939	95
476.158	103
476.377	89
476.596	80
476.814	97
477.033	122
477.252	96
477.471	110
477.69	105
477.908	111
478.127	115
478.346	104
478.564	112
478.783	132
479.002	122
479.22	97
479.439	119
479.658	158
479.876	142
480.095	153
480.313	165
480.532	227
480.751	433
480.969	1730
481.188	7799
481.406	4413
481.624	576
481.843	195
482.061	140
482.28	125
482.498	104
482.717	101
482.935	102
483.153	112
483.372	95
483.59	85
483.808	100
484.027	93
484.245	96
484.463	111
484.681	103
484.9	99
485.118	86
485.336	106
485.554	106
485.772	119
485.99	116
486.209	113
486.427	118
486.645	130
486.863	131
487.081	111
487.299	95
487.517	103
487.735	92
487.953	78
488.171	94
488.389	98
488.607	97
488.825	90
489.043	105
489.261	94
489.479	95
489.696	94
489.914	84
490.132	100
490.35	92
490.568	96
490.786	77
491.003	99
491.221	112
491.439	103
491.657	94
491.874	73
492.092	97
492.31	108
492.527	109
492.745	118
492.963	101
493.18	103
493.398	94
493.615	104
493.833	101
494.05	87
494.268	105
494.485	94
494.703	87
494.92	78
495.138	77
495.355	94
495.573	95
495.79	76
496.008	104
496.225	89
496.442	79
496.66	102
496.877	92
497.094	103
497.312	98
497.529	101
497.746	88
497.963	89
498.181	97
498.398	101
498.615	118
498.832	106
499.049	95
499.267	101
499.484	111
499.701	96
499.918	94
500.135	108
500.352	95
500.569	105
500.786	95
501.003	101
501.22	101
501.437	88
501.654	102
501.871	130
502.088	99
502.305	112
502.522	100
502.739	82
502.956	88
503.172	91
503.389	111
503.606	126
503.823	114
504.04	96
504.256	92
504.473	95
504.69	100
504.907	86
505.123	84
505.34	105
505.557	97
505.773	93
505.99	87
506.207	100
506.423	85
506.64	93
506.856	92
507.073	95
507.289	96
507.506	101
507.722	119
507.939	119
508.155	110
508.372	101
508.588	103
508.805	98
509.021	95
509.238	81
509.454	89
509.67	121
509.887	131
510.103	151
510.319	245
510.536	881
510.752	3311
510.968	859
511.184	170
511.401	126
511.617	111
511.833	128
512.049	111
512.265	84
512.481	94
512.698	87
512.914	100
513.13	87
513.346	93
513.562	124
513.778	98
513.994	95
514.21	118
514.426	140
514.642	171
514.858	146
515.074	221
515.29	681
515.506	2378
515.721	841
515.937	198
516.153	129
516.369	112
516.585	112
516.801	132
517.016	111
517.232	105
517.448	99
517.664	114
517.879	95
518.095	90
518.311	112
518.527	111
518.742	92
518.958	98
519.173	104
519.389	92
519.605	105
519.82	90
520.036	114
520.251	144
520.467	119
520.682	128
520.898	124
521.113	129
521.329	185
521.544	274
521.76	854
521.975	4015
522.19	2352
522.406	483
522.621	172
522.836	118
523.052	112
523.267	88
523.482	109
523.698	110
523.913	142
524.128	140
524.343	110
524.559	86
524.774	93
524.989	106
525.204	105
525.419	102
525.634	92
525.849	102
526.064	101
526.28	104
526.495	97
526.71	108
526.925	93
527.14	90
527.355	104
527.57	99
527.785	96
527.999	87
528.214	102
528.429	109
528.644	88
528.859	96
529.074	110
529.289	148
529.503	261
529.718	113
529.933	99
530.148	91
530.363	87
530.577	101
530.792	86
531.007	95
531.221	98
531.436	84
531.651	87
531.865	92
532.08	88
532.295	100
532.509	98
532.724	85
532.938	82
533.153	85
533.367	99
533.582	91
533.796	100
534.011	106
534.225	97
534.44	90
534.654	84
534.868	80
535.083	92
535.297	109
535.511	101
535.726	104
535.94	106
536.154	100
536.369	93
536.583	80
536.797	93
537.011	98
537.225	100
537.44	90
537.654	100
537.868	93
538.082	82
538.296	83
538.51	94
538.724	71
538.938	79
539.153	93
539.367	127
539.581	91
539.795	107
540.009	98
540.222	108
540.436	104
540.65	87
540.864	95
541.078	87
541.292	82
541.506	113
541.72	87
541.934	96
542.147	76
542.361	94
542.575	92
542.789	92
543.002	100
543.216	100
543.43	94
543.644	98
543.857	98
544.071	99
544.285	95
544.498	102
544.712	90
544.925	81
545.139	87
545.352	89
545.566	109
545.779	94
545.993	94
546.206	85
546.42	91
546.633	92
546.847	94
547.06	102
547.274	83
547.487	89
547.7	104
547.914	92
548.127	95
548.34	95
548.554	90
548.767	88
548.98	101
549.193	81
549.407	89
549.62	100
549.833	81
550.046	80
550.259	80
550.473	103
550.686	86
550.899	94
551.112	91
551.325	101
551.538	91
551.751	110
551.964	101
552.177	90
552.39	98
552.603	83
552.816	94
553.029	89
553.242	97
553.455	94
553.667	114
553.88	110
554.093	104
554.306	129
554.519	150
554.732	114
554.944	103
555.157	92
555.37	92
555.583	86
555.795	99
556.008	86
556.221	96
556.433	98
556.646	96
556.859	94
557.071	89
557.284	78
557.496	80
557.709	94
557.921	97
558.134	86
558.346	82
558.559	84
558.771	95
558.984	92
559.196	78
559.409	93
559.621	101
559.833	88
560.046	98
560.258	129
560.47	180
560.683	114
560.895	98
561.107	96
561.32	96
561.532	94
561.744	105
561.956	96
562.168	95
562.381	94
562.593	102
562.805	99
563.017	89
563.229	90
563.441	78
563.653	92
563.865	87
564.077	85
564.289	82
564.501	97
564.713	85
564.925	97
565.137	110
565.349	92
565.561	101
565.773	93
565.985	78
566.197	79
566.408	81
566.62	85
566.832	94
567.044	93
567.255	82
567.467	85
567.679	93
567.891	88
568.102	94
568.314	82
568.526	99
568.737	99
568.949	85
569.161	87
569.372	84
569.584	84
569.795	94
570.007	131
570.218	292
570.43	152
570.641	90
570.853	84
571.064	82
571.276	87
571.487	85
571.698	87
571.91	100
572.121	90
572.333	96
572.544	93
572.755	94
572.966	82
573.178	102
573.389	86
573.6	92
573.811	99
574.023	90
574.234	70
574.445	86
574.656	80
574.867	94
575.078	83
575.289	87
575.501	82
575.712	82
575.923	94
576.134	78
576.345	95
576.556	97
576.767	83
576.978	92
577.188	90
577.399	94
577.61	96
577.821	97
578.032	121
578.243	302
578.454	955
578.665	235
578.875	101
