Data from Circ_1988_H10_HRD10591_00084.txt Node
Date: Wed Jan 03 12:05:51 EST 2024
User: Yrep
Spectrometer: HR+D1059
Trigger mode: 1
Integration Time (sec): 1.000000E-1
Scans to average: 1
Electric dark correction enabled: true
Nonlinearity correction enabled: false
Boxcar width: 0
XAxis mode: Wavelengths
Number of Pixels in Spectrum: 2048
>>>>>Begin Spectral Data<<<<<
223.165	-20.25
223.4	-20.25
223.635	-20.25
223.869	-13.25
224.104	-15.25
224.338	-19.25
224.573	-7.25
224.808	-9.25
225.042	-11.25
225.277	-2.25
225.511	6.75
225.746	-15.25
225.98	6.75
226.215	11.75
226.449	3.75
226.683	20.75
226.918	30.75
227.152	32.75
227.387	30.75
227.621	37.75
227.856	38.75
228.09	52.75
228.324	54.75
228.559	48.75
228.793	53.75
229.027	63.75
229.262	61.75
229.496	85.75
229.73	93.75
229.964	85.75
230.199	63.75
230.433	72.75
230.667	63.75
230.901	75.75
231.136	81.75
231.37	80.75
231.604	79.75
231.838	83.75
232.072	74.75
232.306	61.75
232.541	86.75
232.775	75.75
233.009	68.75
233.243	88.75
233.477	74.75
233.711	86.75
233.945	94.75
234.179	82.75
234.413	77.75
234.647	80.75
234.881	74.75
235.115	77.75
235.349	76.75
235.583	78.75
235.817	75.75
236.051	72.75
236.285	73.75
236.519	74.75
236.753	65.75
236.987	86.75
237.221	80.75
237.455	87.75
237.689	74.75
237.922	81.75
238.156	81.75
238.39	79.75
238.624	70.75
238.858	80.75
239.091	79.75
239.325	80.75
239.559	84.75
239.793	69.75
240.027	77.75
240.26	69.75
240.494	80.75
240.728	67.75
240.961	76.75
241.195	90.75
241.429	74.75
241.662	82.75
241.896	78.75
242.13	85.75
242.363	79.75
242.597	68.75
242.83	78.75
243.064	80.75
243.298	77.75
243.531	65.75
243.765	74.75
243.998	79.75
244.232	70.75
244.465	72.75
244.699	75.75
244.932	92.75
245.166	78.75
245.399	77.75
245.633	81.75
245.866	77.75
246.099	79.75
246.333	76.75
246.566	87.75
246.8	58.75
247.033	96.75
247.266	78.75
247.5	76.75
247.733	71.75
247.966	93.75
248.2	83.75
248.433	76.75
248.666	65.75
248.899	82.75
249.133	93.75
249.366	104.75
249.599	95.75
249.832	87.75
250.066	92.75
250.299	76.75
250.532	93.75
250.765	90.75
250.998	67.75
251.231	99.75
251.465	78.75
251.698	93.75
251.931	85.75
252.164	99.75
252.397	93.75
252.63	67.75
252.863	72.75
253.096	89.75
253.329	78.75
253.562	84.75
253.795	77.75
254.028	88.75
254.261	84.75
254.494	84.75
254.727	80.75
254.96	84.75
255.193	78.75
255.426	83.75
255.659	88.75
255.892	102.75
256.124	116.75
256.357	91.75
256.59	83.75
256.823	72.75
257.056	99.75
257.289	102.75
257.521	91.75
257.754	84.75
257.987	110.75
258.22	115.75
258.452	115.75
258.685	112.75
258.918	96.75
259.151	80.75
259.383	101.75
259.616	87.75
259.849	83.75
260.081	80.75
260.314	90.75
260.547	108.75
260.779	109.75
261.012	131.75
261.244	130.75
261.477	111.75
261.71	98.75
261.942	125.75
262.175	141.75
262.407	87.75
262.64	94.75
262.872	88.75
263.105	87.75
263.337	74.75
263.57	88.75
263.802	80.75
264.035	86.75
264.267	85.75
264.499	84.75
264.732	86.75
264.964	79.75
265.197	72.75
265.429	84.75
265.661	83.75
265.894	75.75
266.126	80.75
266.358	73.75
266.591	70.75
266.823	72.75
267.055	86.75
267.287	94.75
267.52	90.75
267.752	90.75
267.984	83.75
268.216	72.75
268.448	95.75
268.681	84.75
268.913	78.75
269.145	84.75
269.377	99.75
269.609	82.75
269.841	74.75
270.073	107.75
270.306	85.75
270.538	87.75
270.77	92.75
271.002	87.75
271.234	91.75
271.466	94.75
271.698	98.75
271.93	88.75
272.162	76.75
272.394	95.75
272.626	85.75
272.858	88.75
273.09	70.75
273.322	89.75
273.553	89.75
273.785	89.75
274.017	82.75
274.249	80.75
274.481	77.75
274.713	85.75
274.945	95.75
275.176	102.75
275.408	109.75
275.64	124.75
275.872	152.75
276.104	114.75
276.335	110.75
276.567	133.75
276.799	163.75
277.031	246.75
277.262	307.75
277.494	213.75
277.726	117.75
277.957	94.75
278.189	93.75
278.421	104.75
278.652	87.75
278.884	93.75
279.115	98.75
279.347	114.75
279.579	119.75
279.81	178.75
280.042	311.75
280.273	454.75
280.505	284.75
280.736	132.75
280.968	110.75
281.199	92.75
281.431	94.75
281.662	80.75
281.894	106.75
282.125	114.75
282.356	151.75
282.588	146.75
282.819	130.75
283.051	88.75
283.282	78.75
283.513	99.75
283.745	86.75
283.976	96.75
284.207	97.75
284.439	75.75
284.67	83.75
284.901	88.75
285.132	78.75
285.364	94.75
285.595	98.75
285.826	84.75
286.057	94.75
286.288	95.75
286.52	101.75
286.751	81.75
286.982	84.75
287.213	92.75
287.444	83.75
287.675	93.75
287.906	97.75
288.138	86.75
288.369	107.75
288.6	86.75
288.831	79.75
289.062	87.75
289.293	98.75
289.524	92.75
289.755	92.75
289.986	100.75
290.217	90.75
290.448	94.75
290.679	79.75
290.91	94.75
291.141	101.75
291.371	94.75
291.602	96.75
291.833	88.75
292.064	76.75
292.295	86.75
292.526	95.75
292.757	95.75
292.987	82.75
293.218	78.75
293.449	84.75
293.68	81.75
293.91	94.75
294.141	107.75
294.372	90.75
294.603	106.75
294.833	76.75
295.064	71.75
295.295	86.75
295.525	91.75
295.756	96.75
295.987	134.75
296.217	171.75
296.448	140.75
296.679	100.75
296.909	94.75
297.14	86.75
297.37	94.75
297.601	84.75
297.831	94.75
298.062	104.75
298.292	90.75
298.523	95.75
298.753	95.75
298.984	86.75
299.214	99.75
299.445	103.75
299.675	89.75
299.905	88.75
300.136	78.75
300.366	78.75
300.597	93.75
300.827	103.75
301.057	95.75
301.288	110.75
301.518	115.75
301.748	110.75
301.979	119.75
302.209	115.75
302.439	104.75
302.669	96.75
302.9	84.75
303.13	109.75
303.36	129.75
303.59	165.75
303.82	183.75
304.051	120.75
304.281	90.75
304.511	100.75
304.741	76.75
304.971	96.75
305.201	85.75
305.431	85.75
305.661	82.75
305.891	99.75
306.121	106.75
306.352	132.75
306.582	130.75
306.812	115.75
307.042	174.75
307.272	223.75
307.502	278.75
307.731	234.75
307.961	164.75
308.191	117.75
308.421	90.75
308.651	94.75
308.881	100.75
309.111	97.75
309.341	110.75
309.571	99.75
309.8	109.75
310.03	106.75
310.26	110.75
310.49	100.75
310.72	97.75
310.949	114.75
311.179	111.75
311.409	102.75
311.639	100.75
311.868	104.75
312.098	90.75
312.328	115.75
312.557	118.75
312.787	140.75
313.017	116.75
313.246	103.75
313.476	108.75
313.706	85.75
313.935	84.75
314.165	104.75
314.394	103.75
314.624	104.75
314.853	107.75
315.083	86.75
315.312	94.75
315.542	100.75
315.771	84.75
316.001	93.75
316.23	99.75
316.46	84.75
316.689	92.75
316.919	116.75
317.148	99.75
317.377	108.75
317.607	95.75
317.836	92.75
318.065	94.75
318.295	87.75
318.524	93.75
318.753	96.75
318.983	92.75
319.212	99.75
319.441	128.75
319.67	127.75
319.9	103.75
320.129	89.75
320.358	96.75
320.587	94.75
320.816	102.75
321.046	113.75
321.275	108.75
321.504	94.75
321.733	88.75
321.962	105.75
322.191	103.75
322.42	122.75
322.649	116.75
322.878	109.75
323.108	121.75
323.337	131.75
323.566	126.75
323.795	169.75
324.024	215.75
324.253	397.75
324.482	762.75
324.71	1577.75
324.939	2067.75
325.168	810.75
325.397	249.75
325.626	158.75
325.855	152.75
326.084	124.75
326.313	138.75
326.542	156.75
326.77	227.75
326.999	408.75
327.228	803.75
327.457	1384.75
327.686	1215.75
327.914	598.75
328.143	816.75
328.372	1196.75
328.6	597.75
328.829	240.75
329.058	224.75
329.287	220.75
329.515	236.75
329.744	359.75
329.972	820.75
330.201	1756.75
330.43	2662.75
330.658	1080.75
330.887	358.75
331.115	224.75
331.344	142.75
331.572	126.75
331.801	134.75
332.03	133.75
332.258	114.75
332.486	111.75
332.715	115.75
332.943	124.75
333.172	133.75
333.4	156.75
333.629	188.75
333.857	323.75
334.085	629.75
334.314	1526.75
334.542	3153.75
334.771	2980.75
334.999	708.75
335.227	234.75
335.455	154.75
335.684	134.75
335.912	133.75
336.14	114.75
336.369	109.75
336.597	130.75
336.825	122.75
337.053	103.75
337.281	94.75
337.51	109.75
337.738	114.75
337.966	98.75
338.194	111.75
338.422	110.75
338.65	97.75
338.878	93.75
339.106	89.75
339.334	98.75
339.562	93.75
339.79	88.75
340.018	88.75
340.246	106.75
340.474	111.75
340.702	99.75
340.93	107.75
341.158	97.75
341.386	100.75
341.614	98.75
341.842	106.75
342.07	79.75
342.298	86.75
342.526	85.75
342.754	96.75
342.981	92.75
343.209	79.75
343.437	101.75
343.665	80.75
343.893	92.75
344.12	97.75
344.348	79.75
344.576	88.75
344.804	95.75
345.031	95.75
345.259	107.75
345.487	76.75
345.714	88.75
345.942	92.75
346.17	88.75
346.397	98.75
346.625	109.75
346.853	96.75
347.08	91.75
347.308	93.75
347.535	99.75
347.763	107.75
347.99	113.75
348.218	94.75
348.445	104.75
348.673	96.75
348.9	104.75
349.128	103.75
349.355	94.75
349.583	94.75
349.81	86.75
350.037	102.75
350.265	84.75
350.492	102.75
350.72	102.75
350.947	116.75
351.174	104.75
351.402	124.75
351.629	108.75
351.856	103.75
352.083	118.75
352.311	130.75
352.538	102.75
352.765	94.75
352.992	113.75
353.22	120.75
353.447	102.75
353.674	99.75
353.901	92.75
354.128	112.75
354.355	89.75
354.583	92.75
354.81	97.75
355.037	83.75
355.264	78.75
355.491	77.75
355.718	92.75
355.945	84.75
356.172	100.75
356.399	94.75
356.626	83.75
356.853	97.75
357.08	96.75
357.307	91.75
357.534	74.75
357.761	98.75
357.988	85.75
358.215	95.75
358.441	90.75
358.668	100.75
358.895	89.75
359.122	96.75
359.349	80.75
359.576	95.75
359.802	101.75
360.029	140.75
360.256	127.75
360.483	117.75
360.709	86.75
360.936	85.75
361.163	112.75
361.39	108.75
361.616	88.75
361.843	94.75
362.07	96.75
362.296	101.75
362.523	101.75
362.749	112.75
362.976	84.75
363.203	96.75
363.429	98.75
363.656	89.75
363.882	89.75
364.109	87.75
364.335	95.75
364.562	98.75
364.788	96.75
365.015	100.75
365.241	108.75
365.468	109.75
365.694	110.75
365.92	103.75
366.147	89.75
366.373	99.75
366.599	90.75
366.826	81.75
367.052	83.75
367.278	86.75
367.505	84.75
367.731	68.75
367.957	77.75
368.184	107.75
368.41	119.75
368.636	131.75
368.862	138.75
369.089	108.75
369.315	112.75
369.541	91.75
369.767	92.75
369.993	94.75
370.219	98.75
370.445	100.75
370.672	90.75
370.898	80.75
371.124	94.75
371.35	89.75
371.576	90.75
371.802	84.75
372.028	98.75
372.254	84.75
372.48	99.75
372.706	88.75
372.932	82.75
373.158	82.75
373.384	81.75
373.61	85.75
373.835	90.75
374.061	88.75
374.287	95.75
374.513	90.75
374.739	88.75
374.965	99.75
375.191	110.75
375.416	88.75
375.642	90.75
375.868	92.75
376.094	95.75
376.319	95.75
376.545	90.75
376.771	103.75
376.997	80.75
377.222	96.75
377.448	94.75
377.674	92.75
377.899	93.75
378.125	87.75
378.35	94.75
378.576	100.75
378.802	85.75
379.027	104.75
379.253	92.75
379.478	88.75
379.704	89.75
379.929	98.75
380.155	103.75
380.38	95.75
380.606	89.75
380.831	86.75
381.057	93.75
381.282	89.75
381.507	99.75
381.733	84.75
381.958	92.75
382.184	99.75
382.409	98.75
382.634	114.75
382.86	104.75
383.085	93.75
383.31	96.75
383.535	86.75
383.761	104.75
383.986	112.75
384.211	109.75
384.436	108.75
384.662	101.75
384.887	109.75
385.112	103.75
385.337	102.75
385.562	91.75
385.787	92.75
386.013	124.75
386.238	116.75
386.463	109.75
386.688	102.75
386.913	106.75
387.138	98.75
387.363	105.75
387.588	111.75
387.813	94.75
388.038	116.75
388.263	120.75
388.488	120.75
388.713	99.75
388.938	82.75
389.163	83.75
389.387	85.75
389.612	95.75
389.837	99.75
390.062	82.75
390.287	89.75
390.512	87.75
390.736	98.75
390.961	97.75
391.186	95.75
391.411	96.75
391.636	87.75
391.86	83.75
392.085	66.75
392.31	99.75
392.534	87.75
392.759	81.75
392.984	81.75
393.208	89.75
393.433	94.75
393.658	79.75
393.882	85.75
394.107	79.75
394.331	86.75
394.556	72.75
394.78	90.75
395.005	87.75
395.229	76.75
395.454	81.75
395.678	103.75
395.903	94.75
396.127	99.75
396.352	97.75
396.576	78.75
396.801	77.75
397.025	85.75
397.249	81.75
397.474	94.75
397.698	71.75
397.922	85.75
398.147	90.75
398.371	97.75
398.595	82.75
398.82	85.75
399.044	102.75
399.268	82.75
399.492	79.75
399.717	83.75
399.941	86.75
400.165	88.75
400.389	85.75
400.613	94.75
400.837	94.75
401.062	94.75
401.286	87.75
401.51	86.75
401.734	91.75
401.958	104.75
402.182	131.75
402.406	207.75
402.63	139.75
402.854	87.75
403.078	82.75
403.302	92.75
403.526	84.75
403.75	89.75
403.974	85.75
404.198	93.75
404.422	87.75
404.645	85.75
404.869	98.75
405.093	115.75
405.317	147.75
405.541	150.75
405.765	126.75
405.988	132.75
406.212	194.75
406.436	306.75
406.66	190.75
406.883	110.75
407.107	109.75
407.331	104.75
407.555	111.75
407.778	104.75
408.002	90.75
408.226	87.75
408.449	80.75
408.673	81.75
408.896	99.75
409.12	86.75
409.344	87.75
409.567	78.75
409.791	85.75
410.014	100.75
410.238	85.75
410.461	96.75
410.685	98.75
410.908	94.75
411.132	104.75
411.355	109.75
411.578	94.75
411.802	95.75
412.025	92.75
412.249	104.75
412.472	103.75
412.695	153.75
412.919	144.75
413.142	101.75
413.365	92.75
413.589	90.75
413.812	98.75
414.035	95.75
414.258	98.75
414.482	97.75
414.705	92.75
414.928	96.75
415.151	95.75
415.374	95.75
415.597	88.75
415.821	90.75
416.044	86.75
416.267	101.75
416.49	96.75
416.713	78.75
416.936	98.75
417.159	94.75
417.382	106.75
417.605	115.75
417.828	133.75
418.051	117.75
418.274	86.75
418.497	79.75
418.72	95.75
418.943	74.75
419.166	78.75
419.389	93.75
419.611	96.75
419.834	110.75
420.057	100.75
420.28	103.75
420.503	99.75
420.726	92.75
420.948	99.75
421.171	106.75
421.394	89.75
421.617	87.75
421.839	100.75
422.062	104.75
422.285	102.75
422.507	117.75
422.73	117.75
422.953	92.75
423.175	90.75
423.398	80.75
423.621	76.75
423.843	96.75
424.066	84.75
424.288	98.75
424.511	94.75
424.733	96.75
424.956	112.75
425.178	114.75
425.401	110.75
425.623	107.75
425.846	98.75
426.068	101.75
426.291	109.75
426.513	92.75
426.735	85.75
426.958	101.75
427.18	120.75
427.402	182.75
427.625	243.75
427.847	241.75
428.069	196.75
428.292	130.75
428.514	99.75
428.736	94.75
428.958	90.75
429.181	88.75
429.403	76.75
429.625	78.75
429.847	103.75
430.069	112.75
430.292	101.75
430.514	90.75
430.736	74.75
430.958	83.75
431.18	90.75
431.402	86.75
431.624	69.75
431.846	90.75
432.068	101.75
432.29	88.75
432.512	91.75
432.734	90.75
432.956	82.75
433.178	94.75
433.4	100.75
433.622	91.75
433.844	86.75
434.066	101.75
434.287	101.75
434.509	100.75
434.731	84.75
434.953	93.75
435.175	82.75
435.397	86.75
435.618	83.75
435.84	106.75
436.062	125.75
436.284	134.75
436.505	98.75
436.727	90.75
436.949	105.75
437.17	85.75
437.392	93.75
437.614	99.75
437.835	110.75
438.057	152.75
438.278	142.75
438.5	114.75
438.721	143.75
438.943	124.75
439.165	85.75
439.386	89.75
439.608	77.75
439.829	111.75
440.05	150.75
440.272	171.75
440.493	113.75
440.715	100.75
440.936	81.75
441.158	88.75
441.379	88.75
441.6	104.75
441.822	107.75
442.043	89.75
442.264	121.75
442.486	102.75
442.707	89.75
442.928	112.75
443.149	157.75
443.371	172.75
443.592	128.75
443.813	124.75
444.034	113.75
444.255	89.75
444.476	76.75
444.698	88.75
444.919	92.75
445.14	143.75
445.361	113.75
445.582	130.75
445.803	172.75
446.024	172.75
446.245	145.75
446.466	107.75
446.687	104.75
446.908	97.75
447.129	104.75
447.35	85.75
447.571	96.75
447.792	104.75
448.013	100.75
448.234	122.75
448.455	116.75
448.675	121.75
448.896	133.75
449.117	102.75
449.338	106.75
449.559	131.75
449.779	149.75
450	85.75
450.221	87.75
450.442	83.75
450.662	100.75
450.883	144.75
451.104	134.75
451.324	97.75
451.545	82.75
451.766	86.75
451.986	90.75
452.207	104.75
452.428	91.75
452.648	109.75
452.869	133.75
453.089	133.75
453.31	139.75
453.53	102.75
453.751	98.75
453.971	113.75
454.192	135.75
454.412	95.75
454.633	82.75
454.853	104.75
455.073	89.75
455.294	104.75
455.514	112.75
455.734	108.75
455.955	77.75
456.175	77.75
456.395	87.75
456.616	80.75
456.836	74.75
457.056	97.75
457.276	81.75
457.497	90.75
457.717	85.75
457.937	94.75
458.157	87.75
458.377	111.75
458.598	136.75
458.818	200.75
459.038	222.75
459.258	153.75
459.478	96.75
459.698	85.75
459.918	91.75
460.138	94.75
460.358	76.75
460.578	94.75
460.798	92.75
461.018	102.75
461.238	96.75
461.458	79.75
461.678	94.75
461.898	84.75
462.118	82.75
462.338	89.75
462.558	90.75
462.777	78.75
462.997	108.75
463.217	158.75
463.437	123.75
463.657	100.75
463.876	99.75
464.096	89.75
464.316	85.75
464.536	104.75
464.755	102.75
464.975	128.75
465.195	229.75
465.414	245.75
465.634	118.75
465.854	105.75
466.073	96.75
466.293	93.75
466.512	99.75
466.732	99.75
466.951	95.75
467.171	118.75
467.391	122.75
467.61	191.75
467.829	338.75
468.049	1159.75
468.268	1772.75
468.488	388.75
468.707	144.75
468.927	116.75
469.146	88.75
469.365	91.75
469.585	95.75
469.804	110.75
470.023	110.75
470.243	123.75
470.462	110.75
470.681	146.75
470.901	123.75
471.12	114.75
471.339	128.75
471.558	147.75
471.777	222.75
471.997	506.75
472.216	2146.75
472.435	5058.75
472.654	1024.75
472.873	232.75
473.092	147.75
473.311	106.75
473.53	104.75
473.749	111.75
473.968	119.75
474.187	127.75
474.406	101.75
474.625	88.75
474.844	92.75
475.063	91.75
475.282	83.75
475.501	105.75
475.72	103.75
475.939	83.75
476.158	86.75
476.377	90.75
476.596	109.75
476.814	107.75
477.033	98.75
477.252	90.75
477.471	84.75
477.69	96.75
477.908	98.75
478.127	102.75
478.346	94.75
478.564	107.75
478.783	95.75
479.002	114.75
479.22	124.75
479.439	127.75
479.658	138.75
479.876	134.75
480.095	142.75
480.313	172.75
480.532	222.75
480.751	433.75
480.969	1794.75
481.188	8173.75
481.406	4471.75
481.624	578.75
481.843	184.75
482.061	133.75
482.28	115.75
482.498	108.75
482.717	105.75
482.935	101.75
483.153	106.75
483.372	99.75
483.59	102.75
483.808	89.75
484.027	101.75
484.245	90.75
484.463	113.75
484.681	100.75
484.9	107.75
485.118	114.75
485.336	103.75
485.554	102.75
485.772	107.75
485.99	102.75
486.209	117.75
486.427	110.75
486.645	134.75
486.863	130.75
487.081	110.75
487.299	110.75
487.517	118.75
487.735	107.75
487.953	92.75
488.171	102.75
488.389	106.75
488.607	105.75
488.825	102.75
489.043	91.75
489.261	96.75
489.479	94.75
489.696	88.75
489.914	110.75
490.132	99.75
490.35	99.75
490.568	94.75
490.786	92.75
491.003	84.75
491.221	104.75
491.439	118.75
491.657	80.75
491.874	91.75
492.092	103.75
492.31	99.75
492.527	117.75
492.745	104.75
492.963	104.75
493.18	100.75
493.398	105.75
493.615	95.75
493.833	102.75
494.05	95.75
494.268	80.75
494.485	86.75
494.703	92.75
494.92	99.75
495.138	98.75
495.355	83.75
495.573	83.75
495.79	94.75
496.008	96.75
496.225	103.75
496.442	89.75
496.66	98.75
496.877	98.75
497.094	93.75
497.312	99.75
497.529	86.75
497.746	100.75
497.963	90.75
498.181	110.75
498.398	99.75
498.615	120.75
498.832	115.75
499.049	97.75
499.267	100.75
499.484	95.75
499.701	90.75
499.918	96.75
500.135	85.75
500.352	102.75
500.569	105.75
500.786	102.75
501.003	109.75
501.22	88.75
501.437	92.75
501.654	95.75
501.871	122.75
502.088	108.75
502.305	100.75
502.522	88.75
502.739	94.75
502.956	92.75
503.172	97.75
503.389	118.75
503.606	110.75
503.823	114.75
504.04	108.75
504.256	91.75
504.473	87.75
504.69	92.75
504.907	101.75
505.123	87.75
505.34	111.75
505.557	106.75
505.773	95.75
505.99	84.75
506.207	91.75
506.423	96.75
506.64	99.75
506.856	94.75
507.073	90.75
507.289	88.75
507.506	92.75
507.722	138.75
507.939	139.75
508.155	110.75
508.372	108.75
508.588	87.75
508.805	106.75
509.021	106.75
509.238	99.75
509.454	114.75
509.67	86.75
509.887	109.75
510.103	143.75
510.319	261.75
510.536	1026.75
510.752	3550.75
510.968	907.75
511.184	183.75
511.401	117.75
511.617	108.75
511.833	140.75
512.049	106.75
512.265	98.75
512.481	94.75
