Data from Circ_1988_H10_HRD10591_00098.txt Node
Date: Wed Jan 03 12:05:54 EST 2024
User: Yrep
Spectrometer: HR+D1059
Trigger mode: 1
Integration Time (sec): 1.000000E-1
Scans to average: 1
Electric dark correction enabled: true
Nonlinearity correction enabled: false
Boxcar width: 0
XAxis mode: Wavelengths
Number of Pixels in Spectrum: 2048
>>>>>Begin Spectral Data<<<<<
223.165	-11.94
223.4	-11.94
223.635	-11.94
223.869	-25.94
224.104	-22.94
224.338	-4.94
224.573	-11.94
224.808	-10.94
225.042	-10.94
225.277	-0.94
225.511	-3.94
225.746	-3.94
225.98	-2.94
226.215	15.06
226.449	18.06
226.683	14.06
226.918	17.06
227.152	47.06
227.387	28.06
227.621	45.06
227.856	44.06
228.09	47.06
228.324	54.06
228.559	47.06
228.793	52.06
229.027	63.06
229.262	63.06
229.496	87.06
229.73	112.06
229.964	81.06
230.199	87.06
230.433	78.06
230.667	78.06
230.901	76.06
231.136	73.06
231.37	78.06
231.604	72.06
231.838	79.06
232.072	93.06
232.306	80.06
232.541	82.06
232.775	75.06
233.009	77.06
233.243	102.06
233.477	85.06
233.711	80.06
233.945	79.06
234.179	79.06
234.413	65.06
234.647	75.06
234.881	81.06
235.115	72.06
235.349	83.06
235.583	85.06
235.817	70.06
236.051	73.06
236.285	66.06
236.519	77.06
236.753	86.06
236.987	76.06
237.221	93.06
237.455	86.06
237.689	75.06
237.922	92.06
238.156	61.06
238.39	71.06
238.624	79.06
238.858	78.06
239.091	90.06
239.325	79.06
239.559	73.06
239.793	94.06
240.027	82.06
240.26	67.06
240.494	73.06
240.728	79.06
240.961	75.06
241.195	77.06
241.429	78.06
241.662	79.06
241.896	63.06
242.13	76.06
242.363	68.06
242.597	76.06
242.83	78.06
243.064	94.06
243.298	84.06
243.531	71.06
243.765	79.06
243.998	83.06
244.232	92.06
244.465	95.06
244.699	92.06
244.932	88.06
245.166	83.06
245.399	83.06
245.633	83.06
245.866	72.06
246.099	86.06
246.333	70.06
246.566	81.06
246.8	93.06
247.033	97.06
247.266	82.06
247.5	89.06
247.733	80.06
247.966	83.06
248.2	75.06
248.433	55.06
248.666	81.06
248.899	97.06
249.133	86.06
249.366	110.06
249.599	114.06
249.832	94.06
250.066	84.06
250.299	108.06
250.532	97.06
250.765	82.06
250.998	100.06
251.231	81.06
251.465	99.06
251.698	98.06
251.931	93.06
252.164	92.06
252.397	85.06
252.63	77.06
252.863	84.06
253.096	86.06
253.329	74.06
253.562	88.06
253.795	83.06
254.028	89.06
254.261	81.06
254.494	79.06
254.727	81.06
254.96	83.06
255.193	84.06
255.426	84.06
255.659	87.06
255.892	111.06
256.124	103.06
256.357	84.06
256.59	80.06
256.823	88.06
257.056	88.06
257.289	108.06
257.521	99.06
257.754	74.06
257.987	100.06
258.22	109.06
258.452	124.06
258.685	113.06
258.918	95.06
259.151	96.06
259.383	96.06
259.616	93.06
259.849	95.06
260.081	99.06
260.314	92.06
260.547	95.06
260.779	89.06
261.012	147.06
261.244	140.06
261.477	124.06
261.71	111.06
261.942	157.06
262.175	155.06
262.407	94.06
262.64	80.06
262.872	87.06
263.105	92.06
263.337	97.06
263.57	84.06
263.802	97.06
264.035	92.06
264.267	84.06
264.499	106.06
264.732	80.06
264.964	64.06
265.197	89.06
265.429	87.06
265.661	72.06
265.894	89.06
266.126	71.06
266.358	75.06
266.591	76.06
266.823	89.06
267.055	81.06
267.287	88.06
267.52	85.06
267.752	95.06
267.984	87.06
268.216	80.06
268.448	87.06
268.681	88.06
268.913	80.06
269.145	89.06
269.377	89.06
269.609	84.06
269.841	84.06
270.073	71.06
270.306	77.06
270.538	84.06
270.77	77.06
271.002	95.06
271.234	105.06
271.466	94.06
271.698	102.06
271.93	107.06
272.162	89.06
272.394	92.06
272.626	87.06
272.858	95.06
273.09	84.06
273.322	77.06
273.553	96.06
273.785	83.06
274.017	69.06
274.249	88.06
274.481	103.06
274.713	88.06
274.945	95.06
275.176	111.06
275.408	118.06
275.64	145.06
275.872	184.06
276.104	142.06
276.335	101.06
276.567	142.06
276.799	191.06
277.031	268.06
277.262	357.06
277.494	246.06
277.726	132.06
277.957	125.06
278.189	114.06
278.421	104.06
278.652	105.06
278.884	92.06
279.115	83.06
279.347	97.06
279.579	128.06
279.81	186.06
280.042	354.06
280.273	544.06
280.505	316.06
280.736	146.06
280.968	87.06
281.199	90.06
281.431	97.06
281.662	102.06
281.894	94.06
282.125	111.06
282.356	128.06
282.588	179.06
282.819	147.06
283.051	95.06
283.282	79.06
283.513	104.06
283.745	100.06
283.976	96.06
284.207	89.06
284.439	110.06
284.67	84.06
284.901	87.06
285.132	88.06
285.364	94.06
285.595	92.06
285.826	101.06
286.057	85.06
286.288	91.06
286.52	87.06
286.751	80.06
286.982	76.06
287.213	84.06
287.444	86.06
287.675	99.06
287.906	93.06
288.138	98.06
288.369	98.06
288.6	92.06
288.831	88.06
289.062	85.06
289.293	97.06
289.524	73.06
289.755	84.06
289.986	85.06
290.217	84.06
290.448	73.06
290.679	93.06
290.91	83.06
291.141	80.06
291.371	97.06
291.602	96.06
291.833	99.06
292.064	91.06
292.295	89.06
292.526	90.06
292.757	92.06
292.987	92.06
293.218	78.06
293.449	81.06
293.68	90.06
293.91	92.06
294.141	92.06
294.372	78.06
294.603	89.06
294.833	96.06
295.064	103.06
295.295	88.06
295.525	79.06
295.756	116.06
295.987	133.06
296.217	168.06
296.448	166.06
296.679	112.06
296.909	108.06
297.14	91.06
297.37	89.06
297.601	100.06
297.831	98.06
298.062	103.06
298.292	89.06
298.523	91.06
298.753	85.06
298.984	83.06
299.214	111.06
299.445	93.06
299.675	91.06
299.905	102.06
300.136	104.06
300.366	92.06
300.597	103.06
300.827	100.06
301.057	103.06
301.288	121.06
301.518	92.06
301.748	100.06
301.979	134.06
302.209	119.06
302.439	92.06
302.669	93.06
302.9	97.06
303.13	105.06
303.36	137.06
303.59	180.06
303.82	205.06
304.051	122.06
304.281	91.06
304.511	90.06
304.741	93.06
304.971	79.06
305.201	83.06
305.431	102.06
305.661	107.06
305.891	101.06
306.121	107.06
306.352	111.06
306.582	129.06
306.812	123.06
307.042	159.06
307.272	263.06
307.502	313.06
307.731	264.06
307.961	175.06
308.191	98.06
308.421	101.06
308.651	88.06
308.881	94.06
309.111	106.06
309.341	105.06
309.571	110.06
309.8	106.06
310.03	100.06
310.26	117.06
310.49	114.06
310.72	112.06
310.949	134.06
311.179	117.06
311.409	96.06
311.639	102.06
311.868	96.06
312.098	116.06
312.328	100.06
312.557	109.06
312.787	126.06
313.017	120.06
313.246	105.06
313.476	102.06
313.706	81.06
313.935	110.06
314.165	109.06
314.394	115.06
314.624	100.06
314.853	127.06
315.083	115.06
315.312	107.06
315.542	85.06
315.771	98.06
316.001	102.06
316.23	90.06
316.46	97.06
316.689	93.06
316.919	103.06
317.148	105.06
317.377	115.06
317.607	115.06
317.836	105.06
318.065	90.06
318.295	94.06
318.524	90.06
318.753	87.06
318.983	93.06
319.212	115.06
319.441	109.06
319.67	100.06
319.9	104.06
320.129	98.06
320.358	95.06
320.587	94.06
320.816	102.06
321.046	111.06
321.275	101.06
321.504	94.06
321.733	115.06
321.962	111.06
322.191	103.06
322.42	121.06
322.649	121.06
322.878	124.06
323.108	115.06
323.337	119.06
323.566	140.06
323.795	160.06
324.024	219.06
324.253	411.06
324.482	877.06
324.71	1743.06
324.939	2363.06
325.168	928.06
325.397	273.06
325.626	173.06
325.855	131.06
326.084	149.06
326.313	159.06
326.542	182.06
326.77	231.06
326.999	436.06
327.228	870.06
327.457	1613.06
327.686	1390.06
327.914	661.06
328.143	897.06
328.372	1350.06
328.6	657.06
328.829	262.06
329.058	232.06
329.287	217.06
329.515	243.06
329.744	379.06
329.972	858.06
330.201	1955.06
330.43	3089.06
330.658	1248.06
330.887	423.06
331.115	248.06
331.344	131.06
331.572	131.06
331.801	134.06
332.03	121.06
332.258	113.06
332.486	125.06
332.715	127.06
332.943	131.06
333.172	137.06
333.4	173.06
333.629	224.06
333.857	342.06
334.085	739.06
334.314	1655.06
334.542	3556.06
334.771	3523.06
334.999	809.06
335.227	272.06
335.455	169.06
335.684	147.06
335.912	125.06
336.14	127.06
336.369	117.06
336.597	129.06
336.825	129.06
337.053	108.06
337.281	99.06
337.51	97.06
337.738	85.06
337.966	101.06
338.194	110.06
338.422	118.06
338.65	104.06
338.878	102.06
339.106	103.06
339.334	101.06
339.562	92.06
339.79	100.06
340.018	85.06
340.246	100.06
340.474	93.06
340.702	99.06
340.93	102.06
341.158	99.06
341.386	102.06
341.614	103.06
341.842	92.06
342.07	89.06
342.298	90.06
342.526	102.06
342.754	96.06
342.981	90.06
343.209	86.06
343.437	93.06
343.665	86.06
343.893	91.06
344.12	95.06
344.348	101.06
344.576	87.06
344.804	88.06
345.031	103.06
345.259	102.06
345.487	102.06
345.714	102.06
345.942	88.06
346.17	88.06
346.397	92.06
346.625	93.06
346.853	103.06
347.08	95.06
347.308	96.06
347.535	101.06
347.763	114.06
347.99	95.06
348.218	111.06
348.445	104.06
348.673	92.06
348.9	92.06
349.128	102.06
349.355	89.06
349.583	95.06
349.81	92.06
350.037	100.06
350.265	83.06
350.492	91.06
350.72	81.06
350.947	94.06
351.174	132.06
351.402	116.06
351.629	105.06
351.856	118.06
352.083	115.06
352.311	116.06
352.538	105.06
352.765	125.06
352.992	118.06
353.22	111.06
353.447	118.06
353.674	111.06
353.901	95.06
354.128	109.06
354.355	93.06
354.583	98.06
354.81	107.06
355.037	94.06
355.264	120.06
355.491	97.06
355.718	94.06
355.945	84.06
356.172	88.06
356.399	81.06
356.626	93.06
356.853	87.06
357.08	100.06
357.307	99.06
357.534	84.06
357.761	92.06
357.988	96.06
358.215	83.06
358.441	93.06
358.668	98.06
358.895	102.06
359.122	81.06
359.349	105.06
359.576	88.06
359.802	100.06
360.029	155.06
360.256	134.06
360.483	114.06
360.709	88.06
360.936	103.06
361.163	108.06
361.39	107.06
361.616	99.06
361.843	104.06
362.07	117.06
362.296	100.06
362.523	98.06
362.749	98.06
362.976	96.06
363.203	103.06
363.429	105.06
363.656	99.06
363.882	95.06
364.109	80.06
364.335	88.06
364.562	85.06
364.788	90.06
365.015	111.06
365.241	107.06
365.468	136.06
365.694	106.06
365.92	105.06
366.147	91.06
366.373	96.06
366.599	86.06
366.826	83.06
367.052	104.06
367.278	102.06
367.505	100.06
367.731	98.06
367.957	97.06
368.184	94.06
368.41	102.06
368.636	121.06
368.862	135.06
369.089	120.06
369.315	108.06
369.541	94.06
369.767	79.06
369.993	93.06
370.219	100.06
370.445	95.06
370.672	80.06
370.898	89.06
371.124	85.06
371.35	96.06
371.576	91.06
371.802	93.06
372.028	82.06
372.254	82.06
372.48	93.06
372.706	89.06
372.932	88.06
373.158	92.06
373.384	100.06
373.61	80.06
373.835	88.06
374.061	82.06
374.287	89.06
374.513	91.06
374.739	91.06
374.965	80.06
375.191	87.06
375.416	95.06
375.642	92.06
375.868	96.06
376.094	93.06
376.319	94.06
376.545	91.06
376.771	92.06
376.997	108.06
377.222	92.06
377.448	81.06
377.674	78.06
377.899	83.06
378.125	83.06
378.35	116.06
378.576	88.06
378.802	96.06
379.027	92.06
379.253	104.06
379.478	102.06
379.704	95.06
379.929	92.06
380.155	96.06
380.38	95.06
380.606	109.06
380.831	91.06
381.057	90.06
381.282	86.06
381.507	96.06
381.733	91.06
381.958	80.06
382.184	76.06
382.409	120.06
382.634	102.06
382.86	112.06
383.085	82.06
383.31	94.06
383.535	93.06
383.761	94.06
383.986	95.06
384.211	87.06
384.436	107.06
384.662	86.06
384.887	100.06
385.112	120.06
385.337	99.06
385.562	102.06
385.787	103.06
386.013	116.06
386.238	136.06
386.463	116.06
386.688	104.06
386.913	117.06
387.138	99.06
387.363	101.06
387.588	97.06
387.813	95.06
388.038	95.06
388.263	110.06
388.488	111.06
388.713	95.06
388.938	101.06
389.163	91.06
389.387	91.06
389.612	90.06
389.837	87.06
390.062	86.06
390.287	94.06
390.512	91.06
390.736	99.06
390.961	86.06
391.186	99.06
391.411	90.06
391.636	76.06
391.86	86.06
392.085	87.06
392.31	88.06
392.534	88.06
392.759	89.06
392.984	101.06
393.208	87.06
393.433	84.06
393.658	81.06
393.882	81.06
394.107	96.06
394.331	99.06
394.556	89.06
394.78	101.06
395.005	80.06
395.229	104.06
395.454	91.06
395.678	89.06
395.903	99.06
396.127	93.06
396.352	91.06
396.576	86.06
396.801	86.06
397.025	82.06
397.249	83.06
397.474	93.06
397.698	79.06
397.922	92.06
398.147	87.06
398.371	81.06
398.595	89.06
398.82	87.06
399.044	83.06
399.268	78.06
399.492	76.06
399.717	73.06
399.941	94.06
400.165	99.06
400.389	101.06
400.613	85.06
400.837	79.06
401.062	91.06
401.286	89.06
401.51	100.06
401.734	91.06
401.958	121.06
402.182	157.06
402.406	202.06
402.63	173.06
402.854	118.06
403.078	105.06
403.302	98.06
403.526	92.06
403.75	76.06
403.974	92.06
404.198	90.06
404.422	68.06
404.645	111.06
404.869	96.06
405.093	130.06
405.317	145.06
405.541	158.06
405.765	126.06
405.988	143.06
406.212	231.06
406.436	318.06
406.66	206.06
406.883	111.06
407.107	118.06
407.331	101.06
407.555	105.06
407.778	90.06
408.002	94.06
408.226	97.06
408.449	105.06
408.673	102.06
408.896	108.06
409.12	100.06
409.344	101.06
409.567	77.06
409.791	93.06
410.014	94.06
410.238	93.06
410.461	86.06
410.685	88.06
410.908	105.06
411.132	113.06
411.355	102.06
411.578	96.06
411.802	90.06
412.025	107.06
412.249	116.06
412.472	122.06
412.695	178.06
412.919	122.06
413.142	89.06
413.365	92.06
413.589	75.06
413.812	87.06
414.035	98.06
414.258	104.06
414.482	94.06
414.705	95.06
414.928	94.06
415.151	81.06
415.374	85.06
415.597	76.06
415.821	82.06
416.044	98.06
416.267	102.06
416.49	95.06
416.713	92.06
416.936	94.06
417.159	93.06
417.382	100.06
417.605	126.06
417.828	127.06
418.051	118.06
418.274	101.06
418.497	100.06
418.72	89.06
418.943	91.06
419.166	88.06
419.389	89.06
419.611	83.06
419.834	95.06
420.057	94.06
420.28	108.06
420.503	91.06
420.726	95.06
420.948	112.06
421.171	105.06
421.394	96.06
421.617	87.06
421.839	91.06
422.062	77.06
422.285	86.06
422.507	104.06
422.73	122.06
422.953	89.06
423.175	84.06
423.398	93.06
423.621	99.06
423.843	85.06
424.066	74.06
424.288	91.06
424.511	80.06
424.733	101.06
424.956	93.06
425.178	115.06
425.401	120.06
425.623	120.06
425.846	104.06
426.068	92.06
426.291	107.06
426.513	91.06
426.735	92.06
426.958	102.06
427.18	110.06
427.402	171.06
427.625	262.06
427.847	267.06
428.069	221.06
428.292	151.06
428.514	105.06
428.736	101.06
428.958	107.06
429.181	92.06
429.403	92.06
429.625	97.06
429.847	94.06
430.069	112.06
430.292	99.06
430.514	94.06
430.736	91.06
430.958	91.06
431.18	77.06
431.402	82.06
431.624	92.06
431.846	83.06
432.068	80.06
432.29	92.06
432.512	95.06
432.734	87.06
432.956	95.06
433.178	88.06
433.4	104.06
433.622	103.06
433.844	109.06
434.066	101.06
434.287	93.06
434.509	79.06
434.731	104.06
434.953	98.06
435.175	105.06
435.397	98.06
435.618	104.06
435.84	107.06
436.062	127.06
436.284	124.06
436.505	110.06
436.727	101.06
436.949	85.06
437.17	86.06
437.392	94.06
437.614	113.06
437.835	127.06
438.057	152.06
438.278	129.06
438.5	104.06
438.721	110.06
438.943	105.06
439.165	87.06
439.386	101.06
439.608	94.06
439.829	106.06
440.05	147.06
440.272	181.06
440.493	116.06
440.715	96.06
440.936	103.06
441.158	89.06
441.379	89.06
441.6	97.06
441.822	112.06
442.043	97.06
442.264	117.06
442.486	111.06
442.707	97.06
442.928	118.06
443.149	186.06
443.371	184.06
443.592	161.06
443.813	135.06
444.034	122.06
444.255	82.06
444.476	94.06
444.698	96.06
444.919	87.06
445.14	137.06
445.361	121.06
445.582	121.06
445.803	183.06
446.024	175.06
446.245	159.06
446.466	128.06
446.687	100.06
446.908	87.06
447.129	99.06
447.35	100.06
447.571	94.06
447.792	115.06
448.013	120.06
448.234	126.06
448.455	103.06
448.675	142.06
448.896	138.06
449.117	110.06
449.338	108.06
449.559	138.06
449.779	151.06
450	96.06
450.221	72.06
450.442	111.06
450.662	104.06
450.883	133.06
451.104	154.06
451.324	124.06
451.545	99.06
451.766	100.06
451.986	94.06
452.207	86.06
452.428	100.06
452.648	129.06
452.869	125.06
453.089	126.06
453.31	143.06
453.53	109.06
453.751	111.06
453.971	133.06
454.192	150.06
454.412	104.06
454.633	85.06
454.853	93.06
455.073	91.06
455.294	102.06
455.514	118.06
455.734	91.06
455.955	85.06
456.175	78.06
456.395	96.06
456.616	82.06
456.836	83.06
457.056	79.06
457.276	84.06
457.497	82.06
457.717	75.06
457.937	77.06
458.157	89.06
458.377	97.06
458.598	139.06
458.818	195.06
459.038	248.06
459.258	150.06
459.478	107.06
459.698	93.06
459.918	85.06
460.138	73.06
460.358	89.06
460.578	97.06
460.798	99.06
461.018	106.06
461.238	85.06
461.458	82.06
461.678	85.06
461.898	92.06
462.118	93.06
462.338	88.06
462.558	102.06
462.777	98.06
462.997	121.06
463.217	155.06
463.437	117.06
463.657	99.06
463.876	84.06
464.096	99.06
464.316	109.06
464.536	118.06
464.755	112.06
464.975	127.06
465.195	252.06
465.414	263.06
465.634	113.06
465.854	92.06
466.073	93.06
466.293	89.06
466.512	94.06
466.732	88.06
466.951	111.06
467.171	116.06
467.391	131.06
467.61	195.06
467.829	379.06
468.049	1285.06
468.268	2075.06
468.488	439.06
468.707	133.06
468.927	106.06
469.146	99.06
469.365	100.06
469.585	104.06
469.804	120.06
470.023	115.06
470.243	116.06
470.462	134.06
470.681	159.06
470.901	123.06
471.12	117.06
471.339	122.06
471.558	182.06
471.777	233.06
471.997	544.06
472.216	2371.06
472.435	5705.06
472.654	1149.06
472.873	263.06
473.092	151.06
473.311	109.06
473.53	95.06
473.749	98.06
473.968	92.06
474.187	112.06
474.406	110.06
474.625	92.06
474.844	96.06
475.063	82.06
475.282	95.06
475.501	89.06
475.72	99.06
475.939	92.06
476.158	99.06
476.377	92.06
476.596	90.06
476.814	106.06
477.033	114.06
477.252	114.06
477.471	92.06
477.69	99.06
477.908	99.06
478.127	103.06
478.346	116.06
478.564	102.06
478.783	103.06
479.002	114.06
479.22	128.06
479.439	145.06
479.658	157.06
479.876	144.06
480.095	151.06
480.313	171.06
480.532	222.06
480.751	486.06
480.969	1967.06
481.188	9124.06
481.406	5163.06
481.624	657.06
481.843	212.06
482.061	125.06
482.28	117.06
482.498	109.06
482.717	103.06
482.935	102.06
483.153	103.06
483.372	83.06
483.59	98.06
483.808	91.06
484.027	102.06
484.245	105.06
484.463	116.06
484.681	101.06
484.9	105.06
485.118	113.06
485.336	101.06
485.554	112.06
485.772	110.06
485.99	110.06
486.209	125.06
486.427	135.06
486.645	132.06
486.863	135.06
487.081	117.06
487.299	113.06
487.517	102.06
487.735	107.06
487.953	95.06
488.171	101.06
488.389	103.06
488.607	116.06
488.825	102.06
489.043	95.06
489.261	90.06
489.479	102.06
489.696	92.06
489.914	95.06
490.132	98.06
490.35	102.06
490.568	90.06
490.786	99.06
491.003	93.06
491.221	113.06
491.439	112.06
491.657	102.06
491.874	94.06
492.092	102.06
492.31	96.06
492.527	118.06
492.745	106.06
492.963	87.06
493.18	88.06
493.398	105.06
493.615	95.06
493.833	104.06
494.05	90.06
494.268	86.06
494.485	97.06
494.703	85.06
494.92	89.06
495.138	89.06
495.355	98.06
495.573	109.06
495.79	105.06
496.008	104.06
496.225	96.06
496.442	97.06
496.66	99.06
496.877	104.06
497.094	102.06
497.312	103.06
497.529	95.06
497.746	92.06
497.963	102.06
498.181	88.06
498.398	96.06
498.615	112.06
498.832	110.06
499.049	98.06
499.267	109.06
499.484	84.06
499.701	93.06
499.918	97.06
500.135	100.06
500.352	84.06
500.569	89.06
500.786	111.06
501.003	105.06
501.22	104.06
501.437	83.06
501.654	99.06
501.871	126.06
502.088	103.06
502.305	94.06
502.522	92.06
502.739	101.06
502.956	103.06
503.172	98.06
503.389	116.06
503.606	149.06
503.823	111.06
504.04	106.06
504.256	93.06
504.473	94.06
504.69	91.06
504.907	107.06
505.123	92.06
505.34	87.06
505.557	110.06
505.773	91.06
505.99	83.06
506.207	88.06
506.423	87.06
506.64	96.06
506.856	86.06
507.073	102.06
507.289	95.06
507.506	111.06
507.722	145.06
507.939	140.06
508.155	95.06
508.372	95.06
508.588	95.06
508.805	105.06
509.021	111.06
509.238	112.06
509.454	107.06
509.67	112.06
509.887	122.06
510.103	150.06
510.319	264.06
510.536	1021.06
510.752	3833.06
510.968	1005.06
511.184	208.06
511.401	131.06
511.617	116.06
