Data from Circ_1988_H10_HRD10591_00037.txt Node
Date: Wed Jan 03 12:05:42 EST 2024
User: Yrep
Spectrometer: HR+D1059
Trigger mode: 1
Integration Time (sec): 1.000000E-1
Scans to average: 1
Electric dark correction enabled: true
Nonlinearity correction enabled: false
Boxcar width: 0
XAxis mode: Wavelengths
Number of Pixels in Spectrum: 2048
>>>>>Begin Spectral Data<<<<<
223.165	-18.94
223.4	-18.94
223.635	-18.94
223.869	-16.94
224.104	-21.94
224.338	-12.94
224.573	-15.94
224.808	-9.94
225.042	0.06
225.277	-2.94
225.511	1.06
225.746	2.06
225.98	-4.94
226.215	6.06
226.449	20.06
226.683	16.06
226.918	27.06
227.152	32.06
227.387	42.06
227.621	41.06
227.856	43.06
228.09	60.06
228.324	53.06
228.559	46.06
228.793	46.06
229.027	63.06
229.262	67.06
229.496	87.06
229.73	97.06
229.964	97.06
230.199	76.06
230.433	72.06
230.667	86.06
230.901	78.06
231.136	79.06
231.37	80.06
231.604	85.06
231.838	72.06
232.072	86.06
232.306	84.06
232.541	65.06
232.775	72.06
233.009	95.06
233.243	73.06
233.477	88.06
233.711	77.06
233.945	86.06
234.179	77.06
234.413	97.06
234.647	74.06
234.881	79.06
235.115	86.06
235.349	70.06
235.583	68.06
235.817	77.06
236.051	83.06
236.285	74.06
236.519	72.06
236.753	79.06
236.987	80.06
237.221	100.06
237.455	96.06
237.689	77.06
237.922	87.06
238.156	80.06
238.39	84.06
238.624	67.06
238.858	74.06
239.091	73.06
239.325	74.06
239.559	92.06
239.793	86.06
240.027	82.06
240.26	88.06
240.494	80.06
240.728	72.06
240.961	70.06
241.195	68.06
241.429	83.06
241.662	68.06
241.896	84.06
242.13	86.06
242.363	81.06
242.597	76.06
242.83	78.06
243.064	69.06
243.298	77.06
243.531	88.06
243.765	89.06
243.998	72.06
244.232	91.06
244.465	94.06
244.699	89.06
244.932	84.06
245.166	77.06
245.399	74.06
245.633	79.06
245.866	81.06
246.099	84.06
246.333	80.06
246.566	80.06
246.8	84.06
247.033	76.06
247.266	86.06
247.5	83.06
247.733	97.06
247.966	76.06
248.2	86.06
248.433	89.06
248.666	86.06
248.899	93.06
249.133	96.06
249.366	90.06
249.599	120.06
249.832	90.06
250.066	88.06
250.299	84.06
250.532	98.06
250.765	91.06
250.998	95.06
251.231	86.06
251.465	79.06
251.698	105.06
251.931	107.06
252.164	110.06
252.397	70.06
252.63	86.06
252.863	80.06
253.096	82.06
253.329	76.06
253.562	81.06
253.795	81.06
254.028	83.06
254.261	88.06
254.494	85.06
254.727	94.06
254.96	74.06
255.193	95.06
255.426	95.06
255.659	85.06
255.892	124.06
256.124	120.06
256.357	97.06
256.59	89.06
256.823	84.06
257.056	98.06
257.289	91.06
257.521	86.06
257.754	92.06
257.987	86.06
258.22	103.06
258.452	111.06
258.685	117.06
258.918	97.06
259.151	87.06
259.383	92.06
259.616	80.06
259.849	88.06
260.081	85.06
260.314	94.06
260.547	102.06
260.779	112.06
261.012	163.06
261.244	150.06
261.477	110.06
261.71	112.06
261.942	148.06
262.175	135.06
262.407	104.06
262.64	92.06
262.872	81.06
263.105	97.06
263.337	96.06
263.57	74.06
263.802	89.06
264.035	89.06
264.267	96.06
264.499	92.06
264.732	101.06
264.964	93.06
265.197	92.06
265.429	85.06
265.661	88.06
265.894	82.06
266.126	88.06
266.358	94.06
266.591	89.06
266.823	92.06
267.055	88.06
267.287	97.06
267.52	81.06
267.752	93.06
267.984	83.06
268.216	81.06
268.448	90.06
268.681	85.06
268.913	93.06
269.145	90.06
269.377	80.06
269.609	89.06
269.841	72.06
270.073	100.06
270.306	101.06
270.538	84.06
270.77	86.06
271.002	84.06
271.234	104.06
271.466	116.06
271.698	99.06
271.93	82.06
272.162	87.06
272.394	102.06
272.626	83.06
272.858	90.06
273.09	92.06
273.322	102.06
273.553	77.06
273.785	97.06
274.017	96.06
274.249	87.06
274.481	85.06
274.713	94.06
274.945	94.06
275.176	101.06
275.408	120.06
275.64	145.06
275.872	192.06
276.104	121.06
276.335	114.06
276.567	130.06
276.799	182.06
277.031	281.06
277.262	370.06
277.494	248.06
277.726	126.06
277.957	107.06
278.189	114.06
278.421	102.06
278.652	99.06
278.884	92.06
279.115	99.06
279.347	119.06
279.579	138.06
279.81	221.06
280.042	386.06
280.273	544.06
280.505	351.06
280.736	151.06
280.968	128.06
281.199	100.06
281.431	96.06
281.662	88.06
281.894	89.06
282.125	106.06
282.356	156.06
282.588	181.06
282.819	141.06
283.051	101.06
283.282	89.06
283.513	95.06
283.745	94.06
283.976	81.06
284.207	102.06
284.439	86.06
284.67	96.06
284.901	90.06
285.132	94.06
285.364	98.06
285.595	85.06
285.826	89.06
286.057	87.06
286.288	109.06
286.52	105.06
286.751	102.06
286.982	108.06
287.213	92.06
287.444	94.06
287.675	89.06
287.906	88.06
288.138	93.06
288.369	99.06
288.6	96.06
288.831	72.06
289.062	103.06
289.293	98.06
289.524	85.06
289.755	81.06
289.986	106.06
290.217	103.06
290.448	99.06
290.679	102.06
290.91	81.06
291.141	96.06
291.371	89.06
291.602	94.06
291.833	101.06
292.064	92.06
292.295	78.06
292.526	84.06
292.757	89.06
292.987	95.06
293.218	96.06
293.449	101.06
293.68	80.06
293.91	84.06
294.141	87.06
294.372	94.06
294.603	76.06
294.833	77.06
295.064	88.06
295.295	92.06
295.525	92.06
295.756	114.06
295.987	135.06
296.217	180.06
296.448	148.06
296.679	100.06
296.909	83.06
297.14	94.06
297.37	96.06
297.601	96.06
297.831	88.06
298.062	95.06
298.292	104.06
298.523	95.06
298.753	92.06
298.984	96.06
299.214	89.06
299.445	92.06
299.675	110.06
299.905	99.06
300.136	103.06
300.366	92.06
300.597	98.06
300.827	92.06
301.057	117.06
301.288	118.06
301.518	108.06
301.748	116.06
301.979	130.06
302.209	114.06
302.439	90.06
302.669	92.06
302.9	92.06
303.13	105.06
303.36	142.06
303.59	165.06
303.82	211.06
304.051	130.06
304.281	91.06
304.511	101.06
304.741	100.06
304.971	95.06
305.201	91.06
305.431	97.06
305.661	92.06
305.891	89.06
306.121	107.06
306.352	104.06
306.582	124.06
306.812	118.06
307.042	180.06
307.272	254.06
307.502	321.06
307.731	263.06
307.961	174.06
308.191	116.06
308.421	102.06
308.651	88.06
308.881	87.06
309.111	94.06
309.341	112.06
309.571	112.06
309.8	95.06
310.03	93.06
310.26	95.06
310.49	106.06
310.72	118.06
310.949	122.06
311.179	116.06
311.409	96.06
311.639	109.06
311.868	104.06
312.098	96.06
312.328	112.06
312.557	121.06
312.787	125.06
313.017	125.06
313.246	96.06
313.476	108.06
313.706	107.06
313.935	110.06
314.165	105.06
314.394	100.06
314.624	96.06
314.853	113.06
315.083	81.06
315.312	104.06
315.542	111.06
315.771	93.06
316.001	93.06
316.23	96.06
316.46	97.06
316.689	93.06
316.919	98.06
317.148	116.06
317.377	115.06
317.607	86.06
317.836	107.06
318.065	114.06
318.295	89.06
318.524	90.06
318.753	99.06
318.983	97.06
319.212	97.06
319.441	102.06
319.67	122.06
319.9	96.06
320.129	91.06
320.358	94.06
320.587	97.06
320.816	112.06
321.046	110.06
321.275	117.06
321.504	115.06
321.733	99.06
321.962	105.06
322.191	116.06
322.42	109.06
322.649	125.06
322.878	131.06
323.108	122.06
323.337	134.06
323.566	156.06
323.795	170.06
324.024	219.06
324.253	439.06
324.482	874.06
324.71	1789.06
324.939	2421.06
325.168	938.06
325.397	291.06
325.626	158.06
325.855	152.06
326.084	144.06
326.313	156.06
326.542	159.06
326.77	245.06
326.999	448.06
327.228	890.06
327.457	1657.06
327.686	1418.06
327.914	672.06
328.143	941.06
328.372	1348.06
328.6	672.06
328.829	260.06
329.058	211.06
329.287	249.06
329.515	252.06
329.744	420.06
329.972	901.06
330.201	2038.06
330.43	3059.06
330.658	1200.06
330.887	417.06
331.115	232.06
331.344	155.06
331.572	132.06
331.801	146.06
332.03	144.06
332.258	130.06
332.486	132.06
332.715	124.06
332.943	138.06
333.172	143.06
333.4	176.06
333.629	221.06
333.857	361.06
334.085	744.06
334.314	1723.06
334.542	3606.06
334.771	3402.06
334.999	792.06
335.227	265.06
335.455	165.06
335.684	147.06
335.912	149.06
336.14	124.06
336.369	114.06
336.597	123.06
336.825	108.06
337.053	97.06
337.281	112.06
337.51	100.06
337.738	98.06
337.966	95.06
338.194	101.06
338.422	102.06
338.65	100.06
338.878	90.06
339.106	101.06
339.334	94.06
339.562	87.06
339.79	108.06
340.018	111.06
340.246	102.06
340.474	116.06
340.702	98.06
340.93	102.06
341.158	106.06
341.386	110.06
341.614	97.06
341.842	101.06
342.07	105.06
342.298	98.06
342.526	82.06
342.754	84.06
342.981	85.06
343.209	86.06
343.437	98.06
343.665	97.06
343.893	101.06
344.12	102.06
344.348	94.06
344.576	102.06
344.804	92.06
345.031	106.06
345.259	110.06
345.487	121.06
345.714	106.06
345.942	96.06
346.17	112.06
346.397	106.06
346.625	104.06
346.853	107.06
347.08	110.06
347.308	118.06
347.535	104.06
347.763	104.06
347.99	102.06
348.218	102.06
348.445	113.06
348.673	111.06
348.9	106.06
349.128	97.06
349.355	95.06
349.583	110.06
349.81	109.06
350.037	103.06
350.265	84.06
350.492	100.06
350.72	94.06
350.947	118.06
351.174	108.06
351.402	122.06
351.629	104.06
351.856	89.06
352.083	114.06
352.311	112.06
352.538	125.06
352.765	111.06
352.992	132.06
353.22	112.06
353.447	108.06
353.674	101.06
353.901	100.06
354.128	99.06
354.355	102.06
354.583	86.06
354.81	87.06
355.037	90.06
355.264	96.06
355.491	95.06
355.718	89.06
355.945	94.06
356.172	89.06
356.399	89.06
356.626	100.06
356.853	91.06
357.08	86.06
357.307	94.06
357.534	97.06
357.761	94.06
357.988	89.06
358.215	105.06
358.441	107.06
358.668	99.06
358.895	101.06
359.122	80.06
359.349	100.06
359.576	110.06
359.802	120.06
360.029	145.06
360.256	126.06
360.483	116.06
360.709	96.06
360.936	88.06
361.163	108.06
361.39	105.06
361.616	105.06
361.843	94.06
362.07	112.06
362.296	108.06
362.523	80.06
362.749	97.06
362.976	100.06
363.203	92.06
363.429	78.06
363.656	94.06
363.882	95.06
364.109	97.06
364.335	100.06
364.562	90.06
364.788	95.06
365.015	102.06
365.241	91.06
365.468	109.06
365.694	135.06
365.92	100.06
366.147	105.06
366.373	97.06
366.599	84.06
366.826	94.06
367.052	77.06
367.278	96.06
367.505	82.06
367.731	110.06
367.957	98.06
368.184	97.06
368.41	101.06
368.636	104.06
368.862	144.06
369.089	120.06
369.315	105.06
369.541	103.06
369.767	91.06
369.993	97.06
370.219	97.06
370.445	106.06
370.672	79.06
370.898	95.06
371.124	80.06
371.35	93.06
371.576	87.06
371.802	98.06
372.028	94.06
372.254	97.06
372.48	94.06
372.706	87.06
372.932	87.06
373.158	89.06
373.384	96.06
373.61	96.06
373.835	94.06
374.061	99.06
374.287	88.06
374.513	98.06
374.739	89.06
374.965	84.06
375.191	98.06
375.416	85.06
375.642	98.06
375.868	88.06
376.094	93.06
376.319	96.06
376.545	92.06
376.771	94.06
376.997	87.06
377.222	108.06
377.448	98.06
377.674	89.06
377.899	101.06
378.125	94.06
378.35	96.06
378.576	96.06
378.802	111.06
379.027	76.06
379.253	105.06
379.478	103.06
379.704	99.06
379.929	102.06
380.155	98.06
380.38	96.06
380.606	109.06
380.831	99.06
381.057	112.06
381.282	109.06
381.507	100.06
381.733	106.06
381.958	96.06
382.184	104.06
382.409	97.06
382.634	105.06
382.86	116.06
383.085	96.06
383.31	115.06
383.535	125.06
383.761	99.06
383.986	87.06
384.211	123.06
384.436	119.06
384.662	113.06
384.887	111.06
385.112	119.06
385.337	115.06
385.562	128.06
385.787	133.06
386.013	141.06
386.238	145.06
386.463	133.06
386.688	132.06
386.913	124.06
387.138	128.06
387.363	116.06
387.588	125.06
387.813	110.06
388.038	130.06
388.263	136.06
388.488	126.06
388.713	109.06
388.938	117.06
389.163	97.06
389.387	100.06
389.612	91.06
389.837	84.06
390.062	100.06
390.287	89.06
390.512	84.06
390.736	88.06
390.961	96.06
391.186	98.06
391.411	84.06
391.636	84.06
391.86	84.06
392.085	90.06
392.31	94.06
392.534	85.06
392.759	99.06
392.984	100.06
393.208	93.06
393.433	89.06
393.658	91.06
393.882	100.06
394.107	93.06
394.331	89.06
394.556	83.06
394.78	86.06
395.005	97.06
395.229	87.06
395.454	79.06
395.678	99.06
395.903	97.06
396.127	82.06
396.352	89.06
396.576	88.06
396.801	82.06
397.025	95.06
397.249	96.06
397.474	101.06
397.698	94.06
397.922	99.06
398.147	74.06
398.371	79.06
398.595	90.06
398.82	87.06
399.044	83.06
399.268	98.06
399.492	90.06
399.717	91.06
399.941	83.06
400.165	96.06
400.389	87.06
400.613	90.06
400.837	98.06
401.062	87.06
401.286	100.06
401.51	95.06
401.734	97.06
401.958	116.06
402.182	136.06
402.406	216.06
402.63	157.06
402.854	95.06
403.078	96.06
403.302	87.06
403.526	88.06
403.75	81.06
403.974	97.06
404.198	88.06
404.422	92.06
404.645	86.06
404.869	101.06
405.093	132.06
405.317	158.06
405.541	151.06
405.765	134.06
405.988	137.06
406.212	205.06
406.436	321.06
406.66	194.06
406.883	125.06
407.107	109.06
407.331	108.06
407.555	115.06
407.778	111.06
408.002	88.06
408.226	74.06
408.449	117.06
408.673	85.06
408.896	105.06
409.12	89.06
409.344	102.06
409.567	84.06
409.791	85.06
410.014	99.06
410.238	103.06
410.461	87.06
410.685	93.06
410.908	88.06
411.132	99.06
411.355	98.06
411.578	84.06
411.802	78.06
412.025	92.06
412.249	111.06
412.472	127.06
412.695	142.06
412.919	110.06
413.142	114.06
413.365	93.06
413.589	88.06
413.812	94.06
414.035	101.06
414.258	100.06
414.482	101.06
414.705	85.06
414.928	93.06
415.151	93.06
415.374	114.06
415.597	98.06
415.821	104.06
416.044	94.06
416.267	88.06
416.49	95.06
416.713	83.06
416.936	102.06
417.159	101.06
417.382	103.06
417.605	118.06
417.828	120.06
418.051	112.06
418.274	110.06
418.497	100.06
418.72	82.06
418.943	84.06
419.166	88.06
419.389	105.06
419.611	100.06
419.834	104.06
420.057	92.06
420.28	103.06
420.503	101.06
420.726	92.06
420.948	94.06
421.171	113.06
421.394	117.06
421.617	85.06
421.839	84.06
422.062	89.06
422.285	90.06
422.507	102.06
422.73	115.06
422.953	104.06
423.175	82.06
423.398	99.06
423.621	96.06
423.843	85.06
424.066	80.06
424.288	97.06
424.511	87.06
424.733	105.06
424.956	119.06
425.178	107.06
425.401	102.06
425.623	114.06
425.846	76.06
426.068	100.06
426.291	97.06
426.513	89.06
426.735	98.06
426.958	96.06
427.18	106.06
427.402	160.06
427.625	262.06
427.847	250.06
428.069	238.06
428.292	149.06
428.514	103.06
428.736	89.06
428.958	95.06
429.181	104.06
429.403	92.06
429.625	93.06
429.847	98.06
430.069	109.06
430.292	110.06
430.514	88.06
430.736	93.06
430.958	103.06
431.18	76.06
431.402	86.06
431.624	85.06
431.846	86.06
432.068	85.06
432.29	86.06
432.512	95.06
432.734	84.06
432.956	108.06
433.178	93.06
433.4	92.06
433.622	89.06
433.844	92.06
434.066	100.06
434.287	104.06
434.509	98.06
434.731	101.06
434.953	96.06
435.175	84.06
435.397	80.06
435.618	101.06
435.84	94.06
436.062	123.06
436.284	119.06
436.505	89.06
436.727	98.06
436.949	106.06
437.17	95.06
437.392	81.06
437.614	115.06
437.835	126.06
438.057	128.06
438.278	123.06
438.5	120.06
438.721	125.06
438.943	102.06
439.165	81.06
439.386	79.06
439.608	103.06
439.829	104.06
440.05	142.06
440.272	184.06
440.493	116.06
440.715	74.06
440.936	96.06
441.158	93.06
441.379	100.06
441.6	101.06
441.822	100.06
442.043	106.06
442.264	124.06
442.486	105.06
442.707	92.06
442.928	119.06
443.149	167.06
443.371	178.06
443.592	122.06
443.813	124.06
444.034	118.06
444.255	78.06
444.476	87.06
444.698	87.06
444.919	102.06
445.14	129.06
445.361	130.06
445.582	140.06
445.803	168.06
446.024	151.06
446.245	156.06
446.466	120.06
446.687	97.06
446.908	99.06
447.129	105.06
447.35	72.06
447.571	92.06
447.792	117.06
448.013	110.06
448.234	109.06
448.455	111.06
448.675	117.06
448.896	119.06
449.117	109.06
449.338	106.06
449.559	130.06
449.779	130.06
450	110.06
450.221	93.06
450.442	89.06
450.662	125.06
450.883	123.06
451.104	135.06
451.324	108.06
451.545	88.06
451.766	83.06
451.986	88.06
452.207	86.06
452.428	99.06
452.648	106.06
452.869	135.06
453.089	141.06
453.31	146.06
453.53	101.06
453.751	102.06
453.971	120.06
454.192	142.06
454.412	109.06
454.633	96.06
454.853	78.06
455.073	94.06
455.294	93.06
455.514	118.06
455.734	87.06
455.955	89.06
456.175	88.06
456.395	90.06
456.616	86.06
456.836	87.06
457.056	98.06
457.276	82.06
457.497	78.06
457.717	88.06
457.937	86.06
458.157	101.06
458.377	103.06
458.598	120.06
458.818	198.06
459.038	232.06
459.258	153.06
459.478	108.06
459.698	97.06
459.918	89.06
460.138	87.06
460.358	93.06
460.578	92.06
460.798	102.06
461.018	103.06
461.238	84.06
461.458	96.06
461.678	90.06
461.898	81.06
462.118	88.06
462.338	88.06
462.558	96.06
462.777	97.06
462.997	113.06
463.217	159.06
463.437	124.06
463.657	102.06
463.876	91.06
464.096	83.06
464.316	96.06
464.536	112.06
464.755	106.06
464.975	131.06
465.195	238.06
465.414	232.06
465.634	117.06
465.854	92.06
466.073	96.06
466.293	87.06
466.512	94.06
466.732	89.06
466.951	113.06
467.171	115.06
467.391	131.06
467.61	183.06
467.829	365.06
468.049	1318.06
468.268	2102.06
468.488	430.06
468.707	141.06
468.927	100.06
469.146	97.06
469.365	103.06
469.585	95.06
469.804	108.06
470.023	124.06
470.243	122.06
470.462	144.06
470.681	161.06
470.901	119.06
471.12	127.06
471.339	118.06
471.558	146.06
471.777	230.06
471.997	544.06
472.216	2346.06
472.435	5617.06
472.654	1150.06
472.873	278.06
473.092	131.06
473.311	119.06
473.53	104.06
473.749	100.06
473.968	113.06
474.187	118.06
474.406	114.06
474.625	99.06
474.844	91.06
475.063	111.06
475.282	97.06
475.501	86.06
475.72	88.06
475.939	90.06
476.158	91.06
476.377	103.06
476.596	84.06
476.814	100.06
477.033	95.06
477.252	96.06
477.471	91.06
477.69	88.06
477.908	98.06
478.127	111.06
478.346	100.06
478.564	116.06
478.783	119.06
479.002	110.06
479.22	122.06
479.439	140.06
479.658	157.06
479.876	129.06
480.095	160.06
480.313	173.06
480.532	236.06
480.751	476.06
480.969	1980.06
481.188	8881.06
481.406	4970.06
481.624	628.06
481.843	197.06
482.061	136.06
482.28	118.06
482.498	100.06
482.717	100.06
482.935	102.06
483.153	111.06
483.372	90.06
483.59	93.06
483.808	114.06
484.027	99.06
484.245	89.06
484.463	96.06
484.681	96.06
484.9	87.06
485.118	99.06
485.336	108.06
485.554	96.06
485.772	116.06
485.99	96.06
486.209	111.06
486.427	112.06
486.645	128.06
486.863	130.06
487.081	102.06
487.299	100.06
487.517	98.06
487.735	102.06
487.953	102.06
488.171	100.06
488.389	92.06
488.607	105.06
488.825	83.06
489.043	93.06
489.261	100.06
489.479	92.06
489.696	105.06
489.914	96.06
490.132	83.06
490.35	82.06
490.568	99.06
490.786	74.06
491.003	92.06
491.221	97.06
491.439	111.06
491.657	93.06
491.874	85.06
492.092	90.06
492.31	94.06
492.527	103.06
492.745	103.06
492.963	118.06
493.18	102.06
493.398	96.06
493.615	92.06
493.833	90.06
494.05	106.06
494.268	85.06
494.485	89.06
494.703	69.06
494.92	87.06
495.138	83.06
495.355	94.06
495.573	94.06
495.79	97.06
496.008	97.06
496.225	88.06
496.442	96.06
496.66	84.06
496.877	84.06
497.094	114.06
497.312	95.06
497.529	82.06
497.746	93.06
497.963	96.06
498.181	86.06
498.398	103.06
498.615	119.06
498.832	110.06
499.049	89.06
499.267	91.06
499.484	88.06
499.701	95.06
499.918	101.06
500.135	101.06
500.352	96.06
500.569	94.06
500.786	98.06
501.003	105.06
501.22	102.06
501.437	94.06
501.654	105.06
501.871	123.06
502.088	109.06
502.305	95.06
502.522	108.06
502.739	101.06
502.956	92.06
503.172	97.06
503.389	103.06
503.606	127.06
503.823	110.06
504.04	89.06
504.256	96.06
504.473	82.06
504.69	102.06
504.907	98.06
505.123	84.06
505.34	92.06
505.557	95.06
505.773	103.06
505.99	109.06
506.207	94.06
506.423	93.06
506.64	100.06
506.856	109.06
507.073	103.06
507.289	96.06
507.506	100.06
507.722	133.06
507.939	128.06
508.155	110.06
508.372	102.06
508.588	107.06
508.805	118.06
509.021	97.06
509.238	102.06
509.454	97.06
509.67	117.06
509.887	108.06
510.103	136.06
510.319	262.06
510.536	1025.06
510.752	3570.06
510.968	921.06
511.184	197.06
511.401	136.06
