Data from Circ_1988_H10_HRD10591_00020.txt Node
Date: Wed Jan 03 12:05:38 EST 2024
User: Yrep
Spectrometer: HR+D1059
Trigger mode: 1
Integration Time (sec): 1.000000E-1
Scans to average: 1
Electric dark correction enabled: true
Nonlinearity correction enabled: false
Boxcar width: 0
XAxis mode: Wavelengths
Number of Pixels in Spectrum: 2048
>>>>>Begin Spectral Data<<<<<
223.165	-14.81
223.4	-14.81
223.635	-14.81
223.869	-22.81
224.104	-12.81
224.338	-6.81
224.573	-26.81
224.808	-15.81
225.042	2.19
225.277	-16.81
225.511	-5.81
225.746	9.19
225.98	14.19
226.215	3.19
226.449	27.19
226.683	15.19
226.918	18.19
227.152	33.19
227.387	36.19
227.621	39.19
227.856	47.19
228.09	47.19
228.324	49.19
228.559	67.19
228.793	71.19
229.027	63.19
229.262	81.19
229.496	77.19
229.73	101.19
229.964	77.19
230.199	67.19
230.433	63.19
230.667	82.19
230.901	74.19
231.136	78.19
231.37	82.19
231.604	81.19
231.838	79.19
232.072	75.19
232.306	93.19
232.541	76.19
232.775	89.19
233.009	83.19
233.243	86.19
233.477	85.19
233.711	81.19
233.945	82.19
234.179	74.19
234.413	77.19
234.647	87.19
234.881	85.19
235.115	79.19
235.349	92.19
235.583	77.19
235.817	75.19
236.051	73.19
236.285	86.19
236.519	73.19
236.753	69.19
236.987	74.19
237.221	93.19
237.455	102.19
237.689	92.19
237.922	78.19
238.156	76.19
238.39	82.19
238.624	88.19
238.858	86.19
239.091	83.19
239.325	80.19
239.559	76.19
239.793	98.19
240.027	77.19
240.26	81.19
240.494	92.19
240.728	89.19
240.961	95.19
241.195	72.19
241.429	83.19
241.662	69.19
241.896	74.19
242.13	75.19
242.363	70.19
242.597	83.19
242.83	87.19
243.064	86.19
243.298	91.19
243.531	74.19
243.765	82.19
243.998	82.19
244.232	90.19
244.465	97.19
244.699	93.19
244.932	83.19
245.166	73.19
245.399	97.19
245.633	101.19
245.866	109.19
246.099	92.19
246.333	81.19
246.566	79.19
246.8	85.19
247.033	77.19
247.266	80.19
247.5	80.19
247.733	91.19
247.966	80.19
248.2	96.19
248.433	104.19
248.666	91.19
248.899	91.19
249.133	87.19
249.366	105.19
249.599	107.19
249.832	94.19
250.066	93.19
250.299	92.19
250.532	99.19
250.765	84.19
250.998	82.19
251.231	96.19
251.465	72.19
251.698	91.19
251.931	97.19
252.164	88.19
252.397	83.19
252.63	89.19
252.863	96.19
253.096	82.19
253.329	89.19
253.562	78.19
253.795	82.19
254.028	73.19
254.261	87.19
254.494	81.19
254.727	94.19
254.96	96.19
255.193	82.19
255.426	97.19
255.659	83.19
255.892	120.19
256.124	122.19
256.357	100.19
256.59	87.19
256.823	96.19
257.056	113.19
257.289	93.19
257.521	106.19
257.754	102.19
257.987	86.19
258.22	112.19
258.452	121.19
258.685	116.19
258.918	96.19
259.151	71.19
259.383	82.19
259.616	95.19
259.849	93.19
260.081	102.19
260.314	107.19
260.547	112.19
260.779	113.19
261.012	164.19
261.244	146.19
261.477	114.19
261.71	123.19
261.942	145.19
262.175	159.19
262.407	101.19
262.64	99.19
262.872	104.19
263.105	89.19
263.337	84.19
263.57	69.19
263.802	96.19
264.035	89.19
264.267	85.19
264.499	95.19
264.732	91.19
264.964	84.19
265.197	83.19
265.429	96.19
265.661	81.19
265.894	90.19
266.126	105.19
266.358	73.19
266.591	84.19
266.823	82.19
267.055	101.19
267.287	83.19
267.52	92.19
267.752	86.19
267.984	84.19
268.216	94.19
268.448	90.19
268.681	83.19
268.913	103.19
269.145	81.19
269.377	87.19
269.609	96.19
269.841	87.19
270.073	81.19
270.306	85.19
270.538	102.19
270.77	90.19
271.002	99.19
271.234	92.19
271.466	100.19
271.698	99.19
271.93	99.19
272.162	99.19
272.394	96.19
272.626	88.19
272.858	80.19
273.09	86.19
273.322	89.19
273.553	71.19
273.785	93.19
274.017	85.19
274.249	92.19
274.481	93.19
274.713	98.19
274.945	103.19
275.176	119.19
275.408	117.19
275.64	167.19
275.872	195.19
276.104	133.19
276.335	121.19
276.567	139.19
276.799	209.19
277.031	295.19
277.262	388.19
277.494	271.19
277.726	142.19
277.957	98.19
278.189	100.19
278.421	102.19
278.652	98.19
278.884	86.19
279.115	106.19
279.347	117.19
279.579	149.19
279.81	200.19
280.042	449.19
280.273	603.19
280.505	375.19
280.736	150.19
280.968	111.19
281.199	97.19
281.431	105.19
281.662	86.19
281.894	93.19
282.125	118.19
282.356	136.19
282.588	172.19
282.819	142.19
283.051	101.19
283.282	103.19
283.513	102.19
283.745	107.19
283.976	100.19
284.207	94.19
284.439	92.19
284.67	91.19
284.901	88.19
285.132	79.19
285.364	84.19
285.595	90.19
285.826	102.19
286.057	96.19
286.288	95.19
286.52	88.19
286.751	87.19
286.982	86.19
287.213	87.19
287.444	88.19
287.675	99.19
287.906	104.19
288.138	87.19
288.369	106.19
288.6	103.19
288.831	93.19
289.062	105.19
289.293	90.19
289.524	91.19
289.755	81.19
289.986	80.19
290.217	72.19
290.448	90.19
290.679	80.19
290.91	85.19
291.141	99.19
291.371	90.19
291.602	81.19
291.833	93.19
292.064	104.19
292.295	90.19
292.526	110.19
292.757	108.19
292.987	93.19
293.218	99.19
293.449	97.19
293.68	99.19
293.91	91.19
294.141	100.19
294.372	101.19
294.603	89.19
294.833	102.19
295.064	103.19
295.295	98.19
295.525	98.19
295.756	112.19
295.987	128.19
296.217	183.19
296.448	138.19
296.679	96.19
296.909	102.19
297.14	96.19
297.37	95.19
297.601	98.19
297.831	106.19
298.062	97.19
298.292	101.19
298.523	103.19
298.753	98.19
298.984	112.19
299.214	101.19
299.445	89.19
299.675	98.19
299.905	117.19
300.136	91.19
300.366	100.19
300.597	96.19
300.827	93.19
301.057	121.19
301.288	117.19
301.518	107.19
301.748	107.19
301.979	138.19
302.209	121.19
302.439	86.19
302.669	99.19
302.9	107.19
303.13	120.19
303.36	135.19
303.59	192.19
303.82	231.19
304.051	128.19
304.281	87.19
304.511	99.19
304.741	95.19
304.971	101.19
305.201	102.19
305.431	95.19
305.661	86.19
305.891	95.19
306.121	110.19
306.352	117.19
306.582	119.19
306.812	141.19
307.042	189.19
307.272	267.19
307.502	327.19
307.731	285.19
307.961	190.19
308.191	107.19
308.421	106.19
308.651	93.19
308.881	101.19
309.111	89.19
309.341	108.19
309.571	117.19
309.8	103.19
310.03	114.19
310.26	95.19
310.49	98.19
310.72	100.19
310.949	115.19
311.179	118.19
311.409	124.19
311.639	97.19
311.868	109.19
312.098	112.19
312.328	101.19
312.557	116.19
312.787	134.19
313.017	113.19
313.246	102.19
313.476	104.19
313.706	92.19
313.935	103.19
314.165	119.19
314.394	109.19
314.624	95.19
314.853	101.19
315.083	100.19
315.312	106.19
315.542	83.19
315.771	94.19
316.001	103.19
316.23	85.19
316.46	101.19
316.689	103.19
316.919	103.19
317.148	106.19
317.377	98.19
317.607	110.19
317.836	115.19
318.065	108.19
318.295	99.19
318.524	100.19
318.753	103.19
318.983	119.19
319.212	106.19
319.441	121.19
319.67	115.19
319.9	107.19
320.129	88.19
320.358	106.19
320.587	104.19
320.816	102.19
321.046	125.19
321.275	122.19
321.504	112.19
321.733	106.19
321.962	131.19
322.191	103.19
322.42	119.19
322.649	110.19
322.878	129.19
323.108	143.19
323.337	144.19
323.566	153.19
323.795	191.19
324.024	248.19
324.253	454.19
324.482	937.19
324.71	2017.19
324.939	2732.19
325.168	1028.19
325.397	314.19
325.626	175.19
325.855	157.19
326.084	146.19
326.313	175.19
326.542	182.19
326.77	261.19
326.999	478.19
327.228	1011.19
327.457	1891.19
327.686	1592.19
327.914	727.19
328.143	1030.19
328.372	1513.19
328.6	749.19
328.829	274.19
329.058	244.19
329.287	232.19
329.515	262.19
329.744	451.19
329.972	1024.19
330.201	2326.19
330.43	3545.19
330.658	1375.19
330.887	443.19
331.115	231.19
331.344	165.19
331.572	149.19
331.801	156.19
332.03	148.19
332.258	142.19
332.486	131.19
332.715	127.19
332.943	140.19
333.172	150.19
333.4	189.19
333.629	217.19
333.857	382.19
334.085	847.19
334.314	2050.19
334.542	4221.19
334.771	3873.19
334.999	894.19
335.227	304.19
335.455	179.19
335.684	147.19
335.912	125.19
336.14	121.19
336.369	114.19
336.597	118.19
336.825	107.19
337.053	99.19
337.281	102.19
337.51	113.19
337.738	103.19
337.966	101.19
338.194	118.19
338.422	103.19
338.65	89.19
338.878	97.19
339.106	97.19
339.334	90.19
339.562	93.19
339.79	95.19
340.018	120.19
340.246	99.19
340.474	95.19
340.702	108.19
340.93	88.19
341.158	104.19
341.386	102.19
341.614	104.19
341.842	106.19
342.07	107.19
342.298	106.19
342.526	91.19
342.754	92.19
342.981	105.19
343.209	96.19
343.437	97.19
343.665	83.19
343.893	97.19
344.12	101.19
344.348	95.19
344.576	110.19
344.804	96.19
345.031	117.19
345.259	102.19
345.487	107.19
345.714	109.19
345.942	105.19
346.17	103.19
346.397	96.19
346.625	106.19
346.853	102.19
347.08	92.19
347.308	87.19
347.535	107.19
347.763	103.19
347.99	126.19
348.218	134.19
348.445	113.19
348.673	98.19
348.9	105.19
349.128	101.19
349.355	92.19
349.583	97.19
349.81	93.19
350.037	98.19
350.265	110.19
350.492	91.19
350.72	103.19
350.947	100.19
351.174	115.19
351.402	131.19
351.629	114.19
351.856	110.19
352.083	117.19
352.311	130.19
352.538	131.19
352.765	114.19
352.992	118.19
353.22	114.19
353.447	108.19
353.674	110.19
353.901	101.19
354.128	99.19
354.355	101.19
354.583	98.19
354.81	98.19
355.037	98.19
355.264	94.19
355.491	90.19
355.718	94.19
355.945	110.19
356.172	98.19
356.399	89.19
356.626	86.19
356.853	98.19
357.08	95.19
357.307	114.19
357.534	85.19
357.761	114.19
357.988	108.19
358.215	104.19
358.441	118.19
358.668	111.19
358.895	101.19
359.122	104.19
359.349	110.19
359.576	99.19
359.802	128.19
360.029	151.19
360.256	147.19
360.483	103.19
360.709	95.19
360.936	102.19
361.163	109.19
361.39	127.19
361.616	116.19
361.843	103.19
362.07	95.19
362.296	99.19
362.523	87.19
362.749	104.19
362.976	99.19
363.203	99.19
363.429	90.19
363.656	101.19
363.882	98.19
364.109	94.19
364.335	95.19
364.562	98.19
364.788	103.19
365.015	114.19
365.241	111.19
365.468	131.19
365.694	121.19
365.92	118.19
366.147	110.19
366.373	106.19
366.599	96.19
366.826	94.19
367.052	103.19
367.278	112.19
367.505	93.19
367.731	86.19
367.957	98.19
368.184	85.19
368.41	88.19
368.636	122.19
368.862	121.19
369.089	125.19
369.315	104.19
369.541	93.19
369.767	99.19
369.993	111.19
370.219	111.19
370.445	91.19
370.672	93.19
370.898	89.19
371.124	77.19
371.35	87.19
371.576	98.19
371.802	97.19
372.028	98.19
372.254	90.19
372.48	88.19
372.706	85.19
372.932	98.19
373.158	101.19
373.384	95.19
373.61	110.19
373.835	103.19
374.061	89.19
374.287	101.19
374.513	89.19
374.739	95.19
374.965	94.19
375.191	97.19
375.416	101.19
375.642	97.19
375.868	101.19
376.094	91.19
376.319	96.19
376.545	99.19
376.771	103.19
376.997	94.19
377.222	96.19
377.448	85.19
377.674	89.19
377.899	97.19
378.125	92.19
378.35	113.19
378.576	105.19
378.802	102.19
379.027	105.19
379.253	111.19
379.478	88.19
379.704	99.19
379.929	111.19
380.155	109.19
380.38	111.19
380.606	114.19
380.831	118.19
381.057	128.19
381.282	106.19
381.507	108.19
381.733	107.19
381.958	111.19
382.184	113.19
382.409	129.19
382.634	123.19
382.86	123.19
383.085	113.19
383.31	115.19
383.535	118.19
383.761	113.19
383.986	117.19
384.211	123.19
384.436	116.19
384.662	125.19
384.887	134.19
385.112	128.19
385.337	136.19
385.562	146.19
385.787	128.19
386.013	153.19
386.238	149.19
386.463	143.19
386.688	161.19
386.913	137.19
387.138	149.19
387.363	134.19
387.588	127.19
387.813	115.19
388.038	119.19
388.263	159.19
388.488	145.19
388.713	114.19
388.938	83.19
389.163	98.19
389.387	87.19
389.612	79.19
389.837	86.19
390.062	98.19
390.287	109.19
390.512	89.19
390.736	93.19
390.961	87.19
391.186	88.19
391.411	96.19
391.636	90.19
391.86	77.19
392.085	78.19
392.31	89.19
392.534	87.19
392.759	93.19
392.984	100.19
393.208	96.19
393.433	101.19
393.658	99.19
393.882	93.19
394.107	87.19
394.331	87.19
394.556	92.19
394.78	77.19
395.005	93.19
395.229	85.19
395.454	79.19
395.678	84.19
395.903	96.19
396.127	103.19
396.352	90.19
396.576	85.19
396.801	97.19
397.025	103.19
397.249	103.19
397.474	89.19
397.698	109.19
397.922	102.19
398.147	85.19
398.371	84.19
398.595	103.19
398.82	90.19
399.044	91.19
399.268	91.19
399.492	102.19
399.717	88.19
399.941	90.19
400.165	103.19
400.389	83.19
400.613	105.19
400.837	94.19
401.062	98.19
401.286	102.19
401.51	99.19
401.734	86.19
401.958	103.19
402.182	142.19
402.406	191.19
402.63	135.19
402.854	107.19
403.078	98.19
403.302	80.19
403.526	95.19
403.75	84.19
403.974	86.19
404.198	95.19
404.422	97.19
404.645	109.19
404.869	125.19
405.093	131.19
405.317	169.19
405.541	174.19
405.765	139.19
405.988	144.19
406.212	205.19
406.436	316.19
406.66	218.19
406.883	145.19
407.107	95.19
407.331	103.19
407.555	104.19
407.778	105.19
408.002	87.19
408.226	89.19
408.449	92.19
408.673	103.19
408.896	109.19
409.12	90.19
409.344	105.19
409.567	89.19
409.791	101.19
410.014	98.19
410.238	97.19
410.461	96.19
410.685	104.19
410.908	100.19
411.132	107.19
411.355	99.19
411.578	110.19
411.802	98.19
412.025	101.19
412.249	107.19
412.472	140.19
412.695	175.19
412.919	125.19
413.142	109.19
413.365	98.19
413.589	99.19
413.812	102.19
414.035	100.19
414.258	104.19
414.482	88.19
414.705	108.19
414.928	97.19
415.151	102.19
415.374	104.19
415.597	90.19
415.821	126.19
416.044	106.19
416.267	104.19
416.49	93.19
416.713	95.19
416.936	91.19
417.159	109.19
417.382	107.19
417.605	120.19
417.828	141.19
418.051	100.19
418.274	106.19
418.497	95.19
418.72	93.19
418.943	86.19
419.166	100.19
419.389	97.19
419.611	97.19
419.834	97.19
420.057	106.19
420.28	105.19
420.503	98.19
420.726	110.19
420.948	113.19
421.171	113.19
421.394	93.19
421.617	84.19
421.839	88.19
422.062	98.19
422.285	109.19
422.507	103.19
422.73	127.19
422.953	111.19
423.175	104.19
423.398	100.19
423.621	92.19
423.843	101.19
424.066	95.19
424.288	84.19
424.511	91.19
424.733	110.19
424.956	116.19
425.178	113.19
425.401	121.19
425.623	102.19
425.846	110.19
426.068	85.19
426.291	100.19
426.513	84.19
426.735	101.19
426.958	106.19
427.18	120.19
427.402	181.19
427.625	281.19
427.847	285.19
428.069	255.19
428.292	147.19
428.514	107.19
428.736	104.19
428.958	96.19
429.181	94.19
429.403	89.19
429.625	95.19
429.847	104.19
430.069	125.19
430.292	117.19
430.514	80.19
430.736	85.19
430.958	74.19
431.18	88.19
431.402	83.19
431.624	99.19
431.846	94.19
432.068	87.19
432.29	77.19
432.512	94.19
432.734	113.19
432.956	107.19
433.178	97.19
433.4	104.19
433.622	94.19
433.844	98.19
434.066	98.19
434.287	105.19
434.509	81.19
434.731	85.19
434.953	89.19
435.175	92.19
435.397	87.19
435.618	73.19
435.84	113.19
436.062	146.19
436.284	126.19
436.505	105.19
436.727	109.19
436.949	90.19
437.17	88.19
437.392	88.19
437.614	94.19
437.835	115.19
438.057	136.19
438.278	120.19
438.5	123.19
438.721	138.19
438.943	119.19
439.165	98.19
439.386	90.19
439.608	106.19
439.829	120.19
440.05	148.19
440.272	187.19
440.493	117.19
440.715	85.19
440.936	89.19
441.158	95.19
441.379	82.19
441.6	99.19
441.822	105.19
442.043	101.19
442.264	120.19
442.486	122.19
442.707	113.19
442.928	136.19
443.149	192.19
443.371	174.19
443.592	138.19
443.813	130.19
444.034	126.19
444.255	99.19
444.476	103.19
444.698	102.19
444.919	102.19
445.14	139.19
445.361	130.19
445.582	134.19
445.803	189.19
446.024	172.19
446.245	183.19
446.466	119.19
446.687	94.19
446.908	87.19
447.129	109.19
447.35	107.19
447.571	108.19
447.792	116.19
448.013	107.19
448.234	118.19
448.455	108.19
448.675	126.19
448.896	139.19
449.117	116.19
449.338	129.19
449.559	157.19
449.779	157.19
450	105.19
450.221	90.19
450.442	105.19
450.662	97.19
450.883	146.19
451.104	142.19
451.324	98.19
451.545	79.19
451.766	99.19
451.986	92.19
452.207	84.19
452.428	103.19
452.648	103.19
452.869	138.19
453.089	141.19
453.31	131.19
453.53	106.19
453.751	105.19
453.971	120.19
454.192	135.19
454.412	109.19
454.633	100.19
454.853	87.19
455.073	100.19
455.294	96.19
455.514	108.19
455.734	102.19
455.955	90.19
456.175	98.19
456.395	90.19
456.616	93.19
456.836	83.19
457.056	90.19
457.276	94.19
457.497	95.19
457.717	97.19
457.937	94.19
458.157	97.19
458.377	90.19
458.598	130.19
458.818	209.19
459.038	244.19
459.258	146.19
459.478	99.19
459.698	100.19
459.918	109.19
460.138	99.19
460.358	90.19
460.578	93.19
460.798	89.19
461.018	88.19
461.238	100.19
461.458	82.19
461.678	90.19
461.898	91.19
462.118	84.19
462.338	81.19
462.558	88.19
462.777	88.19
462.997	105.19
463.217	157.19
463.437	114.19
463.657	101.19
463.876	88.19
464.096	107.19
464.316	87.19
464.536	105.19
464.755	92.19
464.975	129.19
465.195	246.19
465.414	255.19
465.634	116.19
465.854	94.19
466.073	94.19
466.293	108.19
466.512	98.19
466.732	98.19
466.951	115.19
467.171	106.19
467.391	141.19
467.61	217.19
467.829	394.19
468.049	1397.19
468.268	2232.19
468.488	448.19
468.707	149.19
468.927	129.19
469.146	115.19
469.365	107.19
469.585	103.19
469.804	114.19
470.023	101.19
470.243	114.19
470.462	148.19
470.681	155.19
470.901	124.19
471.12	141.19
471.339	145.19
471.558	168.19
471.777	251.19
471.997	601.19
472.216	2590.19
472.435	6253.19
472.654	1281.19
472.873	282.19
473.092	161.19
473.311	139.19
473.53	117.19
473.749	103.19
473.968	111.19
474.187	119.19
474.406	112.19
474.625	93.19
474.844	95.19
475.063	91.19
475.282	93.19
475.501	97.19
475.72	98.19
475.939	118.19
476.158	79.19
476.377	90.19
476.596	100.19
476.814	105.19
477.033	105.19
477.252	91.19
477.471	98.19
477.69	105.19
477.908	107.19
478.127	105.19
478.346	112.19
478.564	99.19
478.783	128.19
479.002	124.19
479.22	133.19
479.439	152.19
479.658	148.19
479.876	144.19
480.095	139.19
480.313	184.19
480.532	263.19
480.751	531.19
480.969	2203.19
481.188	9971.19
481.406	5576.19
481.624	679.19
481.843	215.19
482.061	152.19
482.28	109.19
482.498	101.19
482.717	112.19
482.935	108.19
483.153	100.19
483.372	91.19
483.59	89.19
483.808	91.19
484.027	93.19
484.245	96.19
484.463	93.19
484.681	117.19
484.9	102.19
485.118	93.19
485.336	99.19
485.554	107.19
485.772	128.19
485.99	122.19
486.209	111.19
486.427	106.19
486.645	126.19
486.863	129.19
487.081	114.19
487.299	122.19
487.517	103.19
487.735	104.19
487.953	106.19
488.171	102.19
488.389	103.19
488.607	105.19
488.825	98.19
489.043	89.19
489.261	90.19
489.479	90.19
489.696	80.19
489.914	103.19
490.132	90.19
490.35	110.19
490.568	92.19
490.786	98.19
491.003	95.19
491.221	102.19
491.439	102.19
491.657	109.19
491.874	102.19
492.092	99.19
492.31	98.19
492.527	120.19
492.745	119.19
492.963	117.19
493.18	108.19
493.398	107.19
493.615	107.19
493.833	104.19
494.05	97.19
494.268	99.19
494.485	102.19
494.703	98.19
494.92	92.19
495.138	104.19
495.355	106.19
495.573	99.19
495.79	101.19
496.008	114.19
496.225	105.19
496.442	97.19
496.66	93.19
496.877	90.19
497.094	75.19
497.312	90.19
497.529	73.19
497.746	101.19
497.963	85.19
498.181	113.19
498.398	106.19
498.615	125.19
498.832	125.19
499.049	84.19
499.267	88.19
499.484	105.19
499.701	105.19
499.918	101.19
500.135	90.19
500.352	104.19
500.569	110.19
500.786	101.19
501.003	108.19
501.22	111.19
501.437	98.19
501.654	102.19
501.871	133.19
502.088	111.19
502.305	105.19
502.522	103.19
502.739	83.19
502.956	97.19
503.172	108.19
503.389	106.19
503.606	133.19
503.823	120.19
504.04	96.19
504.256	87.19
504.473	85.19
504.69	96.19
504.907	84.19
505.123	105.19
505.34	95.19
505.557	96.19
505.773	91.19
505.99	103.19
506.207	84.19
506.423	90.19
506.64	93.19
506.856	95.19
507.073	97.19
507.289	109.19
507.506	96.19
507.722	121.19
507.939	139.19
508.155	106.19
508.372	97.19
508.588	89.19
508.805	105.19
509.021	97.19
509.238	105.19
509.454	103.19
509.67	95.19
509.887	128.19
510.103	140.19
