Data from Circ_1988_H10_HRD10591_00013.txt Node
Date: Wed Jan 03 12:05:37 EST 2024
User: Yrep
Spectrometer: HR+D1059
Trigger mode: 1
Integration Time (sec): 1.000000E-1
Scans to average: 1
Electric dark correction enabled: true
Nonlinearity correction enabled: false
Boxcar width: 0
XAxis mode: Wavelengths
Number of Pixels in Spectrum: 2048
>>>>>Begin Spectral Data<<<<<
223.165	-15.12
223.4	-15.12
223.635	-15.12
223.869	-13.12
224.104	-22.12
224.338	-11.12
224.573	-16.12
224.808	-12.12
225.042	-3.12
225.277	-6.12
225.511	-6.12
225.746	-3.12
225.98	4.88
226.215	5.88
226.449	17.88
226.683	19.88
226.918	27.88
227.152	31.88
227.387	46.88
227.621	39.88
227.856	39.88
228.09	33.88
228.324	61.88
228.559	64.88
228.793	53.88
229.027	58.88
229.262	65.88
229.496	63.88
229.73	87.88
229.964	76.88
230.199	69.88
230.433	66.88
230.667	79.88
230.901	68.88
231.136	72.88
231.37	80.88
231.604	66.88
231.838	92.88
232.072	86.88
232.306	72.88
232.541	83.88
232.775	86.88
233.009	75.88
233.243	54.88
233.477	96.88
233.711	83.88
233.945	85.88
234.179	89.88
234.413	80.88
234.647	79.88
234.881	77.88
235.115	78.88
235.349	72.88
235.583	66.88
235.817	64.88
236.051	71.88
236.285	76.88
236.519	75.88
236.753	81.88
236.987	80.88
237.221	88.88
237.455	83.88
237.689	95.88
237.922	77.88
238.156	86.88
238.39	79.88
238.624	78.88
238.858	88.88
239.091	88.88
239.325	72.88
239.559	89.88
239.793	84.88
240.027	83.88
240.26	67.88
240.494	61.88
240.728	72.88
240.961	72.88
241.195	78.88
241.429	81.88
241.662	84.88
241.896	88.88
242.13	75.88
242.363	75.88
242.597	85.88
242.83	56.88
243.064	77.88
243.298	79.88
243.531	80.88
243.765	67.88
243.998	73.88
244.232	84.88
244.465	60.88
244.699	69.88
244.932	71.88
245.166	73.88
245.399	71.88
245.633	78.88
245.866	77.88
246.099	64.88
246.333	84.88
246.566	79.88
246.8	72.88
247.033	65.88
247.266	79.88
247.5	75.88
247.733	78.88
247.966	76.88
248.2	78.88
248.433	84.88
248.666	57.88
248.899	75.88
249.133	74.88
249.366	88.88
249.599	91.88
249.832	90.88
250.066	84.88
250.299	80.88
250.532	89.88
250.765	68.88
250.998	65.88
251.231	81.88
251.465	87.88
251.698	86.88
251.931	89.88
252.164	79.88
252.397	78.88
252.63	80.88
252.863	78.88
253.096	92.88
253.329	83.88
253.562	69.88
253.795	73.88
254.028	88.88
254.261	83.88
254.494	77.88
254.727	93.88
254.96	75.88
255.193	80.88
255.426	84.88
255.659	78.88
255.892	82.88
256.124	72.88
256.357	82.88
256.59	75.88
256.823	88.88
257.056	86.88
257.289	77.88
257.521	84.88
257.754	80.88
257.987	92.88
258.22	79.88
258.452	97.88
258.685	98.88
258.918	83.88
259.151	77.88
259.383	79.88
259.616	86.88
259.849	78.88
260.081	77.88
260.314	87.88
260.547	82.88
260.779	83.88
261.012	93.88
261.244	116.88
261.477	85.88
261.71	88.88
261.942	109.88
262.175	103.88
262.407	91.88
262.64	93.88
262.872	72.88
263.105	82.88
263.337	93.88
263.57	71.88
263.802	78.88
264.035	82.88
264.267	72.88
264.499	80.88
264.732	84.88
264.964	75.88
265.197	91.88
265.429	75.88
265.661	95.88
265.894	79.88
266.126	90.88
266.358	70.88
266.591	68.88
266.823	76.88
267.055	77.88
267.287	81.88
267.52	71.88
267.752	79.88
267.984	90.88
268.216	86.88
268.448	89.88
268.681	87.88
268.913	89.88
269.145	73.88
269.377	72.88
269.609	83.88
269.841	86.88
270.073	91.88
270.306	87.88
270.538	93.88
270.77	81.88
271.002	95.88
271.234	88.88
271.466	114.88
271.698	78.88
271.93	71.88
272.162	77.88
272.394	87.88
272.626	70.88
272.858	82.88
273.09	77.88
273.322	93.88
273.553	69.88
273.785	86.88
274.017	68.88
274.249	77.88
274.481	70.88
274.713	65.88
274.945	79.88
275.176	82.88
275.408	100.88
275.64	105.88
275.872	110.88
276.104	111.88
276.335	92.88
276.567	95.88
276.799	103.88
277.031	150.88
277.262	164.88
277.494	119.88
277.726	100.88
277.957	89.88
278.189	88.88
278.421	85.88
278.652	70.88
278.884	75.88
279.115	87.88
279.347	100.88
279.579	111.88
279.81	118.88
280.042	179.88
280.273	221.88
280.505	141.88
280.736	99.88
280.968	80.88
281.199	81.88
281.431	73.88
281.662	69.88
281.894	96.88
282.125	93.88
282.356	116.88
282.588	130.88
282.819	114.88
283.051	87.88
283.282	92.88
283.513	93.88
283.745	72.88
283.976	71.88
284.207	87.88
284.439	87.88
284.67	97.88
284.901	85.88
285.132	75.88
285.364	76.88
285.595	78.88
285.826	76.88
286.057	89.88
286.288	76.88
286.52	77.88
286.751	82.88
286.982	86.88
287.213	83.88
287.444	95.88
287.675	89.88
287.906	84.88
288.138	75.88
288.369	72.88
288.6	94.88
288.831	85.88
289.062	83.88
289.293	87.88
289.524	95.88
289.755	80.88
289.986	79.88
290.217	81.88
290.448	89.88
290.679	87.88
290.91	86.88
291.141	87.88
291.371	92.88
291.602	81.88
291.833	97.88
292.064	89.88
292.295	80.88
292.526	72.88
292.757	83.88
292.987	92.88
293.218	79.88
293.449	90.88
293.68	85.88
293.91	57.88
294.141	96.88
294.372	90.88
294.603	91.88
294.833	89.88
295.064	92.88
295.295	70.88
295.525	85.88
295.756	92.88
295.987	101.88
296.217	109.88
296.448	101.88
296.679	87.88
296.909	85.88
297.14	74.88
297.37	89.88
297.601	84.88
297.831	86.88
298.062	95.88
298.292	80.88
298.523	96.88
298.753	86.88
298.984	107.88
299.214	95.88
299.445	88.88
299.675	96.88
299.905	71.88
300.136	86.88
300.366	83.88
300.597	88.88
300.827	99.88
301.057	103.88
301.288	109.88
301.518	93.88
301.748	88.88
301.979	107.88
302.209	95.88
302.439	87.88
302.669	92.88
302.9	94.88
303.13	78.88
303.36	106.88
303.59	112.88
303.82	120.88
304.051	92.88
304.281	85.88
304.511	97.88
304.741	87.88
304.971	81.88
305.201	96.88
305.431	87.88
305.661	87.88
305.891	96.88
306.121	80.88
306.352	100.88
306.582	90.88
306.812	104.88
307.042	112.88
307.272	138.88
307.502	159.88
307.731	156.88
307.961	114.88
308.191	89.88
308.421	88.88
308.651	100.88
308.881	100.88
309.111	88.88
309.341	83.88
309.571	90.88
309.8	98.88
310.03	85.88
310.26	82.88
310.49	88.88
310.72	88.88
310.949	100.88
311.179	98.88
311.409	102.88
311.639	94.88
311.868	93.88
312.098	90.88
312.328	87.88
312.557	96.88
312.787	81.88
313.017	104.88
313.246	90.88
313.476	104.88
313.706	88.88
313.935	82.88
314.165	94.88
314.394	81.88
314.624	99.88
314.853	91.88
315.083	100.88
315.312	89.88
315.542	80.88
315.771	97.88
316.001	94.88
316.23	95.88
316.46	94.88
316.689	72.88
316.919	89.88
317.148	93.88
317.377	98.88
317.607	85.88
317.836	88.88
318.065	78.88
318.295	75.88
318.524	79.88
318.753	80.88
318.983	82.88
319.212	100.88
319.441	99.88
319.67	84.88
319.9	91.88
320.129	99.88
320.358	93.88
320.587	87.88
320.816	108.88
321.046	88.88
321.275	79.88
321.504	94.88
321.733	92.88
321.962	104.88
322.191	100.88
322.42	90.88
322.649	88.88
322.878	100.88
323.108	94.88
323.337	93.88
323.566	104.88
323.795	118.88
324.024	143.88
324.253	212.88
324.482	392.88
324.71	726.88
324.939	928.88
325.168	403.88
325.397	158.88
325.626	111.88
325.855	111.88
326.084	100.88
326.313	104.88
326.542	104.88
326.77	147.88
326.999	211.88
327.228	387.88
327.457	646.88
327.686	588.88
327.914	303.88
328.143	367.88
328.372	475.88
328.6	260.88
328.829	131.88
329.058	133.88
329.287	121.88
329.515	130.88
329.744	190.88
329.972	304.88
330.201	623.88
330.43	958.88
330.658	451.88
330.887	178.88
331.115	127.88
331.344	110.88
331.572	93.88
331.801	114.88
332.03	83.88
332.258	107.88
332.486	80.88
332.715	102.88
332.943	109.88
333.172	126.88
333.4	107.88
333.629	112.88
333.857	140.88
334.085	267.88
334.314	547.88
334.542	1036.88
334.771	1073.88
334.999	291.88
335.227	129.88
335.455	117.88
335.684	92.88
335.912	103.88
336.14	93.88
336.369	101.88
336.597	81.88
336.825	97.88
337.053	85.88
337.281	78.88
337.51	86.88
337.738	92.88
337.966	99.88
338.194	83.88
338.422	105.88
338.65	104.88
338.878	89.88
339.106	78.88
339.334	85.88
339.562	79.88
339.79	71.88
340.018	84.88
340.246	67.88
340.474	95.88
340.702	99.88
340.93	83.88
341.158	79.88
341.386	95.88
341.614	76.88
341.842	92.88
342.07	90.88
342.298	94.88
342.526	79.88
342.754	80.88
342.981	90.88
343.209	78.88
343.437	87.88
343.665	80.88
343.893	86.88
344.12	84.88
344.348	92.88
344.576	95.88
344.804	90.88
345.031	94.88
345.259	85.88
345.487	95.88
345.714	87.88
345.942	90.88
346.17	103.88
346.397	87.88
346.625	65.88
346.853	81.88
347.08	83.88
347.308	95.88
347.535	75.88
347.763	96.88
347.99	93.88
348.218	86.88
348.445	100.88
348.673	98.88
348.9	92.88
349.128	96.88
349.355	72.88
349.583	69.88
349.81	91.88
350.037	91.88
350.265	73.88
350.492	88.88
350.72	81.88
350.947	80.88
351.174	92.88
351.402	100.88
351.629	85.88
351.856	88.88
352.083	89.88
352.311	75.88
352.538	93.88
352.765	96.88
352.992	109.88
353.22	115.88
353.447	103.88
353.674	84.88
353.901	89.88
354.128	101.88
354.355	84.88
354.583	95.88
354.81	91.88
355.037	75.88
355.264	96.88
355.491	88.88
355.718	72.88
355.945	87.88
356.172	78.88
356.399	88.88
356.626	89.88
356.853	93.88
357.08	87.88
357.307	78.88
357.534	78.88
357.761	77.88
357.988	86.88
358.215	84.88
358.441	102.88
358.668	91.88
358.895	101.88
359.122	86.88
359.349	96.88
359.576	72.88
359.802	92.88
360.029	99.88
360.256	104.88
360.483	103.88
360.709	99.88
360.936	87.88
361.163	94.88
361.39	94.88
361.616	81.88
361.843	78.88
362.07	87.88
362.296	95.88
362.523	96.88
362.749	79.88
362.976	84.88
363.203	72.88
363.429	72.88
363.656	89.88
363.882	89.88
364.109	92.88
364.335	84.88
364.562	98.88
364.788	88.88
365.015	100.88
365.241	112.88
365.468	91.88
365.694	108.88
365.92	88.88
366.147	99.88
366.373	95.88
366.599	72.88
366.826	86.88
367.052	88.88
367.278	87.88
367.505	72.88
367.731	87.88
367.957	70.88
368.184	95.88
368.41	88.88
368.636	95.88
368.862	107.88
369.089	104.88
369.315	89.88
369.541	73.88
369.767	79.88
369.993	92.88
370.219	92.88
370.445	87.88
370.672	84.88
370.898	84.88
371.124	85.88
371.35	78.88
371.576	73.88
371.802	80.88
372.028	68.88
372.254	103.88
372.48	74.88
372.706	79.88
372.932	94.88
373.158	83.88
373.384	75.88
373.61	83.88
373.835	75.88
374.061	77.88
374.287	77.88
374.513	96.88
374.739	81.88
374.965	86.88
375.191	82.88
375.416	83.88
375.642	85.88
375.868	88.88
376.094	88.88
376.319	79.88
376.545	78.88
376.771	79.88
376.997	85.88
377.222	88.88
377.448	86.88
377.674	80.88
377.899	94.88
378.125	77.88
378.35	79.88
378.576	89.88
378.802	79.88
379.027	90.88
379.253	90.88
379.478	79.88
379.704	65.88
379.929	81.88
380.155	83.88
380.38	100.88
380.606	88.88
380.831	94.88
381.057	91.88
381.282	100.88
381.507	81.88
381.733	83.88
381.958	108.88
382.184	75.88
382.409	92.88
382.634	91.88
382.86	95.88
383.085	88.88
383.31	82.88
383.535	100.88
383.761	97.88
383.986	104.88
384.211	86.88
384.436	99.88
384.662	98.88
384.887	85.88
385.112	87.88
385.337	97.88
385.562	103.88
385.787	93.88
386.013	112.88
386.238	105.88
386.463	106.88
386.688	108.88
386.913	109.88
387.138	85.88
387.363	101.88
387.588	86.88
387.813	92.88
388.038	103.88
388.263	107.88
388.488	106.88
388.713	92.88
388.938	92.88
389.163	79.88
389.387	78.88
389.612	70.88
389.837	82.88
390.062	84.88
390.287	88.88
390.512	86.88
390.736	92.88
390.961	79.88
391.186	91.88
391.411	89.88
391.636	84.88
391.86	92.88
392.085	80.88
392.31	87.88
392.534	73.88
392.759	88.88
392.984	100.88
393.208	84.88
393.433	96.88
393.658	92.88
393.882	102.88
394.107	94.88
394.331	85.88
394.556	93.88
394.78	67.88
395.005	85.88
395.229	85.88
395.454	80.88
395.678	85.88
395.903	81.88
396.127	95.88
396.352	98.88
396.576	89.88
396.801	84.88
397.025	68.88
397.249	87.88
397.474	87.88
397.698	82.88
397.922	80.88
398.147	85.88
398.371	81.88
398.595	77.88
398.82	81.88
399.044	89.88
399.268	80.88
399.492	97.88
399.717	78.88
399.941	91.88
400.165	88.88
400.389	88.88
400.613	78.88
400.837	80.88
401.062	83.88
401.286	97.88
401.51	83.88
401.734	85.88
401.958	99.88
402.182	100.88
402.406	134.88
402.63	99.88
402.854	93.88
403.078	91.88
403.302	87.88
403.526	81.88
403.75	75.88
403.974	86.88
404.198	89.88
404.422	77.88
404.645	97.88
404.869	87.88
405.093	95.88
405.317	98.88
405.541	91.88
405.765	98.88
405.988	112.88
406.212	147.88
406.436	188.88
406.66	149.88
406.883	84.88
407.107	89.88
407.331	83.88
407.555	95.88
407.778	85.88
408.002	88.88
408.226	82.88
408.449	83.88
408.673	70.88
408.896	75.88
409.12	72.88
409.344	87.88
409.567	81.88
409.791	81.88
410.014	85.88
410.238	102.88
410.461	88.88
410.685	100.88
410.908	79.88
411.132	89.88
411.355	73.88
411.578	86.88
411.802	99.88
412.025	93.88
412.249	95.88
412.472	91.88
412.695	96.88
412.919	72.88
413.142	69.88
413.365	92.88
413.589	89.88
413.812	76.88
414.035	97.88
414.258	86.88
414.482	78.88
414.705	77.88
414.928	87.88
415.151	86.88
415.374	97.88
415.597	83.88
415.821	75.88
416.044	83.88
416.267	69.88
416.49	70.88
416.713	92.88
416.936	84.88
417.159	73.88
417.382	75.88
417.605	91.88
417.828	101.88
418.051	98.88
418.274	69.88
418.497	82.88
418.72	81.88
418.943	86.88
419.166	75.88
419.389	87.88
419.611	83.88
419.834	92.88
420.057	80.88
420.28	90.88
420.503	81.88
420.726	75.88
420.948	70.88
421.171	83.88
421.394	79.88
421.617	78.88
421.839	90.88
422.062	78.88
422.285	87.88
422.507	85.88
422.73	103.88
422.953	75.88
423.175	76.88
423.398	83.88
423.621	85.88
423.843	81.88
424.066	78.88
424.288	68.88
424.511	77.88
424.733	91.88
424.956	82.88
425.178	66.88
425.401	96.88
425.623	91.88
425.846	68.88
426.068	92.88
426.291	102.88
426.513	93.88
426.735	91.88
426.958	103.88
427.18	89.88
427.402	95.88
427.625	150.88
427.847	125.88
428.069	118.88
428.292	99.88
428.514	85.88
428.736	83.88
428.958	86.88
429.181	86.88
429.403	81.88
429.625	88.88
429.847	71.88
430.069	77.88
430.292	78.88
430.514	89.88
430.736	98.88
430.958	84.88
431.18	87.88
431.402	80.88
431.624	91.88
431.846	81.88
432.068	75.88
432.29	84.88
432.512	97.88
432.734	82.88
432.956	80.88
433.178	84.88
433.4	81.88
433.622	72.88
433.844	95.88
434.066	99.88
434.287	76.88
434.509	78.88
434.731	69.88
434.953	85.88
435.175	74.88
435.397	85.88
435.618	79.88
435.84	86.88
436.062	88.88
436.284	82.88
436.505	67.88
436.727	71.88
436.949	83.88
437.17	84.88
437.392	82.88
437.614	94.88
437.835	98.88
438.057	88.88
438.278	86.88
438.5	93.88
438.721	91.88
438.943	76.88
439.165	93.88
439.386	82.88
439.608	77.88
439.829	92.88
440.05	77.88
440.272	106.88
440.493	86.88
440.715	102.88
440.936	86.88
441.158	72.88
441.379	74.88
441.6	80.88
441.822	94.88
442.043	89.88
442.264	91.88
442.486	87.88
442.707	87.88
442.928	89.88
443.149	108.88
443.371	91.88
443.592	85.88
443.813	95.88
444.034	86.88
444.255	82.88
444.476	78.88
444.698	71.88
444.919	71.88
445.14	134.88
445.361	113.88
445.582	96.88
445.803	111.88
446.024	95.88
446.245	104.88
446.466	83.88
446.687	80.88
446.908	82.88
447.129	71.88
447.35	83.88
447.571	86.88
447.792	73.88
448.013	91.88
448.234	83.88
448.455	71.88
448.675	79.88
448.896	85.88
449.117	77.88
449.338	72.88
449.559	92.88
449.779	93.88
450	80.88
450.221	92.88
450.442	82.88
450.662	77.88
450.883	84.88
451.104	102.88
451.324	89.88
451.545	68.88
451.766	72.88
451.986	76.88
452.207	84.88
452.428	84.88
452.648	98.88
452.869	97.88
453.089	101.88
453.31	100.88
453.53	83.88
453.751	93.88
453.971	95.88
454.192	97.88
454.412	84.88
454.633	84.88
454.853	85.88
455.073	81.88
455.294	77.88
455.514	81.88
455.734	74.88
455.955	77.88
456.175	64.88
456.395	70.88
456.616	81.88
456.836	94.88
457.056	79.88
457.276	89.88
457.497	87.88
457.717	82.88
457.937	82.88
458.157	83.88
458.377	83.88
458.598	82.88
458.818	119.88
459.038	126.88
459.258	103.88
459.478	76.88
459.698	76.88
459.918	68.88
460.138	79.88
460.358	76.88
460.578	93.88
460.798	85.88
461.018	79.88
461.238	82.88
461.458	83.88
461.678	67.88
461.898	72.88
462.118	81.88
462.338	66.88
462.558	83.88
462.777	89.88
462.997	102.88
463.217	105.88
463.437	94.88
463.657	80.88
463.876	92.88
464.096	79.88
464.316	76.88
464.536	88.88
464.755	76.88
464.975	97.88
465.195	131.88
465.414	131.88
465.634	88.88
465.854	91.88
466.073	71.88
466.293	70.88
466.512	75.88
466.732	78.88
466.951	88.88
467.171	87.88
467.391	98.88
467.61	129.88
467.829	182.88
468.049	495.88
468.268	739.88
468.488	201.88
468.707	111.88
468.927	83.88
469.146	92.88
469.365	89.88
469.585	79.88
469.804	97.88
470.023	115.88
470.243	107.88
470.462	92.88
470.681	121.88
470.901	89.88
471.12	99.88
471.339	94.88
471.558	102.88
471.777	115.88
471.997	218.88
472.216	810.88
472.435	1875.88
472.654	471.88
472.873	144.88
473.092	106.88
473.311	79.88
473.53	84.88
473.749	82.88
473.968	83.88
474.187	82.88
474.406	84.88
474.625	86.88
474.844	96.88
475.063	76.88
475.282	86.88
475.501	72.88
475.72	88.88
475.939	85.88
476.158	87.88
476.377	94.88
476.596	81.88
476.814	86.88
477.033	93.88
477.252	77.88
477.471	83.88
477.69	88.88
477.908	76.88
478.127	88.88
478.346	85.88
478.564	87.88
478.783	102.88
479.002	92.88
479.22	99.88
479.439	105.88
479.658	104.88
479.876	84.88
480.095	103.88
480.313	119.88
480.532	140.88
480.751	236.88
480.969	712.88
481.188	2860.88
481.406	1655.88
481.624	273.88
481.843	122.88
482.061	100.88
482.28	85.88
482.498	93.88
482.717	85.88
482.935	84.88
483.153	78.88
483.372	81.88
483.59	83.88
483.808	87.88
484.027	89.88
484.245	76.88
484.463	86.88
484.681	97.88
484.9	84.88
485.118	89.88
485.336	79.88
485.554	91.88
485.772	82.88
485.99	82.88
486.209	84.88
486.427	95.88
486.645	91.88
486.863	87.88
487.081	94.88
487.299	100.88
487.517	83.88
487.735	84.88
487.953	81.88
488.171	95.88
488.389	86.88
488.607	92.88
488.825	91.88
489.043	88.88
489.261	88.88
489.479	76.88
489.696	85.88
489.914	84.88
490.132	80.88
490.35	93.88
490.568	91.88
490.786	75.88
491.003	80.88
491.221	88.88
491.439	69.88
491.657	81.88
491.874	69.88
492.092	79.88
492.31	79.88
492.527	87.88
492.745	79.88
492.963	86.88
493.18	98.88
493.398	88.88
493.615	88.88
493.833	86.88
494.05	70.88
494.268	77.88
494.485	85.88
494.703	87.88
494.92	90.88
495.138	73.88
495.355	74.88
495.573	75.88
495.79	86.88
496.008	92.88
496.225	85.88
496.442	91.88
496.66	82.88
496.877	84.88
497.094	66.88
497.312	69.88
497.529	94.88
497.746	81.88
497.963	86.88
498.181	81.88
498.398	84.88
498.615	84.88
498.832	86.88
499.049	78.88
499.267	84.88
499.484	85.88
499.701	85.88
499.918	83.88
500.135	73.88
500.352	93.88
500.569	83.88
500.786	91.88
501.003	82.88
501.22	89.88
501.437	92.88
501.654	77.88
501.871	88.88
502.088	81.88
502.305	83.88
502.522	81.88
502.739	71.88
502.956	95.88
503.172	92.88
503.389	86.88
503.606	95.88
503.823	94.88
504.04	77.88
504.256	83.88
504.473	96.88
504.69	89.88
504.907	83.88
505.123	85.88
505.34	84.88
505.557	81.88
505.773	84.88
505.99	83.88
506.207	75.88
506.423	84.88
506.64	87.88
506.856	96.88
507.073	75.88
507.289	93.88
507.506	85.88
507.722	108.88
507.939	101.88
508.155	89.88
508.372	91.88
508.588	80.88
508.805	77.88
509.021	99.88
509.238	82.88
509.454	100.88
509.67	95.88
509.887	100.88
510.103	114.88
510.319	176.88
510.536	551.88
510.752	1853.88
510.968	552.88
511.184	131.88
511.401	98.88
511.617	101.88
511.833	69.88
512.049	85.88
512.265	77.88
512.481	83.88
512.698	96.88
512.914	94.88
513.13	89.88
513.346	103.88
513.562	81.88
513.778	92.88
513.994	90.88
514.21	91.88
514.426	123.88
514.642	118.88
514.858	122.88
515.074	135.88
515.29	366.88
515.506	1274.88
515.721	481.88
515.937	140.88
516.153	101.88
516.369	77.88
516.585	89.88
516.801	87.88
