Data from Circ_1988_H10_HRD10591_00029.txt Node
Date: Wed Jan 03 12:05:40 EST 2024
User: Yrep
Spectrometer: HR+D1059
Trigger mode: 1
Integration Time (sec): 1.000000E-1
Scans to average: 1
Electric dark correction enabled: true
Nonlinearity correction enabled: false
Boxcar width: 0
XAxis mode: Wavelengths
Number of Pixels in Spectrum: 2048
>>>>>Begin Spectral Data<<<<<
223.165	-16.88
223.4	-16.88
223.635	-16.88
223.869	-23.88
224.104	-26.88
224.338	-14.88
224.573	-14.88
224.808	-16.88
225.042	-1.88
225.277	-1.88
225.511	-13.88
225.746	6.12
225.98	2.12
226.215	25.12
226.449	15.12
226.683	24.12
226.918	26.12
227.152	33.12
227.387	34.12
227.621	35.12
227.856	36.12
228.09	35.12
228.324	46.12
228.559	64.12
228.793	46.12
229.027	71.12
229.262	71.12
229.496	92.12
229.73	102.12
229.964	103.12
230.199	78.12
230.433	80.12
230.667	67.12
230.901	78.12
231.136	69.12
231.37	86.12
231.604	92.12
231.838	84.12
232.072	69.12
232.306	78.12
232.541	88.12
232.775	80.12
233.009	90.12
233.243	93.12
233.477	90.12
233.711	72.12
233.945	66.12
234.179	65.12
234.413	78.12
234.647	72.12
234.881	65.12
235.115	90.12
235.349	86.12
235.583	86.12
235.817	76.12
236.051	86.12
236.285	77.12
236.519	85.12
236.753	72.12
236.987	92.12
237.221	88.12
237.455	90.12
237.689	77.12
237.922	75.12
238.156	77.12
238.39	80.12
238.624	77.12
238.858	72.12
239.091	69.12
239.325	79.12
239.559	71.12
239.793	85.12
240.027	80.12
240.26	85.12
240.494	87.12
240.728	86.12
240.961	71.12
241.195	92.12
241.429	70.12
241.662	72.12
241.896	85.12
242.13	86.12
242.363	67.12
242.597	77.12
242.83	73.12
243.064	82.12
243.298	72.12
243.531	84.12
243.765	86.12
243.998	87.12
244.232	91.12
244.465	105.12
244.699	89.12
244.932	77.12
245.166	72.12
245.399	78.12
245.633	73.12
245.866	88.12
246.099	82.12
246.333	88.12
246.566	89.12
246.8	81.12
247.033	82.12
247.266	87.12
247.5	74.12
247.733	75.12
247.966	89.12
248.2	85.12
248.433	90.12
248.666	82.12
248.899	93.12
249.133	98.12
249.366	110.12
249.599	121.12
249.832	97.12
250.066	86.12
250.299	106.12
250.532	90.12
250.765	68.12
250.998	81.12
251.231	96.12
251.465	88.12
251.698	94.12
251.931	88.12
252.164	92.12
252.397	76.12
252.63	82.12
252.863	87.12
253.096	80.12
253.329	84.12
253.562	85.12
253.795	92.12
254.028	87.12
254.261	84.12
254.494	76.12
254.727	80.12
254.96	90.12
255.193	80.12
255.426	85.12
255.659	93.12
255.892	105.12
256.124	110.12
256.357	91.12
256.59	98.12
256.823	89.12
257.056	81.12
257.289	88.12
257.521	97.12
257.754	98.12
257.987	89.12
258.22	106.12
258.452	119.12
258.685	128.12
258.918	93.12
259.151	94.12
259.383	88.12
259.616	95.12
259.849	88.12
260.081	90.12
260.314	101.12
260.547	93.12
260.779	108.12
261.012	167.12
261.244	156.12
261.477	118.12
261.71	111.12
261.942	139.12
262.175	155.12
262.407	97.12
262.64	86.12
262.872	95.12
263.105	94.12
263.337	95.12
263.57	78.12
263.802	82.12
264.035	96.12
264.267	94.12
264.499	92.12
264.732	98.12
264.964	89.12
265.197	92.12
265.429	96.12
265.661	70.12
265.894	76.12
266.126	78.12
266.358	86.12
266.591	79.12
266.823	84.12
267.055	96.12
267.287	81.12
267.52	84.12
267.752	87.12
267.984	84.12
268.216	94.12
268.448	93.12
268.681	101.12
268.913	93.12
269.145	93.12
269.377	90.12
269.609	86.12
269.841	100.12
270.073	94.12
270.306	90.12
270.538	97.12
270.77	78.12
271.002	101.12
271.234	111.12
271.466	113.12
271.698	102.12
271.93	102.12
272.162	87.12
272.394	85.12
272.626	90.12
272.858	96.12
273.09	85.12
273.322	99.12
273.553	90.12
273.785	93.12
274.017	92.12
274.249	88.12
274.481	79.12
274.713	95.12
274.945	95.12
275.176	98.12
275.408	116.12
275.64	161.12
275.872	182.12
276.104	147.12
276.335	116.12
276.567	143.12
276.799	193.12
277.031	285.12
277.262	383.12
277.494	269.12
277.726	125.12
277.957	103.12
278.189	88.12
278.421	104.12
278.652	105.12
278.884	98.12
279.115	106.12
279.347	97.12
279.579	138.12
279.81	204.12
280.042	392.12
280.273	556.12
280.505	334.12
280.736	148.12
280.968	110.12
281.199	93.12
281.431	96.12
281.662	81.12
281.894	104.12
282.125	128.12
282.356	122.12
282.588	171.12
282.819	129.12
283.051	82.12
283.282	82.12
283.513	95.12
283.745	94.12
283.976	87.12
284.207	84.12
284.439	98.12
284.67	101.12
284.901	97.12
285.132	86.12
285.364	97.12
285.595	93.12
285.826	78.12
286.057	100.12
286.288	98.12
286.52	92.12
286.751	90.12
286.982	92.12
287.213	79.12
287.444	86.12
287.675	98.12
287.906	93.12
288.138	106.12
288.369	98.12
288.6	94.12
288.831	89.12
289.062	86.12
289.293	93.12
289.524	88.12
289.755	97.12
289.986	96.12
290.217	97.12
290.448	77.12
290.679	81.12
290.91	95.12
291.141	92.12
291.371	83.12
291.602	84.12
291.833	104.12
292.064	95.12
292.295	87.12
292.526	87.12
292.757	105.12
292.987	101.12
293.218	87.12
293.449	104.12
293.68	91.12
293.91	94.12
294.141	88.12
294.372	87.12
294.603	89.12
294.833	91.12
295.064	88.12
295.295	90.12
295.525	96.12
295.756	108.12
295.987	122.12
296.217	175.12
296.448	148.12
296.679	98.12
296.909	92.12
297.14	83.12
297.37	93.12
297.601	90.12
297.831	94.12
298.062	97.12
298.292	93.12
298.523	87.12
298.753	88.12
298.984	94.12
299.214	95.12
299.445	100.12
299.675	108.12
299.905	93.12
300.136	92.12
300.366	93.12
300.597	89.12
300.827	100.12
301.057	80.12
301.288	127.12
301.518	124.12
301.748	106.12
301.979	137.12
302.209	126.12
302.439	116.12
302.669	93.12
302.9	102.12
303.13	109.12
303.36	126.12
303.59	181.12
303.82	201.12
304.051	129.12
304.281	90.12
304.511	104.12
304.741	97.12
304.971	82.12
305.201	95.12
305.431	87.12
305.661	90.12
305.891	94.12
306.121	114.12
306.352	126.12
306.582	125.12
306.812	137.12
307.042	194.12
307.272	256.12
307.502	298.12
307.731	273.12
307.961	180.12
308.191	102.12
308.421	102.12
308.651	86.12
308.881	89.12
309.111	97.12
309.341	101.12
309.571	106.12
309.8	99.12
310.03	102.12
310.26	125.12
310.49	109.12
310.72	106.12
310.949	108.12
311.179	111.12
311.409	77.12
311.639	91.12
311.868	109.12
312.098	111.12
312.328	97.12
312.557	109.12
312.787	126.12
313.017	114.12
313.246	108.12
313.476	108.12
313.706	95.12
313.935	112.12
314.165	111.12
314.394	123.12
314.624	105.12
314.853	118.12
315.083	105.12
315.312	110.12
315.542	94.12
315.771	101.12
316.001	97.12
316.23	93.12
316.46	97.12
316.689	98.12
316.919	106.12
317.148	110.12
317.377	93.12
317.607	101.12
317.836	98.12
318.065	99.12
318.295	85.12
318.524	85.12
318.753	86.12
318.983	98.12
319.212	91.12
319.441	107.12
319.67	118.12
319.9	108.12
320.129	100.12
320.358	96.12
320.587	102.12
320.816	101.12
321.046	122.12
321.275	108.12
321.504	90.12
321.733	102.12
321.962	99.12
322.191	102.12
322.42	112.12
322.649	134.12
322.878	122.12
323.108	122.12
323.337	138.12
323.566	140.12
323.795	171.12
324.024	222.12
324.253	416.12
324.482	845.12
324.71	1685.12
324.939	2278.12
325.168	898.12
325.397	286.12
325.626	172.12
325.855	139.12
326.084	132.12
326.313	144.12
326.542	176.12
326.77	238.12
326.999	457.12
327.228	850.12
327.457	1583.12
327.686	1375.12
327.914	668.12
328.143	940.12
328.372	1337.12
328.6	690.12
328.829	262.12
329.058	207.12
329.287	245.12
329.515	244.12
329.744	419.12
329.972	924.12
330.201	2046.12
330.43	3096.12
330.658	1215.12
330.887	403.12
331.115	234.12
331.344	145.12
331.572	146.12
331.801	141.12
332.03	144.12
332.258	127.12
332.486	119.12
332.715	126.12
332.943	126.12
333.172	146.12
333.4	162.12
333.629	221.12
333.857	341.12
334.085	749.12
334.314	1815.12
334.542	3595.12
334.771	3393.12
334.999	786.12
335.227	277.12
335.455	163.12
335.684	136.12
335.912	127.12
336.14	127.12
336.369	131.12
336.597	105.12
336.825	111.12
337.053	103.12
337.281	99.12
337.51	108.12
337.738	113.12
337.966	101.12
338.194	90.12
338.422	112.12
338.65	105.12
338.878	100.12
339.106	88.12
339.334	73.12
339.562	87.12
339.79	110.12
340.018	92.12
340.246	104.12
340.474	113.12
340.702	94.12
340.93	112.12
341.158	92.12
341.386	95.12
341.614	84.12
341.842	98.12
342.07	109.12
342.298	89.12
342.526	90.12
342.754	79.12
342.981	69.12
343.209	86.12
343.437	97.12
343.665	95.12
343.893	102.12
344.12	109.12
344.348	93.12
344.576	97.12
344.804	104.12
345.031	94.12
345.259	117.12
345.487	106.12
345.714	103.12
345.942	106.12
346.17	95.12
346.397	100.12
346.625	86.12
346.853	100.12
347.08	88.12
347.308	96.12
347.535	101.12
347.763	106.12
347.99	109.12
348.218	90.12
348.445	112.12
348.673	111.12
348.9	95.12
349.128	98.12
349.355	98.12
349.583	82.12
349.81	109.12
350.037	100.12
350.265	90.12
350.492	101.12
350.72	102.12
350.947	112.12
351.174	113.12
351.402	109.12
351.629	111.12
351.856	106.12
352.083	109.12
352.311	114.12
352.538	126.12
352.765	119.12
352.992	124.12
353.22	121.12
353.447	108.12
353.674	107.12
353.901	92.12
354.128	105.12
354.355	110.12
354.583	96.12
354.81	106.12
355.037	104.12
355.264	100.12
355.491	106.12
355.718	82.12
355.945	86.12
356.172	96.12
356.399	113.12
356.626	88.12
356.853	87.12
357.08	97.12
357.307	86.12
357.534	99.12
357.761	93.12
357.988	99.12
358.215	107.12
358.441	107.12
358.668	92.12
358.895	101.12
359.122	80.12
359.349	79.12
359.576	100.12
359.802	103.12
360.029	141.12
360.256	144.12
360.483	127.12
360.709	92.12
360.936	97.12
361.163	111.12
361.39	102.12
361.616	103.12
361.843	102.12
362.07	107.12
362.296	107.12
362.523	105.12
362.749	99.12
362.976	95.12
363.203	90.12
363.429	86.12
363.656	92.12
363.882	100.12
364.109	101.12
364.335	103.12
364.562	92.12
364.788	88.12
365.015	99.12
365.241	103.12
365.468	113.12
365.694	122.12
365.92	106.12
366.147	97.12
366.373	95.12
366.599	89.12
366.826	98.12
367.052	102.12
367.278	109.12
367.505	100.12
367.731	95.12
367.957	108.12
368.184	96.12
368.41	112.12
368.636	128.12
368.862	147.12
369.089	106.12
369.315	96.12
369.541	78.12
369.767	96.12
369.993	93.12
370.219	103.12
370.445	91.12
370.672	84.12
370.898	93.12
371.124	85.12
371.35	98.12
371.576	107.12
371.802	88.12
372.028	96.12
372.254	86.12
372.48	94.12
372.706	83.12
372.932	92.12
373.158	109.12
373.384	93.12
373.61	93.12
373.835	92.12
374.061	105.12
374.287	88.12
374.513	93.12
374.739	101.12
374.965	99.12
375.191	85.12
375.416	90.12
375.642	92.12
375.868	84.12
376.094	82.12
376.319	82.12
376.545	85.12
376.771	98.12
376.997	84.12
377.222	85.12
377.448	80.12
377.674	94.12
377.899	93.12
378.125	81.12
378.35	97.12
378.576	96.12
378.802	90.12
379.027	86.12
379.253	98.12
379.478	112.12
379.704	100.12
379.929	88.12
380.155	101.12
380.38	93.12
380.606	97.12
380.831	99.12
381.057	109.12
381.282	105.12
381.507	106.12
381.733	128.12
381.958	103.12
382.184	96.12
382.409	107.12
382.634	118.12
382.86	107.12
383.085	105.12
383.31	108.12
383.535	93.12
383.761	99.12
383.986	118.12
384.211	107.12
384.436	126.12
384.662	119.12
384.887	121.12
385.112	132.12
385.337	132.12
385.562	129.12
385.787	113.12
386.013	132.12
386.238	131.12
386.463	120.12
386.688	144.12
386.913	125.12
387.138	126.12
387.363	124.12
387.588	99.12
387.813	109.12
388.038	122.12
388.263	139.12
388.488	117.12
388.713	111.12
388.938	90.12
389.163	106.12
389.387	80.12
389.612	89.12
389.837	79.12
390.062	89.12
390.287	112.12
390.512	90.12
390.736	92.12
390.961	98.12
391.186	84.12
391.411	81.12
391.636	84.12
391.86	97.12
392.085	84.12
392.31	78.12
392.534	104.12
392.759	96.12
392.984	82.12
393.208	108.12
393.433	107.12
393.658	100.12
393.882	85.12
394.107	94.12
394.331	100.12
394.556	78.12
394.78	94.12
395.005	85.12
395.229	81.12
395.454	78.12
395.678	77.12
395.903	86.12
396.127	101.12
396.352	94.12
396.576	91.12
396.801	75.12
397.025	93.12
397.249	103.12
397.474	101.12
397.698	89.12
397.922	93.12
398.147	84.12
398.371	79.12
398.595	87.12
398.82	85.12
399.044	82.12
399.268	88.12
399.492	69.12
399.717	100.12
399.941	85.12
400.165	85.12
400.389	101.12
400.613	98.12
400.837	73.12
401.062	87.12
401.286	91.12
401.51	103.12
401.734	110.12
401.958	107.12
402.182	154.12
402.406	176.12
402.63	143.12
402.854	109.12
403.078	94.12
403.302	90.12
403.526	102.12
403.75	88.12
403.974	98.12
404.198	90.12
404.422	90.12
404.645	101.12
404.869	93.12
405.093	118.12
405.317	143.12
405.541	140.12
405.765	117.12
405.988	136.12
406.212	219.12
406.436	299.12
406.66	189.12
406.883	128.12
407.107	98.12
407.331	100.12
407.555	113.12
407.778	111.12
408.002	94.12
408.226	102.12
408.449	90.12
408.673	101.12
408.896	95.12
409.12	110.12
409.344	101.12
409.567	85.12
409.791	86.12
410.014	96.12
410.238	95.12
410.461	106.12
410.685	98.12
410.908	100.12
411.132	86.12
411.355	102.12
411.578	116.12
411.802	90.12
412.025	96.12
412.249	108.12
412.472	109.12
412.695	164.12
412.919	108.12
413.142	103.12
413.365	106.12
413.589	104.12
413.812	104.12
414.035	99.12
414.258	108.12
414.482	98.12
414.705	106.12
414.928	105.12
415.151	97.12
415.374	98.12
415.597	90.12
415.821	98.12
416.044	97.12
416.267	103.12
416.49	98.12
416.713	91.12
416.936	96.12
417.159	111.12
417.382	95.12
417.605	134.12
417.828	148.12
418.051	109.12
418.274	112.12
418.497	93.12
418.72	83.12
418.943	92.12
419.166	92.12
419.389	95.12
419.611	106.12
419.834	102.12
420.057	96.12
420.28	110.12
420.503	97.12
420.726	101.12
420.948	91.12
421.171	118.12
421.394	105.12
421.617	91.12
421.839	89.12
422.062	105.12
422.285	90.12
422.507	101.12
422.73	120.12
422.953	93.12
423.175	87.12
423.398	102.12
423.621	106.12
423.843	109.12
424.066	85.12
424.288	85.12
424.511	97.12
424.733	98.12
424.956	115.12
425.178	104.12
425.401	110.12
425.623	111.12
425.846	88.12
426.068	113.12
426.291	91.12
426.513	97.12
426.735	99.12
426.958	107.12
427.18	117.12
427.402	165.12
427.625	260.12
427.847	264.12
428.069	224.12
428.292	153.12
428.514	106.12
428.736	105.12
428.958	80.12
429.181	111.12
429.403	99.12
429.625	111.12
429.847	98.12
430.069	109.12
430.292	92.12
430.514	72.12
430.736	79.12
430.958	88.12
431.18	87.12
431.402	91.12
431.624	77.12
431.846	71.12
432.068	84.12
432.29	89.12
432.512	99.12
432.734	81.12
432.956	91.12
433.178	89.12
433.4	98.12
433.622	96.12
433.844	102.12
434.066	105.12
434.287	84.12
434.509	89.12
434.731	92.12
434.953	97.12
435.175	96.12
435.397	94.12
435.618	107.12
435.84	84.12
436.062	126.12
436.284	113.12
436.505	113.12
436.727	108.12
436.949	103.12
437.17	84.12
437.392	85.12
437.614	111.12
437.835	117.12
438.057	120.12
438.278	113.12
438.5	101.12
438.721	121.12
438.943	118.12
439.165	94.12
439.386	87.12
439.608	93.12
439.829	105.12
440.05	139.12
440.272	158.12
440.493	104.12
440.715	97.12
440.936	89.12
441.158	88.12
441.379	87.12
441.6	98.12
441.822	100.12
442.043	102.12
442.264	123.12
442.486	95.12
442.707	110.12
442.928	114.12
443.149	171.12
443.371	184.12
443.592	124.12
443.813	126.12
444.034	110.12
444.255	90.12
444.476	78.12
444.698	83.12
444.919	98.12
445.14	145.12
445.361	128.12
445.582	122.12
445.803	176.12
446.024	150.12
446.245	168.12
446.466	123.12
446.687	113.12
446.908	104.12
447.129	103.12
447.35	94.12
447.571	85.12
447.792	102.12
448.013	119.12
448.234	116.12
448.455	100.12
448.675	124.12
448.896	122.12
449.117	113.12
449.338	113.12
449.559	136.12
449.779	145.12
450	100.12
450.221	104.12
450.442	93.12
450.662	102.12
450.883	127.12
451.104	127.12
451.324	114.12
451.545	95.12
451.766	82.12
451.986	73.12
452.207	99.12
452.428	90.12
452.648	131.12
452.869	119.12
453.089	123.12
453.31	142.12
453.53	97.12
453.751	97.12
453.971	96.12
454.192	117.12
454.412	107.12
454.633	96.12
454.853	94.12
455.073	90.12
455.294	92.12
455.514	109.12
455.734	104.12
455.955	91.12
456.175	95.12
456.395	91.12
456.616	98.12
456.836	115.12
457.056	92.12
457.276	85.12
457.497	92.12
457.717	85.12
457.937	83.12
458.157	106.12
458.377	93.12
458.598	122.12
458.818	193.12
459.038	212.12
459.258	148.12
459.478	92.12
459.698	85.12
459.918	95.12
460.138	97.12
460.358	89.12
460.578	89.12
460.798	104.12
461.018	96.12
461.238	99.12
461.458	88.12
461.678	71.12
461.898	93.12
462.118	91.12
462.338	97.12
462.558	96.12
462.777	101.12
462.997	114.12
463.217	136.12
463.437	119.12
463.657	89.12
463.876	96.12
464.096	90.12
464.316	96.12
464.536	106.12
464.755	106.12
464.975	145.12
465.195	206.12
465.414	251.12
465.634	108.12
465.854	73.12
466.073	92.12
466.293	88.12
466.512	99.12
466.732	103.12
466.951	99.12
467.171	112.12
467.391	135.12
467.61	188.12
467.829	370.12
468.049	1302.12
468.268	2074.12
468.488	412.12
468.707	148.12
468.927	112.12
469.146	86.12
469.365	100.12
469.585	100.12
469.804	125.12
470.023	112.12
470.243	116.12
470.462	129.12
470.681	154.12
470.901	134.12
471.12	128.12
471.339	140.12
471.558	168.12
471.777	234.12
471.997	557.12
472.216	2346.12
472.435	5539.12
472.654	1134.12
472.873	249.12
473.092	144.12
473.311	113.12
473.53	102.12
473.749	110.12
473.968	120.12
474.187	132.12
474.406	113.12
474.625	92.12
474.844	100.12
475.063	80.12
475.282	85.12
475.501	102.12
475.72	97.12
475.939	93.12
476.158	105.12
476.377	92.12
476.596	99.12
476.814	112.12
477.033	105.12
477.252	101.12
477.471	104.12
477.69	96.12
477.908	114.12
478.127	114.12
478.346	104.12
478.564	96.12
478.783	110.12
479.002	118.12
479.22	113.12
479.439	144.12
479.658	144.12
479.876	142.12
480.095	155.12
480.313	183.12
480.532	254.12
480.751	485.12
480.969	1998.12
481.188	8893.12
481.406	5038.12
481.624	637.12
481.843	211.12
482.061	137.12
482.28	116.12
482.498	118.12
482.717	110.12
482.935	92.12
483.153	104.12
483.372	103.12
483.59	97.12
483.808	93.12
484.027	98.12
484.245	99.12
484.463	103.12
484.681	105.12
484.9	92.12
485.118	104.12
485.336	90.12
485.554	104.12
485.772	114.12
485.99	119.12
486.209	102.12
486.427	104.12
486.645	132.12
486.863	135.12
487.081	96.12
487.299	102.12
487.517	106.12
487.735	93.12
487.953	102.12
488.171	92.12
488.389	81.12
488.607	98.12
488.825	103.12
489.043	89.12
489.261	91.12
489.479	100.12
489.696	97.12
489.914	105.12
490.132	92.12
490.35	97.12
490.568	103.12
490.786	89.12
491.003	104.12
491.221	105.12
491.439	100.12
491.657	106.12
491.874	95.12
492.092	95.12
492.31	81.12
492.527	95.12
492.745	127.12
492.963	96.12
493.18	90.12
493.398	104.12
493.615	93.12
493.833	102.12
494.05	102.12
494.268	97.12
494.485	95.12
494.703	89.12
494.92	90.12
495.138	94.12
495.355	114.12
495.573	97.12
495.79	102.12
496.008	94.12
496.225	89.12
496.442	101.12
496.66	83.12
496.877	94.12
497.094	96.12
497.312	95.12
497.529	102.12
497.746	87.12
497.963	94.12
498.181	98.12
498.398	100.12
498.615	129.12
498.832	118.12
499.049	90.12
499.267	97.12
499.484	97.12
499.701	91.12
499.918	103.12
500.135	95.12
500.352	100.12
500.569	81.12
500.786	108.12
501.003	101.12
501.22	95.12
501.437	86.12
501.654	116.12
501.871	129.12
502.088	98.12
502.305	93.12
502.522	100.12
502.739	94.12
502.956	95.12
503.172	103.12
503.389	122.12
503.606	116.12
503.823	115.12
504.04	96.12
504.256	89.12
504.473	96.12
504.69	92.12
504.907	92.12
505.123	96.12
505.34	98.12
505.557	101.12
505.773	92.12
505.99	96.12
506.207	110.12
506.423	98.12
506.64	96.12
506.856	87.12
507.073	90.12
507.289	93.12
507.506	101.12
507.722	116.12
507.939	132.12
508.155	105.12
508.372	93.12
508.588	101.12
508.805	93.12
509.021	101.12
509.238	127.12
509.454	110.12
509.67	118.12
509.887	126.12
510.103	145.12
510.319	238.12
510.536	948.12
510.752	3456.12
510.968	914.12
511.184	184.12
