Data from Circ_1988_H10_HRD10591_00042.txt Node
Date: Wed Jan 03 12:05:43 EST 2024
User: Yrep
Spectrometer: HR+D1059
Trigger mode: 1
Integration Time (sec): 1.000000E-1
Scans to average: 1
Electric dark correction enabled: true
Nonlinearity correction enabled: false
Boxcar width: 0
XAxis mode: Wavelengths
Number of Pixels in Spectrum: 2048
>>>>>Begin Spectral Data<<<<<
223.165	-10.12
223.4	-10.12
223.635	-10.12
223.869	-12.12
224.104	-23.12
224.338	-20.12
224.573	-7.12
224.808	-9.12
225.042	-17.12
225.277	-1.12
225.511	-0.12
225.746	-1.12
225.98	1.88
226.215	12.88
226.449	6.88
226.683	20.88
226.918	20.88
227.152	37.88
227.387	39.88
227.621	48.88
227.856	54.88
228.09	54.88
228.324	54.88
228.559	69.88
228.793	55.88
229.027	74.88
229.262	75.88
229.496	83.88
229.73	112.88
229.964	106.88
230.199	85.88
230.433	86.88
230.667	89.88
230.901	71.88
231.136	94.88
231.37	80.88
231.604	82.88
231.838	84.88
232.072	90.88
232.306	73.88
232.541	87.88
232.775	80.88
233.009	77.88
233.243	86.88
233.477	87.88
233.711	94.88
233.945	83.88
234.179	91.88
234.413	85.88
234.647	84.88
234.881	72.88
235.115	103.88
235.349	87.88
235.583	91.88
235.817	82.88
236.051	82.88
236.285	82.88
236.519	95.88
236.753	96.88
236.987	97.88
237.221	88.88
237.455	111.88
237.689	77.88
237.922	71.88
238.156	85.88
238.39	82.88
238.624	73.88
238.858	72.88
239.091	91.88
239.325	86.88
239.559	88.88
239.793	89.88
240.027	78.88
240.26	79.88
240.494	88.88
240.728	86.88
240.961	75.88
241.195	97.88
241.429	89.88
241.662	89.88
241.896	87.88
242.13	83.88
242.363	84.88
242.597	91.88
242.83	95.88
243.064	93.88
243.298	88.88
243.531	70.88
243.765	92.88
243.998	86.88
244.232	97.88
244.465	90.88
244.699	68.88
244.932	76.88
245.166	82.88
245.399	89.88
245.633	75.88
245.866	96.88
246.099	80.88
246.333	81.88
246.566	85.88
246.8	81.88
247.033	85.88
247.266	91.88
247.5	99.88
247.733	92.88
247.966	88.88
248.2	69.88
248.433	71.88
248.666	87.88
248.899	99.88
249.133	104.88
249.366	108.88
249.599	107.88
249.832	87.88
250.066	84.88
250.299	92.88
250.532	105.88
250.765	91.88
250.998	100.88
251.231	95.88
251.465	93.88
251.698	103.88
251.931	106.88
252.164	96.88
252.397	95.88
252.63	88.88
252.863	86.88
253.096	95.88
253.329	90.88
253.562	79.88
253.795	89.88
254.028	84.88
254.261	87.88
254.494	89.88
254.727	82.88
254.96	80.88
255.193	94.88
255.426	81.88
255.659	84.88
255.892	135.88
256.124	118.88
256.357	99.88
256.59	94.88
256.823	92.88
257.056	101.88
257.289	102.88
257.521	94.88
257.754	91.88
257.987	107.88
258.22	111.88
258.452	110.88
258.685	122.88
258.918	99.88
259.151	91.88
259.383	92.88
259.616	97.88
259.849	91.88
260.081	90.88
260.314	102.88
260.547	109.88
260.779	111.88
261.012	148.88
261.244	159.88
261.477	117.88
261.71	106.88
261.942	136.88
262.175	146.88
262.407	100.88
262.64	86.88
262.872	84.88
263.105	97.88
263.337	89.88
263.57	83.88
263.802	96.88
264.035	99.88
264.267	94.88
264.499	89.88
264.732	74.88
264.964	87.88
265.197	94.88
265.429	78.88
265.661	78.88
265.894	86.88
266.126	79.88
266.358	95.88
266.591	84.88
266.823	91.88
267.055	90.88
267.287	86.88
267.52	97.88
267.752	90.88
267.984	92.88
268.216	97.88
268.448	100.88
268.681	112.88
268.913	101.88
269.145	85.88
269.377	93.88
269.609	106.88
269.841	102.88
270.073	99.88
270.306	100.88
270.538	89.88
270.77	88.88
271.002	94.88
271.234	94.88
271.466	118.88
271.698	81.88
271.93	97.88
272.162	97.88
272.394	103.88
272.626	95.88
272.858	90.88
273.09	86.88
273.322	89.88
273.553	88.88
273.785	99.88
274.017	83.88
274.249	89.88
274.481	101.88
274.713	101.88
274.945	97.88
275.176	106.88
275.408	118.88
275.64	150.88
275.872	186.88
276.104	152.88
276.335	112.88
276.567	144.88
276.799	174.88
277.031	267.88
277.262	385.88
277.494	263.88
277.726	124.88
277.957	115.88
278.189	105.88
278.421	107.88
278.652	99.88
278.884	101.88
279.115	90.88
279.347	107.88
279.579	133.88
279.81	229.88
280.042	399.88
280.273	579.88
280.505	357.88
280.736	146.88
280.968	112.88
281.199	102.88
281.431	79.88
281.662	93.88
281.894	118.88
282.125	102.88
282.356	128.88
282.588	190.88
282.819	127.88
283.051	106.88
283.282	102.88
283.513	100.88
283.745	86.88
283.976	101.88
284.207	103.88
284.439	96.88
284.67	98.88
284.901	83.88
285.132	81.88
285.364	91.88
285.595	85.88
285.826	103.88
286.057	87.88
286.288	101.88
286.52	87.88
286.751	96.88
286.982	91.88
287.213	86.88
287.444	87.88
287.675	94.88
287.906	88.88
288.138	86.88
288.369	102.88
288.6	91.88
288.831	91.88
289.062	101.88
289.293	87.88
289.524	94.88
289.755	98.88
289.986	94.88
290.217	84.88
290.448	99.88
290.679	92.88
290.91	88.88
291.141	94.88
291.371	100.88
291.602	98.88
291.833	88.88
292.064	83.88
292.295	95.88
292.526	86.88
292.757	90.88
292.987	88.88
293.218	104.88
293.449	97.88
293.68	87.88
293.91	96.88
294.141	110.88
294.372	103.88
294.603	110.88
294.833	84.88
295.064	98.88
295.295	80.88
295.525	99.88
295.756	104.88
295.987	137.88
296.217	164.88
296.448	147.88
296.679	102.88
296.909	90.88
297.14	88.88
297.37	103.88
297.601	112.88
297.831	101.88
298.062	100.88
298.292	93.88
298.523	103.88
298.753	101.88
298.984	86.88
299.214	84.88
299.445	106.88
299.675	94.88
299.905	104.88
300.136	96.88
300.366	104.88
300.597	83.88
300.827	100.88
301.057	113.88
301.288	106.88
301.518	124.88
301.748	116.88
301.979	138.88
302.209	135.88
302.439	101.88
302.669	95.88
302.9	95.88
303.13	121.88
303.36	120.88
303.59	182.88
303.82	203.88
304.051	127.88
304.281	111.88
304.511	111.88
304.741	104.88
304.971	93.88
305.201	104.88
305.431	96.88
305.661	112.88
305.891	103.88
306.121	107.88
306.352	122.88
306.582	131.88
306.812	132.88
307.042	178.88
307.272	272.88
307.502	306.88
307.731	237.88
307.961	158.88
308.191	107.88
308.421	87.88
308.651	100.88
308.881	103.88
309.111	109.88
309.341	103.88
309.571	100.88
309.8	102.88
310.03	111.88
310.26	113.88
310.49	92.88
310.72	110.88
310.949	122.88
311.179	119.88
311.409	114.88
311.639	110.88
311.868	104.88
312.098	106.88
312.328	121.88
312.557	114.88
312.787	126.88
313.017	112.88
313.246	100.88
313.476	90.88
313.706	103.88
313.935	91.88
314.165	131.88
314.394	120.88
314.624	112.88
314.853	119.88
315.083	117.88
315.312	104.88
315.542	93.88
315.771	100.88
316.001	107.88
316.23	111.88
316.46	103.88
316.689	107.88
316.919	106.88
317.148	111.88
317.377	98.88
317.607	106.88
317.836	99.88
318.065	99.88
318.295	103.88
318.524	97.88
318.753	99.88
318.983	103.88
319.212	114.88
319.441	119.88
319.67	106.88
319.9	106.88
320.129	99.88
320.358	104.88
320.587	92.88
320.816	107.88
321.046	109.88
321.275	110.88
321.504	110.88
321.733	110.88
321.962	100.88
322.191	119.88
322.42	123.88
322.649	112.88
322.878	124.88
323.108	125.88
323.337	155.88
323.566	162.88
323.795	166.88
324.024	220.88
324.253	380.88
324.482	820.88
324.71	1654.88
324.939	2286.88
325.168	848.88
325.397	264.88
325.626	167.88
325.855	150.88
326.084	139.88
326.313	146.88
326.542	170.88
326.77	236.88
326.999	421.88
327.228	846.88
327.457	1582.88
327.686	1362.88
327.914	687.88
328.143	950.88
328.372	1336.88
328.6	702.88
328.829	259.88
329.058	234.88
329.287	254.88
329.515	265.88
329.744	428.88
329.972	927.88
330.201	2090.88
330.43	3090.88
330.658	1243.88
330.887	414.88
331.115	230.88
331.344	164.88
331.572	135.88
331.801	152.88
332.03	138.88
332.258	125.88
332.486	119.88
332.715	138.88
332.943	148.88
333.172	143.88
333.4	159.88
333.629	216.88
333.857	347.88
334.085	777.88
334.314	1809.88
334.542	3738.88
334.771	3483.88
334.999	848.88
335.227	272.88
335.455	178.88
335.684	145.88
335.912	132.88
336.14	128.88
336.369	126.88
336.597	123.88
336.825	133.88
337.053	107.88
337.281	112.88
337.51	97.88
337.738	98.88
337.966	104.88
338.194	115.88
338.422	114.88
338.65	107.88
338.878	107.88
339.106	106.88
339.334	110.88
339.562	87.88
339.79	100.88
340.018	110.88
340.246	98.88
340.474	110.88
340.702	103.88
340.93	105.88
341.158	93.88
341.386	104.88
341.614	108.88
341.842	112.88
342.07	90.88
342.298	112.88
342.526	88.88
342.754	88.88
342.981	102.88
343.209	85.88
343.437	105.88
343.665	86.88
343.893	107.88
344.12	83.88
344.348	103.88
344.576	101.88
344.804	104.88
345.031	107.88
345.259	132.88
345.487	114.88
345.714	109.88
345.942	101.88
346.17	99.88
346.397	99.88
346.625	96.88
346.853	93.88
347.08	99.88
347.308	100.88
347.535	112.88
347.763	120.88
347.99	103.88
348.218	106.88
348.445	115.88
348.673	105.88
348.9	107.88
349.128	100.88
349.355	90.88
349.583	93.88
349.81	103.88
350.037	101.88
350.265	99.88
350.492	96.88
350.72	94.88
350.947	106.88
351.174	127.88
351.402	107.88
351.629	107.88
351.856	96.88
352.083	113.88
352.311	105.88
352.538	129.88
352.765	139.88
352.992	120.88
353.22	117.88
353.447	100.88
353.674	106.88
353.901	101.88
354.128	96.88
354.355	102.88
354.583	86.88
354.81	98.88
355.037	93.88
355.264	101.88
355.491	88.88
355.718	88.88
355.945	95.88
356.172	106.88
356.399	101.88
356.626	92.88
356.853	94.88
357.08	86.88
357.307	98.88
357.534	96.88
357.761	79.88
357.988	101.88
358.215	104.88
358.441	108.88
358.668	97.88
358.895	94.88
359.122	93.88
359.349	96.88
359.576	89.88
359.802	115.88
360.029	147.88
360.256	134.88
360.483	112.88
360.709	91.88
360.936	99.88
361.163	82.88
361.39	95.88
361.616	98.88
361.843	98.88
362.07	109.88
362.296	105.88
362.523	98.88
362.749	94.88
362.976	101.88
363.203	108.88
363.429	108.88
363.656	101.88
363.882	95.88
364.109	110.88
364.335	114.88
364.562	100.88
364.788	101.88
365.015	121.88
365.241	100.88
365.468	124.88
365.694	116.88
365.92	107.88
366.147	101.88
366.373	84.88
366.599	96.88
366.826	101.88
367.052	107.88
367.278	95.88
367.505	90.88
367.731	103.88
367.957	94.88
368.184	107.88
368.41	106.88
368.636	117.88
368.862	130.88
369.089	115.88
369.315	87.88
369.541	114.88
369.767	111.88
369.993	96.88
370.219	112.88
370.445	90.88
370.672	95.88
370.898	97.88
371.124	89.88
371.35	104.88
371.576	86.88
371.802	95.88
372.028	100.88
372.254	96.88
372.48	97.88
372.706	108.88
372.932	98.88
373.158	99.88
373.384	104.88
373.61	82.88
373.835	108.88
374.061	96.88
374.287	108.88
374.513	86.88
374.739	87.88
374.965	105.88
375.191	82.88
375.416	103.88
375.642	100.88
375.868	96.88
376.094	92.88
376.319	87.88
376.545	103.88
376.771	90.88
376.997	97.88
377.222	103.88
377.448	88.88
377.674	104.88
377.899	89.88
378.125	91.88
378.35	101.88
378.576	106.88
378.802	101.88
379.027	99.88
379.253	100.88
379.478	102.88
379.704	97.88
379.929	97.88
380.155	94.88
380.38	92.88
380.606	98.88
380.831	98.88
381.057	100.88
381.282	104.88
381.507	102.88
381.733	103.88
381.958	90.88
382.184	104.88
382.409	108.88
382.634	106.88
382.86	98.88
383.085	111.88
383.31	114.88
383.535	112.88
383.761	117.88
383.986	100.88
384.211	114.88
384.436	105.88
384.662	111.88
384.887	116.88
385.112	118.88
385.337	110.88
385.562	103.88
385.787	119.88
386.013	113.88
386.238	135.88
386.463	130.88
386.688	125.88
386.913	116.88
387.138	125.88
387.363	134.88
387.588	115.88
387.813	108.88
388.038	137.88
388.263	114.88
388.488	122.88
388.713	97.88
388.938	102.88
389.163	90.88
389.387	100.88
389.612	113.88
389.837	78.88
390.062	107.88
390.287	90.88
390.512	98.88
390.736	88.88
390.961	92.88
391.186	94.88
391.411	98.88
391.636	97.88
391.86	86.88
392.085	88.88
392.31	97.88
392.534	94.88
392.759	96.88
392.984	76.88
393.208	83.88
393.433	100.88
393.658	96.88
393.882	88.88
394.107	90.88
394.331	74.88
394.556	87.88
394.78	96.88
395.005	95.88
395.229	90.88
395.454	82.88
395.678	94.88
395.903	103.88
396.127	86.88
396.352	96.88
396.576	90.88
396.801	89.88
397.025	83.88
397.249	62.88
397.474	81.88
397.698	92.88
397.922	91.88
398.147	95.88
398.371	84.88
398.595	84.88
398.82	75.88
399.044	80.88
399.268	89.88
399.492	95.88
399.717	89.88
399.941	92.88
400.165	98.88
400.389	98.88
400.613	100.88
400.837	75.88
401.062	96.88
401.286	103.88
401.51	88.88
401.734	103.88
401.958	112.88
402.182	147.88
402.406	202.88
402.63	144.88
402.854	95.88
403.078	82.88
403.302	81.88
403.526	98.88
403.75	90.88
403.974	83.88
404.198	95.88
404.422	93.88
404.645	103.88
404.869	95.88
405.093	112.88
405.317	168.88
405.541	159.88
405.765	131.88
405.988	143.88
406.212	226.88
406.436	300.88
406.66	219.88
406.883	126.88
407.107	104.88
407.331	99.88
407.555	122.88
407.778	116.88
408.002	96.88
408.226	94.88
408.449	95.88
408.673	94.88
408.896	107.88
409.12	104.88
409.344	97.88
409.567	96.88
409.791	90.88
410.014	96.88
410.238	91.88
410.461	98.88
410.685	96.88
410.908	100.88
411.132	111.88
411.355	99.88
411.578	110.88
411.802	100.88
412.025	100.88
412.249	120.88
412.472	126.88
412.695	158.88
412.919	115.88
413.142	99.88
413.365	104.88
413.589	98.88
413.812	94.88
414.035	91.88
414.258	110.88
414.482	94.88
414.705	97.88
414.928	97.88
415.151	100.88
415.374	104.88
415.597	95.88
415.821	96.88
416.044	99.88
416.267	99.88
416.49	96.88
416.713	100.88
416.936	103.88
417.159	116.88
417.382	119.88
417.605	146.88
417.828	142.88
418.051	107.88
418.274	108.88
418.497	105.88
418.72	102.88
418.943	100.88
419.166	103.88
419.389	106.88
419.611	96.88
419.834	98.88
420.057	94.88
420.28	98.88
420.503	104.88
420.726	92.88
420.948	97.88
421.171	121.88
421.394	106.88
421.617	99.88
421.839	99.88
422.062	99.88
422.285	99.88
422.507	100.88
422.73	129.88
422.953	98.88
423.175	88.88
423.398	88.88
423.621	88.88
423.843	93.88
424.066	87.88
424.288	87.88
424.511	106.88
424.733	109.88
424.956	119.88
425.178	116.88
425.401	118.88
425.623	110.88
425.846	105.88
426.068	103.88
426.291	95.88
426.513	98.88
426.735	101.88
426.958	110.88
427.18	128.88
427.402	172.88
427.625	280.88
427.847	257.88
428.069	230.88
428.292	167.88
428.514	114.88
428.736	103.88
428.958	98.88
429.181	90.88
429.403	79.88
429.625	97.88
429.847	98.88
430.069	111.88
430.292	103.88
430.514	85.88
430.736	88.88
430.958	84.88
431.18	91.88
431.402	82.88
431.624	94.88
431.846	85.88
432.068	97.88
432.29	88.88
432.512	92.88
432.734	96.88
432.956	103.88
433.178	100.88
433.4	97.88
433.622	92.88
433.844	78.88
434.066	95.88
434.287	106.88
434.509	83.88
434.731	87.88
434.953	94.88
435.175	85.88
435.397	102.88
435.618	100.88
435.84	106.88
436.062	119.88
436.284	130.88
436.505	98.88
436.727	98.88
436.949	93.88
437.17	95.88
437.392	90.88
437.614	101.88
437.835	127.88
438.057	142.88
438.278	131.88
438.5	120.88
438.721	142.88
438.943	98.88
439.165	98.88
439.386	101.88
439.608	95.88
439.829	117.88
440.05	148.88
440.272	198.88
440.493	119.88
440.715	93.88
440.936	88.88
441.158	87.88
441.379	89.88
441.6	110.88
441.822	110.88
442.043	91.88
442.264	114.88
442.486	96.88
442.707	95.88
442.928	116.88
443.149	176.88
443.371	175.88
443.592	141.88
443.813	128.88
444.034	127.88
444.255	102.88
444.476	84.88
444.698	97.88
444.919	86.88
445.14	132.88
445.361	126.88
445.582	134.88
445.803	170.88
446.024	166.88
446.245	156.88
446.466	126.88
446.687	86.88
446.908	90.88
447.129	84.88
447.35	102.88
447.571	88.88
447.792	102.88
448.013	105.88
448.234	121.88
448.455	103.88
448.675	132.88
448.896	142.88
449.117	120.88
449.338	111.88
449.559	150.88
449.779	136.88
450	91.88
450.221	87.88
450.442	95.88
450.662	94.88
450.883	130.88
451.104	158.88
451.324	104.88
451.545	107.88
451.766	73.88
451.986	94.88
452.207	89.88
452.428	88.88
452.648	113.88
452.869	131.88
453.089	137.88
453.31	155.88
453.53	114.88
453.751	116.88
453.971	98.88
454.192	128.88
454.412	99.88
454.633	79.88
454.853	98.88
455.073	107.88
455.294	87.88
455.514	118.88
455.734	108.88
455.955	88.88
456.175	90.88
456.395	83.88
456.616	98.88
456.836	92.88
457.056	98.88
457.276	90.88
457.497	93.88
457.717	106.88
457.937	88.88
458.157	97.88
458.377	96.88
458.598	141.88
458.818	202.88
459.038	222.88
459.258	151.88
459.478	105.88
459.698	101.88
459.918	94.88
460.138	91.88
460.358	80.88
460.578	88.88
460.798	89.88
461.018	82.88
461.238	75.88
461.458	92.88
461.678	105.88
461.898	83.88
462.118	79.88
462.338	91.88
462.558	103.88
462.777	115.88
462.997	126.88
463.217	140.88
463.437	127.88
463.657	98.88
463.876	103.88
464.096	111.88
464.316	103.88
464.536	99.88
464.755	119.88
464.975	130.88
465.195	235.88
465.414	251.88
465.634	110.88
465.854	102.88
466.073	95.88
466.293	102.88
466.512	94.88
466.732	107.88
466.951	107.88
467.171	117.88
467.391	144.88
467.61	187.88
467.829	356.88
468.049	1309.88
468.268	2076.88
468.488	436.88
468.707	146.88
468.927	107.88
469.146	101.88
469.365	104.88
469.585	106.88
469.804	126.88
470.023	114.88
470.243	118.88
470.462	131.88
470.681	142.88
470.901	119.88
471.12	98.88
471.339	130.88
471.558	157.88
471.777	230.88
471.997	544.88
472.216	2334.88
472.435	5527.88
472.654	1156.88
472.873	249.88
473.092	136.88
473.311	116.88
473.53	113.88
473.749	122.88
473.968	127.88
474.187	130.88
474.406	112.88
474.625	99.88
474.844	96.88
475.063	86.88
475.282	99.88
475.501	100.88
475.72	86.88
475.939	99.88
476.158	88.88
476.377	97.88
476.596	96.88
476.814	117.88
477.033	100.88
477.252	104.88
477.471	108.88
477.69	100.88
477.908	92.88
478.127	91.88
478.346	116.88
478.564	107.88
478.783	118.88
479.002	117.88
479.22	122.88
479.439	141.88
479.658	170.88
479.876	154.88
480.095	153.88
480.313	174.88
480.532	228.88
480.751	480.88
480.969	1962.88
481.188	8736.88
481.406	4935.88
481.624	641.88
481.843	210.88
482.061	142.88
482.28	122.88
482.498	113.88
482.717	124.88
482.935	104.88
483.153	103.88
483.372	100.88
483.59	87.88
483.808	90.88
484.027	107.88
484.245	105.88
484.463	88.88
484.681	100.88
484.9	98.88
485.118	92.88
485.336	114.88
485.554	100.88
485.772	108.88
485.99	116.88
486.209	125.88
486.427	116.88
486.645	136.88
486.863	138.88
487.081	109.88
487.299	100.88
487.517	120.88
487.735	92.88
487.953	98.88
488.171	108.88
488.389	100.88
488.607	111.88
488.825	90.88
489.043	93.88
489.261	92.88
489.479	92.88
489.696	85.88
489.914	102.88
490.132	90.88
490.35	96.88
490.568	99.88
490.786	107.88
491.003	103.88
491.221	103.88
491.439	117.88
491.657	96.88
491.874	100.88
492.092	116.88
492.31	105.88
492.527	132.88
492.745	108.88
492.963	105.88
493.18	100.88
493.398	104.88
493.615	102.88
493.833	96.88
494.05	90.88
494.268	87.88
494.485	97.88
494.703	89.88
494.92	98.88
495.138	86.88
495.355	93.88
495.573	97.88
495.79	99.88
496.008	96.88
496.225	96.88
496.442	103.88
496.66	91.88
496.877	96.88
497.094	102.88
497.312	98.88
497.529	100.88
497.746	87.88
497.963	88.88
498.181	96.88
498.398	102.88
498.615	125.88
498.832	112.88
499.049	104.88
499.267	98.88
499.484	96.88
499.701	102.88
499.918	103.88
500.135	106.88
500.352	101.88
500.569	113.88
500.786	105.88
501.003	87.88
501.22	93.88
501.437	92.88
501.654	98.88
501.871	126.88
502.088	111.88
502.305	89.88
502.522	99.88
502.739	96.88
502.956	107.88
503.172	98.88
503.389	117.88
503.606	135.88
503.823	111.88
504.04	101.88
504.256	100.88
504.473	93.88
504.69	89.88
504.907	90.88
505.123	111.88
505.34	116.88
505.557	92.88
505.773	96.88
505.99	81.88
506.207	87.88
506.423	90.88
506.64	106.88
506.856	91.88
507.073	96.88
507.289	109.88
507.506	113.88
507.722	134.88
507.939	140.88
508.155	108.88
508.372	95.88
508.588	103.88
508.805	116.88
509.021	111.88
509.238	98.88
509.454	94.88
509.67	97.88
509.887	127.88
510.103	135.88
510.319	239.88
