Data from Circ_1988_H10_HRD10591_00009.txt Node
Date: Wed Jan 03 12:05:36 EST 2024
User: Yrep
Spectrometer: HR+D1059
Trigger mode: 1
Integration Time (sec): 1.000000E-1
Scans to average: 1
Electric dark correction enabled: true
Nonlinearity correction enabled: false
Boxcar width: 0
XAxis mode: Wavelengths
Number of Pixels in Spectrum: 2048
>>>>>Begin Spectral Data<<<<<
223.165	-7.5
223.4	-7.5
223.635	-7.5
223.869	-24.5
224.104	-13.5
224.338	-6.5
224.573	-15.5
224.808	-12.5
225.042	-14.5
225.277	-2.5
225.511	2.5
225.746	1.5
225.98	1.5
226.215	-1.5
226.449	22.5
226.683	21.5
226.918	25.5
227.152	23.5
227.387	35.5
227.621	48.5
227.856	39.5
228.09	42.5
228.324	68.5
228.559	72.5
228.793	63.5
229.027	65.5
229.262	70.5
229.496	91.5
229.73	102.5
229.964	104.5
230.199	97.5
230.433	86.5
230.667	71.5
230.901	89.5
231.136	82.5
231.37	71.5
231.604	94.5
231.838	96.5
232.072	81.5
232.306	85.5
232.541	88.5
232.775	86.5
233.009	90.5
233.243	89.5
233.477	89.5
233.711	76.5
233.945	88.5
234.179	89.5
234.413	86.5
234.647	85.5
234.881	87.5
235.115	87.5
235.349	79.5
235.583	93.5
235.817	81.5
236.051	95.5
236.285	80.5
236.519	83.5
236.753	80.5
236.987	85.5
237.221	82.5
237.455	78.5
237.689	87.5
237.922	84.5
238.156	85.5
238.39	83.5
238.624	91.5
238.858	76.5
239.091	75.5
239.325	81.5
239.559	96.5
239.793	82.5
240.027	98.5
240.26	98.5
240.494	102.5
240.728	89.5
240.961	96.5
241.195	85.5
241.429	84.5
241.662	79.5
241.896	79.5
242.13	67.5
242.363	84.5
242.597	75.5
242.83	84.5
243.064	78.5
243.298	105.5
243.531	86.5
243.765	87.5
243.998	97.5
244.232	91.5
244.465	87.5
244.699	72.5
244.932	74.5
245.166	87.5
245.399	94.5
245.633	90.5
245.866	83.5
246.099	70.5
246.333	70.5
246.566	93.5
246.8	84.5
247.033	79.5
247.266	89.5
247.5	82.5
247.733	82.5
247.966	84.5
248.2	93.5
248.433	99.5
248.666	103.5
248.899	90.5
249.133	105.5
249.366	91.5
249.599	120.5
249.832	93.5
250.066	81.5
250.299	92.5
250.532	96.5
250.765	90.5
250.998	82.5
251.231	97.5
251.465	81.5
251.698	84.5
251.931	94.5
252.164	82.5
252.397	75.5
252.63	84.5
252.863	80.5
253.096	96.5
253.329	91.5
253.562	78.5
253.795	86.5
254.028	82.5
254.261	89.5
254.494	88.5
254.727	96.5
254.96	92.5
255.193	94.5
255.426	88.5
255.659	90.5
255.892	94.5
256.124	92.5
256.357	106.5
256.59	82.5
256.823	87.5
257.056	101.5
257.289	107.5
257.521	92.5
257.754	85.5
257.987	118.5
258.22	127.5
258.452	119.5
258.685	129.5
258.918	96.5
259.151	87.5
259.383	98.5
259.616	87.5
259.849	89.5
260.081	94.5
260.314	99.5
260.547	104.5
260.779	128.5
261.012	164.5
261.244	168.5
261.477	123.5
261.71	115.5
261.942	151.5
262.175	147.5
262.407	100.5
262.64	88.5
262.872	83.5
263.105	90.5
263.337	81.5
263.57	79.5
263.802	88.5
264.035	96.5
264.267	84.5
264.499	83.5
264.732	75.5
264.964	86.5
265.197	88.5
265.429	98.5
265.661	96.5
265.894	99.5
266.126	83.5
266.358	85.5
266.591	90.5
266.823	99.5
267.055	87.5
267.287	88.5
267.52	86.5
267.752	96.5
267.984	86.5
268.216	98.5
268.448	104.5
268.681	100.5
268.913	102.5
269.145	88.5
269.377	88.5
269.609	79.5
269.841	85.5
270.073	87.5
270.306	101.5
270.538	78.5
270.77	86.5
271.002	100.5
271.234	94.5
271.466	112.5
271.698	91.5
271.93	98.5
272.162	102.5
272.394	109.5
272.626	79.5
272.858	98.5
273.09	97.5
273.322	97.5
273.553	99.5
273.785	79.5
274.017	95.5
274.249	94.5
274.481	99.5
274.713	91.5
274.945	98.5
275.176	108.5
275.408	126.5
275.64	167.5
275.872	188.5
276.104	139.5
276.335	135.5
276.567	155.5
276.799	190.5
277.031	296.5
277.262	420.5
277.494	287.5
277.726	127.5
277.957	104.5
278.189	94.5
278.421	103.5
278.652	105.5
278.884	104.5
279.115	110.5
279.347	99.5
279.579	143.5
279.81	226.5
280.042	411.5
280.273	608.5
280.505	354.5
280.736	170.5
280.968	117.5
281.199	112.5
281.431	98.5
281.662	87.5
281.894	104.5
282.125	112.5
282.356	143.5
282.588	194.5
282.819	158.5
283.051	109.5
283.282	88.5
283.513	102.5
283.745	85.5
283.976	95.5
284.207	95.5
284.439	95.5
284.67	74.5
284.901	105.5
285.132	85.5
285.364	92.5
285.595	90.5
285.826	98.5
286.057	99.5
286.288	75.5
286.52	85.5
286.751	97.5
286.982	104.5
287.213	101.5
287.444	97.5
287.675	90.5
287.906	106.5
288.138	96.5
288.369	104.5
288.6	106.5
288.831	98.5
289.062	84.5
289.293	83.5
289.524	96.5
289.755	90.5
289.986	96.5
290.217	95.5
290.448	86.5
290.679	98.5
290.91	84.5
291.141	105.5
291.371	88.5
291.602	103.5
291.833	70.5
292.064	99.5
292.295	101.5
292.526	95.5
292.757	100.5
292.987	95.5
293.218	96.5
293.449	98.5
293.68	92.5
293.91	80.5
294.141	105.5
294.372	101.5
294.603	104.5
294.833	99.5
295.064	90.5
295.295	96.5
295.525	87.5
295.756	116.5
295.987	139.5
296.217	172.5
296.448	147.5
296.679	104.5
296.909	100.5
297.14	95.5
297.37	95.5
297.601	94.5
297.831	89.5
298.062	94.5
298.292	83.5
298.523	94.5
298.753	86.5
298.984	90.5
299.214	100.5
299.445	100.5
299.675	92.5
299.905	79.5
300.136	97.5
300.366	98.5
300.597	99.5
300.827	108.5
301.057	111.5
301.288	111.5
301.518	116.5
301.748	126.5
301.979	137.5
302.209	120.5
302.439	100.5
302.669	101.5
302.9	102.5
303.13	107.5
303.36	136.5
303.59	189.5
303.82	225.5
304.051	121.5
304.281	105.5
304.511	100.5
304.741	89.5
304.971	100.5
305.201	106.5
305.431	99.5
305.661	110.5
305.891	96.5
306.121	118.5
306.352	130.5
306.582	122.5
306.812	126.5
307.042	176.5
307.272	289.5
307.502	336.5
307.731	278.5
307.961	194.5
308.191	115.5
308.421	97.5
308.651	102.5
308.881	86.5
309.111	98.5
309.341	116.5
309.571	97.5
309.8	106.5
310.03	104.5
310.26	106.5
310.49	100.5
310.72	114.5
310.949	115.5
311.179	109.5
311.409	107.5
311.639	101.5
311.868	109.5
312.098	99.5
312.328	108.5
312.557	137.5
312.787	135.5
313.017	121.5
313.246	109.5
313.476	103.5
313.706	88.5
313.935	99.5
314.165	128.5
314.394	116.5
314.624	117.5
314.853	115.5
315.083	98.5
315.312	96.5
315.542	86.5
315.771	88.5
316.001	100.5
316.23	87.5
316.46	95.5
316.689	103.5
316.919	120.5
317.148	121.5
317.377	100.5
317.607	112.5
317.836	92.5
318.065	81.5
318.295	91.5
318.524	106.5
318.753	96.5
318.983	110.5
319.212	112.5
319.441	116.5
319.67	138.5
319.9	107.5
320.129	98.5
320.358	105.5
320.587	100.5
320.816	120.5
321.046	99.5
321.275	104.5
321.504	104.5
321.733	113.5
321.962	102.5
322.191	102.5
322.42	125.5
322.649	117.5
322.878	132.5
323.108	130.5
323.337	149.5
323.566	152.5
323.795	199.5
324.024	237.5
324.253	467.5
324.482	964.5
324.71	1976.5
324.939	2686.5
325.168	1003.5
325.397	313.5
325.626	175.5
325.855	163.5
326.084	162.5
326.313	153.5
326.542	186.5
326.77	270.5
326.999	490.5
327.228	997.5
327.457	1802.5
327.686	1568.5
327.914	773.5
328.143	1010.5
328.372	1506.5
328.6	745.5
328.829	276.5
329.058	247.5
329.287	249.5
329.515	258.5
329.744	453.5
329.972	1001.5
330.201	2258.5
330.43	3433.5
330.658	1334.5
330.887	442.5
331.115	256.5
331.344	158.5
331.572	144.5
331.801	154.5
332.03	147.5
332.258	135.5
332.486	126.5
332.715	133.5
332.943	137.5
333.172	169.5
333.4	177.5
333.629	238.5
333.857	378.5
334.085	837.5
334.314	1935.5
334.542	4013.5
334.771	3766.5
334.999	894.5
335.227	275.5
335.455	185.5
335.684	146.5
335.912	133.5
336.14	135.5
336.369	144.5
336.597	134.5
336.825	126.5
337.053	110.5
337.281	109.5
337.51	104.5
337.738	90.5
337.966	113.5
338.194	116.5
338.422	97.5
338.65	104.5
338.878	106.5
339.106	95.5
339.334	95.5
339.562	102.5
339.79	90.5
340.018	95.5
340.246	108.5
340.474	110.5
340.702	92.5
340.93	100.5
341.158	97.5
341.386	105.5
341.614	115.5
341.842	92.5
342.07	100.5
342.298	106.5
342.526	114.5
342.754	103.5
342.981	105.5
343.209	85.5
343.437	109.5
343.665	102.5
343.893	92.5
344.12	95.5
344.348	104.5
344.576	94.5
344.804	96.5
345.031	111.5
345.259	115.5
345.487	101.5
345.714	97.5
345.942	84.5
346.17	82.5
346.397	101.5
346.625	102.5
346.853	103.5
347.08	95.5
347.308	116.5
347.535	114.5
347.763	108.5
347.99	94.5
348.218	129.5
348.445	128.5
348.673	117.5
348.9	118.5
349.128	110.5
349.355	109.5
349.583	108.5
349.81	95.5
350.037	95.5
350.265	91.5
350.492	94.5
350.72	116.5
350.947	112.5
351.174	127.5
351.402	145.5
351.629	133.5
351.856	117.5
352.083	121.5
352.311	129.5
352.538	144.5
352.765	122.5
352.992	142.5
353.22	127.5
353.447	123.5
353.674	115.5
353.901	96.5
354.128	103.5
354.355	107.5
354.583	110.5
354.81	106.5
355.037	106.5
355.264	95.5
355.491	98.5
355.718	98.5
355.945	108.5
356.172	101.5
356.399	102.5
356.626	98.5
356.853	102.5
357.08	81.5
357.307	106.5
357.534	110.5
357.761	115.5
357.988	103.5
358.215	122.5
358.441	110.5
358.668	115.5
358.895	129.5
359.122	98.5
359.349	103.5
359.576	121.5
359.802	129.5
360.029	144.5
360.256	160.5
360.483	128.5
360.709	82.5
360.936	98.5
361.163	96.5
361.39	115.5
361.616	111.5
361.843	111.5
362.07	115.5
362.296	100.5
362.523	99.5
362.749	100.5
362.976	101.5
363.203	108.5
363.429	115.5
363.656	104.5
363.882	100.5
364.109	102.5
364.335	83.5
364.562	112.5
364.788	106.5
365.015	100.5
365.241	123.5
365.468	111.5
365.694	136.5
365.92	113.5
366.147	103.5
366.373	112.5
366.599	94.5
366.826	93.5
367.052	96.5
367.278	99.5
367.505	104.5
367.731	99.5
367.957	98.5
368.184	87.5
368.41	129.5
368.636	133.5
368.862	134.5
369.089	124.5
369.315	120.5
369.541	101.5
369.767	93.5
369.993	107.5
370.219	118.5
370.445	102.5
370.672	100.5
370.898	89.5
371.124	92.5
371.35	106.5
371.576	91.5
371.802	105.5
372.028	90.5
372.254	84.5
372.48	91.5
372.706	89.5
372.932	94.5
373.158	90.5
373.384	112.5
373.61	96.5
373.835	107.5
374.061	103.5
374.287	107.5
374.513	103.5
374.739	102.5
374.965	103.5
375.191	92.5
375.416	93.5
375.642	91.5
375.868	105.5
376.094	101.5
376.319	99.5
376.545	108.5
376.771	97.5
376.997	96.5
377.222	97.5
377.448	89.5
377.674	98.5
377.899	103.5
378.125	118.5
378.35	107.5
378.576	123.5
378.802	107.5
379.027	104.5
379.253	127.5
379.478	120.5
379.704	112.5
379.929	108.5
380.155	111.5
380.38	116.5
380.606	121.5
380.831	123.5
381.057	121.5
381.282	110.5
381.507	113.5
381.733	131.5
381.958	130.5
382.184	111.5
382.409	142.5
382.634	125.5
382.86	145.5
383.085	120.5
383.31	139.5
383.535	139.5
383.761	145.5
383.986	133.5
384.211	132.5
384.436	155.5
384.662	164.5
384.887	149.5
385.112	168.5
385.337	187.5
385.562	178.5
385.787	150.5
386.013	183.5
386.238	187.5
386.463	152.5
386.688	155.5
386.913	161.5
387.138	171.5
387.363	161.5
387.588	119.5
387.813	131.5
388.038	160.5
388.263	202.5
388.488	191.5
388.713	120.5
388.938	92.5
389.163	102.5
389.387	95.5
389.612	105.5
389.837	74.5
390.062	86.5
390.287	100.5
390.512	90.5
390.736	90.5
390.961	92.5
391.186	83.5
391.411	101.5
391.636	99.5
391.86	73.5
392.085	89.5
392.31	95.5
392.534	98.5
392.759	103.5
392.984	104.5
393.208	120.5
393.433	151.5
393.658	143.5
393.882	100.5
394.107	94.5
394.331	88.5
394.556	87.5
394.78	111.5
395.005	97.5
395.229	90.5
395.454	90.5
395.678	91.5
395.903	92.5
396.127	107.5
396.352	98.5
396.576	89.5
396.801	121.5
397.025	133.5
397.249	91.5
397.474	100.5
397.698	93.5
397.922	91.5
398.147	95.5
398.371	98.5
398.595	87.5
398.82	94.5
399.044	88.5
399.268	96.5
399.492	98.5
399.717	91.5
399.941	106.5
400.165	84.5
400.389	98.5
400.613	96.5
400.837	92.5
401.062	96.5
401.286	107.5
401.51	104.5
401.734	95.5
401.958	112.5
402.182	170.5
402.406	232.5
402.63	180.5
402.854	116.5
403.078	102.5
403.302	101.5
403.526	97.5
403.75	85.5
403.974	86.5
404.198	86.5
404.422	94.5
404.645	94.5
404.869	111.5
405.093	144.5
405.317	170.5
405.541	163.5
405.765	138.5
405.988	149.5
406.212	234.5
406.436	325.5
406.66	219.5
406.883	146.5
407.107	122.5
407.331	115.5
407.555	111.5
407.778	121.5
408.002	106.5
408.226	88.5
408.449	96.5
408.673	89.5
408.896	104.5
409.12	96.5
409.344	92.5
409.567	95.5
409.791	88.5
410.014	108.5
410.238	103.5
410.461	91.5
410.685	94.5
410.908	107.5
411.132	97.5
411.355	119.5
411.578	101.5
411.802	101.5
412.025	98.5
412.249	102.5
412.472	147.5
412.695	171.5
412.919	122.5
413.142	121.5
413.365	92.5
413.589	95.5
413.812	100.5
414.035	89.5
414.258	109.5
414.482	112.5
414.705	128.5
414.928	96.5
415.151	104.5
415.374	103.5
415.597	99.5
415.821	102.5
416.044	114.5
416.267	99.5
416.49	119.5
416.713	106.5
416.936	99.5
417.159	93.5
417.382	127.5
417.605	164.5
417.828	154.5
418.051	128.5
418.274	118.5
418.497	87.5
418.72	103.5
418.943	94.5
419.166	89.5
419.389	94.5
419.611	106.5
419.834	107.5
420.057	108.5
420.28	108.5
420.503	86.5
420.726	102.5
420.948	108.5
421.171	107.5
421.394	119.5
421.617	94.5
421.839	96.5
422.062	98.5
422.285	95.5
422.507	103.5
422.73	140.5
422.953	101.5
423.175	92.5
423.398	98.5
423.621	106.5
423.843	98.5
424.066	100.5
424.288	94.5
424.511	90.5
424.733	98.5
424.956	114.5
425.178	94.5
425.401	105.5
425.623	105.5
425.846	117.5
426.068	105.5
426.291	100.5
426.513	109.5
426.735	111.5
426.958	102.5
427.18	144.5
427.402	183.5
427.625	278.5
427.847	271.5
428.069	239.5
428.292	154.5
428.514	114.5
428.736	108.5
428.958	88.5
429.181	107.5
429.403	96.5
429.625	84.5
429.847	101.5
430.069	108.5
430.292	96.5
430.514	82.5
430.736	95.5
430.958	90.5
431.18	84.5
431.402	83.5
431.624	83.5
431.846	100.5
432.068	91.5
432.29	90.5
432.512	99.5
432.734	92.5
432.956	100.5
433.178	114.5
433.4	102.5
433.622	85.5
433.844	103.5
434.066	92.5
434.287	95.5
434.509	88.5
434.731	108.5
434.953	115.5
435.175	100.5
435.397	98.5
435.618	97.5
435.84	99.5
436.062	129.5
436.284	120.5
436.505	118.5
436.727	111.5
436.949	98.5
437.17	96.5
437.392	85.5
437.614	108.5
437.835	134.5
438.057	138.5
438.278	131.5
438.5	100.5
438.721	132.5
438.943	99.5
439.165	118.5
439.386	100.5
439.608	96.5
439.829	117.5
440.05	154.5
440.272	199.5
440.493	98.5
440.715	92.5
440.936	95.5
441.158	97.5
441.379	103.5
441.6	108.5
441.822	116.5
442.043	93.5
442.264	118.5
442.486	121.5
442.707	84.5
442.928	135.5
443.149	191.5
443.371	190.5
443.592	139.5
443.813	137.5
444.034	122.5
444.255	97.5
444.476	90.5
444.698	82.5
444.919	83.5
445.14	146.5
445.361	133.5
445.582	162.5
445.803	166.5
446.024	176.5
446.245	159.5
446.466	151.5
446.687	98.5
446.908	94.5
447.129	94.5
447.35	106.5
447.571	88.5
447.792	117.5
448.013	103.5
448.234	118.5
448.455	129.5
448.675	148.5
448.896	137.5
449.117	108.5
449.338	114.5
449.559	138.5
449.779	143.5
450	109.5
450.221	94.5
450.442	88.5
450.662	99.5
450.883	133.5
451.104	153.5
451.324	108.5
451.545	88.5
451.766	98.5
451.986	102.5
452.207	110.5
452.428	103.5
452.648	114.5
452.869	133.5
453.089	124.5
453.31	160.5
453.53	115.5
453.751	104.5
453.971	120.5
454.192	131.5
454.412	110.5
454.633	94.5
454.853	82.5
455.073	99.5
455.294	101.5
455.514	122.5
455.734	106.5
455.955	98.5
456.175	99.5
456.395	109.5
456.616	98.5
456.836	99.5
457.056	100.5
457.276	100.5
457.497	87.5
457.717	83.5
457.937	93.5
458.157	97.5
458.377	99.5
458.598	139.5
458.818	219.5
459.038	259.5
459.258	160.5
459.478	100.5
459.698	91.5
459.918	91.5
460.138	100.5
460.358	103.5
460.578	92.5
460.798	94.5
461.018	95.5
461.238	99.5
461.458	81.5
461.678	95.5
461.898	99.5
462.118	107.5
462.338	79.5
462.558	98.5
462.777	95.5
462.997	128.5
463.217	160.5
463.437	121.5
463.657	102.5
463.876	92.5
464.096	95.5
464.316	99.5
464.536	105.5
464.755	99.5
464.975	137.5
465.195	243.5
465.414	258.5
465.634	121.5
465.854	112.5
466.073	94.5
466.293	92.5
466.512	102.5
466.732	112.5
466.951	108.5
467.171	124.5
467.391	150.5
467.61	200.5
467.829	411.5
468.049	1452.5
468.268	2324.5
468.488	471.5
468.707	168.5
468.927	126.5
469.146	110.5
469.365	96.5
469.585	98.5
469.804	124.5
470.023	119.5
470.243	114.5
470.462	140.5
470.681	160.5
470.901	133.5
471.12	117.5
471.339	135.5
471.558	162.5
471.777	254.5
471.997	589.5
472.216	2579.5
472.435	6216.5
472.654	1264.5
472.873	289.5
473.092	146.5
473.311	116.5
473.53	108.5
473.749	98.5
473.968	107.5
474.187	136.5
474.406	114.5
474.625	109.5
474.844	97.5
475.063	92.5
475.282	96.5
475.501	91.5
475.72	82.5
475.939	108.5
476.158	83.5
476.377	102.5
476.596	103.5
476.814	100.5
477.033	119.5
477.252	104.5
477.471	96.5
477.69	116.5
477.908	103.5
478.127	115.5
478.346	118.5
478.564	118.5
478.783	120.5
479.002	134.5
479.22	124.5
479.439	137.5
479.658	156.5
479.876	155.5
480.095	160.5
480.313	206.5
480.532	265.5
480.751	528.5
480.969	2156.5
481.188	9769.5
481.406	5487.5
481.624	707.5
481.843	221.5
482.061	151.5
482.28	150.5
482.498	128.5
482.717	125.5
482.935	116.5
483.153	98.5
483.372	96.5
483.59	108.5
483.808	98.5
484.027	91.5
484.245	105.5
484.463	100.5
484.681	102.5
484.9	101.5
485.118	104.5
485.336	105.5
485.554	109.5
485.772	106.5
485.99	110.5
486.209	126.5
486.427	125.5
486.645	128.5
486.863	152.5
487.081	119.5
487.299	112.5
487.517	105.5
487.735	108.5
487.953	84.5
488.171	107.5
488.389	110.5
488.607	123.5
488.825	91.5
489.043	84.5
489.261	106.5
489.479	91.5
489.696	103.5
489.914	87.5
490.132	86.5
490.35	83.5
490.568	79.5
490.786	91.5
491.003	98.5
491.221	109.5
491.439	114.5
491.657	105.5
491.874	103.5
492.092	94.5
492.31	100.5
492.527	113.5
492.745	109.5
492.963	93.5
493.18	106.5
493.398	110.5
493.615	91.5
493.833	99.5
494.05	79.5
494.268	99.5
494.485	112.5
494.703	83.5
494.92	107.5
495.138	107.5
495.355	90.5
495.573	105.5
495.79	104.5
496.008	104.5
496.225	103.5
496.442	88.5
496.66	103.5
496.877	107.5
497.094	83.5
497.312	94.5
497.529	105.5
497.746	96.5
497.963	94.5
498.181	99.5
498.398	116.5
498.615	126.5
498.832	121.5
499.049	103.5
499.267	111.5
499.484	111.5
499.701	100.5
499.918	84.5
500.135	79.5
500.352	107.5
500.569	100.5
500.786	110.5
501.003	105.5
501.22	87.5
501.437	105.5
501.654	110.5
501.871	143.5
502.088	86.5
502.305	82.5
502.522	98.5
502.739	98.5
502.956	102.5
503.172	104.5
503.389	116.5
503.606	131.5
503.823	118.5
504.04	98.5
504.256	111.5
504.473	100.5
504.69	97.5
504.907	98.5
505.123	85.5
505.34	98.5
505.557	102.5
505.773	96.5
505.99	93.5
506.207	111.5
506.423	92.5
506.64	92.5
506.856	100.5
507.073	99.5
507.289	116.5
507.506	122.5
507.722	142.5
507.939	159.5
508.155	117.5
508.372	101.5
508.588	100.5
508.805	91.5
509.021	117.5
509.238	111.5
509.454	108.5
509.67	124.5
509.887	122.5
510.103	144.5
510.319	260.5
510.536	1032.5
510.752	3699.5
510.968	964.5
511.184	209.5
511.401	147.5
511.617	119.5
511.833	119.5
512.049	111.5
512.265	98.5
512.481	104.5
512.698	112.5
512.914	101.5
513.13	91.5
513.346	103.5
513.562	102.5
513.778	116.5
513.994	106.5
514.21	140.5
514.426	159.5
514.642	204.5
514.858	176.5
515.074	236.5
515.29	776.5
515.506	2831.5
515.721	979.5
515.937	231.5
516.153	139.5
516.369	122.5
516.585	119.5
516.801	137.5
517.016	123.5
517.232	119.5
517.448	95.5
517.664	112.5
517.879	116.5
518.095	96.5
518.311	135.5
518.527	160.5
518.742	97.5
518.958	89.5
519.173	109.5
519.389	103.5
519.605	108.5
519.82	106.5
520.036	117.5
520.251	145.5
520.467	151.5
520.682	132.5
520.898	126.5
521.113	132.5
521.329	184.5
521.544	332.5
521.76	1060.5
521.975	4894.5
522.19	2851.5
522.406	562.5
522.621	203.5
522.836	115.5
523.052	132.5
523.267	115.5
523.482	108.5
523.698	127.5
523.913	161.5
524.128	112.5
524.343	108.5
524.559	102.5
524.774	112.5
524.989	100.5
525.204	136.5
525.419	103.5
525.634	97.5
525.849	93.5
526.064	96.5
526.28	92.5
526.495	89.5
526.71	88.5
526.925	95.5
527.14	91.5
527.355	94.5
527.57	104.5
527.785	100.5
527.999	82.5
