Data from Uncirc_1980_H10_HRD10591_00052.txt Node
Date: Wed Jan 03 12:37:05 EST 2024
User: Yrep
Spectrometer: HR+D1059
Trigger mode: 1
Integration Time (sec): 1.000000E-1
Scans to average: 1
Electric dark correction enabled: true
Nonlinearity correction enabled: false
Boxcar width: 0
XAxis mode: Wavelengths
Number of Pixels in Spectrum: 2048
>>>>>Begin Spectral Data<<<<<
223.165	-17.88
223.4	-17.88
223.635	-17.88
223.869	-27.88
224.104	-17.88
224.338	-20.88
224.573	-9.88
224.808	-16.88
225.042	-5.88
225.277	2.12
225.511	2.12
225.746	9.12
225.98	-5.88
226.215	-1.88
226.449	27.12
226.683	20.12
226.918	26.12
227.152	38.12
227.387	40.12
227.621	37.12
227.856	41.12
228.09	48.12
228.324	57.12
228.559	73.12
228.793	58.12
229.027	52.12
229.262	56.12
229.496	69.12
229.73	74.12
229.964	86.12
230.199	72.12
230.433	75.12
230.667	62.12
230.901	83.12
231.136	64.12
231.37	65.12
231.604	72.12
231.838	63.12
232.072	74.12
232.306	87.12
232.541	70.12
232.775	96.12
233.009	74.12
233.243	90.12
233.477	76.12
233.711	88.12
233.945	70.12
234.179	76.12
234.413	65.12
234.647	67.12
234.881	83.12
235.115	91.12
235.349	88.12
235.583	77.12
235.817	67.12
236.051	94.12
236.285	80.12
236.519	65.12
236.753	93.12
236.987	75.12
237.221	75.12
237.455	78.12
237.689	78.12
237.922	80.12
238.156	78.12
238.39	75.12
238.624	82.12
238.858	84.12
239.091	68.12
239.325	75.12
239.559	75.12
239.793	87.12
240.027	74.12
240.26	62.12
240.494	82.12
240.728	75.12
240.961	84.12
241.195	82.12
241.429	86.12
241.662	77.12
241.896	77.12
242.13	70.12
242.363	68.12
242.597	81.12
242.83	72.12
243.064	78.12
243.298	72.12
243.531	84.12
243.765	70.12
243.998	83.12
244.232	69.12
244.465	93.12
244.699	76.12
244.932	81.12
245.166	75.12
245.399	73.12
245.633	77.12
245.866	68.12
246.099	80.12
246.333	76.12
246.566	73.12
246.8	69.12
247.033	85.12
247.266	78.12
247.5	84.12
247.733	82.12
247.966	76.12
248.2	88.12
248.433	82.12
248.666	60.12
248.899	79.12
249.133	86.12
249.366	97.12
249.599	105.12
249.832	83.12
250.066	92.12
250.299	78.12
250.532	82.12
250.765	82.12
250.998	81.12
251.231	72.12
251.465	87.12
251.698	80.12
251.931	70.12
252.164	81.12
252.397	84.12
252.63	89.12
252.863	65.12
253.096	66.12
253.329	74.12
253.562	75.12
253.795	81.12
254.028	80.12
254.261	87.12
254.494	76.12
254.727	65.12
254.96	83.12
255.193	76.12
255.426	73.12
255.659	75.12
255.892	87.12
256.124	65.12
256.357	78.12
256.59	105.12
256.823	69.12
257.056	64.12
257.289	65.12
257.521	99.12
257.754	91.12
257.987	90.12
258.22	87.12
258.452	78.12
258.685	85.12
258.918	73.12
259.151	83.12
259.383	88.12
259.616	81.12
259.849	82.12
260.081	75.12
260.314	101.12
260.547	97.12
260.779	78.12
261.012	84.12
261.244	75.12
261.477	81.12
261.71	84.12
261.942	97.12
262.175	100.12
262.407	82.12
262.64	78.12
262.872	75.12
263.105	100.12
263.337	93.12
263.57	84.12
263.802	99.12
264.035	71.12
264.267	80.12
264.499	97.12
264.732	82.12
264.964	82.12
265.197	80.12
265.429	76.12
265.661	74.12
265.894	92.12
266.126	69.12
266.358	92.12
266.591	78.12
266.823	85.12
267.055	77.12
267.287	82.12
267.52	86.12
267.752	72.12
267.984	95.12
268.216	81.12
268.448	89.12
268.681	70.12
268.913	97.12
269.145	68.12
269.377	87.12
269.609	82.12
269.841	81.12
270.073	90.12
270.306	73.12
270.538	92.12
270.77	75.12
271.002	76.12
271.234	64.12
271.466	72.12
271.698	76.12
271.93	90.12
272.162	83.12
272.394	85.12
272.626	71.12
272.858	91.12
273.09	73.12
273.322	77.12
273.553	86.12
273.785	86.12
274.017	80.12
274.249	84.12
274.481	74.12
274.713	88.12
274.945	91.12
275.176	89.12
275.408	88.12
275.64	75.12
275.872	90.12
276.104	77.12
276.335	89.12
276.567	85.12
276.799	101.12
277.031	92.12
277.262	90.12
277.494	85.12
277.726	85.12
277.957	91.12
278.189	81.12
278.421	83.12
278.652	81.12
278.884	83.12
279.115	83.12
279.347	85.12
279.579	69.12
279.81	90.12
280.042	76.12
280.273	90.12
280.505	79.12
280.736	94.12
280.968	85.12
281.199	84.12
281.431	80.12
281.662	94.12
281.894	93.12
282.125	94.12
282.356	90.12
282.588	119.12
282.819	101.12
283.051	101.12
283.282	93.12
283.513	83.12
283.745	77.12
283.976	93.12
284.207	85.12
284.439	92.12
284.67	89.12
284.901	91.12
285.132	74.12
285.364	77.12
285.595	93.12
285.826	88.12
286.057	85.12
286.288	84.12
286.52	95.12
286.751	87.12
286.982	85.12
287.213	86.12
287.444	78.12
287.675	92.12
287.906	76.12
288.138	84.12
288.369	85.12
288.6	88.12
288.831	89.12
289.062	77.12
289.293	82.12
289.524	92.12
289.755	88.12
289.986	82.12
290.217	84.12
290.448	81.12
290.679	79.12
290.91	95.12
291.141	84.12
291.371	86.12
291.602	101.12
291.833	104.12
292.064	91.12
292.295	92.12
292.526	77.12
292.757	91.12
292.987	85.12
293.218	96.12
293.449	77.12
293.68	82.12
293.91	86.12
294.141	80.12
294.372	93.12
294.603	81.12
294.833	94.12
295.064	88.12
295.295	90.12
295.525	101.12
295.756	83.12
295.987	112.12
296.217	127.12
296.448	131.12
296.679	92.12
296.909	96.12
297.14	85.12
297.37	87.12
297.601	73.12
297.831	77.12
298.062	93.12
298.292	105.12
298.523	99.12
298.753	82.12
298.984	88.12
299.214	94.12
299.445	93.12
299.675	98.12
299.905	81.12
300.136	88.12
300.366	81.12
300.597	84.12
300.827	92.12
301.057	101.12
301.288	97.12
301.518	92.12
301.748	84.12
301.979	94.12
302.209	103.12
302.439	73.12
302.669	94.12
302.9	89.12
303.13	98.12
303.36	92.12
303.59	106.12
303.82	96.12
304.051	101.12
304.281	98.12
304.511	78.12
304.741	94.12
304.971	103.12
305.201	104.12
305.431	86.12
305.661	93.12
305.891	94.12
306.121	91.12
306.352	103.12
306.582	100.12
306.812	99.12
307.042	94.12
307.272	93.12
307.502	89.12
307.731	105.12
307.961	100.12
308.191	92.12
308.421	86.12
308.651	101.12
308.881	105.12
309.111	74.12
309.341	94.12
309.571	93.12
309.8	98.12
310.03	97.12
310.26	98.12
310.49	87.12
310.72	85.12
310.949	84.12
311.179	106.12
311.409	92.12
311.639	97.12
311.868	97.12
312.098	89.12
312.328	89.12
312.557	101.12
312.787	102.12
313.017	95.12
313.246	84.12
313.476	89.12
313.706	79.12
313.935	112.12
314.165	98.12
314.394	109.12
314.624	98.12
314.853	91.12
315.083	80.12
315.312	107.12
315.542	91.12
315.771	89.12
316.001	88.12
316.23	96.12
316.46	78.12
316.689	107.12
316.919	96.12
317.148	92.12
317.377	97.12
317.607	108.12
317.836	90.12
318.065	100.12
318.295	98.12
318.524	73.12
318.753	94.12
318.983	96.12
319.212	97.12
319.441	101.12
319.67	91.12
319.9	88.12
320.129	87.12
320.358	76.12
320.587	94.12
320.816	84.12
321.046	89.12
321.275	86.12
321.504	85.12
321.733	99.12
321.962	100.12
322.191	105.12
322.42	98.12
322.649	91.12
322.878	116.12
323.108	116.12
323.337	111.12
323.566	115.12
323.795	134.12
324.024	169.12
324.253	329.12
324.482	659.12
324.71	1332.12
324.939	1788.12
325.168	665.12
325.397	210.12
325.626	135.12
325.855	109.12
326.084	110.12
326.313	108.12
326.542	134.12
326.77	187.12
326.999	361.12
327.228	768.12
327.457	1390.12
327.686	1088.12
327.914	334.12
328.143	164.12
328.372	123.12
328.6	118.12
328.829	112.12
329.058	114.12
329.287	126.12
329.515	93.12
329.744	97.12
329.972	99.12
330.201	114.12
330.43	116.12
330.658	118.12
330.887	131.12
331.115	102.12
331.344	86.12
331.572	89.12
331.801	100.12
332.03	102.12
332.258	83.12
332.486	98.12
332.715	98.12
332.943	84.12
333.172	80.12
333.4	93.12
333.629	105.12
333.857	110.12
334.085	113.12
334.314	116.12
334.542	122.12
334.771	117.12
334.999	96.12
335.227	106.12
335.455	97.12
335.684	91.12
335.912	96.12
336.14	84.12
336.369	99.12
336.597	89.12
336.825	104.12
337.053	93.12
337.281	98.12
337.51	97.12
337.738	98.12
337.966	92.12
338.194	96.12
338.422	82.12
338.65	99.12
338.878	84.12
339.106	83.12
339.334	81.12
339.562	79.12
339.79	97.12
340.018	72.12
340.246	92.12
340.474	95.12
340.702	89.12
340.93	81.12
341.158	88.12
341.386	85.12
341.614	94.12
341.842	92.12
342.07	92.12
342.298	81.12
342.526	71.12
342.754	93.12
342.981	80.12
343.209	88.12
343.437	94.12
343.665	79.12
343.893	81.12
344.12	76.12
344.348	89.12
344.576	102.12
344.804	91.12
345.031	84.12
345.259	83.12
345.487	102.12
345.714	97.12
345.942	104.12
346.17	95.12
346.397	94.12
346.625	98.12
346.853	96.12
347.08	87.12
347.308	93.12
347.535	90.12
347.763	73.12
347.99	106.12
348.218	96.12
348.445	88.12
348.673	105.12
348.9	83.12
349.128	100.12
349.355	88.12
349.583	94.12
349.81	81.12
350.037	91.12
350.265	95.12
350.492	90.12
350.72	92.12
350.947	103.12
351.174	103.12
351.402	95.12
351.629	91.12
351.856	106.12
352.083	102.12
352.311	98.12
352.538	106.12
352.765	104.12
352.992	124.12
353.22	104.12
353.447	96.12
353.674	98.12
353.901	102.12
354.128	84.12
354.355	103.12
354.583	93.12
354.81	92.12
355.037	89.12
355.264	77.12
355.491	104.12
355.718	88.12
355.945	102.12
356.172	92.12
356.399	97.12
356.626	104.12
356.853	86.12
357.08	93.12
357.307	100.12
357.534	101.12
357.761	101.12
357.988	89.12
358.215	103.12
358.441	96.12
358.668	73.12
358.895	88.12
359.122	86.12
359.349	82.12
359.576	82.12
359.802	87.12
360.029	111.12
360.256	117.12
360.483	103.12
360.709	90.12
360.936	97.12
361.163	89.12
361.39	80.12
361.616	104.12
361.843	99.12
362.07	86.12
362.296	88.12
362.523	86.12
362.749	88.12
362.976	96.12
363.203	99.12
363.429	84.12
363.656	94.12
363.882	105.12
364.109	101.12
364.335	108.12
364.562	94.12
364.788	100.12
365.015	95.12
365.241	103.12
365.468	90.12
365.694	93.12
365.92	104.12
366.147	94.12
366.373	75.12
366.599	93.12
366.826	101.12
367.052	84.12
367.278	93.12
367.505	85.12
367.731	86.12
367.957	83.12
368.184	70.12
368.41	84.12
368.636	99.12
368.862	102.12
369.089	76.12
369.315	88.12
369.541	83.12
369.767	83.12
369.993	76.12
370.219	84.12
370.445	82.12
370.672	94.12
370.898	94.12
371.124	99.12
371.35	99.12
371.576	69.12
371.802	96.12
372.028	103.12
372.254	90.12
372.48	83.12
372.706	79.12
372.932	90.12
373.158	81.12
373.384	87.12
373.61	98.12
373.835	72.12
374.061	98.12
374.287	83.12
374.513	74.12
374.739	100.12
374.965	109.12
375.191	84.12
375.416	88.12
375.642	99.12
375.868	89.12
376.094	86.12
376.319	94.12
376.545	89.12
376.771	74.12
376.997	86.12
377.222	103.12
377.448	88.12
377.674	88.12
377.899	83.12
378.125	82.12
378.35	91.12
378.576	91.12
378.802	93.12
379.027	94.12
379.253	87.12
379.478	81.12
379.704	99.12
379.929	101.12
380.155	85.12
380.38	92.12
380.606	100.12
380.831	94.12
381.057	89.12
381.282	101.12
381.507	93.12
381.733	110.12
381.958	94.12
382.184	98.12
382.409	97.12
382.634	110.12
382.86	100.12
383.085	95.12
383.31	89.12
383.535	105.12
383.761	102.12
383.986	112.12
384.211	100.12
384.436	114.12
384.662	104.12
384.887	99.12
385.112	101.12
385.337	100.12
385.562	113.12
385.787	120.12
386.013	116.12
386.238	124.12
386.463	109.12
386.688	102.12
386.913	116.12
387.138	104.12
387.363	114.12
387.588	95.12
387.813	108.12
388.038	104.12
388.263	114.12
388.488	108.12
388.713	95.12
388.938	97.12
389.163	102.12
389.387	88.12
389.612	86.12
389.837	91.12
390.062	92.12
390.287	99.12
390.512	88.12
390.736	103.12
390.961	89.12
391.186	81.12
391.411	110.12
391.636	89.12
391.86	93.12
392.085	97.12
392.31	89.12
392.534	86.12
392.759	94.12
392.984	101.12
393.208	101.12
393.433	90.12
393.658	78.12
393.882	91.12
394.107	82.12
394.331	86.12
394.556	90.12
394.78	89.12
395.005	105.12
395.229	85.12
395.454	91.12
395.678	78.12
395.903	96.12
396.127	75.12
396.352	85.12
396.576	77.12
396.801	78.12
397.025	86.12
397.249	86.12
397.474	84.12
397.698	91.12
397.922	90.12
398.147	85.12
398.371	91.12
398.595	75.12
398.82	100.12
399.044	83.12
399.268	87.12
399.492	96.12
399.717	85.12
399.941	80.12
400.165	94.12
400.389	88.12
400.613	96.12
400.837	77.12
401.062	87.12
401.286	75.12
401.51	91.12
401.734	84.12
401.958	82.12
402.182	107.12
402.406	112.12
402.63	92.12
402.854	86.12
403.078	86.12
403.302	88.12
403.526	94.12
403.75	86.12
403.974	97.12
404.198	87.12
404.422	81.12
404.645	92.12
404.869	106.12
405.093	92.12
405.317	106.12
405.541	93.12
405.765	88.12
405.988	114.12
406.212	150.12
406.436	170.12
406.66	119.12
406.883	90.12
407.107	86.12
407.331	95.12
407.555	93.12
407.778	100.12
408.002	94.12
408.226	86.12
408.449	92.12
408.673	87.12
408.896	115.12
409.12	92.12
409.344	101.12
409.567	78.12
409.791	77.12
410.014	94.12
410.238	82.12
410.461	101.12
410.685	97.12
410.908	94.12
411.132	93.12
411.355	84.12
411.578	104.12
411.802	88.12
412.025	83.12
412.249	85.12
412.472	84.12
412.695	98.12
412.919	97.12
413.142	98.12
413.365	71.12
413.589	84.12
413.812	90.12
414.035	85.12
414.258	87.12
414.482	82.12
414.705	96.12
414.928	83.12
415.151	97.12
415.374	100.12
415.597	78.12
415.821	94.12
416.044	97.12
416.267	94.12
416.49	78.12
416.713	74.12
416.936	91.12
417.159	93.12
417.382	95.12
417.605	101.12
417.828	109.12
418.051	77.12
418.274	92.12
418.497	85.12
418.72	86.12
418.943	75.12
419.166	92.12
419.389	101.12
419.611	96.12
419.834	91.12
420.057	92.12
420.28	88.12
420.503	86.12
420.726	102.12
420.948	98.12
421.171	88.12
421.394	77.12
421.617	82.12
421.839	84.12
422.062	77.12
422.285	88.12
422.507	97.12
422.73	101.12
422.953	104.12
423.175	81.12
423.398	85.12
423.621	78.12
423.843	90.12
424.066	74.12
424.288	71.12
424.511	82.12
424.733	90.12
424.956	108.12
425.178	98.12
425.401	92.12
425.623	80.12
425.846	87.12
426.068	90.12
426.291	81.12
426.513	75.12
426.735	82.12
426.958	101.12
427.18	99.12
427.402	132.12
427.625	135.12
427.847	110.12
428.069	98.12
428.292	83.12
428.514	103.12
428.736	86.12
428.958	93.12
429.181	92.12
429.403	83.12
429.625	96.12
429.847	93.12
430.069	100.12
430.292	98.12
430.514	78.12
430.736	85.12
430.958	79.12
431.18	76.12
431.402	101.12
431.624	86.12
431.846	88.12
432.068	71.12
432.29	90.12
432.512	96.12
432.734	83.12
432.956	92.12
433.178	101.12
433.4	86.12
433.622	104.12
433.844	91.12
434.066	85.12
434.287	91.12
434.509	90.12
434.731	87.12
434.953	90.12
435.175	83.12
435.397	97.12
435.618	86.12
435.84	93.12
436.062	116.12
436.284	114.12
436.505	99.12
436.727	91.12
436.949	93.12
437.17	84.12
437.392	84.12
437.614	80.12
437.835	94.12
438.057	119.12
438.278	109.12
438.5	111.12
438.721	109.12
438.943	101.12
439.165	93.12
439.386	86.12
439.608	82.12
439.829	85.12
440.05	105.12
440.272	122.12
440.493	108.12
440.715	90.12
440.936	92.12
441.158	93.12
441.379	89.12
441.6	96.12
441.822	89.12
442.043	94.12
442.264	94.12
442.486	109.12
442.707	88.12
442.928	97.12
443.149	102.12
443.371	103.12
443.592	116.12
443.813	116.12
444.034	109.12
444.255	91.12
444.476	92.12
444.698	96.12
444.919	94.12
445.14	147.12
445.361	132.12
445.582	113.12
445.803	124.12
446.024	125.12
446.245	118.12
446.466	102.12
446.687	97.12
446.908	78.12
447.129	86.12
447.35	68.12
447.571	95.12
447.792	85.12
448.013	103.12
448.234	108.12
448.455	93.12
448.675	98.12
448.896	110.12
449.117	93.12
449.338	104.12
449.559	109.12
449.779	120.12
450	104.12
450.221	78.12
450.442	96.12
450.662	80.12
450.883	94.12
451.104	100.12
451.324	104.12
451.545	86.12
451.766	71.12
451.986	99.12
452.207	84.12
452.428	92.12
452.648	97.12
452.869	92.12
453.089	96.12
453.31	101.12
453.53	84.12
453.751	76.12
453.971	94.12
454.192	96.12
454.412	98.12
454.633	92.12
454.853	77.12
455.073	76.12
455.294	76.12
455.514	94.12
455.734	92.12
455.955	78.12
456.175	76.12
456.395	97.12
456.616	94.12
456.836	89.12
457.056	96.12
457.276	99.12
457.497	83.12
457.717	80.12
457.937	86.12
458.157	85.12
458.377	102.12
458.598	110.12
458.818	108.12
459.038	130.12
459.258	109.12
459.478	91.12
459.698	75.12
459.918	74.12
460.138	90.12
460.358	82.12
460.578	98.12
460.798	89.12
461.018	91.12
461.238	88.12
461.458	84.12
461.678	73.12
461.898	98.12
462.118	86.12
462.338	81.12
462.558	79.12
462.777	89.12
462.997	80.12
463.217	78.12
463.437	86.12
463.657	94.12
463.876	93.12
464.096	86.12
464.316	97.12
464.536	89.12
464.755	94.12
464.975	103.12
465.195	140.12
465.414	117.12
465.634	101.12
465.854	103.12
466.073	112.12
466.293	96.12
466.512	75.12
466.732	96.12
466.951	79.12
467.171	87.12
467.391	81.12
467.61	103.12
467.829	94.12
468.049	89.12
468.268	89.12
468.488	83.12
468.707	65.12
468.927	73.12
469.146	77.12
469.365	91.12
469.585	89.12
469.804	94.12
470.023	87.12
470.243	86.12
470.462	76.12
470.681	98.12
470.901	86.12
471.12	90.12
471.339	84.12
471.558	88.12
471.777	74.12
471.997	98.12
472.216	103.12
472.435	122.12
472.654	89.12
472.873	81.12
473.092	87.12
473.311	95.12
473.53	87.12
473.749	77.12
473.968	103.12
474.187	104.12
474.406	101.12
474.625	79.12
474.844	78.12
475.063	96.12
475.282	70.12
475.501	71.12
475.72	98.12
475.939	90.12
476.158	70.12
476.377	84.12
476.596	95.12
476.814	93.12
477.033	87.12
477.252	86.12
477.471	82.12
477.69	81.12
477.908	78.12
478.127	92.12
478.346	75.12
478.564	88.12
478.783	92.12
479.002	92.12
479.22	100.12
479.439	96.12
479.658	97.12
479.876	96.12
480.095	92.12
480.313	98.12
480.532	96.12
480.751	80.12
480.969	109.12
481.188	202.12
481.406	143.12
481.624	90.12
481.843	89.12
482.061	89.12
482.28	92.12
482.498	85.12
482.717	73.12
482.935	85.12
483.153	98.12
483.372	94.12
483.59	90.12
483.808	93.12
484.027	74.12
484.245	89.12
484.463	89.12
484.681	84.12
484.9	86.12
485.118	87.12
485.336	97.12
485.554	93.12
485.772	89.12
485.99	102.12
486.209	94.12
486.427	98.12
486.645	99.12
486.863	102.12
487.081	103.12
487.299	105.12
487.517	101.12
487.735	92.12
487.953	96.12
488.171	82.12
488.389	97.12
488.607	91.12
488.825	98.12
489.043	85.12
489.261	84.12
489.479	74.12
489.696	86.12
489.914	90.12
490.132	96.12
490.35	86.12
490.568	86.12
490.786	70.12
491.003	89.12
491.221	88.12
491.439	82.12
491.657	104.12
491.874	80.12
492.092	91.12
492.31	83.12
492.527	79.12
492.745	89.12
492.963	106.12
493.18	91.12
493.398	98.12
493.615	94.12
493.833	81.12
494.05	98.12
494.268	84.12
494.485	101.12
494.703	92.12
494.92	86.12
495.138	90.12
495.355	108.12
495.573	99.12
495.79	87.12
496.008	80.12
496.225	92.12
496.442	78.12
496.66	92.12
496.877	98.12
497.094	100.12
497.312	86.12
497.529	97.12
497.746	96.12
497.963	88.12
498.181	81.12
498.398	93.12
498.615	108.12
498.832	91.12
499.049	93.12
499.267	91.12
499.484	96.12
499.701	80.12
499.918	98.12
500.135	84.12
500.352	99.12
500.569	97.12
500.786	94.12
501.003	80.12
501.22	97.12
501.437	86.12
501.654	89.12
501.871	99.12
502.088	88.12
502.305	77.12
502.522	98.12
502.739	88.12
502.956	92.12
503.172	81.12
503.389	87.12
503.606	106.12
503.823	82.12
504.04	100.12
504.256	84.12
504.473	76.12
504.69	92.12
504.907	93.12
505.123	97.12
505.34	67.12
505.557	94.12
505.773	104.12
505.99	78.12
506.207	96.12
506.423	87.12
506.64	94.12
506.856	89.12
507.073	81.12
507.289	86.12
507.506	82.12
507.722	112.12
507.939	98.12
508.155	88.12
508.372	87.12
508.588	90.12
508.805	110.12
509.021	83.12
509.238	76.12
509.454	87.12
509.67	105.12
509.887	114.12
510.103	128.12
510.319	169.12
510.536	609.12
510.752	1852.12
510.968	524.12
511.184	147.12
511.401	105.12
511.617	99.12
511.833	84.12
512.049	90.12
512.265	99.12
512.481	94.12
512.698	101.12
512.914	82.12
513.13	90.12
513.346	80.12
513.562	84.12
513.778	93.12
513.994	81.12
514.21	101.12
514.426	109.12
514.642	117.12
514.858	115.12
515.074	137.12
515.29	327.12
515.506	1078.12
515.721	426.12
515.937	144.12
516.153	106.12
