Data from Uncirc_1980_H10_HRD10591_00077.txt Node
Date: Wed Jan 03 12:37:10 EST 2024
User: Yrep
Spectrometer: HR+D1059
Trigger mode: 1
Integration Time (sec): 1.000000E-1
Scans to average: 1
Electric dark correction enabled: true
Nonlinearity correction enabled: false
Boxcar width: 0
XAxis mode: Wavelengths
Number of Pixels in Spectrum: 2048
>>>>>Begin Spectral Data<<<<<
223.165	-20.06
223.4	-20.06
223.635	-20.06
223.869	-29.06
224.104	-21.06
224.338	-15.06
224.573	-20.06
224.808	-5.06
225.042	-5.06
225.277	5.94
225.511	-1.06
225.746	1.94
225.98	2.94
226.215	11.94
226.449	19.94
226.683	25.94
226.918	28.94
227.152	18.94
227.387	43.94
227.621	40.94
227.856	46.94
228.09	50.94
228.324	53.94
228.559	53.94
228.793	60.94
229.027	70.94
229.262	70.94
229.496	80.94
229.73	77.94
229.964	99.94
230.199	80.94
230.433	90.94
230.667	66.94
230.901	82.94
231.136	85.94
231.37	76.94
231.604	64.94
231.838	96.94
232.072	89.94
232.306	85.94
232.541	91.94
232.775	78.94
233.009	82.94
233.243	96.94
233.477	80.94
233.711	88.94
233.945	81.94
234.179	74.94
234.413	88.94
234.647	67.94
234.881	69.94
235.115	82.94
235.349	73.94
235.583	64.94
235.817	81.94
236.051	80.94
236.285	76.94
236.519	80.94
236.753	62.94
236.987	75.94
237.221	87.94
237.455	90.94
237.689	69.94
237.922	86.94
238.156	82.94
238.39	78.94
238.624	83.94
238.858	74.94
239.091	73.94
239.325	66.94
239.559	84.94
239.793	92.94
240.027	82.94
240.26	84.94
240.494	86.94
240.728	86.94
240.961	85.94
241.195	82.94
241.429	96.94
241.662	80.94
241.896	92.94
242.13	83.94
242.363	84.94
242.597	74.94
242.83	91.94
243.064	72.94
243.298	68.94
243.531	69.94
243.765	76.94
243.998	89.94
244.232	78.94
244.465	83.94
244.699	78.94
244.932	77.94
245.166	78.94
245.399	68.94
245.633	86.94
245.866	79.94
246.099	82.94
246.333	84.94
246.566	70.94
246.8	55.94
247.033	72.94
247.266	83.94
247.5	70.94
247.733	70.94
247.966	89.94
248.2	76.94
248.433	94.94
248.666	74.94
248.899	77.94
249.133	83.94
249.366	76.94
249.599	92.94
249.832	74.94
250.066	76.94
250.299	70.94
250.532	89.94
250.765	77.94
250.998	57.94
251.231	75.94
251.465	79.94
251.698	73.94
251.931	76.94
252.164	86.94
252.397	68.94
252.63	82.94
252.863	88.94
253.096	76.94
253.329	77.94
253.562	84.94
253.795	77.94
254.028	84.94
254.261	82.94
254.494	77.94
254.727	87.94
254.96	70.94
255.193	85.94
255.426	80.94
255.659	93.94
255.892	70.94
256.124	78.94
256.357	81.94
256.59	88.94
256.823	74.94
257.056	65.94
257.289	82.94
257.521	73.94
257.754	84.94
257.987	82.94
258.22	90.94
258.452	74.94
258.685	92.94
258.918	92.94
259.151	82.94
259.383	88.94
259.616	67.94
259.849	74.94
260.081	87.94
260.314	92.94
260.547	87.94
260.779	86.94
261.012	85.94
261.244	66.94
261.477	88.94
261.71	93.94
261.942	113.94
262.175	120.94
262.407	86.94
262.64	90.94
262.872	81.94
263.105	84.94
263.337	85.94
263.57	77.94
263.802	75.94
264.035	71.94
264.267	81.94
264.499	71.94
264.732	77.94
264.964	82.94
265.197	73.94
265.429	87.94
265.661	86.94
265.894	88.94
266.126	93.94
266.358	87.94
266.591	88.94
266.823	83.94
267.055	90.94
267.287	84.94
267.52	75.94
267.752	87.94
267.984	80.94
268.216	95.94
268.448	92.94
268.681	74.94
268.913	84.94
269.145	76.94
269.377	84.94
269.609	85.94
269.841	94.94
270.073	79.94
270.306	94.94
270.538	80.94
270.77	71.94
271.002	91.94
271.234	68.94
271.466	90.94
271.698	86.94
271.93	88.94
272.162	71.94
272.394	92.94
272.626	92.94
272.858	81.94
273.09	81.94
273.322	85.94
273.553	64.94
273.785	77.94
274.017	87.94
274.249	89.94
274.481	76.94
274.713	84.94
274.945	75.94
275.176	80.94
275.408	84.94
275.64	79.94
275.872	88.94
276.104	86.94
276.335	94.94
276.567	107.94
276.799	102.94
277.031	85.94
277.262	77.94
277.494	92.94
277.726	81.94
277.957	86.94
278.189	88.94
278.421	89.94
278.652	86.94
278.884	92.94
279.115	88.94
279.347	94.94
279.579	86.94
279.81	87.94
280.042	82.94
280.273	92.94
280.505	86.94
280.736	82.94
280.968	75.94
281.199	90.94
281.431	96.94
281.662	92.94
281.894	71.94
282.125	100.94
282.356	104.94
282.588	128.94
282.819	103.94
283.051	82.94
283.282	101.94
283.513	84.94
283.745	87.94
283.976	97.94
284.207	82.94
284.439	76.94
284.67	75.94
284.901	84.94
285.132	85.94
285.364	70.94
285.595	90.94
285.826	68.94
286.057	98.94
286.288	93.94
286.52	90.94
286.751	90.94
286.982	86.94
287.213	86.94
287.444	67.94
287.675	72.94
287.906	83.94
288.138	78.94
288.369	86.94
288.6	94.94
288.831	77.94
289.062	74.94
289.293	98.94
289.524	93.94
289.755	84.94
289.986	96.94
290.217	93.94
290.448	78.94
290.679	94.94
290.91	90.94
291.141	82.94
291.371	89.94
291.602	86.94
291.833	75.94
292.064	89.94
292.295	76.94
292.526	85.94
292.757	90.94
292.987	92.94
293.218	93.94
293.449	92.94
293.68	91.94
293.91	86.94
294.141	93.94
294.372	92.94
294.603	95.94
294.833	109.94
295.064	80.94
295.295	92.94
295.525	72.94
295.756	93.94
295.987	100.94
296.217	118.94
296.448	103.94
296.679	108.94
296.909	88.94
297.14	96.94
297.37	69.94
297.601	80.94
297.831	89.94
298.062	93.94
298.292	99.94
298.523	85.94
298.753	97.94
298.984	96.94
299.214	84.94
299.445	100.94
299.675	94.94
299.905	98.94
300.136	80.94
300.366	98.94
300.597	78.94
300.827	98.94
301.057	100.94
301.288	92.94
301.518	92.94
301.748	94.94
301.979	104.94
302.209	76.94
302.439	80.94
302.669	93.94
302.9	99.94
303.13	91.94
303.36	84.94
303.59	97.94
303.82	98.94
304.051	89.94
304.281	92.94
304.511	87.94
304.741	80.94
304.971	91.94
305.201	90.94
305.431	87.94
305.661	88.94
305.891	96.94
306.121	87.94
306.352	96.94
306.582	113.94
306.812	87.94
307.042	95.94
307.272	98.94
307.502	96.94
307.731	105.94
307.961	97.94
308.191	96.94
308.421	87.94
308.651	97.94
308.881	91.94
309.111	92.94
309.341	75.94
309.571	90.94
309.8	86.94
310.03	97.94
310.26	99.94
310.49	100.94
310.72	87.94
310.949	86.94
311.179	101.94
311.409	80.94
311.639	101.94
311.868	87.94
312.098	88.94
312.328	115.94
312.557	92.94
312.787	94.94
313.017	93.94
313.246	91.94
313.476	83.94
313.706	94.94
313.935	98.94
314.165	81.94
314.394	73.94
314.624	92.94
314.853	102.94
315.083	85.94
315.312	88.94
315.542	91.94
315.771	84.94
316.001	87.94
316.23	83.94
316.46	104.94
316.689	80.94
316.919	87.94
317.148	88.94
317.377	96.94
317.607	90.94
317.836	91.94
318.065	89.94
318.295	86.94
318.524	83.94
318.753	91.94
318.983	101.94
319.212	98.94
319.441	109.94
319.67	103.94
319.9	86.94
320.129	86.94
320.358	92.94
320.587	106.94
320.816	99.94
321.046	73.94
321.275	105.94
321.504	99.94
321.733	79.94
321.962	92.94
322.191	97.94
322.42	87.94
322.649	96.94
322.878	113.94
323.108	115.94
323.337	114.94
323.566	126.94
323.795	128.94
324.024	182.94
324.253	302.94
324.482	628.94
324.71	1304.94
324.939	1704.94
325.168	632.94
325.397	189.94
325.626	127.94
325.855	114.94
326.084	124.94
326.313	110.94
326.542	131.94
326.77	187.94
326.999	347.94
327.228	722.94
327.457	1283.94
327.686	1030.94
327.914	313.94
328.143	170.94
328.372	139.94
328.6	121.94
328.829	114.94
329.058	117.94
329.287	107.94
329.515	102.94
329.744	100.94
329.972	103.94
330.201	110.94
330.43	132.94
330.658	119.94
330.887	122.94
331.115	102.94
331.344	88.94
331.572	101.94
331.801	101.94
332.03	93.94
332.258	94.94
332.486	90.94
332.715	95.94
332.943	94.94
333.172	98.94
333.4	85.94
333.629	94.94
333.857	110.94
334.085	100.94
334.314	118.94
334.542	118.94
334.771	116.94
334.999	100.94
335.227	85.94
335.455	94.94
335.684	94.94
335.912	87.94
336.14	93.94
336.369	100.94
336.597	80.94
336.825	92.94
337.053	86.94
337.281	96.94
337.51	89.94
337.738	84.94
337.966	93.94
338.194	88.94
338.422	97.94
338.65	88.94
338.878	89.94
339.106	77.94
339.334	89.94
339.562	84.94
339.79	90.94
340.018	80.94
340.246	82.94
340.474	87.94
340.702	114.94
340.93	84.94
341.158	94.94
341.386	94.94
341.614	87.94
341.842	96.94
342.07	89.94
342.298	81.94
342.526	75.94
342.754	82.94
342.981	80.94
343.209	86.94
343.437	123.94
343.665	89.94
343.893	91.94
344.12	96.94
344.348	101.94
344.576	66.94
344.804	83.94
345.031	92.94
345.259	92.94
345.487	69.94
345.714	88.94
345.942	80.94
346.17	100.94
346.397	84.94
346.625	93.94
346.853	98.94
347.08	95.94
347.308	85.94
347.535	97.94
347.763	99.94
347.99	102.94
348.218	93.94
348.445	108.94
348.673	91.94
348.9	102.94
349.128	96.94
349.355	93.94
349.583	97.94
349.81	106.94
350.037	76.94
350.265	88.94
350.492	96.94
350.72	95.94
350.947	88.94
351.174	95.94
351.402	106.94
351.629	105.94
351.856	97.94
352.083	111.94
352.311	106.94
352.538	97.94
352.765	104.94
352.992	113.94
353.22	88.94
353.447	89.94
353.674	98.94
353.901	93.94
354.128	91.94
354.355	100.94
354.583	84.94
354.81	101.94
355.037	89.94
355.264	97.94
355.491	94.94
355.718	92.94
355.945	102.94
356.172	101.94
356.399	99.94
356.626	98.94
356.853	105.94
357.08	93.94
357.307	77.94
357.534	92.94
357.761	84.94
357.988	101.94
358.215	87.94
358.441	97.94
358.668	93.94
358.895	88.94
359.122	98.94
359.349	83.94
359.576	85.94
359.802	96.94
360.029	102.94
360.256	94.94
360.483	94.94
360.709	107.94
360.936	77.94
361.163	99.94
361.39	105.94
361.616	101.94
361.843	86.94
362.07	80.94
362.296	86.94
362.523	86.94
362.749	82.94
362.976	84.94
363.203	90.94
363.429	98.94
363.656	85.94
363.882	87.94
364.109	109.94
364.335	84.94
364.562	95.94
364.788	82.94
365.015	84.94
365.241	97.94
365.468	92.94
365.694	104.94
365.92	88.94
366.147	98.94
366.373	88.94
366.599	75.94
366.826	100.94
367.052	77.94
367.278	88.94
367.505	75.94
367.731	91.94
367.957	71.94
368.184	91.94
368.41	93.94
368.636	106.94
368.862	115.94
369.089	98.94
369.315	74.94
369.541	88.94
369.767	90.94
369.993	82.94
370.219	86.94
370.445	92.94
370.672	76.94
370.898	88.94
371.124	96.94
371.35	88.94
371.576	89.94
371.802	86.94
372.028	84.94
372.254	86.94
372.48	81.94
372.706	87.94
372.932	90.94
373.158	93.94
373.384	93.94
373.61	88.94
373.835	109.94
374.061	88.94
374.287	98.94
374.513	80.94
374.739	83.94
374.965	85.94
375.191	89.94
375.416	83.94
375.642	90.94
375.868	82.94
376.094	94.94
376.319	86.94
376.545	86.94
376.771	88.94
376.997	90.94
377.222	82.94
377.448	93.94
377.674	95.94
377.899	85.94
378.125	83.94
378.35	77.94
378.576	87.94
378.802	97.94
379.027	98.94
379.253	83.94
379.478	84.94
379.704	80.94
379.929	101.94
380.155	81.94
380.38	80.94
380.606	92.94
380.831	90.94
381.057	106.94
381.282	105.94
381.507	83.94
381.733	95.94
381.958	94.94
382.184	86.94
382.409	86.94
382.634	101.94
382.86	99.94
383.085	106.94
383.31	88.94
383.535	113.94
383.761	91.94
383.986	97.94
384.211	96.94
384.436	91.94
384.662	93.94
384.887	100.94
385.112	108.94
385.337	100.94
385.562	106.94
385.787	99.94
386.013	102.94
386.238	99.94
386.463	98.94
386.688	106.94
386.913	103.94
387.138	101.94
387.363	96.94
387.588	92.94
387.813	110.94
388.038	119.94
388.263	114.94
388.488	105.94
388.713	96.94
388.938	107.94
389.163	90.94
389.387	92.94
389.612	87.94
389.837	84.94
390.062	105.94
390.287	88.94
390.512	86.94
390.736	81.94
390.961	93.94
391.186	86.94
391.411	92.94
391.636	104.94
391.86	86.94
392.085	76.94
392.31	80.94
392.534	67.94
392.759	94.94
392.984	77.94
393.208	91.94
393.433	72.94
393.658	87.94
393.882	86.94
394.107	101.94
394.331	77.94
394.556	72.94
394.78	69.94
395.005	82.94
395.229	88.94
395.454	95.94
395.678	78.94
395.903	92.94
396.127	104.94
396.352	85.94
396.576	66.94
396.801	96.94
397.025	92.94
397.249	73.94
397.474	92.94
397.698	96.94
397.922	85.94
398.147	82.94
398.371	93.94
398.595	80.94
398.82	79.94
399.044	85.94
399.268	82.94
399.492	95.94
399.717	82.94
399.941	98.94
400.165	93.94
400.389	83.94
400.613	85.94
400.837	83.94
401.062	86.94
401.286	95.94
401.51	92.94
401.734	84.94
401.958	85.94
402.182	113.94
402.406	137.94
402.63	110.94
402.854	97.94
403.078	91.94
403.302	92.94
403.526	86.94
403.75	71.94
403.974	87.94
404.198	90.94
404.422	81.94
404.645	69.94
404.869	86.94
405.093	99.94
405.317	98.94
405.541	80.94
405.765	84.94
405.988	104.94
406.212	137.94
406.436	178.94
406.66	124.94
406.883	99.94
407.107	86.94
407.331	98.94
407.555	81.94
407.778	98.94
408.002	94.94
408.226	92.94
408.449	92.94
408.673	90.94
408.896	83.94
409.12	94.94
409.344	83.94
409.567	71.94
409.791	105.94
410.014	80.94
410.238	85.94
410.461	102.94
410.685	89.94
410.908	77.94
411.132	117.94
411.355	93.94
411.578	88.94
411.802	83.94
412.025	98.94
412.249	92.94
412.472	91.94
412.695	93.94
412.919	97.94
413.142	84.94
413.365	82.94
413.589	88.94
413.812	96.94
414.035	93.94
414.258	94.94
414.482	99.94
414.705	101.94
414.928	85.94
415.151	98.94
415.374	93.94
415.597	87.94
415.821	90.94
416.044	91.94
416.267	83.94
416.49	92.94
416.713	84.94
416.936	88.94
417.159	93.94
417.382	98.94
417.605	88.94
417.828	82.94
418.051	91.94
418.274	74.94
418.497	81.94
418.72	85.94
418.943	83.94
419.166	97.94
419.389	86.94
419.611	91.94
419.834	88.94
420.057	83.94
420.28	68.94
420.503	95.94
420.726	70.94
420.948	87.94
421.171	96.94
421.394	84.94
421.617	102.94
421.839	79.94
422.062	92.94
422.285	93.94
422.507	100.94
422.73	92.94
422.953	95.94
423.175	89.94
423.398	89.94
423.621	94.94
423.843	66.94
424.066	84.94
424.288	78.94
424.511	93.94
424.733	100.94
424.956	100.94
425.178	100.94
425.401	91.94
425.623	93.94
425.846	90.94
426.068	83.94
426.291	93.94
426.513	89.94
426.735	84.94
426.958	89.94
427.18	89.94
427.402	106.94
427.625	127.94
427.847	117.94
428.069	102.94
428.292	89.94
428.514	70.94
428.736	68.94
428.958	78.94
429.181	78.94
429.403	91.94
429.625	92.94
429.847	84.94
430.069	86.94
430.292	80.94
430.514	82.94
430.736	83.94
430.958	96.94
431.18	87.94
431.402	90.94
431.624	74.94
431.846	90.94
432.068	93.94
432.29	88.94
432.512	84.94
432.734	100.94
432.956	100.94
433.178	98.94
433.4	90.94
433.622	94.94
433.844	90.94
434.066	86.94
434.287	83.94
434.509	85.94
434.731	95.94
434.953	87.94
435.175	97.94
435.397	88.94
435.618	90.94
435.84	90.94
436.062	108.94
436.284	88.94
436.505	76.94
436.727	93.94
436.949	92.94
437.17	87.94
437.392	95.94
437.614	84.94
437.835	100.94
438.057	93.94
438.278	105.94
438.5	85.94
438.721	112.94
438.943	90.94
439.165	72.94
439.386	88.94
439.608	90.94
439.829	107.94
440.05	97.94
440.272	113.94
440.493	99.94
440.715	75.94
440.936	74.94
441.158	80.94
441.379	91.94
441.6	81.94
441.822	87.94
442.043	84.94
442.264	91.94
442.486	96.94
442.707	72.94
442.928	84.94
443.149	102.94
443.371	110.94
443.592	96.94
443.813	97.94
444.034	103.94
444.255	97.94
444.476	77.94
444.698	80.94
444.919	83.94
445.14	117.94
445.361	103.94
445.582	103.94
445.803	121.94
446.024	129.94
446.245	118.94
446.466	106.94
446.687	77.94
446.908	86.94
447.129	93.94
447.35	88.94
447.571	84.94
447.792	76.94
448.013	82.94
448.234	107.94
448.455	97.94
448.675	90.94
448.896	106.94
449.117	93.94
449.338	98.94
449.559	98.94
449.779	109.94
450	75.94
450.221	96.94
450.442	96.94
450.662	84.94
450.883	100.94
451.104	97.94
451.324	89.94
451.545	86.94
451.766	88.94
451.986	83.94
452.207	89.94
452.428	91.94
452.648	92.94
452.869	101.94
453.089	99.94
453.31	115.94
453.53	108.94
453.751	77.94
453.971	107.94
454.192	104.94
454.412	91.94
454.633	87.94
454.853	75.94
455.073	84.94
455.294	76.94
455.514	89.94
455.734	94.94
455.955	98.94
456.175	87.94
456.395	100.94
456.616	90.94
456.836	85.94
457.056	92.94
457.276	91.94
457.497	82.94
457.717	80.94
457.937	107.94
458.157	80.94
458.377	98.94
458.598	96.94
458.818	124.94
459.038	118.94
459.258	104.94
459.478	101.94
459.698	76.94
459.918	91.94
460.138	89.94
460.358	89.94
460.578	82.94
460.798	81.94
461.018	70.94
461.238	94.94
461.458	77.94
461.678	73.94
461.898	64.94
462.118	77.94
462.338	92.94
462.558	80.94
462.777	68.94
462.997	88.94
463.217	85.94
463.437	82.94
463.657	93.94
463.876	76.94
464.096	81.94
464.316	88.94
464.536	85.94
464.755	90.94
464.975	107.94
465.195	115.94
465.414	138.94
465.634	81.94
465.854	88.94
466.073	94.94
466.293	89.94
466.512	92.94
466.732	77.94
466.951	74.94
467.171	82.94
467.391	90.94
467.61	105.94
467.829	104.94
468.049	96.94
468.268	92.94
468.488	82.94
468.707	73.94
468.927	80.94
469.146	77.94
469.365	85.94
469.585	92.94
469.804	98.94
470.023	91.94
470.243	104.94
470.462	104.94
470.681	109.94
470.901	84.94
471.12	96.94
471.339	82.94
471.558	81.94
471.777	106.94
471.997	89.94
472.216	100.94
472.435	142.94
472.654	98.94
472.873	89.94
473.092	88.94
473.311	71.94
473.53	97.94
473.749	93.94
473.968	77.94
474.187	107.94
474.406	92.94
474.625	77.94
474.844	90.94
475.063	72.94
475.282	89.94
475.501	88.94
475.72	98.94
475.939	83.94
476.158	88.94
476.377	90.94
476.596	89.94
476.814	86.94
477.033	86.94
477.252	83.94
477.471	93.94
477.69	68.94
477.908	96.94
478.127	85.94
478.346	91.94
478.564	90.94
478.783	77.94
479.002	95.94
479.22	93.94
479.439	96.94
479.658	96.94
479.876	85.94
480.095	82.94
480.313	90.94
480.532	86.94
480.751	93.94
480.969	100.94
481.188	204.94
481.406	157.94
481.624	107.94
481.843	96.94
482.061	74.94
482.28	81.94
482.498	86.94
482.717	89.94
482.935	84.94
483.153	78.94
483.372	92.94
483.59	90.94
483.808	71.94
484.027	79.94
484.245	81.94
484.463	106.94
484.681	102.94
484.9	76.94
485.118	89.94
485.336	84.94
485.554	102.94
485.772	102.94
485.99	98.94
486.209	93.94
486.427	91.94
486.645	94.94
486.863	104.94
487.081	104.94
487.299	90.94
487.517	84.94
487.735	89.94
487.953	88.94
488.171	89.94
488.389	86.94
488.607	105.94
488.825	94.94
489.043	80.94
489.261	80.94
489.479	81.94
489.696	92.94
489.914	85.94
490.132	84.94
490.35	97.94
490.568	80.94
490.786	85.94
491.003	84.94
491.221	95.94
491.439	96.94
491.657	89.94
491.874	82.94
492.092	94.94
492.31	88.94
492.527	91.94
492.745	76.94
492.963	85.94
493.18	86.94
493.398	101.94
493.615	96.94
493.833	84.94
494.05	99.94
494.268	98.94
494.485	82.94
494.703	92.94
494.92	87.94
495.138	88.94
495.355	77.94
495.573	77.94
495.79	80.94
496.008	90.94
496.225	86.94
496.442	93.94
496.66	85.94
496.877	78.94
497.094	86.94
497.312	93.94
497.529	85.94
497.746	97.94
497.963	91.94
498.181	90.94
498.398	109.94
498.615	106.94
498.832	87.94
499.049	100.94
499.267	96.94
499.484	84.94
499.701	82.94
499.918	98.94
500.135	92.94
500.352	94.94
500.569	93.94
500.786	88.94
501.003	97.94
501.22	89.94
501.437	97.94
501.654	84.94
501.871	91.94
502.088	88.94
502.305	83.94
502.522	88.94
502.739	84.94
502.956	85.94
503.172	98.94
503.389	84.94
503.606	97.94
503.823	75.94
504.04	96.94
504.256	86.94
504.473	81.94
504.69	93.94
504.907	89.94
505.123	88.94
505.34	93.94
505.557	91.94
505.773	72.94
505.99	96.94
506.207	87.94
506.423	100.94
506.64	82.94
506.856	106.94
507.073	86.94
507.289	76.94
507.506	88.94
507.722	97.94
507.939	102.94
508.155	97.94
508.372	104.94
508.588	81.94
508.805	90.94
509.021	97.94
509.238	92.94
509.454	87.94
509.67	105.94
509.887	103.94
510.103	125.94
510.319	182.94
510.536	632.94
510.752	1980.94
510.968	563.94
511.184	128.94
511.401	112.94
511.617	90.94
511.833	85.94
512.049	88.94
512.265	88.94
512.481	94.94
512.698	102.94
512.914	80.94
513.13	97.94
513.346	79.94
513.562	91.94
513.778	101.94
513.994	76.94
514.21	98.94
514.426	103.94
514.642	126.94
514.858	122.94
515.074	131.94
515.29	348.94
515.506	1118.94
515.721	410.94
515.937	117.94
516.153	106.94
516.369	96.94
516.585	93.94
516.801	97.94
