Data from Uncirc_1980_H10_HRD10591_00019.txt Node
Date: Wed Jan 03 12:36:59 EST 2024
User: Yrep
Spectrometer: HR+D1059
Trigger mode: 1
Integration Time (sec): 1.000000E-1
Scans to average: 1
Electric dark correction enabled: true
Nonlinearity correction enabled: false
Boxcar width: 0
XAxis mode: Wavelengths
Number of Pixels in Spectrum: 2048
>>>>>Begin Spectral Data<<<<<
223.165	-18.94
223.4	-18.94
223.635	-18.94
223.869	-17.94
224.104	-16.94
224.338	-14.94
224.573	7.06
224.808	-16.94
225.042	-13.94
225.277	-7.94
225.511	1.06
225.746	-6.94
225.98	11.06
226.215	6.06
226.449	13.06
226.683	28.06
226.918	23.06
227.152	25.06
227.387	47.06
227.621	42.06
227.856	56.06
228.09	45.06
228.324	45.06
228.559	63.06
228.793	61.06
229.027	54.06
229.262	54.06
229.496	69.06
229.73	73.06
229.964	74.06
230.199	73.06
230.433	72.06
230.667	92.06
230.901	79.06
231.136	82.06
231.37	74.06
231.604	70.06
231.838	80.06
232.072	88.06
232.306	73.06
232.541	93.06
232.775	79.06
233.009	81.06
233.243	81.06
233.477	87.06
233.711	91.06
233.945	93.06
234.179	80.06
234.413	90.06
234.647	93.06
234.881	77.06
235.115	86.06
235.349	68.06
235.583	86.06
235.817	81.06
236.051	86.06
236.285	94.06
236.519	70.06
236.753	78.06
236.987	76.06
237.221	89.06
237.455	90.06
237.689	78.06
237.922	88.06
238.156	86.06
238.39	81.06
238.624	77.06
238.858	74.06
239.091	86.06
239.325	76.06
239.559	94.06
239.793	64.06
240.027	72.06
240.26	76.06
240.494	87.06
240.728	64.06
240.961	86.06
241.195	78.06
241.429	84.06
241.662	85.06
241.896	77.06
242.13	79.06
242.363	72.06
242.597	83.06
242.83	89.06
243.064	72.06
243.298	87.06
243.531	79.06
243.765	81.06
243.998	66.06
244.232	101.06
244.465	75.06
244.699	89.06
244.932	81.06
245.166	82.06
245.399	96.06
245.633	87.06
245.866	87.06
246.099	71.06
246.333	91.06
246.566	80.06
246.8	72.06
247.033	72.06
247.266	84.06
247.5	85.06
247.733	84.06
247.966	81.06
248.2	63.06
248.433	88.06
248.666	85.06
248.899	75.06
249.133	80.06
249.366	103.06
249.599	102.06
249.832	87.06
250.066	86.06
250.299	99.06
250.532	71.06
250.765	74.06
250.998	75.06
251.231	72.06
251.465	90.06
251.698	92.06
251.931	82.06
252.164	77.06
252.397	80.06
252.63	88.06
252.863	90.06
253.096	84.06
253.329	70.06
253.562	90.06
253.795	64.06
254.028	74.06
254.261	70.06
254.494	83.06
254.727	64.06
254.96	76.06
255.193	76.06
255.426	87.06
255.659	83.06
255.892	81.06
256.124	73.06
256.357	93.06
256.59	88.06
256.823	84.06
257.056	95.06
257.289	81.06
257.521	80.06
257.754	91.06
257.987	87.06
258.22	86.06
258.452	88.06
258.685	84.06
258.918	86.06
259.151	88.06
259.383	87.06
259.616	84.06
259.849	92.06
260.081	88.06
260.314	75.06
260.547	86.06
260.779	80.06
261.012	97.06
261.244	93.06
261.477	87.06
261.71	92.06
261.942	104.06
262.175	102.06
262.407	81.06
262.64	82.06
262.872	94.06
263.105	99.06
263.337	96.06
263.57	97.06
263.802	77.06
264.035	87.06
264.267	86.06
264.499	83.06
264.732	76.06
264.964	86.06
265.197	89.06
265.429	92.06
265.661	83.06
265.894	88.06
266.126	92.06
266.358	98.06
266.591	78.06
266.823	88.06
267.055	76.06
267.287	78.06
267.52	86.06
267.752	88.06
267.984	73.06
268.216	80.06
268.448	84.06
268.681	73.06
268.913	88.06
269.145	79.06
269.377	93.06
269.609	84.06
269.841	94.06
270.073	97.06
270.306	80.06
270.538	76.06
270.77	78.06
271.002	86.06
271.234	88.06
271.466	95.06
271.698	98.06
271.93	93.06
272.162	82.06
272.394	72.06
272.626	79.06
272.858	94.06
273.09	72.06
273.322	88.06
273.553	93.06
273.785	100.06
274.017	108.06
274.249	81.06
274.481	81.06
274.713	90.06
274.945	84.06
275.176	83.06
275.408	85.06
275.64	91.06
275.872	80.06
276.104	84.06
276.335	97.06
276.567	91.06
276.799	98.06
277.031	78.06
277.262	86.06
277.494	81.06
277.726	86.06
277.957	84.06
278.189	103.06
278.421	94.06
278.652	80.06
278.884	87.06
279.115	90.06
279.347	88.06
279.579	88.06
279.81	104.06
280.042	88.06
280.273	75.06
280.505	84.06
280.736	103.06
280.968	101.06
281.199	94.06
281.431	80.06
281.662	68.06
281.894	98.06
282.125	107.06
282.356	105.06
282.588	118.06
282.819	100.06
283.051	78.06
283.282	82.06
283.513	97.06
283.745	98.06
283.976	94.06
284.207	76.06
284.439	80.06
284.67	92.06
284.901	88.06
285.132	82.06
285.364	86.06
285.595	79.06
285.826	80.06
286.057	104.06
286.288	81.06
286.52	92.06
286.751	77.06
286.982	96.06
287.213	91.06
287.444	90.06
287.675	87.06
287.906	94.06
288.138	100.06
288.369	84.06
288.6	80.06
288.831	89.06
289.062	92.06
289.293	93.06
289.524	84.06
289.755	63.06
289.986	76.06
290.217	94.06
290.448	88.06
290.679	97.06
290.91	90.06
291.141	69.06
291.371	95.06
291.602	79.06
291.833	86.06
292.064	97.06
292.295	93.06
292.526	89.06
292.757	87.06
292.987	90.06
293.218	92.06
293.449	88.06
293.68	87.06
293.91	87.06
294.141	92.06
294.372	86.06
294.603	91.06
294.833	106.06
295.064	84.06
295.295	89.06
295.525	84.06
295.756	95.06
295.987	114.06
296.217	112.06
296.448	127.06
296.679	100.06
296.909	103.06
297.14	90.06
297.37	100.06
297.601	90.06
297.831	106.06
298.062	93.06
298.292	82.06
298.523	84.06
298.753	95.06
298.984	84.06
299.214	95.06
299.445	81.06
299.675	103.06
299.905	94.06
300.136	87.06
300.366	86.06
300.597	99.06
300.827	91.06
301.057	94.06
301.288	99.06
301.518	86.06
301.748	97.06
301.979	89.06
302.209	97.06
302.439	93.06
302.669	94.06
302.9	77.06
303.13	100.06
303.36	95.06
303.59	100.06
303.82	110.06
304.051	92.06
304.281	86.06
304.511	84.06
304.741	87.06
304.971	92.06
305.201	91.06
305.431	86.06
305.661	97.06
305.891	101.06
306.121	82.06
306.352	91.06
306.582	104.06
306.812	112.06
307.042	81.06
307.272	90.06
307.502	112.06
307.731	105.06
307.961	103.06
308.191	109.06
308.421	97.06
308.651	96.06
308.881	93.06
309.111	100.06
309.341	96.06
309.571	88.06
309.8	91.06
310.03	100.06
310.26	92.06
310.49	88.06
310.72	87.06
310.949	93.06
311.179	104.06
311.409	89.06
311.639	93.06
311.868	82.06
312.098	96.06
312.328	112.06
312.557	98.06
312.787	100.06
313.017	90.06
313.246	79.06
313.476	97.06
313.706	106.06
313.935	116.06
314.165	96.06
314.394	116.06
314.624	95.06
314.853	94.06
315.083	87.06
315.312	89.06
315.542	96.06
315.771	105.06
316.001	86.06
316.23	94.06
316.46	93.06
316.689	95.06
316.919	82.06
317.148	88.06
317.377	90.06
317.607	77.06
317.836	95.06
318.065	92.06
318.295	101.06
318.524	90.06
318.753	88.06
318.983	100.06
319.212	95.06
319.441	104.06
319.67	91.06
319.9	94.06
320.129	87.06
320.358	105.06
320.587	100.06
320.816	87.06
321.046	105.06
321.275	103.06
321.504	106.06
321.733	106.06
321.962	90.06
322.191	110.06
322.42	73.06
322.649	103.06
322.878	111.06
323.108	106.06
323.337	114.06
323.566	122.06
323.795	153.06
324.024	164.06
324.253	297.06
324.482	628.06
324.71	1228.06
324.939	1615.06
325.168	594.06
325.397	193.06
325.626	133.06
325.855	125.06
326.084	114.06
326.313	123.06
326.542	140.06
326.77	183.06
326.999	362.06
327.228	679.06
327.457	1257.06
327.686	1008.06
327.914	316.06
328.143	169.06
328.372	135.06
328.6	114.06
328.829	116.06
329.058	106.06
329.287	109.06
329.515	122.06
329.744	100.06
329.972	108.06
330.201	120.06
330.43	127.06
330.658	115.06
330.887	116.06
331.115	113.06
331.344	101.06
331.572	100.06
331.801	98.06
332.03	97.06
332.258	91.06
332.486	89.06
332.715	91.06
332.943	88.06
333.172	111.06
333.4	104.06
333.629	93.06
333.857	109.06
334.085	112.06
334.314	112.06
334.542	136.06
334.771	123.06
334.999	103.06
335.227	108.06
335.455	88.06
335.684	89.06
335.912	106.06
336.14	102.06
336.369	98.06
336.597	99.06
336.825	94.06
337.053	96.06
337.281	106.06
337.51	93.06
337.738	101.06
337.966	85.06
338.194	94.06
338.422	100.06
338.65	103.06
338.878	108.06
339.106	94.06
339.334	105.06
339.562	106.06
339.79	88.06
340.018	88.06
340.246	108.06
340.474	107.06
340.702	102.06
340.93	94.06
341.158	73.06
341.386	101.06
341.614	87.06
341.842	86.06
342.07	85.06
342.298	94.06
342.526	90.06
342.754	95.06
342.981	106.06
343.209	84.06
343.437	95.06
343.665	93.06
343.893	106.06
344.12	113.06
344.348	93.06
344.576	91.06
344.804	89.06
345.031	106.06
345.259	93.06
345.487	102.06
345.714	97.06
345.942	74.06
346.17	100.06
346.397	103.06
346.625	91.06
346.853	96.06
347.08	98.06
347.308	104.06
347.535	96.06
347.763	94.06
347.99	95.06
348.218	107.06
348.445	92.06
348.673	102.06
348.9	87.06
349.128	100.06
349.355	90.06
349.583	102.06
349.81	99.06
350.037	91.06
350.265	106.06
350.492	102.06
350.72	95.06
350.947	107.06
351.174	99.06
351.402	116.06
351.629	105.06
351.856	90.06
352.083	109.06
352.311	104.06
352.538	112.06
352.765	101.06
352.992	113.06
353.22	109.06
353.447	110.06
353.674	104.06
353.901	108.06
354.128	109.06
354.355	100.06
354.583	100.06
354.81	106.06
355.037	110.06
355.264	105.06
355.491	102.06
355.718	108.06
355.945	92.06
356.172	96.06
356.399	103.06
356.626	84.06
356.853	98.06
357.08	99.06
357.307	102.06
357.534	99.06
357.761	105.06
357.988	100.06
358.215	110.06
358.441	104.06
358.668	101.06
358.895	91.06
359.122	104.06
359.349	86.06
359.576	96.06
359.802	104.06
360.029	106.06
360.256	97.06
360.483	114.06
360.709	94.06
360.936	85.06
361.163	88.06
361.39	101.06
361.616	100.06
361.843	100.06
362.07	92.06
362.296	106.06
362.523	84.06
362.749	88.06
362.976	80.06
363.203	98.06
363.429	90.06
363.656	87.06
363.882	93.06
364.109	95.06
364.335	111.06
364.562	100.06
364.788	103.06
365.015	104.06
365.241	94.06
365.468	106.06
365.694	97.06
365.92	90.06
366.147	88.06
366.373	88.06
366.599	94.06
366.826	106.06
367.052	77.06
367.278	97.06
367.505	94.06
367.731	88.06
367.957	89.06
368.184	73.06
368.41	92.06
368.636	99.06
368.862	116.06
369.089	112.06
369.315	90.06
369.541	84.06
369.767	97.06
369.993	77.06
370.219	84.06
370.445	93.06
370.672	92.06
370.898	90.06
371.124	80.06
371.35	103.06
371.576	93.06
371.802	89.06
372.028	98.06
372.254	93.06
372.48	104.06
372.706	94.06
372.932	101.06
373.158	95.06
373.384	98.06
373.61	105.06
373.835	99.06
374.061	84.06
374.287	96.06
374.513	100.06
374.739	98.06
374.965	96.06
375.191	99.06
375.416	89.06
375.642	80.06
375.868	103.06
376.094	104.06
376.319	91.06
376.545	96.06
376.771	100.06
376.997	95.06
377.222	91.06
377.448	98.06
377.674	91.06
377.899	98.06
378.125	80.06
378.35	92.06
378.576	92.06
378.802	93.06
379.027	89.06
379.253	116.06
379.478	114.06
379.704	104.06
379.929	101.06
380.155	112.06
380.38	101.06
380.606	97.06
380.831	110.06
381.057	104.06
381.282	96.06
381.507	101.06
381.733	110.06
381.958	105.06
382.184	105.06
382.409	120.06
382.634	124.06
382.86	114.06
383.085	108.06
383.31	121.06
383.535	109.06
383.761	117.06
383.986	119.06
384.211	117.06
384.436	118.06
384.662	116.06
384.887	127.06
385.112	125.06
385.337	137.06
385.562	128.06
385.787	122.06
386.013	123.06
386.238	148.06
386.463	122.06
386.688	114.06
386.913	125.06
387.138	120.06
387.363	112.06
387.588	110.06
387.813	118.06
388.038	133.06
388.263	127.06
388.488	144.06
388.713	106.06
388.938	102.06
389.163	94.06
389.387	89.06
389.612	91.06
389.837	91.06
390.062	93.06
390.287	88.06
390.512	94.06
390.736	80.06
390.961	84.06
391.186	93.06
391.411	105.06
391.636	101.06
391.86	93.06
392.085	101.06
392.31	77.06
392.534	97.06
392.759	88.06
392.984	76.06
393.208	86.06
393.433	101.06
393.658	94.06
393.882	92.06
394.107	74.06
394.331	94.06
394.556	109.06
394.78	89.06
395.005	92.06
395.229	82.06
395.454	106.06
395.678	89.06
395.903	87.06
396.127	86.06
396.352	84.06
396.576	100.06
396.801	94.06
397.025	92.06
397.249	94.06
397.474	99.06
397.698	92.06
397.922	89.06
398.147	79.06
398.371	80.06
398.595	75.06
398.82	92.06
399.044	100.06
399.268	101.06
399.492	87.06
399.717	94.06
399.941	86.06
400.165	94.06
400.389	95.06
400.613	93.06
400.837	92.06
401.062	77.06
401.286	91.06
401.51	87.06
401.734	104.06
401.958	86.06
402.182	112.06
402.406	137.06
402.63	111.06
402.854	93.06
403.078	88.06
403.302	72.06
403.526	100.06
403.75	99.06
403.974	96.06
404.198	92.06
404.422	84.06
404.645	104.06
404.869	95.06
405.093	89.06
405.317	91.06
405.541	95.06
405.765	95.06
405.988	101.06
406.212	141.06
406.436	185.06
406.66	122.06
406.883	101.06
407.107	109.06
407.331	103.06
407.555	85.06
407.778	108.06
408.002	80.06
408.226	93.06
408.449	103.06
408.673	103.06
408.896	93.06
409.12	91.06
409.344	93.06
409.567	108.06
409.791	89.06
410.014	85.06
410.238	105.06
410.461	89.06
410.685	95.06
410.908	112.06
411.132	97.06
411.355	86.06
411.578	96.06
411.802	76.06
412.025	92.06
412.249	75.06
412.472	105.06
412.695	88.06
412.919	92.06
413.142	87.06
413.365	89.06
413.589	101.06
413.812	105.06
414.035	104.06
414.258	98.06
414.482	108.06
414.705	103.06
414.928	91.06
415.151	108.06
415.374	98.06
415.597	93.06
415.821	99.06
416.044	81.06
416.267	100.06
416.49	111.06
416.713	94.06
416.936	103.06
417.159	102.06
417.382	94.06
417.605	93.06
417.828	88.06
418.051	120.06
418.274	81.06
418.497	95.06
418.72	84.06
418.943	92.06
419.166	102.06
419.389	87.06
419.611	101.06
419.834	86.06
420.057	89.06
420.28	86.06
420.503	95.06
420.726	96.06
420.948	92.06
421.171	104.06
421.394	107.06
421.617	96.06
421.839	83.06
422.062	86.06
422.285	94.06
422.507	89.06
422.73	96.06
422.953	95.06
423.175	80.06
423.398	86.06
423.621	94.06
423.843	97.06
424.066	91.06
424.288	71.06
424.511	92.06
424.733	93.06
424.956	96.06
425.178	109.06
425.401	91.06
425.623	96.06
425.846	87.06
426.068	81.06
426.291	82.06
426.513	91.06
426.735	96.06
426.958	100.06
427.18	91.06
427.402	127.06
427.625	137.06
427.847	113.06
428.069	108.06
428.292	96.06
428.514	96.06
428.736	97.06
428.958	101.06
429.181	95.06
429.403	78.06
429.625	80.06
429.847	101.06
430.069	99.06
430.292	86.06
430.514	80.06
430.736	102.06
430.958	86.06
431.18	85.06
431.402	89.06
431.624	80.06
431.846	94.06
432.068	92.06
432.29	88.06
432.512	84.06
432.734	86.06
432.956	100.06
433.178	100.06
433.4	86.06
433.622	96.06
433.844	90.06
434.066	86.06
434.287	88.06
434.509	90.06
434.731	94.06
434.953	82.06
435.175	94.06
435.397	95.06
435.618	95.06
435.84	87.06
436.062	123.06
436.284	107.06
436.505	91.06
436.727	101.06
436.949	95.06
437.17	85.06
437.392	95.06
437.614	93.06
437.835	101.06
438.057	107.06
438.278	102.06
438.5	102.06
438.721	120.06
438.943	96.06
439.165	86.06
439.386	86.06
439.608	96.06
439.829	103.06
440.05	108.06
440.272	130.06
440.493	85.06
440.715	79.06
440.936	84.06
441.158	84.06
441.379	86.06
441.6	97.06
441.822	88.06
442.043	96.06
442.264	107.06
442.486	71.06
442.707	100.06
442.928	107.06
443.149	114.06
443.371	110.06
443.592	110.06
443.813	106.06
444.034	95.06
444.255	90.06
444.476	88.06
444.698	96.06
444.919	93.06
445.14	106.06
445.361	112.06
445.582	106.06
445.803	127.06
446.024	116.06
446.245	118.06
446.466	100.06
446.687	84.06
446.908	101.06
447.129	81.06
447.35	84.06
447.571	93.06
447.792	77.06
448.013	98.06
448.234	82.06
448.455	96.06
448.675	114.06
448.896	114.06
449.117	88.06
449.338	98.06
449.559	116.06
449.779	111.06
450	91.06
450.221	95.06
450.442	99.06
450.662	93.06
450.883	111.06
451.104	106.06
451.324	92.06
451.545	80.06
451.766	90.06
451.986	79.06
452.207	77.06
452.428	90.06
452.648	91.06
452.869	110.06
453.089	104.06
453.31	106.06
453.53	82.06
453.751	101.06
453.971	94.06
454.192	88.06
454.412	88.06
454.633	76.06
454.853	91.06
455.073	80.06
455.294	93.06
455.514	94.06
455.734	97.06
455.955	79.06
456.175	96.06
456.395	96.06
456.616	86.06
456.836	92.06
457.056	87.06
457.276	80.06
457.497	79.06
457.717	88.06
457.937	92.06
458.157	82.06
458.377	100.06
458.598	91.06
458.818	137.06
459.038	142.06
459.258	103.06
459.478	93.06
459.698	77.06
459.918	82.06
460.138	91.06
460.358	102.06
460.578	84.06
460.798	98.06
461.018	102.06
461.238	94.06
461.458	98.06
461.678	93.06
461.898	93.06
462.118	106.06
462.338	84.06
462.558	92.06
462.777	97.06
462.997	91.06
463.217	88.06
463.437	80.06
463.657	78.06
463.876	93.06
464.096	90.06
464.316	92.06
464.536	96.06
464.755	102.06
464.975	108.06
465.195	135.06
465.414	146.06
465.634	101.06
465.854	104.06
466.073	80.06
466.293	95.06
466.512	71.06
466.732	84.06
466.951	86.06
467.171	109.06
467.391	100.06
467.61	93.06
467.829	109.06
468.049	99.06
468.268	92.06
468.488	86.06
468.707	81.06
468.927	81.06
469.146	88.06
469.365	78.06
469.585	101.06
469.804	93.06
470.023	80.06
470.243	96.06
470.462	93.06
470.681	109.06
470.901	99.06
471.12	77.06
471.339	90.06
471.558	88.06
471.777	87.06
471.997	98.06
472.216	124.06
472.435	141.06
472.654	102.06
472.873	85.06
473.092	100.06
473.311	96.06
473.53	90.06
473.749	92.06
473.968	103.06
474.187	93.06
474.406	90.06
474.625	82.06
474.844	94.06
475.063	100.06
475.282	92.06
475.501	89.06
475.72	84.06
475.939	82.06
476.158	78.06
476.377	83.06
476.596	91.06
476.814	86.06
477.033	99.06
477.252	91.06
477.471	93.06
477.69	93.06
477.908	90.06
478.127	103.06
478.346	87.06
478.564	94.06
478.783	99.06
479.002	95.06
479.22	106.06
479.439	112.06
479.658	105.06
479.876	88.06
480.095	84.06
480.313	87.06
480.532	104.06
480.751	89.06
480.969	106.06
481.188	179.06
481.406	140.06
481.624	94.06
481.843	103.06
482.061	90.06
482.28	100.06
482.498	95.06
482.717	79.06
482.935	92.06
483.153	97.06
483.372	89.06
483.59	90.06
483.808	94.06
484.027	85.06
484.245	82.06
484.463	104.06
484.681	110.06
484.9	105.06
485.118	92.06
485.336	92.06
485.554	110.06
485.772	97.06
485.99	101.06
486.209	115.06
486.427	89.06
486.645	118.06
486.863	109.06
487.081	90.06
487.299	101.06
487.517	97.06
487.735	87.06
487.953	96.06
488.171	82.06
488.389	95.06
488.607	95.06
488.825	107.06
489.043	78.06
489.261	82.06
489.479	96.06
489.696	96.06
489.914	98.06
490.132	92.06
490.35	88.06
490.568	96.06
490.786	85.06
491.003	88.06
491.221	92.06
491.439	96.06
491.657	86.06
491.874	89.06
492.092	96.06
492.31	93.06
492.527	92.06
492.745	98.06
492.963	116.06
493.18	100.06
493.398	96.06
493.615	111.06
493.833	91.06
494.05	76.06
494.268	79.06
494.485	93.06
494.703	93.06
494.92	102.06
495.138	88.06
495.355	92.06
495.573	94.06
495.79	89.06
496.008	98.06
496.225	92.06
496.442	97.06
496.66	107.06
496.877	108.06
497.094	93.06
497.312	88.06
497.529	106.06
497.746	100.06
497.963	79.06
498.181	101.06
498.398	94.06
498.615	101.06
498.832	86.06
499.049	88.06
499.267	106.06
499.484	107.06
499.701	86.06
499.918	94.06
500.135	81.06
500.352	102.06
500.569	93.06
500.786	92.06
501.003	100.06
501.22	81.06
501.437	89.06
501.654	86.06
501.871	96.06
502.088	95.06
502.305	91.06
502.522	86.06
502.739	95.06
502.956	97.06
503.172	94.06
503.389	96.06
503.606	95.06
503.823	102.06
504.04	101.06
504.256	95.06
504.473	105.06
504.69	103.06
504.907	86.06
505.123	92.06
505.34	94.06
505.557	72.06
505.773	96.06
505.99	105.06
506.207	91.06
506.423	90.06
506.64	86.06
506.856	88.06
507.073	98.06
507.289	106.06
507.506	85.06
507.722	112.06
507.939	109.06
508.155	98.06
508.372	84.06
508.588	95.06
508.805	96.06
509.021	101.06
509.238	89.06
509.454	102.06
509.67	106.06
509.887	108.06
510.103	126.06
510.319	179.06
510.536	610.06
510.752	1832.06
510.968	516.06
511.184	144.06
511.401	97.06
511.617	114.06
511.833	103.06
512.049	87.06
512.265	94.06
512.481	90.06
512.698	79.06
512.914	102.06
513.13	89.06
513.346	96.06
513.562	86.06
513.778	88.06
513.994	98.06
514.21	95.06
514.426	106.06
