Data from Uncirc_1980_H10_HRD10591_00006.txt Node
Date: Wed Jan 03 12:36:56 EST 2024
User: Yrep
Spectrometer: HR+D1059
Trigger mode: 1
Integration Time (sec): 1.000000E-1
Scans to average: 1
Electric dark correction enabled: true
Nonlinearity correction enabled: false
Boxcar width: 0
XAxis mode: Wavelengths
Number of Pixels in Spectrum: 2048
>>>>>Begin Spectral Data<<<<<
223.165	-16.62
223.4	-16.62
223.635	-16.62
223.869	-18.62
224.104	-23.62
224.338	-15.62
224.573	-22.62
224.808	-11.62
225.042	-8.62
225.277	-9.62
225.511	-12.62
225.746	11.38
225.98	14.38
226.215	22.38
226.449	13.38
226.683	14.38
226.918	24.38
227.152	39.38
227.387	30.38
227.621	33.38
227.856	42.38
228.09	46.38
228.324	45.38
228.559	62.38
228.793	83.38
229.027	78.38
229.262	87.38
229.496	76.38
229.73	78.38
229.964	75.38
230.199	65.38
230.433	85.38
230.667	87.38
230.901	87.38
231.136	97.38
231.37	85.38
231.604	88.38
231.838	79.38
232.072	82.38
232.306	86.38
232.541	85.38
232.775	78.38
233.009	99.38
233.243	89.38
233.477	76.38
233.711	81.38
233.945	88.38
234.179	72.38
234.413	92.38
234.647	85.38
234.881	81.38
235.115	85.38
235.349	90.38
235.583	77.38
235.817	77.38
236.051	77.38
236.285	80.38
236.519	85.38
236.753	83.38
236.987	86.38
237.221	76.38
237.455	73.38
237.689	92.38
237.922	85.38
238.156	99.38
238.39	68.38
238.624	83.38
238.858	85.38
239.091	70.38
239.325	74.38
239.559	81.38
239.793	76.38
240.027	84.38
240.26	97.38
240.494	79.38
240.728	62.38
240.961	75.38
241.195	62.38
241.429	80.38
241.662	77.38
241.896	65.38
242.13	80.38
242.363	76.38
242.597	75.38
242.83	78.38
243.064	79.38
243.298	82.38
243.531	70.38
243.765	77.38
243.998	86.38
244.232	77.38
244.465	79.38
244.699	86.38
244.932	77.38
245.166	76.38
245.399	92.38
245.633	80.38
245.866	81.38
246.099	77.38
246.333	83.38
246.566	75.38
246.8	87.38
247.033	72.38
247.266	94.38
247.5	76.38
247.733	80.38
247.966	85.38
248.2	80.38
248.433	77.38
248.666	94.38
248.899	73.38
249.133	91.38
249.366	102.38
249.599	99.38
249.832	63.38
250.066	75.38
250.299	81.38
250.532	84.38
250.765	80.38
250.998	71.38
251.231	84.38
251.465	81.38
251.698	81.38
251.931	95.38
252.164	59.38
252.397	79.38
252.63	85.38
252.863	80.38
253.096	77.38
253.329	87.38
253.562	86.38
253.795	83.38
254.028	84.38
254.261	94.38
254.494	71.38
254.727	79.38
254.96	79.38
255.193	92.38
255.426	70.38
255.659	105.38
255.892	89.38
256.124	83.38
256.357	72.38
256.59	85.38
256.823	76.38
257.056	74.38
257.289	72.38
257.521	81.38
257.754	86.38
257.987	91.38
258.22	78.38
258.452	80.38
258.685	90.38
258.918	78.38
259.151	71.38
259.383	81.38
259.616	62.38
259.849	73.38
260.081	78.38
260.314	67.38
260.547	84.38
260.779	75.38
261.012	78.38
261.244	84.38
261.477	88.38
261.71	100.38
261.942	114.38
262.175	102.38
262.407	88.38
262.64	91.38
262.872	87.38
263.105	87.38
263.337	86.38
263.57	102.38
263.802	90.38
264.035	85.38
264.267	90.38
264.499	73.38
264.732	91.38
264.964	83.38
265.197	74.38
265.429	79.38
265.661	83.38
265.894	96.38
266.126	99.38
266.358	93.38
266.591	84.38
266.823	85.38
267.055	78.38
267.287	80.38
267.52	84.38
267.752	93.38
267.984	95.38
268.216	96.38
268.448	94.38
268.681	92.38
268.913	91.38
269.145	89.38
269.377	88.38
269.609	100.38
269.841	95.38
270.073	98.38
270.306	104.38
270.538	86.38
270.77	70.38
271.002	81.38
271.234	74.38
271.466	77.38
271.698	73.38
271.93	90.38
272.162	96.38
272.394	95.38
272.626	88.38
272.858	73.38
273.09	87.38
273.322	88.38
273.553	87.38
273.785	90.38
274.017	87.38
274.249	93.38
274.481	92.38
274.713	69.38
274.945	91.38
275.176	102.38
275.408	88.38
275.64	75.38
275.872	80.38
276.104	92.38
276.335	97.38
276.567	92.38
276.799	96.38
277.031	89.38
277.262	89.38
277.494	95.38
277.726	87.38
277.957	83.38
278.189	76.38
278.421	79.38
278.652	91.38
278.884	77.38
279.115	80.38
279.347	85.38
279.579	87.38
279.81	84.38
280.042	93.38
280.273	97.38
280.505	90.38
280.736	92.38
280.968	104.38
281.199	83.38
281.431	99.38
281.662	87.38
281.894	94.38
282.125	103.38
282.356	115.38
282.588	134.38
282.819	110.38
283.051	94.38
283.282	88.38
283.513	96.38
283.745	96.38
283.976	72.38
284.207	94.38
284.439	83.38
284.67	86.38
284.901	83.38
285.132	89.38
285.364	101.38
285.595	98.38
285.826	92.38
286.057	78.38
286.288	99.38
286.52	93.38
286.751	79.38
286.982	91.38
287.213	104.38
287.444	76.38
287.675	76.38
287.906	89.38
288.138	88.38
288.369	110.38
288.6	93.38
288.831	99.38
289.062	89.38
289.293	109.38
289.524	90.38
289.755	90.38
289.986	92.38
290.217	85.38
290.448	93.38
290.679	85.38
290.91	94.38
291.141	91.38
291.371	88.38
291.602	94.38
291.833	74.38
292.064	88.38
292.295	94.38
292.526	94.38
292.757	96.38
292.987	96.38
293.218	66.38
293.449	92.38
293.68	98.38
293.91	88.38
294.141	97.38
294.372	92.38
294.603	92.38
294.833	75.38
295.064	84.38
295.295	94.38
295.525	78.38
295.756	99.38
295.987	98.38
296.217	120.38
296.448	107.38
296.679	87.38
296.909	97.38
297.14	96.38
297.37	95.38
297.601	97.38
297.831	92.38
298.062	91.38
298.292	98.38
298.523	85.38
298.753	96.38
298.984	81.38
299.214	99.38
299.445	85.38
299.675	91.38
299.905	91.38
300.136	73.38
300.366	94.38
300.597	89.38
300.827	104.38
301.057	104.38
301.288	95.38
301.518	100.38
301.748	109.38
301.979	109.38
302.209	96.38
302.439	99.38
302.669	92.38
302.9	94.38
303.13	95.38
303.36	96.38
303.59	100.38
303.82	95.38
304.051	99.38
304.281	94.38
304.511	83.38
304.741	104.38
304.971	90.38
305.201	93.38
305.431	100.38
305.661	80.38
305.891	77.38
306.121	103.38
306.352	95.38
306.582	109.38
306.812	95.38
307.042	92.38
307.272	88.38
307.502	88.38
307.731	81.38
307.961	92.38
308.191	97.38
308.421	79.38
308.651	93.38
308.881	80.38
309.111	93.38
309.341	94.38
309.571	90.38
309.8	99.38
310.03	108.38
310.26	102.38
310.49	98.38
310.72	97.38
310.949	98.38
311.179	103.38
311.409	88.38
311.639	90.38
311.868	102.38
312.098	89.38
312.328	99.38
312.557	94.38
312.787	123.38
313.017	102.38
313.246	110.38
313.476	98.38
313.706	107.38
313.935	96.38
314.165	107.38
314.394	112.38
314.624	100.38
314.853	89.38
315.083	90.38
315.312	83.38
315.542	100.38
315.771	91.38
316.001	95.38
316.23	92.38
316.46	93.38
316.689	96.38
316.919	91.38
317.148	87.38
317.377	100.38
317.607	100.38
317.836	104.38
318.065	99.38
318.295	92.38
318.524	79.38
318.753	81.38
318.983	84.38
319.212	98.38
319.441	100.38
319.67	96.38
319.9	104.38
320.129	87.38
320.358	89.38
320.587	92.38
320.816	91.38
321.046	106.38
321.275	85.38
321.504	92.38
321.733	97.38
321.962	87.38
322.191	108.38
322.42	104.38
322.649	114.38
322.878	113.38
323.108	100.38
323.337	136.38
323.566	135.38
323.795	147.38
324.024	183.38
324.253	357.38
324.482	707.38
324.71	1511.38
324.939	2039.38
325.168	773.38
325.397	223.38
325.626	136.38
325.855	119.38
326.084	115.38
326.313	134.38
326.542	145.38
326.77	206.38
326.999	408.38
327.228	826.38
327.457	1567.38
327.686	1297.38
327.914	353.38
328.143	188.38
328.372	136.38
328.6	131.38
328.829	113.38
329.058	125.38
329.287	121.38
329.515	124.38
329.744	110.38
329.972	101.38
330.201	114.38
330.43	121.38
330.658	128.38
330.887	131.38
331.115	126.38
331.344	93.38
331.572	105.38
331.801	114.38
332.03	93.38
332.258	96.38
332.486	100.38
332.715	72.38
332.943	109.38
333.172	101.38
333.4	107.38
333.629	105.38
333.857	106.38
334.085	107.38
334.314	108.38
334.542	147.38
334.771	128.38
334.999	96.38
335.227	91.38
335.455	102.38
335.684	107.38
335.912	112.38
336.14	102.38
336.369	93.38
336.597	101.38
336.825	106.38
337.053	92.38
337.281	91.38
337.51	100.38
337.738	80.38
337.966	113.38
338.194	100.38
338.422	97.38
338.65	89.38
338.878	104.38
339.106	87.38
339.334	93.38
339.562	97.38
339.79	90.38
340.018	88.38
340.246	98.38
340.474	95.38
340.702	83.38
340.93	87.38
341.158	91.38
341.386	95.38
341.614	103.38
341.842	84.38
342.07	91.38
342.298	76.38
342.526	85.38
342.754	95.38
342.981	77.38
343.209	88.38
343.437	101.38
343.665	100.38
343.893	103.38
344.12	92.38
344.348	93.38
344.576	105.38
344.804	98.38
345.031	105.38
345.259	93.38
345.487	100.38
345.714	91.38
345.942	91.38
346.17	101.38
346.397	92.38
346.625	79.38
346.853	97.38
347.08	93.38
347.308	107.38
347.535	94.38
347.763	105.38
347.99	96.38
348.218	107.38
348.445	107.38
348.673	107.38
348.9	105.38
349.128	108.38
349.355	102.38
349.583	105.38
349.81	90.38
350.037	96.38
350.265	102.38
350.492	89.38
350.72	78.38
350.947	97.38
351.174	116.38
351.402	113.38
351.629	101.38
351.856	105.38
352.083	107.38
352.311	125.38
352.538	112.38
352.765	104.38
352.992	113.38
353.22	108.38
353.447	101.38
353.674	110.38
353.901	111.38
354.128	105.38
354.355	89.38
354.583	104.38
354.81	109.38
355.037	99.38
355.264	109.38
355.491	93.38
355.718	94.38
355.945	103.38
356.172	114.38
356.399	93.38
356.626	104.38
356.853	102.38
357.08	97.38
357.307	105.38
357.534	96.38
357.761	107.38
357.988	117.38
358.215	127.38
358.441	111.38
358.668	110.38
358.895	103.38
359.122	99.38
359.349	102.38
359.576	109.38
359.802	94.38
360.029	118.38
360.256	118.38
360.483	113.38
360.709	77.38
360.936	89.38
361.163	88.38
361.39	93.38
361.616	97.38
361.843	111.38
362.07	112.38
362.296	90.38
362.523	84.38
362.749	83.38
362.976	98.38
363.203	104.38
363.429	100.38
363.656	93.38
363.882	83.38
364.109	110.38
364.335	95.38
364.562	77.38
364.788	76.38
365.015	85.38
365.241	100.38
365.468	107.38
365.694	109.38
365.92	88.38
366.147	91.38
366.373	104.38
366.599	70.38
366.826	78.38
367.052	76.38
367.278	96.38
367.505	99.38
367.731	85.38
367.957	72.38
368.184	96.38
368.41	97.38
368.636	98.38
368.862	128.38
369.089	98.38
369.315	71.38
369.541	85.38
369.767	95.38
369.993	96.38
370.219	78.38
370.445	94.38
370.672	92.38
370.898	106.38
371.124	107.38
371.35	92.38
371.576	95.38
371.802	107.38
372.028	104.38
372.254	93.38
372.48	92.38
372.706	88.38
372.932	93.38
373.158	92.38
373.384	103.38
373.61	96.38
373.835	111.38
374.061	93.38
374.287	89.38
374.513	104.38
374.739	88.38
374.965	101.38
375.191	93.38
375.416	104.38
375.642	101.38
375.868	96.38
376.094	81.38
376.319	80.38
376.545	94.38
376.771	97.38
376.997	110.38
377.222	88.38
377.448	95.38
377.674	92.38
377.899	85.38
378.125	100.38
378.35	102.38
378.576	110.38
378.802	108.38
379.027	94.38
379.253	111.38
379.478	93.38
379.704	97.38
379.929	89.38
380.155	111.38
380.38	108.38
380.606	112.38
380.831	100.38
381.057	109.38
381.282	111.38
381.507	112.38
381.733	110.38
381.958	121.38
382.184	125.38
382.409	113.38
382.634	125.38
382.86	135.38
383.085	125.38
383.31	123.38
383.535	142.38
383.761	113.38
383.986	128.38
384.211	121.38
384.436	125.38
384.662	125.38
384.887	145.38
385.112	157.38
385.337	143.38
385.562	148.38
385.787	147.38
386.013	172.38
386.238	165.38
386.463	135.38
386.688	147.38
386.913	150.38
387.138	154.38
387.363	148.38
387.588	124.38
387.813	114.38
388.038	156.38
388.263	187.38
388.488	165.38
388.713	110.38
388.938	110.38
389.163	76.38
389.387	108.38
389.612	105.38
389.837	87.38
390.062	95.38
390.287	98.38
390.512	99.38
390.736	93.38
390.961	111.38
391.186	106.38
391.411	89.38
391.636	103.38
391.86	94.38
392.085	91.38
392.31	88.38
392.534	86.38
392.759	98.38
392.984	96.38
393.208	92.38
393.433	111.38
393.658	99.38
393.882	95.38
394.107	100.38
394.331	107.38
394.556	70.38
394.78	96.38
395.005	73.38
395.229	80.38
395.454	76.38
395.678	101.38
395.903	89.38
396.127	89.38
396.352	93.38
396.576	71.38
396.801	86.38
397.025	105.38
397.249	92.38
397.474	101.38
397.698	92.38
397.922	90.38
398.147	91.38
398.371	92.38
398.595	93.38
398.82	78.38
399.044	93.38
399.268	89.38
399.492	81.38
399.717	97.38
399.941	95.38
400.165	99.38
400.389	99.38
400.613	91.38
400.837	70.38
401.062	90.38
401.286	93.38
401.51	91.38
401.734	85.38
401.958	100.38
402.182	114.38
402.406	147.38
402.63	122.38
402.854	87.38
403.078	91.38
403.302	85.38
403.526	91.38
403.75	101.38
403.974	73.38
404.198	94.38
404.422	85.38
404.645	92.38
404.869	103.38
405.093	107.38
405.317	117.38
405.541	111.38
405.765	101.38
405.988	123.38
406.212	129.38
406.436	204.38
406.66	143.38
406.883	88.38
407.107	97.38
407.331	104.38
407.555	93.38
407.778	97.38
408.002	97.38
408.226	90.38
408.449	112.38
408.673	95.38
408.896	99.38
409.12	105.38
409.344	101.38
409.567	89.38
409.791	112.38
410.014	96.38
410.238	89.38
410.461	91.38
410.685	99.38
410.908	104.38
411.132	106.38
411.355	119.38
411.578	99.38
411.802	83.38
412.025	86.38
412.249	92.38
412.472	94.38
412.695	80.38
412.919	104.38
413.142	99.38
413.365	93.38
413.589	102.38
413.812	80.38
414.035	85.38
414.258	98.38
414.482	91.38
414.705	91.38
414.928	105.38
415.151	107.38
415.374	92.38
415.597	111.38
415.821	94.38
416.044	85.38
416.267	100.38
416.49	101.38
416.713	99.38
416.936	109.38
417.159	92.38
417.382	101.38
417.605	99.38
417.828	94.38
418.051	108.38
418.274	104.38
418.497	86.38
418.72	101.38
418.943	93.38
419.166	93.38
419.389	93.38
419.611	95.38
419.834	95.38
420.057	84.38
420.28	92.38
420.503	75.38
420.726	101.38
420.948	93.38
421.171	88.38
421.394	107.38
421.617	97.38
421.839	84.38
422.062	84.38
422.285	98.38
422.507	103.38
422.73	119.38
422.953	121.38
423.175	96.38
423.398	96.38
423.621	93.38
423.843	75.38
424.066	92.38
424.288	87.38
424.511	94.38
424.733	88.38
424.956	102.38
425.178	111.38
425.401	99.38
425.623	97.38
425.846	98.38
426.068	98.38
426.291	108.38
426.513	92.38
426.735	104.38
426.958	95.38
427.18	105.38
427.402	141.38
427.625	152.38
427.847	133.38
428.069	108.38
428.292	97.38
428.514	94.38
428.736	104.38
428.958	91.38
429.181	84.38
429.403	86.38
429.625	85.38
429.847	98.38
430.069	113.38
430.292	105.38
430.514	100.38
430.736	97.38
430.958	104.38
431.18	90.38
431.402	97.38
431.624	92.38
431.846	81.38
432.068	95.38
432.29	80.38
432.512	98.38
432.734	97.38
432.956	96.38
433.178	106.38
433.4	100.38
433.622	81.38
433.844	77.38
434.066	91.38
434.287	89.38
434.509	101.38
434.731	87.38
434.953	91.38
435.175	92.38
435.397	90.38
435.618	100.38
435.84	94.38
436.062	131.38
436.284	122.38
436.505	105.38
436.727	98.38
436.949	94.38
437.17	104.38
437.392	94.38
437.614	103.38
437.835	105.38
438.057	112.38
438.278	122.38
438.5	119.38
438.721	137.38
438.943	110.38
439.165	107.38
439.386	87.38
439.608	95.38
439.829	104.38
440.05	121.38
440.272	142.38
440.493	93.38
440.715	83.38
440.936	78.38
441.158	78.38
441.379	103.38
441.6	91.38
441.822	75.38
442.043	100.38
442.264	108.38
442.486	105.38
442.707	98.38
442.928	106.38
443.149	134.38
443.371	126.38
443.592	105.38
443.813	120.38
444.034	103.38
444.255	102.38
444.476	94.38
444.698	106.38
444.919	91.38
445.14	133.38
445.361	117.38
445.582	113.38
445.803	142.38
446.024	137.38
446.245	147.38
446.466	119.38
446.687	98.38
446.908	77.38
447.129	76.38
447.35	89.38
447.571	105.38
447.792	92.38
448.013	111.38
448.234	112.38
448.455	115.38
448.675	121.38
448.896	129.38
449.117	103.38
449.338	99.38
449.559	127.38
449.779	136.38
450	103.38
450.221	100.38
450.442	99.38
450.662	92.38
450.883	113.38
451.104	115.38
451.324	98.38
451.545	85.38
451.766	88.38
451.986	85.38
452.207	96.38
452.428	93.38
452.648	92.38
452.869	108.38
453.089	96.38
453.31	96.38
453.53	92.38
453.751	88.38
453.971	102.38
454.192	96.38
454.412	83.38
454.633	97.38
454.853	93.38
455.073	92.38
455.294	97.38
455.514	99.38
455.734	93.38
455.955	81.38
456.175	93.38
456.395	93.38
456.616	94.38
456.836	88.38
457.056	85.38
457.276	84.38
457.497	81.38
457.717	86.38
457.937	100.38
458.157	85.38
458.377	96.38
458.598	98.38
458.818	143.38
459.038	145.38
459.258	111.38
459.478	97.38
459.698	86.38
459.918	71.38
460.138	87.38
460.358	91.38
460.578	97.38
460.798	85.38
461.018	92.38
461.238	91.38
461.458	86.38
461.678	89.38
461.898	83.38
462.118	72.38
462.338	93.38
462.558	87.38
462.777	70.38
462.997	89.38
463.217	104.38
463.437	95.38
463.657	91.38
463.876	79.38
464.096	86.38
464.316	101.38
464.536	101.38
464.755	104.38
464.975	107.38
465.195	138.38
465.414	148.38
465.634	99.38
465.854	78.38
466.073	89.38
466.293	85.38
466.512	87.38
466.732	93.38
466.951	87.38
467.171	88.38
467.391	99.38
467.61	113.38
467.829	92.38
468.049	108.38
468.268	113.38
468.488	110.38
468.707	93.38
468.927	86.38
469.146	86.38
469.365	86.38
469.585	84.38
469.804	97.38
470.023	94.38
470.243	84.38
470.462	105.38
470.681	103.38
470.901	91.38
471.12	91.38
471.339	99.38
471.558	71.38
471.777	81.38
471.997	77.38
472.216	106.38
472.435	145.38
472.654	97.38
472.873	92.38
473.092	84.38
473.311	89.38
473.53	85.38
473.749	76.38
473.968	96.38
474.187	115.38
474.406	107.38
474.625	84.38
474.844	83.38
475.063	75.38
475.282	91.38
475.501	92.38
475.72	81.38
475.939	98.38
476.158	93.38
476.377	92.38
476.596	85.38
476.814	102.38
477.033	83.38
477.252	92.38
477.471	79.38
477.69	85.38
477.908	83.38
478.127	95.38
478.346	83.38
478.564	87.38
478.783	104.38
479.002	113.38
479.22	85.38
479.439	105.38
479.658	104.38
479.876	84.38
480.095	97.38
480.313	96.38
480.532	99.38
480.751	107.38
480.969	123.38
481.188	182.38
481.406	145.38
481.624	101.38
481.843	76.38
482.061	82.38
482.28	85.38
482.498	87.38
482.717	96.38
482.935	94.38
483.153	99.38
483.372	86.38
483.59	107.38
483.808	92.38
484.027	94.38
484.245	112.38
484.463	103.38
484.681	96.38
484.9	94.38
485.118	96.38
485.336	87.38
485.554	90.38
485.772	94.38
485.99	107.38
486.209	106.38
486.427	110.38
486.645	123.38
486.863	100.38
487.081	122.38
487.299	96.38
487.517	100.38
487.735	101.38
487.953	92.38
488.171	91.38
488.389	93.38
488.607	87.38
488.825	102.38
489.043	97.38
489.261	77.38
489.479	97.38
489.696	105.38
489.914	99.38
490.132	93.38
490.35	96.38
490.568	99.38
490.786	81.38
491.003	83.38
491.221	109.38
491.439	95.38
491.657	94.38
491.874	96.38
492.092	84.38
492.31	92.38
492.527	91.38
492.745	84.38
492.963	96.38
493.18	100.38
493.398	95.38
493.615	97.38
493.833	89.38
494.05	95.38
494.268	93.38
494.485	89.38
494.703	97.38
494.92	97.38
495.138	92.38
495.355	95.38
495.573	96.38
495.79	101.38
496.008	84.38
496.225	95.38
496.442	92.38
496.66	103.38
496.877	83.38
497.094	92.38
497.312	82.38
497.529	104.38
497.746	97.38
497.963	83.38
498.181	100.38
498.398	96.38
498.615	110.38
498.832	104.38
499.049	95.38
499.267	93.38
499.484	89.38
499.701	90.38
499.918	91.38
500.135	91.38
500.352	99.38
500.569	101.38
500.786	91.38
501.003	87.38
501.22	91.38
501.437	92.38
501.654	95.38
501.871	106.38
502.088	102.38
502.305	98.38
502.522	90.38
502.739	90.38
502.956	92.38
503.172	93.38
503.389	79.38
503.606	100.38
503.823	95.38
504.04	101.38
504.256	86.38
504.473	85.38
504.69	89.38
504.907	95.38
505.123	96.38
505.34	80.38
505.557	101.38
505.773	92.38
505.99	94.38
506.207	81.38
506.423	98.38
506.64	91.38
506.856	93.38
507.073	74.38
507.289	100.38
507.506	92.38
507.722	105.38
507.939	95.38
508.155	107.38
508.372	93.38
508.588	92.38
508.805	104.38
509.021	90.38
509.238	94.38
509.454	102.38
509.67	95.38
509.887	118.38
510.103	121.38
510.319	195.38
510.536	629.38
510.752	1907.38
510.968	537.38
511.184	128.38
511.401	101.38
511.617	97.38
511.833	112.38
512.049	97.38
512.265	86.38
512.481	104.38
512.698	85.38
512.914	101.38
513.13	91.38
513.346	90.38
513.562	100.38
513.778	114.38
513.994	96.38
