Data from Uncirc_1980_H10_HRD10591_00035.txt Node
Date: Wed Jan 03 12:37:02 EST 2024
User: Yrep
Spectrometer: HR+D1059
Trigger mode: 1
Integration Time (sec): 1.000000E-1
Scans to average: 1
Electric dark correction enabled: true
Nonlinearity correction enabled: false
Boxcar width: 0
XAxis mode: Wavelengths
Number of Pixels in Spectrum: 2048
>>>>>Begin Spectral Data<<<<<
223.165	-11.81
223.4	-11.81
223.635	-11.81
223.869	-42.81
224.104	-28.81
224.338	-9.81
224.573	-8.81
224.808	-20.81
225.042	-14.81
225.277	-8.81
225.511	5.19
225.746	-3.81
225.98	9.19
226.215	21.19
226.449	31.19
226.683	15.19
226.918	27.19
227.152	41.19
227.387	38.19
227.621	39.19
227.856	43.19
228.09	55.19
228.324	49.19
228.559	52.19
228.793	67.19
229.027	67.19
229.262	76.19
229.496	85.19
229.73	74.19
229.964	79.19
230.199	62.19
230.433	69.19
230.667	70.19
230.901	72.19
231.136	82.19
231.37	86.19
231.604	73.19
231.838	75.19
232.072	82.19
232.306	73.19
232.541	75.19
232.775	65.19
233.009	87.19
233.243	73.19
233.477	80.19
233.711	80.19
233.945	88.19
234.179	89.19
234.413	83.19
234.647	76.19
234.881	79.19
235.115	71.19
235.349	69.19
235.583	75.19
235.817	94.19
236.051	79.19
236.285	72.19
236.519	58.19
236.753	84.19
236.987	87.19
237.221	68.19
237.455	75.19
237.689	69.19
237.922	79.19
238.156	78.19
238.39	84.19
238.624	87.19
238.858	76.19
239.091	78.19
239.325	80.19
239.559	87.19
239.793	67.19
240.027	83.19
240.26	75.19
240.494	75.19
240.728	75.19
240.961	78.19
241.195	82.19
241.429	83.19
241.662	65.19
241.896	68.19
242.13	69.19
242.363	67.19
242.597	74.19
242.83	72.19
243.064	69.19
243.298	62.19
243.531	76.19
243.765	75.19
243.998	77.19
244.232	74.19
244.465	83.19
244.699	73.19
244.932	87.19
245.166	90.19
245.399	90.19
245.633	88.19
245.866	88.19
246.099	68.19
246.333	77.19
246.566	74.19
246.8	80.19
247.033	77.19
247.266	91.19
247.5	81.19
247.733	70.19
247.966	62.19
248.2	72.19
248.433	83.19
248.666	89.19
248.899	89.19
249.133	87.19
249.366	95.19
249.599	87.19
249.832	82.19
250.066	94.19
250.299	70.19
250.532	82.19
250.765	69.19
250.998	74.19
251.231	85.19
251.465	79.19
251.698	80.19
251.931	90.19
252.164	89.19
252.397	84.19
252.63	84.19
252.863	84.19
253.096	85.19
253.329	72.19
253.562	72.19
253.795	86.19
254.028	79.19
254.261	73.19
254.494	80.19
254.727	84.19
254.96	87.19
255.193	70.19
255.426	83.19
255.659	79.19
255.892	68.19
256.124	77.19
256.357	75.19
256.59	87.19
256.823	81.19
257.056	81.19
257.289	79.19
257.521	80.19
257.754	81.19
257.987	83.19
258.22	87.19
258.452	81.19
258.685	78.19
258.918	71.19
259.151	98.19
259.383	91.19
259.616	68.19
259.849	83.19
260.081	96.19
260.314	75.19
260.547	84.19
260.779	72.19
261.012	84.19
261.244	79.19
261.477	96.19
261.71	93.19
261.942	109.19
262.175	104.19
262.407	85.19
262.64	68.19
262.872	77.19
263.105	68.19
263.337	81.19
263.57	84.19
263.802	104.19
264.035	64.19
264.267	87.19
264.499	79.19
264.732	89.19
264.964	88.19
265.197	71.19
265.429	97.19
265.661	88.19
265.894	91.19
266.126	86.19
266.358	80.19
266.591	78.19
266.823	81.19
267.055	69.19
267.287	98.19
267.52	98.19
267.752	88.19
267.984	89.19
268.216	94.19
268.448	89.19
268.681	93.19
268.913	87.19
269.145	69.19
269.377	69.19
269.609	84.19
269.841	91.19
270.073	79.19
270.306	88.19
270.538	93.19
270.77	80.19
271.002	85.19
271.234	95.19
271.466	106.19
271.698	79.19
271.93	86.19
272.162	83.19
272.394	96.19
272.626	104.19
272.858	80.19
273.09	101.19
273.322	73.19
273.553	81.19
273.785	86.19
274.017	78.19
274.249	83.19
274.481	73.19
274.713	85.19
274.945	87.19
275.176	95.19
275.408	84.19
275.64	97.19
275.872	87.19
276.104	100.19
276.335	82.19
276.567	93.19
276.799	95.19
277.031	86.19
277.262	80.19
277.494	86.19
277.726	91.19
277.957	81.19
278.189	88.19
278.421	99.19
278.652	91.19
278.884	79.19
279.115	78.19
279.347	91.19
279.579	88.19
279.81	84.19
280.042	81.19
280.273	94.19
280.505	91.19
280.736	95.19
280.968	95.19
281.199	84.19
281.431	104.19
281.662	88.19
281.894	92.19
282.125	94.19
282.356	106.19
282.588	125.19
282.819	103.19
283.051	95.19
283.282	81.19
283.513	107.19
283.745	76.19
283.976	83.19
284.207	83.19
284.439	83.19
284.67	78.19
284.901	83.19
285.132	93.19
285.364	84.19
285.595	100.19
285.826	68.19
286.057	86.19
286.288	74.19
286.52	89.19
286.751	74.19
286.982	91.19
287.213	83.19
287.444	78.19
287.675	87.19
287.906	97.19
288.138	87.19
288.369	83.19
288.6	100.19
288.831	93.19
289.062	93.19
289.293	93.19
289.524	97.19
289.755	87.19
289.986	91.19
290.217	86.19
290.448	96.19
290.679	83.19
290.91	95.19
291.141	77.19
291.371	94.19
291.602	97.19
291.833	89.19
292.064	86.19
292.295	92.19
292.526	105.19
292.757	87.19
292.987	67.19
293.218	79.19
293.449	87.19
293.68	83.19
293.91	80.19
294.141	92.19
294.372	91.19
294.603	79.19
294.833	88.19
295.064	87.19
295.295	90.19
295.525	91.19
295.756	97.19
295.987	107.19
296.217	120.19
296.448	109.19
296.679	89.19
296.909	99.19
297.14	95.19
297.37	97.19
297.601	84.19
297.831	79.19
298.062	65.19
298.292	91.19
298.523	87.19
298.753	95.19
298.984	83.19
299.214	85.19
299.445	81.19
299.675	86.19
299.905	82.19
300.136	84.19
300.366	95.19
300.597	76.19
300.827	91.19
301.057	87.19
301.288	97.19
301.518	83.19
301.748	93.19
301.979	115.19
302.209	80.19
302.439	95.19
302.669	103.19
302.9	84.19
303.13	106.19
303.36	89.19
303.59	83.19
303.82	95.19
304.051	90.19
304.281	100.19
304.511	80.19
304.741	91.19
304.971	96.19
305.201	87.19
305.431	89.19
305.661	97.19
305.891	90.19
306.121	91.19
306.352	92.19
306.582	101.19
306.812	100.19
307.042	87.19
307.272	91.19
307.502	80.19
307.731	91.19
307.961	80.19
308.191	83.19
308.421	94.19
308.651	89.19
308.881	89.19
309.111	102.19
309.341	95.19
309.571	93.19
309.8	93.19
310.03	113.19
310.26	92.19
310.49	89.19
310.72	106.19
310.949	97.19
311.179	108.19
311.409	79.19
311.639	94.19
311.868	93.19
312.098	95.19
312.328	97.19
312.557	98.19
312.787	112.19
313.017	91.19
313.246	96.19
313.476	92.19
313.706	99.19
313.935	89.19
314.165	94.19
314.394	99.19
314.624	84.19
314.853	89.19
315.083	88.19
315.312	84.19
315.542	83.19
315.771	92.19
316.001	97.19
316.23	92.19
316.46	80.19
316.689	89.19
316.919	103.19
317.148	101.19
317.377	93.19
317.607	81.19
317.836	95.19
318.065	94.19
318.295	95.19
318.524	90.19
318.753	84.19
318.983	76.19
319.212	81.19
319.441	95.19
319.67	86.19
319.9	94.19
320.129	80.19
320.358	102.19
320.587	90.19
320.816	87.19
321.046	95.19
321.275	95.19
321.504	92.19
321.733	83.19
321.962	89.19
322.191	108.19
322.42	96.19
322.649	109.19
322.878	103.19
323.108	109.19
323.337	107.19
323.566	106.19
323.795	137.19
324.024	174.19
324.253	270.19
324.482	562.19
324.71	1136.19
324.939	1473.19
325.168	562.19
325.397	193.19
325.626	121.19
325.855	112.19
326.084	119.19
326.313	107.19
326.542	142.19
326.77	187.19
326.999	328.19
327.228	623.19
327.457	1143.19
327.686	927.19
327.914	282.19
328.143	166.19
328.372	127.19
328.6	112.19
328.829	106.19
329.058	129.19
329.287	103.19
329.515	114.19
329.744	102.19
329.972	87.19
330.201	100.19
330.43	110.19
330.658	127.19
330.887	107.19
331.115	107.19
331.344	85.19
331.572	94.19
331.801	91.19
332.03	96.19
332.258	95.19
332.486	102.19
332.715	99.19
332.943	89.19
333.172	102.19
333.4	90.19
333.629	103.19
333.857	104.19
334.085	87.19
334.314	108.19
334.542	115.19
334.771	132.19
334.999	99.19
335.227	93.19
335.455	102.19
335.684	95.19
335.912	102.19
336.14	99.19
336.369	89.19
336.597	97.19
336.825	87.19
337.053	101.19
337.281	87.19
337.51	99.19
337.738	81.19
337.966	96.19
338.194	110.19
338.422	85.19
338.65	92.19
338.878	91.19
339.106	84.19
339.334	109.19
339.562	87.19
339.79	82.19
340.018	85.19
340.246	92.19
340.474	98.19
340.702	99.19
340.93	102.19
341.158	96.19
341.386	89.19
341.614	94.19
341.842	99.19
342.07	87.19
342.298	89.19
342.526	96.19
342.754	98.19
342.981	98.19
343.209	93.19
343.437	116.19
343.665	111.19
343.893	91.19
344.12	82.19
344.348	90.19
344.576	93.19
344.804	99.19
345.031	104.19
345.259	107.19
345.487	106.19
345.714	93.19
345.942	87.19
346.17	99.19
346.397	82.19
346.625	105.19
346.853	102.19
347.08	95.19
347.308	95.19
347.535	97.19
347.763	100.19
347.99	102.19
348.218	88.19
348.445	85.19
348.673	96.19
348.9	92.19
349.128	104.19
349.355	95.19
349.583	91.19
349.81	99.19
350.037	87.19
350.265	101.19
350.492	103.19
350.72	101.19
350.947	101.19
351.174	95.19
351.402	107.19
351.629	103.19
351.856	105.19
352.083	111.19
352.311	106.19
352.538	105.19
352.765	101.19
352.992	112.19
353.22	107.19
353.447	96.19
353.674	100.19
353.901	92.19
354.128	97.19
354.355	88.19
354.583	107.19
354.81	92.19
355.037	100.19
355.264	101.19
355.491	105.19
355.718	106.19
355.945	105.19
356.172	80.19
356.399	125.19
356.626	109.19
356.853	91.19
357.08	106.19
357.307	102.19
357.534	92.19
357.761	102.19
357.988	103.19
358.215	103.19
358.441	103.19
358.668	93.19
358.895	97.19
359.122	99.19
359.349	91.19
359.576	86.19
359.802	110.19
360.029	98.19
360.256	98.19
360.483	98.19
360.709	93.19
360.936	103.19
361.163	80.19
361.39	96.19
361.616	93.19
361.843	91.19
362.07	102.19
362.296	106.19
362.523	87.19
362.749	94.19
362.976	88.19
363.203	87.19
363.429	94.19
363.656	97.19
363.882	93.19
364.109	83.19
364.335	88.19
364.562	79.19
364.788	94.19
365.015	81.19
365.241	99.19
365.468	106.19
365.694	87.19
365.92	97.19
366.147	105.19
366.373	74.19
366.599	85.19
366.826	86.19
367.052	84.19
367.278	94.19
367.505	80.19
367.731	89.19
367.957	84.19
368.184	91.19
368.41	97.19
368.636	93.19
368.862	113.19
369.089	93.19
369.315	87.19
369.541	89.19
369.767	97.19
369.993	83.19
370.219	107.19
370.445	83.19
370.672	89.19
370.898	99.19
371.124	83.19
371.35	87.19
371.576	90.19
371.802	102.19
372.028	92.19
372.254	88.19
372.48	94.19
372.706	92.19
372.932	85.19
373.158	104.19
373.384	99.19
373.61	91.19
373.835	91.19
374.061	77.19
374.287	96.19
374.513	99.19
374.739	102.19
374.965	77.19
375.191	102.19
375.416	95.19
375.642	77.19
375.868	96.19
376.094	97.19
376.319	97.19
376.545	99.19
376.771	83.19
376.997	102.19
377.222	89.19
377.448	100.19
377.674	95.19
377.899	103.19
378.125	88.19
378.35	103.19
378.576	102.19
378.802	94.19
379.027	91.19
379.253	104.19
379.478	80.19
379.704	97.19
379.929	89.19
380.155	101.19
380.38	101.19
380.606	97.19
380.831	103.19
381.057	105.19
381.282	102.19
381.507	97.19
381.733	101.19
381.958	81.19
382.184	104.19
382.409	114.19
382.634	109.19
382.86	121.19
383.085	95.19
383.31	97.19
383.535	106.19
383.761	109.19
383.986	113.19
384.211	103.19
384.436	107.19
384.662	119.19
384.887	122.19
385.112	113.19
385.337	113.19
385.562	108.19
385.787	121.19
386.013	111.19
386.238	118.19
386.463	115.19
386.688	113.19
386.913	110.19
387.138	118.19
387.363	109.19
387.588	118.19
387.813	97.19
388.038	107.19
388.263	122.19
388.488	114.19
388.713	115.19
388.938	93.19
389.163	107.19
389.387	89.19
389.612	84.19
389.837	83.19
390.062	106.19
390.287	93.19
390.512	91.19
390.736	82.19
390.961	90.19
391.186	95.19
391.411	98.19
391.636	93.19
391.86	84.19
392.085	86.19
392.31	72.19
392.534	84.19
392.759	95.19
392.984	99.19
393.208	89.19
393.433	99.19
393.658	101.19
393.882	89.19
394.107	86.19
394.331	90.19
394.556	86.19
394.78	90.19
395.005	92.19
395.229	93.19
395.454	70.19
395.678	79.19
395.903	75.19
396.127	90.19
396.352	83.19
396.576	98.19
396.801	81.19
397.025	92.19
397.249	99.19
397.474	104.19
397.698	90.19
397.922	93.19
398.147	85.19
398.371	74.19
398.595	91.19
398.82	91.19
399.044	87.19
399.268	84.19
399.492	89.19
399.717	93.19
399.941	91.19
400.165	91.19
400.389	110.19
400.613	83.19
400.837	95.19
401.062	85.19
401.286	85.19
401.51	104.19
401.734	79.19
401.958	101.19
402.182	99.19
402.406	135.19
402.63	85.19
402.854	95.19
403.078	95.19
403.302	92.19
403.526	95.19
403.75	103.19
403.974	99.19
404.198	81.19
404.422	84.19
404.645	99.19
404.869	87.19
405.093	91.19
405.317	80.19
405.541	97.19
405.765	97.19
405.988	104.19
406.212	156.19
406.436	191.19
406.66	114.19
406.883	91.19
407.107	91.19
407.331	103.19
407.555	101.19
407.778	81.19
408.002	80.19
408.226	104.19
408.449	80.19
408.673	99.19
408.896	98.19
409.12	82.19
409.344	77.19
409.567	81.19
409.791	94.19
410.014	97.19
410.238	93.19
410.461	84.19
410.685	95.19
410.908	97.19
411.132	102.19
411.355	92.19
411.578	96.19
411.802	101.19
412.025	88.19
412.249	103.19
412.472	99.19
412.695	94.19
412.919	99.19
413.142	99.19
413.365	85.19
413.589	83.19
413.812	86.19
414.035	84.19
414.258	97.19
414.482	91.19
414.705	81.19
414.928	86.19
415.151	93.19
415.374	88.19
415.597	95.19
415.821	91.19
416.044	89.19
416.267	94.19
416.49	94.19
416.713	87.19
416.936	111.19
417.159	100.19
417.382	81.19
417.605	85.19
417.828	85.19
418.051	88.19
418.274	92.19
418.497	94.19
418.72	107.19
418.943	80.19
419.166	100.19
419.389	99.19
419.611	102.19
419.834	92.19
420.057	83.19
420.28	87.19
420.503	85.19
420.726	87.19
420.948	95.19
421.171	106.19
421.394	98.19
421.617	87.19
421.839	83.19
422.062	100.19
422.285	102.19
422.507	102.19
422.73	84.19
422.953	93.19
423.175	99.19
423.398	91.19
423.621	96.19
423.843	77.19
424.066	77.19
424.288	100.19
424.511	103.19
424.733	92.19
424.956	95.19
425.178	107.19
425.401	88.19
425.623	96.19
425.846	79.19
426.068	99.19
426.291	83.19
426.513	91.19
426.735	84.19
426.958	89.19
427.18	85.19
427.402	119.19
427.625	132.19
427.847	122.19
428.069	109.19
428.292	95.19
428.514	85.19
428.736	84.19
428.958	92.19
429.181	105.19
429.403	74.19
429.625	87.19
429.847	87.19
430.069	87.19
430.292	93.19
430.514	83.19
430.736	93.19
430.958	91.19
431.18	80.19
431.402	93.19
431.624	90.19
431.846	91.19
432.068	74.19
432.29	95.19
432.512	81.19
432.734	95.19
432.956	92.19
433.178	89.19
433.4	93.19
433.622	85.19
433.844	92.19
434.066	89.19
434.287	90.19
434.509	71.19
434.731	90.19
434.953	79.19
435.175	99.19
435.397	92.19
435.618	88.19
435.84	100.19
436.062	117.19
436.284	80.19
436.505	85.19
436.727	96.19
436.949	88.19
437.17	93.19
437.392	91.19
437.614	87.19
437.835	91.19
438.057	109.19
438.278	112.19
438.5	93.19
438.721	100.19
438.943	93.19
439.165	85.19
439.386	101.19
439.608	91.19
439.829	97.19
440.05	101.19
440.272	112.19
440.493	79.19
440.715	97.19
440.936	87.19
441.158	79.19
441.379	78.19
441.6	97.19
441.822	92.19
442.043	89.19
442.264	100.19
442.486	106.19
442.707	88.19
442.928	110.19
443.149	115.19
443.371	113.19
443.592	89.19
443.813	95.19
444.034	92.19
444.255	92.19
444.476	90.19
444.698	77.19
444.919	101.19
445.14	130.19
445.361	113.19
445.582	105.19
445.803	117.19
446.024	97.19
446.245	106.19
446.466	99.19
446.687	79.19
446.908	84.19
447.129	78.19
447.35	87.19
447.571	99.19
447.792	101.19
448.013	94.19
448.234	98.19
448.455	91.19
448.675	93.19
448.896	117.19
449.117	106.19
449.338	98.19
449.559	101.19
449.779	115.19
450	93.19
450.221	90.19
450.442	89.19
450.662	83.19
450.883	101.19
451.104	95.19
451.324	96.19
451.545	84.19
451.766	91.19
451.986	81.19
452.207	95.19
452.428	87.19
452.648	94.19
452.869	96.19
453.089	107.19
453.31	98.19
453.53	96.19
453.751	86.19
453.971	89.19
454.192	93.19
454.412	85.19
454.633	94.19
454.853	93.19
455.073	85.19
455.294	106.19
455.514	84.19
455.734	77.19
455.955	73.19
456.175	76.19
456.395	74.19
456.616	76.19
456.836	100.19
457.056	81.19
457.276	84.19
457.497	91.19
457.717	96.19
457.937	83.19
458.157	78.19
458.377	99.19
458.598	101.19
458.818	104.19
459.038	99.19
459.258	91.19
459.478	79.19
459.698	87.19
459.918	87.19
460.138	91.19
460.358	104.19
460.578	94.19
460.798	107.19
461.018	89.19
461.238	91.19
461.458	92.19
461.678	79.19
461.898	78.19
462.118	91.19
462.338	96.19
462.558	72.19
462.777	90.19
462.997	76.19
463.217	84.19
463.437	81.19
463.657	96.19
463.876	89.19
464.096	85.19
464.316	88.19
464.536	89.19
464.755	87.19
464.975	100.19
465.195	126.19
465.414	121.19
465.634	108.19
465.854	95.19
466.073	87.19
466.293	84.19
466.512	86.19
466.732	86.19
466.951	89.19
467.171	87.19
467.391	80.19
467.61	93.19
467.829	101.19
468.049	87.19
468.268	92.19
468.488	89.19
468.707	92.19
468.927	87.19
469.146	79.19
469.365	99.19
469.585	99.19
469.804	87.19
470.023	100.19
470.243	84.19
470.462	92.19
470.681	89.19
470.901	89.19
471.12	92.19
471.339	117.19
471.558	92.19
471.777	87.19
471.997	92.19
472.216	101.19
472.435	126.19
472.654	102.19
472.873	95.19
473.092	88.19
473.311	85.19
473.53	88.19
473.749	78.19
473.968	79.19
474.187	101.19
474.406	96.19
474.625	90.19
474.844	91.19
475.063	84.19
475.282	102.19
475.501	87.19
475.72	112.19
475.939	95.19
476.158	84.19
476.377	102.19
476.596	79.19
476.814	93.19
477.033	91.19
477.252	85.19
477.471	91.19
477.69	92.19
477.908	93.19
478.127	99.19
478.346	91.19
478.564	94.19
478.783	95.19
479.002	95.19
479.22	92.19
479.439	95.19
479.658	91.19
479.876	96.19
480.095	77.19
480.313	83.19
480.532	90.19
480.751	105.19
480.969	118.19
481.188	159.19
481.406	125.19
481.624	86.19
481.843	90.19
482.061	99.19
482.28	82.19
482.498	79.19
482.717	95.19
482.935	91.19
483.153	90.19
483.372	87.19
483.59	96.19
483.808	99.19
484.027	99.19
484.245	89.19
484.463	87.19
484.681	92.19
484.9	81.19
485.118	95.19
485.336	89.19
485.554	101.19
485.772	101.19
485.99	100.19
486.209	89.19
486.427	102.19
486.645	111.19
486.863	101.19
487.081	101.19
487.299	108.19
487.517	98.19
487.735	88.19
487.953	96.19
488.171	80.19
488.389	104.19
488.607	96.19
488.825	95.19
489.043	88.19
489.261	97.19
489.479	80.19
489.696	81.19
489.914	95.19
490.132	80.19
490.35	110.19
490.568	89.19
490.786	86.19
491.003	86.19
491.221	84.19
491.439	88.19
491.657	97.19
491.874	95.19
492.092	94.19
492.31	99.19
492.527	83.19
492.745	98.19
492.963	87.19
493.18	83.19
493.398	100.19
493.615	94.19
493.833	96.19
494.05	84.19
494.268	90.19
494.485	97.19
494.703	93.19
494.92	80.19
495.138	87.19
495.355	94.19
495.573	93.19
495.79	86.19
496.008	95.19
496.225	89.19
496.442	88.19
496.66	92.19
496.877	91.19
497.094	93.19
497.312	93.19
497.529	97.19
497.746	86.19
497.963	90.19
498.181	85.19
498.398	98.19
498.615	117.19
498.832	95.19
499.049	109.19
499.267	88.19
499.484	75.19
499.701	99.19
499.918	78.19
500.135	77.19
500.352	92.19
500.569	94.19
500.786	96.19
501.003	92.19
501.22	95.19
501.437	87.19
501.654	93.19
501.871	89.19
502.088	96.19
502.305	87.19
502.522	85.19
502.739	81.19
502.956	101.19
503.172	80.19
503.389	78.19
503.606	89.19
503.823	89.19
504.04	89.19
504.256	98.19
504.473	96.19
504.69	94.19
504.907	88.19
505.123	99.19
505.34	85.19
505.557	87.19
505.773	94.19
505.99	99.19
506.207	89.19
506.423	88.19
506.64	73.19
506.856	92.19
507.073	79.19
507.289	87.19
507.506	87.19
507.722	95.19
507.939	101.19
508.155	91.19
508.372	99.19
508.588	107.19
508.805	104.19
509.021	88.19
509.238	80.19
509.454	83.19
509.67	93.19
509.887	112.19
510.103	111.19
510.319	180.19
510.536	565.19
510.752	1665.19
510.968	494.19
511.184	131.19
511.401	115.19
511.617	102.19
511.833	89.19
512.049	91.19
512.265	87.19
512.481	103.19
512.698	103.19
512.914	97.19
513.13	87.19
513.346	100.19
513.562	103.19
513.778	96.19
513.994	91.19
514.21	94.19
514.426	120.19
514.642	109.19
514.858	121.19
515.074	126.19
515.29	324.19
515.506	952.19
515.721	368.19
515.937	129.19
