Data from Uncirc_1980_H10_HRD10591_00014.txt Node
Date: Wed Jan 03 12:36:58 EST 2024
User: Yrep
Spectrometer: HR+D1059
Trigger mode: 1
Integration Time (sec): 1.000000E-1
Scans to average: 1
Electric dark correction enabled: true
Nonlinearity correction enabled: false
Boxcar width: 0
XAxis mode: Wavelengths
Number of Pixels in Spectrum: 2048
>>>>>Begin Spectral Data<<<<<
223.165	-25
223.4	-25
223.635	-25
223.869	-11
224.104	-14
224.338	-10
224.573	-16
224.808	4
225.042	-17
225.277	0
225.511	-1
225.746	-4
225.98	6
226.215	2
226.449	2
226.683	22
226.918	24
227.152	38
227.387	35
227.621	38
227.856	44
228.09	52
228.324	65
228.559	54
228.793	153
229.027	411
229.262	470
229.496	567
229.73	724
229.964	751
230.199	499
230.433	432
230.667	427
230.901	439
231.136	422
231.37	442
231.604	418
231.838	425
232.072	436
232.306	422
232.541	451
232.775	458
233.009	464
233.243	486
233.477	490
233.711	478
233.945	478
234.179	500
234.413	487
234.647	503
234.881	499
235.115	519
235.349	525
235.583	546
235.817	558
236.051	583
236.285	584
236.519	596
236.753	654
236.987	814
237.221	1232
237.455	1359
237.689	806
237.922	705
238.156	674
238.39	675
238.624	628
238.858	596
239.091	620
239.325	628
239.559	651
239.793	667
240.027	736
240.26	895
240.494	905
240.728	902
240.961	862
241.195	791
241.429	762
241.662	780
241.896	710
242.13	724
242.363	746
242.597	786
242.83	836
243.064	801
243.298	761
243.531	794
243.765	814
243.998	827
244.232	814
244.465	855
244.699	883
244.932	859
245.166	879
245.399	884
245.633	909
245.866	898
246.099	900
246.333	892
246.566	939
246.8	926
247.033	981
247.266	1003
247.5	1031
247.733	1120
247.966	1101
248.2	1122
248.433	1124
248.666	1138
248.899	1268
249.133	1373
249.366	1378
249.599	1232
249.832	1203
250.066	1162
250.299	1238
250.532	1316
250.765	1483
250.998	1616
251.231	1577
251.465	1468
251.698	1391
251.931	1371
252.164	1307
252.397	1322
252.63	1404
252.863	1481
253.096	1580
253.329	1654
253.562	1588
253.795	1485
254.028	1489
254.261	1583
254.494	1707
254.727	2026
254.96	2076
255.193	1853
255.426	1643
255.659	1640
255.892	1629
256.124	1682
256.357	1652
256.59	1572
256.823	1504
257.056	1483
257.289	1502
257.521	1507
257.754	1498
257.987	1478
258.22	1488
258.452	1499
258.685	1506
258.918	1523
259.151	1554
259.383	1637
259.616	1662
259.849	1663
260.081	1842
260.314	1963
260.547	1921
260.779	1759
261.012	1684
261.244	1652
261.477	1568
261.71	1614
261.942	1648
262.175	1666
262.407	1637
262.64	1598
262.872	1565
263.105	1585
263.337	1572
263.57	1557
263.802	1611
264.035	1639
264.267	1636
264.499	1620
264.732	1624
264.964	1639
265.197	1656
265.429	1683
265.661	1636
265.894	1661
266.126	1686
266.358	1688
266.591	1712
266.823	1789
267.055	1802
267.287	1785
267.52	1780
267.752	1800
267.984	1800
268.216	1829
268.448	1843
268.681	1926
268.913	2029
269.145	2173
269.377	2264
269.609	2106
269.841	2111
270.073	2252
270.306	2531
270.538	2600
270.77	2504
271.002	2386
271.234	2326
271.466	2466
271.698	2551
271.93	2584
272.162	2599
272.394	2478
272.626	2354
272.858	2232
273.09	2198
273.322	2135
273.553	2103
273.785	2183
274.017	2150
274.249	2186
274.481	2152
274.713	2162
274.945	2144
275.176	2178
275.408	2158
275.64	2201
275.872	2141
276.104	2219
276.335	2228
276.567	2333
276.799	2386
277.031	2674
277.262	2728
277.494	2639
277.726	2516
277.957	2397
278.189	2350
278.421	2342
278.652	2266
278.884	2278
279.115	2246
279.347	2279
279.579	2261
279.81	2296
280.042	2296
280.273	2325
280.505	2287
280.736	2325
280.968	2364
281.199	2366
281.431	2337
281.662	2350
281.894	2382
282.125	2406
282.356	2526
282.588	2671
282.819	2538
283.051	2447
283.282	2452
283.513	2441
283.745	2514
283.976	2526
284.207	2548
284.439	2543
284.67	2542
284.901	2550
285.132	2509
285.364	2558
285.595	2542
285.826	2611
286.057	2528
286.288	2544
286.52	2590
286.751	2588
286.982	2630
287.213	2618
287.444	2651
287.675	2696
287.906	2770
288.138	2815
288.369	2756
288.6	2797
288.831	2720
289.062	2725
289.293	2697
289.524	2748
289.755	2735
289.986	2710
290.217	2631
290.448	2735
290.679	2713
290.91	2701
291.141	2704
291.371	2726
291.602	2714
291.833	2688
292.064	2714
292.295	2791
292.526	2684
292.757	2720
292.987	2744
293.218	2726
293.449	2770
293.68	2731
293.91	2761
294.141	2722
294.372	2738
294.603	2741
294.833	2805
295.064	2786
295.295	2760
295.525	2795
295.756	2839
295.987	2876
296.217	3024
296.448	3012
296.679	2849
296.909	2808
297.14	2898
297.37	2895
297.601	2927
297.831	2889
298.062	2915
298.292	2939
298.523	2998
298.753	3032
298.984	3023
299.214	2962
299.445	2988
299.675	3009
299.905	3055
300.136	3035
300.366	3020
300.597	3030
300.827	3107
301.057	3243
301.288	3228
301.518	3192
301.748	3207
301.979	3247
302.209	3287
302.439	3323
302.669	3280
302.9	3145
303.13	3178
303.36	3190
303.59	3222
303.82	3219
304.051	3245
304.281	3221
304.511	3135
304.741	3187
304.971	3133
305.201	3143
305.431	3127
305.661	3178
305.891	3159
306.121	3154
306.352	3188
306.582	3163
306.812	3089
307.042	3160
307.272	3142
307.502	3122
307.731	3205
307.961	3143
308.191	3144
308.421	3142
308.651	3194
308.881	3151
309.111	3197
309.341	3217
309.571	3307
309.8	3373
310.03	3427
310.26	3415
310.49	3373
310.72	3466
310.949	3587
311.179	3608
311.409	3428
311.639	3427
311.868	3435
312.098	3513
312.328	3642
312.557	3671
312.787	3693
313.017	3687
313.246	3653
313.476	3516
313.706	3621
313.935	3647
314.165	3680
314.394	3785
314.624	3702
314.853	3645
315.083	3585
315.312	3590
315.542	3538
315.771	3488
316.001	3542
316.23	3475
316.46	3522
316.689	3604
316.919	3624
317.148	3631
317.377	3621
317.607	3604
317.836	3526
318.065	3508
318.295	3568
318.524	3511
318.753	3528
318.983	3511
319.212	3452
319.441	3587
319.67	3638
319.9	3550
320.129	3519
320.358	3560
320.587	3525
320.816	3625
321.046	3631
321.275	3675
321.504	3624
321.733	3702
321.962	3699
322.191	3806
322.42	3911
322.649	3966
322.878	3956
323.108	4100
323.337	4238
323.566	4406
323.795	4562
324.024	5088
324.253	6411
324.482	9503
324.71	14198
324.939	15632
325.168	10585
325.397	5823
325.626	4848
325.855	4505
326.084	4491
326.313	4450
326.542	4541
326.77	5179
326.999	6320
327.228	9003
327.457	13284
327.686	12332
327.914	6599
328.143	5288
328.372	5082
328.6	4934
328.829	4839
329.058	4978
329.287	4902
329.515	4708
329.744	4604
329.972	4703
330.201	4784
330.43	5076
330.658	5187
330.887	5346
331.115	5004
331.344	4700
331.572	4623
331.801	4795
332.03	4833
332.258	4719
332.486	4674
332.715	4842
332.943	4926
333.172	5046
333.4	5217
333.629	5354
333.857	5414
334.085	5483
334.314	5576
334.542	5616
334.771	5565
334.999	5187
335.227	5044
335.455	4990
335.684	4826
335.912	4883
336.14	4728
336.369	4782
336.597	4792
336.825	4764
337.053	4672
337.281	4553
337.51	4538
337.738	4515
337.966	4506
338.194	4538
338.422	4415
338.65	4306
338.878	4336
339.106	4336
339.334	4381
339.562	4260
339.79	4234
340.018	4200
340.246	4219
340.474	4252
340.702	4198
340.93	4201
341.158	4243
341.386	4239
341.614	4178
341.842	4165
342.07	4199
342.298	4186
342.526	4127
342.754	4101
342.981	4130
343.209	4243
343.437	4447
343.665	4647
343.893	4963
344.12	4966
344.348	4725
344.576	4616
344.804	4507
345.031	4420
345.259	4359
345.487	4226
345.714	4165
345.942	4079
346.17	4061
346.397	4043
346.625	4051
346.853	4045
347.08	3979
347.308	4059
347.535	4114
347.763	4118
347.99	4035
348.218	4110
348.445	4134
348.673	4061
348.9	3991
349.128	3955
349.355	3955
349.583	3913
349.81	3892
350.037	3886
350.265	3976
350.492	3945
350.72	3949
350.947	3884
351.174	4032
351.402	4062
351.629	3989
351.856	3935
352.083	4030
352.311	4021
352.538	4046
352.765	3989
352.992	3955
353.22	3938
353.447	3920
353.674	3852
353.901	3824
354.128	3858
354.355	3827
354.583	3785
354.81	3817
355.037	3804
355.264	3827
355.491	3752
355.718	3790
355.945	3834
356.172	3773
356.399	3721
356.626	3857
356.853	3865
357.08	3771
357.307	3837
357.534	3775
357.761	3871
357.988	3857
358.215	3830
358.441	3866
358.668	3894
358.895	3886
359.122	3919
359.349	3954
359.576	4054
359.802	4230
360.029	4350
360.256	4315
360.483	4242
360.709	4028
360.936	4028
361.163	4077
361.39	4044
361.616	4047
361.843	3996
362.07	4007
362.296	4064
362.523	4012
362.749	4016
362.976	3978
363.203	3887
363.429	3885
363.656	3930
363.882	3874
364.109	3848
364.335	3878
364.562	3907
364.788	3846
365.015	3918
365.241	3895
365.468	3901
365.694	3945
365.92	3813
366.147	3921
366.373	3928
366.599	3839
366.826	3880
367.052	3870
367.278	3875
367.505	3835
367.731	3951
367.957	3947
368.184	3917
368.41	4052
368.636	4062
368.862	4062
369.089	3981
369.315	3976
369.541	4036
369.767	4087
369.993	4076
370.219	4056
370.445	4005
370.672	4061
370.898	4075
371.124	4147
371.35	4180
371.576	4131
371.802	4216
372.028	4120
372.254	4215
372.48	4246
372.706	4315
372.932	4341
373.158	4218
373.384	4219
373.61	4268
373.835	4245
374.061	4199
374.287	4290
374.513	4356
374.739	4474
374.965	4600
375.191	4549
375.416	4515
375.642	4395
375.868	4398
376.094	4327
376.319	4295
376.545	4282
376.771	4201
376.997	4173
377.222	4218
377.448	4171
377.674	4186
377.899	4130
378.125	4128
378.35	4160
378.576	4134
378.802	4151
379.027	4157
379.253	4124
379.478	4119
379.704	4104
379.929	4175
380.155	4228
380.38	4167
380.606	4221
380.831	4186
381.057	4182
381.282	4231
381.507	4270
381.733	4229
381.958	4290
382.184	4347
382.409	4400
382.634	4430
382.86	4385
383.085	4560
383.31	4528
383.535	4589
383.761	4686
383.986	4726
384.211	4885
384.436	4931
384.662	4994
384.887	5010
385.112	4971
385.337	5048
385.562	5086
385.787	5055
386.013	5135
386.238	5205
386.463	5150
386.688	5108
386.913	5037
387.138	4944
387.363	5036
387.588	4982
387.813	5066
388.038	5080
388.263	5124
388.488	5044
388.713	5028
388.938	4925
389.163	4953
389.387	5002
389.612	4876
389.837	4910
390.062	4898
390.287	4942
390.512	4895
390.736	4994
390.961	5072
391.186	5123
391.411	5317
391.636	5448
391.86	5539
392.085	5608
392.31	5470
392.534	5376
392.759	5277
392.984	5210
393.208	5173
393.433	5200
393.658	5178
393.882	5166
394.107	5156
394.331	5249
394.556	5221
394.78	5262
395.005	5293
395.229	5373
395.454	5481
395.678	5682
395.903	5622
396.127	5670
396.352	5395
396.576	5289
396.801	5247
397.025	5298
397.249	5566
397.474	5554
397.698	5590
397.922	5748
398.147	5858
398.371	5952
398.595	6062
398.82	6333
399.044	6883
399.268	7609
399.492	8600
399.717	9170
399.941	8890
400.165	8344
400.389	7797
400.613	6942
400.837	6528
401.062	6383
401.286	6395
401.51	6242
401.734	6289
401.958	6381
402.182	6416
402.406	6537
402.63	6658
402.854	6693
403.078	6770
403.302	6915
403.526	7011
403.75	7082
403.974	7083
404.198	7139
404.422	7266
404.645	7135
404.869	7095
405.093	7403
405.317	7547
405.541	7489
405.765	7014
405.988	7002
406.212	7199
406.436	7271
406.66	7378
406.883	7335
407.107	7906
407.331	8472
407.555	8880
407.778	8602
408.002	7796
408.226	7551
408.449	7414
408.673	7404
408.896	7468
409.12	7639
409.344	7303
409.567	6859
409.791	6881
410.014	6807
410.238	6698
410.461	6782
410.685	6744
410.908	6876
411.132	7035
411.355	7085
411.578	6696
411.802	6483
412.025	6597
412.249	6695
412.472	6831
412.695	6934
412.919	6533
413.142	6290
413.365	6302
413.589	6302
413.812	6133
414.035	6114
414.258	6132
414.482	6182
414.705	6236
414.928	6158
415.151	6190
415.374	6164
415.597	6139
415.821	6061
416.044	6086
416.267	6138
416.49	6022
416.713	5939
416.936	6107
417.159	6007
417.382	6064
417.605	6062
417.828	6244
418.051	6358
418.274	6236
418.497	6175
418.72	6283
418.943	6178
419.166	6631
419.389	6976
419.611	6892
419.834	6632
420.057	6599
420.28	6411
420.503	6263
420.726	6219
420.948	6426
421.171	6776
421.394	6718
421.617	6178
421.839	6221
422.062	6362
422.285	6436
422.507	7112
422.73	7539
422.953	6990
423.175	6717
423.398	6702
423.621	6656
423.843	7002
424.066	6989
424.288	6777
424.511	7018
424.733	7414
424.956	7800
425.178	7343
425.401	7551
425.623	7340
425.846	6489
426.068	6336
426.291	6269
426.513	6274
426.735	6373
426.958	6683
427.18	7505
427.402	8596
427.625	8497
427.847	7332
428.069	6591
428.292	6183
428.514	5820
428.736	5648
428.958	5719
429.181	5542
429.403	5596
429.625	5724
429.847	6051
430.069	6569
430.292	6093
430.514	5582
430.736	5578
430.958	5428
431.18	5481
431.402	5465
431.624	5409
431.846	5513
432.068	5550
432.29	5585
432.512	5492
432.734	5564
432.956	5574
433.178	5644
433.4	5580
433.622	5444
433.844	5502
434.066	5599
434.287	5676
434.509	5823
434.731	6040
434.953	6078
435.175	6312
435.397	6430
435.618	6332
435.84	6612
436.062	7494
436.284	7353
436.505	6187
436.727	6007
436.949	5681
437.17	5643
437.392	5536
437.614	5792
437.835	6115
438.057	6890
438.278	7500
438.5	7528
438.721	8275
438.943	7130
439.165	5950
439.386	5972
439.608	5961
439.829	6060
440.05	6344
440.272	6737
440.493	6062
440.715	5839
440.936	5876
441.158	5947
441.379	5991
441.6	6307
441.822	6498
442.043	6958
442.264	7682
442.486	7382
442.707	6458
442.928	6407
443.149	6643
443.371	6761
443.592	7228
443.813	8244
444.034	8133
444.255	7110
444.476	6898
444.698	7158
444.919	7239
445.14	7023
445.361	6952
445.582	7027
445.803	7543
446.024	8142
446.245	7737
446.466	6986
446.687	6147
446.908	5807
447.129	5556
447.35	5352
447.571	5363
447.792	5355
448.013	5381
448.234	5495
448.455	6151
448.675	7325
448.896	7767
449.117	6370
449.338	6560
449.559	7887
449.779	8024
450	6095
450.221	5519
450.442	5221
450.662	5186
450.883	5303
451.104	5302
451.324	5255
451.545	5099
451.766	4997
451.986	4864
452.207	4859
452.428	4823
452.648	4896
452.869	4886
453.089	4904
453.31	4998
453.53	4904
453.751	4797
453.971	4845
454.192	4912
454.412	4739
454.633	4712
454.853	4699
455.073	4727
455.294	5086
455.514	5627
455.734	5126
455.955	4615
456.175	4506
456.395	4477
456.616	4455
456.836	4509
457.056	4443
457.276	4400
457.497	4528
457.717	4558
457.937	4553
458.157	4692
458.377	4807
458.598	5008
458.818	5670
459.038	6372
459.258	6308
459.478	5626
459.698	5530
459.918	5643
460.138	5860
460.358	6006
460.578	6127
460.798	6085
461.018	6170
461.238	5970
461.458	5944
461.678	5933
461.898	6084
462.118	6138
462.338	6459
462.558	6533
462.777	6839
462.997	7422
463.217	7814
463.437	7635
463.657	7027
463.876	6890
464.096	6797
464.316	6892
464.536	6966
464.755	6663
464.975	6575
465.195	6627
465.414	6608
465.634	5960
465.854	5648
466.073	5450
466.293	5212
466.512	5120
466.732	5070
466.951	5003
467.171	5036
467.391	5069
467.61	5167
467.829	5076
468.049	5113
468.268	4919
468.488	4851
468.707	4746
468.927	4781
469.146	4745
469.365	4847
469.585	4848
469.804	5040
470.023	5233
470.243	5207
470.462	5317
470.681	5397
470.901	5259
471.12	5182
471.339	5088
471.558	5060
471.777	4981
471.997	4911
472.216	5028
472.435	5173
472.654	4989
472.873	4823
473.092	4803
473.311	4804
473.53	4908
473.749	4972
473.968	5408
474.187	6389
474.406	5890
474.625	5026
474.844	4922
475.063	4798
475.282	4787
475.501	4938
475.72	4936
475.939	4960
476.158	5025
476.377	5072
476.596	4953
476.814	5148
477.033	5194
477.252	5287
477.471	5294
477.69	5506
477.908	5517
478.127	5663
478.346	5690
478.564	5787
478.783	5900
479.002	6039
479.22	6125
479.439	6152
479.658	6203
479.876	6306
480.095	6487
480.313	6858
480.532	6829
480.751	6610
480.969	6623
481.188	6963
481.406	6724
481.624	6218
481.843	5986
482.061	5837
482.28	5774
482.498	5714
482.717	5696
482.935	5711
483.153	5692
483.372	5628
483.59	5723
483.808	5669
484.027	5755
484.245	5775
484.463	5775
484.681	5927
484.9	5878
485.118	5944
485.336	5919
485.554	5991
485.772	6184
485.99	6117
486.209	6091
486.427	6092
486.645	6162
486.863	6221
487.081	6205
487.299	6064
487.517	6135
487.735	6058
487.953	6066
488.171	6017
488.389	6107
488.607	6076
488.825	6021
489.043	6097
489.261	6157
489.479	6197
489.696	6175
489.914	6337
490.132	6379
490.35	6357
490.568	6470
490.786	6537
491.003	6586
491.221	6645
491.439	6799
491.657	6752
491.874	6867
492.092	6918
492.31	6948
492.527	6999
492.745	7031
492.963	7015
493.18	7201
493.398	7158
493.615	7271
493.833	7342
494.05	7275
494.268	7137
494.485	7229
494.703	7231
494.92	7259
495.138	7192
495.355	7171
495.573	7213
495.79	7165
496.008	7296
496.225	7303
496.442	7248
496.66	7306
496.877	7306
497.094	7343
497.312	7585
497.529	7838
497.746	7866
497.963	8125
498.181	8524
498.398	8688
498.615	9156
498.832	9559
499.049	10046
499.267	10704
499.484	11403
499.701	12258
499.918	13049
500.135	13955
500.352	14538
500.569	14658
500.786	14526
501.003	14044
501.22	13423
501.437	12645
501.654	11753
501.871	11114
502.088	10355
502.305	9735
502.522	9272
502.739	8904
502.956	8490
503.172	8219
503.389	8010
503.606	7946
503.823	7775
504.04	7740
504.256	7752
504.473	7959
504.69	7988
504.907	7725
505.123	7326
505.34	7223
505.557	6998
505.773	6878
505.99	6721
506.207	6711
506.423	6634
506.64	6554
506.856	6401
507.073	6391
507.289	6379
507.506	6239
507.722	6376
507.939	6360
508.155	6203
508.372	6121
508.588	6111
508.805	6145
509.021	6041
509.238	6236
509.454	6284
509.67	6126
509.887	5947
510.103	5931
510.319	5993
510.536	6994
510.752	9771
510.968	6788
511.184	5759
511.401	5770
511.617	5672
511.833	5710
512.049	5679
512.265	5668
512.481	5614
512.698	5561
512.914	5576
513.13	5598
513.346	5605
513.562	5576
513.778	5646
513.994	5655
514.21	5728
514.426	5869
514.642	6095
514.858	6282
515.074	6675
515.29	7703
515.506	9623
515.721	7453
515.937	6414
516.153	6402
516.369	6329
516.585	6427
516.801	6557
517.016	6637
517.232	6915
517.448	7070
517.664	7257
517.879	7242
518.095	7094
518.311	7033
518.527	6842
518.742	6577
518.958	6409
519.173	6106
519.389	6047
519.605	5883
519.82	5885
520.036	5992
520.251	6062
520.467	6125
520.682	6069
520.898	6058
521.113	6094
521.329	6350
521.544	6834
521.76	8329
521.975	12126
522.19	9450
522.406	6454
522.621	5708
522.836	5406
523.052	5321
523.267	5147
523.482	5066
523.698	5004
523.913	4988
524.128	5046
524.343	4888
524.559	4876
524.774	4782
524.989	4803
525.204	4815
525.419	4842
525.634	4704
525.849	4649
526.064	4675
526.28	4623
526.495	4605
526.71	4610
526.925	4645
527.14	4595
527.355	4576
527.57	4644
527.785	4611
527.999	4532
528.214	4590
528.429	4649
528.644	4595
528.859	4580
529.074	4591
529.289	4717
529.503	5182
529.718	4983
529.933	4738
530.148	4666
530.363	4591
530.577	4579
530.792	4572
531.007	4542
531.221	4519
531.436	4503
531.651	4535
531.865	4546
532.08	4549
532.295	4439
532.509	4471
532.724	4439
532.938	4560
533.153	4506
533.367	4453
533.582	4508
533.796	4501
534.011	4392
534.225	4455
534.44	4445
534.654	4418
534.868	4383
535.083	4306
535.297	4365
535.511	4386
535.726	4386
535.94	4405
536.154	4391
536.369	4264
536.583	4200
536.797	4188
537.011	4208
537.225	4182
537.44	4135
537.654	4169
537.868	4215
538.082	4164
538.296	4149
538.51	4144
538.724	4164
538.938	4112
539.153	4102
539.367	4222
539.581	4051
539.795	4084
540.009	4116
540.222	4060
540.436	4093
540.65	4085
540.864	4136
541.078	4142
541.292	4081
541.506	4024
541.72	4005
541.934	3934
542.147	3925
