Data from Uncirc_1980_H10_HRD10591_00002.txt Node
Date: Wed Jan 03 12:36:55 EST 2024
User: Yrep
Spectrometer: HR+D1059
Trigger mode: 1
Integration Time (sec): 1.000000E-1
Scans to average: 1
Electric dark correction enabled: true
Nonlinearity correction enabled: false
Boxcar width: 0
XAxis mode: Wavelengths
Number of Pixels in Spectrum: 2048
>>>>>Begin Spectral Data<<<<<
223.165	-24.38
223.4	-24.38
223.635	-24.38
223.869	-24.38
224.104	-13.38
224.338	-7.38
224.573	-23.38
224.808	-7.38
225.042	-9.38
225.277	5.62
225.511	-4.38
225.746	0.62
225.98	7.62
226.215	15.62
226.449	10.62
226.683	23.62
226.918	21.62
227.152	28.62
227.387	22.62
227.621	31.62
227.856	52.62
228.09	51.62
228.324	35.62
228.559	64.62
228.793	58.62
229.027	60.62
229.262	80.62
229.496	65.62
229.73	71.62
229.964	80.62
230.199	65.62
230.433	65.62
230.667	70.62
230.901	89.62
231.136	79.62
231.37	83.62
231.604	78.62
231.838	71.62
232.072	90.62
232.306	76.62
232.541	83.62
232.775	84.62
233.009	88.62
233.243	82.62
233.477	84.62
233.711	70.62
233.945	87.62
234.179	66.62
234.413	85.62
234.647	73.62
234.881	72.62
235.115	72.62
235.349	83.62
235.583	81.62
235.817	62.62
236.051	81.62
236.285	76.62
236.519	66.62
236.753	58.62
236.987	84.62
237.221	72.62
237.455	79.62
237.689	77.62
237.922	67.62
238.156	69.62
238.39	70.62
238.624	80.62
238.858	59.62
239.091	68.62
239.325	80.62
239.559	88.62
239.793	82.62
240.027	78.62
240.26	82.62
240.494	83.62
240.728	64.62
240.961	71.62
241.195	69.62
241.429	73.62
241.662	72.62
241.896	67.62
242.13	63.62
242.363	80.62
242.597	73.62
242.83	70.62
243.064	68.62
243.298	76.62
243.531	74.62
243.765	79.62
243.998	71.62
244.232	76.62
244.465	71.62
244.699	83.62
244.932	73.62
245.166	88.62
245.399	63.62
245.633	79.62
245.866	64.62
246.099	81.62
246.333	86.62
246.566	65.62
246.8	72.62
247.033	90.62
247.266	76.62
247.5	76.62
247.733	68.62
247.966	87.62
248.2	79.62
248.433	91.62
248.666	73.62
248.899	77.62
249.133	90.62
249.366	98.62
249.599	84.62
249.832	84.62
250.066	65.62
250.299	71.62
250.532	87.62
250.765	72.62
250.998	75.62
251.231	85.62
251.465	75.62
251.698	77.62
251.931	87.62
252.164	81.62
252.397	82.62
252.63	90.62
252.863	86.62
253.096	74.62
253.329	82.62
253.562	81.62
253.795	85.62
254.028	70.62
254.261	80.62
254.494	77.62
254.727	91.62
254.96	75.62
255.193	75.62
255.426	73.62
255.659	87.62
255.892	88.62
256.124	76.62
256.357	56.62
256.59	88.62
256.823	90.62
257.056	69.62
257.289	74.62
257.521	68.62
257.754	84.62
257.987	81.62
258.22	63.62
258.452	76.62
258.685	77.62
258.918	92.62
259.151	80.62
259.383	97.62
259.616	93.62
259.849	76.62
260.081	80.62
260.314	73.62
260.547	82.62
260.779	93.62
261.012	68.62
261.244	75.62
261.477	96.62
261.71	92.62
261.942	91.62
262.175	111.62
262.407	88.62
262.64	79.62
262.872	70.62
263.105	84.62
263.337	86.62
263.57	80.62
263.802	78.62
264.035	83.62
264.267	74.62
264.499	74.62
264.732	90.62
264.964	73.62
265.197	71.62
265.429	87.62
265.661	73.62
265.894	79.62
266.126	79.62
266.358	82.62
266.591	71.62
266.823	81.62
267.055	87.62
267.287	82.62
267.52	88.62
267.752	82.62
267.984	85.62
268.216	75.62
268.448	69.62
268.681	74.62
268.913	89.62
269.145	79.62
269.377	91.62
269.609	79.62
269.841	82.62
270.073	81.62
270.306	83.62
270.538	69.62
270.77	74.62
271.002	79.62
271.234	85.62
271.466	84.62
271.698	80.62
271.93	87.62
272.162	80.62
272.394	83.62
272.626	66.62
272.858	83.62
273.09	88.62
273.322	76.62
273.553	85.62
273.785	90.62
274.017	88.62
274.249	84.62
274.481	95.62
274.713	73.62
274.945	85.62
275.176	93.62
275.408	97.62
275.64	87.62
275.872	89.62
276.104	77.62
276.335	90.62
276.567	94.62
276.799	94.62
277.031	84.62
277.262	95.62
277.494	82.62
277.726	72.62
277.957	67.62
278.189	82.62
278.421	80.62
278.652	91.62
278.884	80.62
279.115	80.62
279.347	81.62
279.579	88.62
279.81	73.62
280.042	89.62
280.273	90.62
280.505	84.62
280.736	89.62
280.968	83.62
281.199	81.62
281.431	83.62
281.662	92.62
281.894	86.62
282.125	91.62
282.356	110.62
282.588	127.62
282.819	99.62
283.051	83.62
283.282	89.62
283.513	82.62
283.745	68.62
283.976	88.62
284.207	98.62
284.439	85.62
284.67	89.62
284.901	79.62
285.132	92.62
285.364	93.62
285.595	93.62
285.826	96.62
286.057	83.62
286.288	81.62
286.52	87.62
286.751	79.62
286.982	80.62
287.213	91.62
287.444	91.62
287.675	83.62
287.906	75.62
288.138	80.62
288.369	98.62
288.6	84.62
288.831	67.62
289.062	89.62
289.293	74.62
289.524	90.62
289.755	92.62
289.986	86.62
290.217	90.62
290.448	68.62
290.679	72.62
290.91	79.62
291.141	70.62
291.371	101.62
291.602	82.62
291.833	74.62
292.064	90.62
292.295	76.62
292.526	70.62
292.757	79.62
292.987	86.62
293.218	104.62
293.449	76.62
293.68	71.62
293.91	79.62
294.141	85.62
294.372	87.62
294.603	86.62
294.833	85.62
295.064	75.62
295.295	91.62
295.525	92.62
295.756	87.62
295.987	107.62
296.217	106.62
296.448	109.62
296.679	87.62
296.909	71.62
297.14	93.62
297.37	95.62
297.601	84.62
297.831	77.62
298.062	96.62
298.292	86.62
298.523	84.62
298.753	88.62
298.984	80.62
299.214	79.62
299.445	92.62
299.675	93.62
299.905	106.62
300.136	89.62
300.366	76.62
300.597	89.62
300.827	89.62
301.057	89.62
301.288	103.62
301.518	91.62
301.748	108.62
301.979	96.62
302.209	97.62
302.439	96.62
302.669	93.62
302.9	89.62
303.13	94.62
303.36	97.62
303.59	95.62
303.82	97.62
304.051	87.62
304.281	81.62
304.511	83.62
304.741	85.62
304.971	89.62
305.201	82.62
305.431	79.62
305.661	82.62
305.891	87.62
306.121	83.62
306.352	84.62
306.582	98.62
306.812	92.62
307.042	90.62
307.272	93.62
307.502	89.62
307.731	87.62
307.961	91.62
308.191	82.62
308.421	90.62
308.651	81.62
308.881	83.62
309.111	95.62
309.341	91.62
309.571	95.62
309.8	96.62
310.03	82.62
310.26	90.62
310.49	96.62
310.72	98.62
310.949	97.62
311.179	87.62
311.409	85.62
311.639	88.62
311.868	93.62
312.098	104.62
312.328	99.62
312.557	93.62
312.787	90.62
313.017	99.62
313.246	83.62
313.476	95.62
313.706	83.62
313.935	94.62
314.165	98.62
314.394	89.62
314.624	85.62
314.853	88.62
315.083	89.62
315.312	83.62
315.542	97.62
315.771	90.62
316.001	87.62
316.23	91.62
316.46	96.62
316.689	67.62
316.919	92.62
317.148	91.62
317.377	76.62
317.607	93.62
317.836	97.62
318.065	85.62
318.295	95.62
318.524	84.62
318.753	87.62
318.983	97.62
319.212	101.62
319.441	98.62
319.67	92.62
319.9	88.62
320.129	80.62
320.358	84.62
320.587	113.62
320.816	85.62
321.046	80.62
321.275	90.62
321.504	65.62
321.733	87.62
321.962	88.62
322.191	94.62
322.42	95.62
322.649	95.62
322.878	106.62
323.108	108.62
323.337	94.62
323.566	109.62
323.795	138.62
324.024	174.62
324.253	321.62
324.482	634.62
324.71	1324.62
324.939	1729.62
325.168	647.62
325.397	201.62
325.626	123.62
325.855	108.62
326.084	96.62
326.313	113.62
326.542	139.62
326.77	207.62
326.999	367.62
327.228	737.62
327.457	1355.62
327.686	1084.62
327.914	301.62
328.143	161.62
328.372	130.62
328.6	122.62
328.829	117.62
329.058	114.62
329.287	116.62
329.515	90.62
329.744	103.62
329.972	90.62
330.201	97.62
330.43	109.62
330.658	105.62
330.887	117.62
331.115	105.62
331.344	87.62
331.572	85.62
331.801	96.62
332.03	95.62
332.258	96.62
332.486	86.62
332.715	78.62
332.943	93.62
333.172	87.62
333.4	77.62
333.629	92.62
333.857	97.62
334.085	103.62
334.314	113.62
334.542	105.62
334.771	107.62
334.999	83.62
335.227	101.62
335.455	109.62
335.684	92.62
335.912	94.62
336.14	84.62
336.369	104.62
336.597	83.62
336.825	84.62
337.053	84.62
337.281	85.62
337.51	88.62
337.738	89.62
337.966	84.62
338.194	108.62
338.422	74.62
338.65	96.62
338.878	89.62
339.106	83.62
339.334	95.62
339.562	96.62
339.79	81.62
340.018	93.62
340.246	94.62
340.474	89.62
340.702	96.62
340.93	99.62
341.158	81.62
341.386	108.62
341.614	101.62
341.842	94.62
342.07	79.62
342.298	86.62
342.526	95.62
342.754	83.62
342.981	107.62
343.209	92.62
343.437	100.62
343.665	78.62
343.893	97.62
344.12	97.62
344.348	95.62
344.576	98.62
344.804	92.62
345.031	96.62
345.259	99.62
345.487	88.62
345.714	99.62
345.942	84.62
346.17	83.62
346.397	98.62
346.625	87.62
346.853	93.62
347.08	86.62
347.308	101.62
347.535	101.62
347.763	84.62
347.99	98.62
348.218	85.62
348.445	90.62
348.673	85.62
348.9	94.62
349.128	99.62
349.355	93.62
349.583	103.62
349.81	91.62
350.037	97.62
350.265	95.62
350.492	94.62
350.72	90.62
350.947	94.62
351.174	99.62
351.402	102.62
351.629	97.62
351.856	88.62
352.083	98.62
352.311	100.62
352.538	113.62
352.765	105.62
352.992	111.62
353.22	105.62
353.447	98.62
353.674	97.62
353.901	95.62
354.128	100.62
354.355	97.62
354.583	112.62
354.81	96.62
355.037	106.62
355.264	109.62
355.491	101.62
355.718	99.62
355.945	102.62
356.172	103.62
356.399	91.62
356.626	101.62
356.853	88.62
357.08	112.62
357.307	76.62
357.534	90.62
357.761	93.62
357.988	112.62
358.215	114.62
358.441	110.62
358.668	106.62
358.895	116.62
359.122	97.62
359.349	91.62
359.576	89.62
359.802	102.62
360.029	98.62
360.256	100.62
360.483	96.62
360.709	86.62
360.936	77.62
361.163	85.62
361.39	89.62
361.616	103.62
361.843	75.62
362.07	95.62
362.296	111.62
362.523	86.62
362.749	81.62
362.976	84.62
363.203	98.62
363.429	87.62
363.656	91.62
363.882	82.62
364.109	82.62
364.335	70.62
364.562	109.62
364.788	94.62
365.015	100.62
365.241	99.62
365.468	94.62
365.694	95.62
365.92	97.62
366.147	90.62
366.373	96.62
366.599	89.62
366.826	105.62
367.052	87.62
367.278	96.62
367.505	92.62
367.731	108.62
367.957	101.62
368.184	89.62
368.41	97.62
368.636	104.62
368.862	108.62
369.089	92.62
369.315	89.62
369.541	91.62
369.767	93.62
369.993	89.62
370.219	91.62
370.445	77.62
370.672	84.62
370.898	86.62
371.124	80.62
371.35	89.62
371.576	95.62
371.802	81.62
372.028	90.62
372.254	89.62
372.48	85.62
372.706	95.62
372.932	83.62
373.158	89.62
373.384	101.62
373.61	107.62
373.835	89.62
374.061	101.62
374.287	85.62
374.513	91.62
374.739	93.62
374.965	92.62
375.191	94.62
375.416	104.62
375.642	96.62
375.868	96.62
376.094	112.62
376.319	103.62
376.545	97.62
376.771	104.62
376.997	105.62
377.222	106.62
377.448	95.62
377.674	94.62
377.899	112.62
378.125	97.62
378.35	109.62
378.576	102.62
378.802	89.62
379.027	106.62
379.253	95.62
379.478	82.62
379.704	91.62
379.929	111.62
380.155	109.62
380.38	114.62
380.606	113.62
380.831	117.62
381.057	128.62
381.282	116.62
381.507	113.62
381.733	127.62
381.958	130.62
382.184	127.62
382.409	137.62
382.634	145.62
382.86	135.62
383.085	138.62
383.31	122.62
383.535	118.62
383.761	120.62
383.986	118.62
384.211	123.62
384.436	145.62
384.662	134.62
384.887	159.62
385.112	177.62
385.337	185.62
385.562	175.62
385.787	146.62
386.013	183.62
386.238	178.62
386.463	163.62
386.688	177.62
386.913	159.62
387.138	193.62
387.363	155.62
387.588	132.62
387.813	155.62
388.038	153.62
388.263	194.62
388.488	182.62
388.713	119.62
388.938	89.62
389.163	84.62
389.387	97.62
389.612	86.62
389.837	105.62
390.062	100.62
390.287	91.62
390.512	83.62
390.736	99.62
390.961	93.62
391.186	92.62
391.411	103.62
391.636	96.62
391.86	85.62
392.085	89.62
392.31	94.62
392.534	94.62
392.759	93.62
392.984	91.62
393.208	91.62
393.433	114.62
393.658	93.62
393.882	99.62
394.107	87.62
394.331	81.62
394.556	89.62
394.78	95.62
395.005	98.62
395.229	82.62
395.454	77.62
395.678	74.62
395.903	90.62
396.127	90.62
396.352	87.62
396.576	83.62
396.801	98.62
397.025	95.62
397.249	87.62
397.474	97.62
397.698	86.62
397.922	76.62
398.147	71.62
398.371	82.62
398.595	85.62
398.82	67.62
399.044	103.62
399.268	96.62
399.492	87.62
399.717	76.62
399.941	71.62
400.165	85.62
400.389	91.62
400.613	87.62
400.837	94.62
401.062	87.62
401.286	76.62
401.51	88.62
401.734	97.62
401.958	94.62
402.182	113.62
402.406	115.62
402.63	97.62
402.854	91.62
403.078	87.62
403.302	96.62
403.526	84.62
403.75	91.62
403.974	100.62
404.198	78.62
404.422	81.62
404.645	92.62
404.869	89.62
405.093	91.62
405.317	103.62
405.541	92.62
405.765	83.62
405.988	105.62
406.212	143.62
406.436	158.62
406.66	115.62
406.883	105.62
407.107	97.62
407.331	88.62
407.555	95.62
407.778	101.62
408.002	94.62
408.226	85.62
408.449	91.62
408.673	94.62
408.896	83.62
409.12	101.62
409.344	86.62
409.567	87.62
409.791	82.62
410.014	97.62
410.238	114.62
410.461	82.62
410.685	96.62
410.908	83.62
411.132	111.62
411.355	96.62
411.578	102.62
411.802	102.62
412.025	100.62
412.249	86.62
412.472	88.62
412.695	90.62
412.919	94.62
413.142	87.62
413.365	96.62
413.589	86.62
413.812	84.62
414.035	80.62
414.258	93.62
414.482	73.62
414.705	101.62
414.928	91.62
415.151	77.62
415.374	82.62
415.597	109.62
415.821	101.62
416.044	77.62
416.267	91.62
416.49	96.62
416.713	83.62
416.936	75.62
417.159	88.62
417.382	109.62
417.605	87.62
417.828	98.62
418.051	100.62
418.274	97.62
418.497	86.62
418.72	82.62
418.943	93.62
419.166	97.62
419.389	91.62
419.611	94.62
419.834	97.62
420.057	87.62
420.28	86.62
420.503	88.62
420.726	84.62
420.948	97.62
421.171	95.62
421.394	84.62
421.617	97.62
421.839	92.62
422.062	82.62
422.285	106.62
422.507	115.62
422.73	117.62
422.953	97.62
423.175	81.62
423.398	88.62
423.621	105.62
423.843	97.62
424.066	85.62
424.288	85.62
424.511	109.62
424.733	98.62
424.956	91.62
425.178	95.62
425.401	88.62
425.623	88.62
425.846	104.62
426.068	80.62
426.291	98.62
426.513	81.62
426.735	89.62
426.958	99.62
427.18	114.62
427.402	123.62
427.625	143.62
427.847	125.62
428.069	108.62
428.292	88.62
428.514	96.62
428.736	72.62
428.958	87.62
429.181	75.62
429.403	86.62
429.625	86.62
429.847	84.62
430.069	106.62
430.292	81.62
430.514	83.62
430.736	80.62
430.958	95.62
431.18	85.62
431.402	77.62
431.624	82.62
431.846	91.62
432.068	88.62
432.29	89.62
432.512	73.62
432.734	87.62
432.956	92.62
433.178	93.62
433.4	99.62
433.622	74.62
433.844	83.62
434.066	94.62
434.287	83.62
434.509	88.62
434.731	89.62
434.953	86.62
435.175	88.62
435.397	87.62
435.618	83.62
435.84	106.62
436.062	111.62
436.284	101.62
436.505	88.62
436.727	104.62
436.949	74.62
437.17	83.62
437.392	111.62
437.614	85.62
437.835	87.62
438.057	113.62
438.278	111.62
438.5	91.62
438.721	135.62
438.943	113.62
439.165	93.62
439.386	91.62
439.608	89.62
439.829	82.62
440.05	112.62
440.272	125.62
440.493	97.62
440.715	80.62
440.936	75.62
441.158	87.62
441.379	83.62
441.6	92.62
441.822	83.62
442.043	85.62
442.264	92.62
442.486	98.62
442.707	97.62
442.928	91.62
443.149	112.62
443.371	109.62
443.592	95.62
443.813	92.62
444.034	113.62
444.255	98.62
444.476	95.62
444.698	97.62
444.919	84.62
445.14	128.62
445.361	124.62
445.582	115.62
445.803	124.62
446.024	143.62
446.245	132.62
446.466	102.62
446.687	88.62
446.908	91.62
447.129	81.62
447.35	95.62
447.571	84.62
447.792	99.62
448.013	83.62
448.234	98.62
448.455	85.62
448.675	122.62
448.896	130.62
449.117	96.62
449.338	100.62
449.559	127.62
449.779	117.62
450	100.62
450.221	86.62
450.442	100.62
450.662	93.62
450.883	102.62
451.104	87.62
451.324	75.62
451.545	81.62
451.766	88.62
451.986	90.62
452.207	89.62
452.428	89.62
452.648	90.62
452.869	87.62
453.089	89.62
453.31	79.62
453.53	88.62
453.751	81.62
453.971	100.62
454.192	85.62
454.412	84.62
454.633	94.62
454.853	75.62
455.073	87.62
455.294	83.62
455.514	89.62
455.734	93.62
455.955	92.62
456.175	80.62
456.395	94.62
456.616	83.62
456.836	88.62
457.056	97.62
457.276	91.62
457.497	69.62
457.717	79.62
457.937	90.62
458.157	87.62
458.377	88.62
458.598	89.62
458.818	120.62
459.038	123.62
459.258	99.62
459.478	80.62
459.698	101.62
459.918	93.62
460.138	87.62
460.358	83.62
460.578	92.62
460.798	86.62
461.018	87.62
461.238	74.62
461.458	97.62
461.678	93.62
461.898	91.62
462.118	104.62
462.338	85.62
462.558	94.62
462.777	82.62
462.997	78.62
463.217	84.62
463.437	91.62
463.657	88.62
463.876	94.62
464.096	84.62
464.316	92.62
464.536	84.62
464.755	90.62
464.975	88.62
465.195	128.62
465.414	124.62
465.634	100.62
465.854	83.62
466.073	90.62
466.293	91.62
466.512	85.62
466.732	88.62
466.951	88.62
467.171	73.62
467.391	79.62
467.61	107.62
467.829	111.62
468.049	94.62
468.268	89.62
468.488	83.62
468.707	91.62
468.927	90.62
469.146	77.62
469.365	90.62
469.585	85.62
469.804	90.62
470.023	93.62
470.243	91.62
470.462	89.62
470.681	114.62
470.901	96.62
471.12	77.62
471.339	85.62
471.558	87.62
471.777	90.62
471.997	88.62
472.216	111.62
472.435	106.62
472.654	79.62
472.873	83.62
473.092	84.62
473.311	92.62
473.53	90.62
473.749	86.62
473.968	85.62
474.187	107.62
474.406	97.62
474.625	95.62
474.844	97.62
475.063	77.62
475.282	99.62
475.501	67.62
475.72	84.62
475.939	103.62
476.158	92.62
476.377	96.62
476.596	88.62
476.814	86.62
477.033	95.62
477.252	97.62
477.471	83.62
477.69	87.62
477.908	83.62
478.127	84.62
478.346	98.62
478.564	84.62
478.783	103.62
479.002	97.62
479.22	96.62
479.439	88.62
479.658	85.62
479.876	102.62
480.095	97.62
480.313	100.62
480.532	107.62
480.751	91.62
480.969	109.62
481.188	164.62
481.406	119.62
481.624	92.62
481.843	97.62
482.061	88.62
482.28	90.62
482.498	85.62
482.717	93.62
482.935	91.62
483.153	92.62
483.372	83.62
483.59	84.62
483.808	92.62
484.027	105.62
484.245	96.62
484.463	89.62
484.681	91.62
484.9	102.62
485.118	103.62
485.336	105.62
485.554	87.62
485.772	106.62
485.99	108.62
486.209	108.62
486.427	109.62
486.645	96.62
486.863	102.62
487.081	103.62
487.299	91.62
487.517	100.62
487.735	97.62
487.953	81.62
488.171	89.62
488.389	86.62
488.607	87.62
488.825	97.62
489.043	85.62
489.261	89.62
489.479	79.62
489.696	77.62
489.914	95.62
490.132	87.62
490.35	85.62
490.568	87.62
490.786	95.62
491.003	80.62
491.221	95.62
491.439	88.62
491.657	91.62
491.874	104.62
492.092	95.62
492.31	86.62
492.527	99.62
492.745	89.62
492.963	84.62
493.18	85.62
493.398	84.62
493.615	108.62
493.833	83.62
494.05	91.62
494.268	92.62
494.485	92.62
494.703	91.62
494.92	97.62
495.138	91.62
495.355	98.62
495.573	80.62
495.79	90.62
496.008	99.62
496.225	107.62
496.442	96.62
496.66	100.62
496.877	93.62
497.094	85.62
497.312	88.62
497.529	88.62
497.746	85.62
497.963	76.62
498.181	85.62
498.398	101.62
498.615	107.62
498.832	82.62
499.049	78.62
499.267	82.62
499.484	82.62
499.701	76.62
499.918	90.62
500.135	109.62
500.352	83.62
500.569	90.62
500.786	75.62
501.003	87.62
501.22	83.62
501.437	70.62
501.654	90.62
501.871	80.62
502.088	91.62
502.305	104.62
502.522	82.62
502.739	99.62
502.956	88.62
503.172	79.62
503.389	83.62
503.606	94.62
503.823	104.62
504.04	89.62
504.256	85.62
504.473	90.62
504.69	98.62
504.907	105.62
505.123	83.62
505.34	90.62
505.557	82.62
505.773	90.62
505.99	92.62
506.207	95.62
506.423	99.62
506.64	100.62
506.856	89.62
507.073	83.62
507.289	79.62
507.506	77.62
507.722	102.62
507.939	105.62
508.155	81.62
508.372	88.62
508.588	75.62
508.805	93.62
509.021	91.62
509.238	91.62
509.454	110.62
509.67	105.62
509.887	108.62
510.103	122.62
510.319	163.62
510.536	524.62
510.752	1571.62
510.968	447.62
511.184	133.62
511.401	98.62
511.617	99.62
511.833	95.62
512.049	87.62
512.265	95.62
512.481	98.62
512.698	99.62
512.914	93.62
513.13	92.62
513.346	96.62
513.562	92.62
513.778	93.62
513.994	93.62
514.21	93.62
514.426	95.62
514.642	125.62
514.858	106.62
515.074	130.62
515.29	319.62
515.506	920.62
515.721	353.62
515.937	135.62
516.153	98.62
