Data from Uncirc_1980_H10_HRD10591_00079.txt Node
Date: Wed Jan 03 12:37:11 EST 2024
User: Yrep
Spectrometer: HR+D1059
Trigger mode: 1
Integration Time (sec): 1.000000E-1
Scans to average: 1
Electric dark correction enabled: true
Nonlinearity correction enabled: false
Boxcar width: 0
XAxis mode: Wavelengths
Number of Pixels in Spectrum: 2048
>>>>>Begin Spectral Data<<<<<
223.165	-24.12
223.4	-24.12
223.635	-24.12
223.869	-17.12
224.104	-21.12
224.338	-2.12
224.573	-12.12
224.808	-12.12
225.042	-3.12
225.277	-12.12
225.511	-9.12
225.746	9.88
225.98	4.88
226.215	2.88
226.449	33.88
226.683	13.88
226.918	23.88
227.152	23.88
227.387	15.88
227.621	46.88
227.856	46.88
228.09	45.88
228.324	51.88
228.559	49.88
228.793	52.88
229.027	51.88
229.262	64.88
229.496	64.88
229.73	72.88
229.964	84.88
230.199	76.88
230.433	77.88
230.667	66.88
230.901	71.88
231.136	67.88
231.37	63.88
231.604	64.88
231.838	90.88
232.072	79.88
232.306	83.88
232.541	88.88
232.775	90.88
233.009	74.88
233.243	88.88
233.477	83.88
233.711	67.88
233.945	84.88
234.179	85.88
234.413	75.88
234.647	87.88
234.881	69.88
235.115	84.88
235.349	79.88
235.583	79.88
235.817	75.88
236.051	90.88
236.285	85.88
236.519	66.88
236.753	79.88
236.987	86.88
237.221	84.88
237.455	85.88
237.689	75.88
237.922	70.88
238.156	64.88
238.39	80.88
238.624	81.88
238.858	87.88
239.091	74.88
239.325	85.88
239.559	71.88
239.793	69.88
240.027	68.88
240.26	70.88
240.494	76.88
240.728	81.88
240.961	70.88
241.195	75.88
241.429	80.88
241.662	77.88
241.896	87.88
242.13	75.88
242.363	69.88
242.597	71.88
242.83	65.88
243.064	66.88
243.298	72.88
243.531	82.88
243.765	96.88
243.998	72.88
244.232	88.88
244.465	92.88
244.699	91.88
244.932	70.88
245.166	70.88
245.399	80.88
245.633	79.88
245.866	77.88
246.099	81.88
246.333	74.88
246.566	91.88
246.8	75.88
247.033	80.88
247.266	71.88
247.5	59.88
247.733	75.88
247.966	75.88
248.2	71.88
248.433	89.88
248.666	83.88
248.899	85.88
249.133	72.88
249.366	84.88
249.599	96.88
249.832	84.88
250.066	74.88
250.299	74.88
250.532	76.88
250.765	74.88
250.998	59.88
251.231	81.88
251.465	69.88
251.698	87.88
251.931	76.88
252.164	83.88
252.397	88.88
252.63	96.88
252.863	66.88
253.096	81.88
253.329	82.88
253.562	75.88
253.795	61.88
254.028	80.88
254.261	84.88
254.494	76.88
254.727	73.88
254.96	76.88
255.193	89.88
255.426	79.88
255.659	75.88
255.892	93.88
256.124	75.88
256.357	83.88
256.59	81.88
256.823	85.88
257.056	78.88
257.289	72.88
257.521	85.88
257.754	69.88
257.987	97.88
258.22	64.88
258.452	81.88
258.685	76.88
258.918	76.88
259.151	72.88
259.383	91.88
259.616	78.88
259.849	81.88
260.081	60.88
260.314	98.88
260.547	76.88
260.779	83.88
261.012	76.88
261.244	75.88
261.477	84.88
261.71	85.88
261.942	111.88
262.175	106.88
262.407	76.88
262.64	80.88
262.872	87.88
263.105	82.88
263.337	75.88
263.57	87.88
263.802	91.88
264.035	87.88
264.267	84.88
264.499	73.88
264.732	79.88
264.964	80.88
265.197	86.88
265.429	66.88
265.661	66.88
265.894	86.88
266.126	63.88
266.358	90.88
266.591	79.88
266.823	81.88
267.055	74.88
267.287	97.88
267.52	79.88
267.752	75.88
267.984	79.88
268.216	85.88
268.448	81.88
268.681	85.88
268.913	89.88
269.145	70.88
269.377	100.88
269.609	87.88
269.841	74.88
270.073	83.88
270.306	95.88
270.538	89.88
270.77	73.88
271.002	81.88
271.234	88.88
271.466	81.88
271.698	83.88
271.93	82.88
272.162	86.88
272.394	91.88
272.626	90.88
272.858	86.88
273.09	76.88
273.322	88.88
273.553	80.88
273.785	82.88
274.017	65.88
274.249	98.88
274.481	73.88
274.713	95.88
274.945	83.88
275.176	81.88
275.408	72.88
275.64	90.88
275.872	79.88
276.104	83.88
276.335	105.88
276.567	96.88
276.799	97.88
277.031	86.88
277.262	87.88
277.494	85.88
277.726	94.88
277.957	87.88
278.189	83.88
278.421	87.88
278.652	91.88
278.884	71.88
279.115	81.88
279.347	89.88
279.579	87.88
279.81	89.88
280.042	93.88
280.273	77.88
280.505	82.88
280.736	91.88
280.968	92.88
281.199	81.88
281.431	89.88
281.662	68.88
281.894	108.88
282.125	104.88
282.356	109.88
282.588	128.88
282.819	109.88
283.051	81.88
283.282	83.88
283.513	89.88
283.745	88.88
283.976	73.88
284.207	75.88
284.439	91.88
284.67	89.88
284.901	93.88
285.132	75.88
285.364	88.88
285.595	82.88
285.826	94.88
286.057	93.88
286.288	83.88
286.52	92.88
286.751	90.88
286.982	84.88
287.213	92.88
287.444	76.88
287.675	84.88
287.906	84.88
288.138	106.88
288.369	84.88
288.6	79.88
288.831	76.88
289.062	83.88
289.293	86.88
289.524	87.88
289.755	105.88
289.986	97.88
290.217	95.88
290.448	81.88
290.679	79.88
290.91	90.88
291.141	79.88
291.371	88.88
291.602	81.88
291.833	77.88
292.064	83.88
292.295	83.88
292.526	99.88
292.757	90.88
292.987	93.88
293.218	97.88
293.449	81.88
293.68	96.88
293.91	88.88
294.141	90.88
294.372	86.88
294.603	90.88
294.833	85.88
295.064	73.88
295.295	95.88
295.525	90.88
295.756	107.88
295.987	107.88
296.217	122.88
296.448	121.88
296.679	97.88
296.909	94.88
297.14	85.88
297.37	104.88
297.601	91.88
297.831	93.88
298.062	93.88
298.292	88.88
298.523	87.88
298.753	75.88
298.984	80.88
299.214	84.88
299.445	88.88
299.675	80.88
299.905	88.88
300.136	93.88
300.366	91.88
300.597	88.88
300.827	103.88
301.057	94.88
301.288	93.88
301.518	109.88
301.748	81.88
301.979	95.88
302.209	91.88
302.439	86.88
302.669	67.88
302.9	75.88
303.13	76.88
303.36	75.88
303.59	100.88
303.82	100.88
304.051	92.88
304.281	108.88
304.511	92.88
304.741	82.88
304.971	89.88
305.201	95.88
305.431	80.88
305.661	87.88
305.891	82.88
306.121	102.88
306.352	99.88
306.582	98.88
306.812	89.88
307.042	104.88
307.272	96.88
307.502	86.88
307.731	92.88
307.961	98.88
308.191	88.88
308.421	83.88
308.651	87.88
308.881	89.88
309.111	91.88
309.341	96.88
309.571	81.88
309.8	95.88
310.03	102.88
310.26	86.88
310.49	107.88
310.72	96.88
310.949	95.88
311.179	100.88
311.409	92.88
311.639	81.88
311.868	85.88
312.098	79.88
312.328	96.88
312.557	102.88
312.787	93.88
313.017	101.88
313.246	93.88
313.476	96.88
313.706	90.88
313.935	98.88
314.165	114.88
314.394	108.88
314.624	93.88
314.853	105.88
315.083	88.88
315.312	90.88
315.542	82.88
315.771	99.88
316.001	89.88
316.23	83.88
316.46	89.88
316.689	89.88
316.919	92.88
317.148	92.88
317.377	83.88
317.607	94.88
317.836	77.88
318.065	84.88
318.295	97.88
318.524	103.88
318.753	85.88
318.983	93.88
319.212	86.88
319.441	105.88
319.67	89.88
319.9	95.88
320.129	98.88
320.358	103.88
320.587	85.88
320.816	92.88
321.046	90.88
321.275	91.88
321.504	98.88
321.733	89.88
321.962	87.88
322.191	75.88
322.42	90.88
322.649	104.88
322.878	108.88
323.108	96.88
323.337	109.88
323.566	106.88
323.795	166.88
324.024	187.88
324.253	329.88
324.482	684.88
324.71	1398.88
324.939	1828.88
325.168	682.88
325.397	226.88
325.626	139.88
325.855	119.88
326.084	115.88
326.313	121.88
326.542	152.88
326.77	197.88
326.999	388.88
327.228	783.88
327.457	1415.88
327.686	1156.88
327.914	301.88
328.143	169.88
328.372	146.88
328.6	120.88
328.829	118.88
329.058	108.88
329.287	129.88
329.515	90.88
329.744	97.88
329.972	107.88
330.201	120.88
330.43	119.88
330.658	125.88
330.887	133.88
331.115	122.88
331.344	100.88
331.572	84.88
331.801	98.88
332.03	99.88
332.258	104.88
332.486	92.88
332.715	92.88
332.943	92.88
333.172	80.88
333.4	98.88
333.629	95.88
333.857	104.88
334.085	108.88
334.314	112.88
334.542	116.88
334.771	127.88
334.999	108.88
335.227	97.88
335.455	105.88
335.684	93.88
335.912	97.88
336.14	90.88
336.369	88.88
336.597	119.88
336.825	97.88
337.053	83.88
337.281	98.88
337.51	84.88
337.738	99.88
337.966	76.88
338.194	81.88
338.422	99.88
338.65	88.88
338.878	98.88
339.106	95.88
339.334	98.88
339.562	83.88
339.79	75.88
340.018	85.88
340.246	100.88
340.474	106.88
340.702	99.88
340.93	84.88
341.158	84.88
341.386	89.88
341.614	105.88
341.842	87.88
342.07	88.88
342.298	94.88
342.526	85.88
342.754	86.88
342.981	95.88
343.209	72.88
343.437	97.88
343.665	82.88
343.893	98.88
344.12	94.88
344.348	87.88
344.576	103.88
344.804	107.88
345.031	92.88
345.259	104.88
345.487	88.88
345.714	94.88
345.942	90.88
346.17	87.88
346.397	85.88
346.625	79.88
346.853	89.88
347.08	76.88
347.308	98.88
347.535	82.88
347.763	90.88
347.99	94.88
348.218	106.88
348.445	96.88
348.673	106.88
348.9	89.88
349.128	93.88
349.355	95.88
349.583	87.88
349.81	85.88
350.037	96.88
350.265	102.88
350.492	103.88
350.72	96.88
350.947	91.88
351.174	97.88
351.402	103.88
351.629	95.88
351.856	94.88
352.083	94.88
352.311	106.88
352.538	111.88
352.765	95.88
352.992	109.88
353.22	100.88
353.447	96.88
353.674	96.88
353.901	84.88
354.128	89.88
354.355	88.88
354.583	104.88
354.81	90.88
355.037	109.88
355.264	93.88
355.491	100.88
355.718	91.88
355.945	91.88
356.172	91.88
356.399	93.88
356.626	95.88
356.853	83.88
357.08	89.88
357.307	80.88
357.534	83.88
357.761	96.88
357.988	93.88
358.215	84.88
358.441	107.88
358.668	81.88
358.895	87.88
359.122	91.88
359.349	86.88
359.576	84.88
359.802	105.88
360.029	105.88
360.256	94.88
360.483	101.88
360.709	94.88
360.936	93.88
361.163	89.88
361.39	90.88
361.616	92.88
361.843	93.88
362.07	100.88
362.296	92.88
362.523	84.88
362.749	85.88
362.976	81.88
363.203	103.88
363.429	87.88
363.656	70.88
363.882	101.88
364.109	83.88
364.335	114.88
364.562	90.88
364.788	88.88
365.015	93.88
365.241	92.88
365.468	89.88
365.694	107.88
365.92	95.88
366.147	95.88
366.373	93.88
366.599	93.88
366.826	84.88
367.052	80.88
367.278	96.88
367.505	76.88
367.731	79.88
367.957	81.88
368.184	89.88
368.41	99.88
368.636	111.88
368.862	101.88
369.089	96.88
369.315	100.88
369.541	91.88
369.767	79.88
369.993	91.88
370.219	81.88
370.445	93.88
370.672	93.88
370.898	67.88
371.124	96.88
371.35	81.88
371.576	84.88
371.802	90.88
372.028	87.88
372.254	89.88
372.48	85.88
372.706	79.88
372.932	87.88
373.158	97.88
373.384	85.88
373.61	80.88
373.835	87.88
374.061	90.88
374.287	82.88
374.513	101.88
374.739	88.88
374.965	91.88
375.191	93.88
375.416	92.88
375.642	101.88
375.868	86.88
376.094	87.88
376.319	92.88
376.545	86.88
376.771	83.88
376.997	89.88
377.222	81.88
377.448	95.88
377.674	80.88
377.899	81.88
378.125	85.88
378.35	98.88
378.576	96.88
378.802	85.88
379.027	86.88
379.253	81.88
379.478	100.88
379.704	100.88
379.929	97.88
380.155	90.88
380.38	105.88
380.606	84.88
380.831	100.88
381.057	93.88
381.282	81.88
381.507	82.88
381.733	105.88
381.958	96.88
382.184	90.88
382.409	107.88
382.634	98.88
382.86	96.88
383.085	103.88
383.31	112.88
383.535	104.88
383.761	96.88
383.986	97.88
384.211	90.88
384.436	89.88
384.662	91.88
384.887	103.88
385.112	102.88
385.337	98.88
385.562	101.88
385.787	107.88
386.013	103.88
386.238	110.88
386.463	107.88
386.688	117.88
386.913	106.88
387.138	117.88
387.363	106.88
387.588	108.88
387.813	110.88
388.038	100.88
388.263	94.88
388.488	108.88
388.713	82.88
388.938	83.88
389.163	93.88
389.387	82.88
389.612	97.88
389.837	102.88
390.062	98.88
390.287	98.88
390.512	91.88
390.736	73.88
390.961	79.88
391.186	98.88
391.411	91.88
391.636	83.88
391.86	85.88
392.085	81.88
392.31	103.88
392.534	83.88
392.759	89.88
392.984	80.88
393.208	93.88
393.433	89.88
393.658	84.88
393.882	79.88
394.107	87.88
394.331	88.88
394.556	83.88
394.78	90.88
395.005	92.88
395.229	84.88
395.454	95.88
395.678	87.88
395.903	96.88
396.127	98.88
396.352	100.88
396.576	79.88
396.801	91.88
397.025	84.88
397.249	92.88
397.474	73.88
397.698	88.88
397.922	98.88
398.147	75.88
398.371	97.88
398.595	91.88
398.82	78.88
399.044	84.88
399.268	94.88
399.492	82.88
399.717	74.88
399.941	82.88
400.165	96.88
400.389	99.88
400.613	89.88
400.837	71.88
401.062	84.88
401.286	93.88
401.51	92.88
401.734	94.88
401.958	95.88
402.182	127.88
402.406	137.88
402.63	97.88
402.854	81.88
403.078	87.88
403.302	95.88
403.526	84.88
403.75	81.88
403.974	79.88
404.198	96.88
404.422	107.88
404.645	92.88
404.869	92.88
405.093	101.88
405.317	81.88
405.541	96.88
405.765	95.88
405.988	109.88
406.212	145.88
406.436	193.88
406.66	141.88
406.883	104.88
407.107	74.88
407.331	92.88
407.555	111.88
407.778	97.88
408.002	79.88
408.226	87.88
408.449	60.88
408.673	95.88
408.896	105.88
409.12	95.88
409.344	96.88
409.567	88.88
409.791	84.88
410.014	97.88
410.238	82.88
410.461	95.88
410.685	75.88
410.908	95.88
411.132	111.88
411.355	81.88
411.578	108.88
411.802	104.88
412.025	90.88
412.249	100.88
412.472	90.88
412.695	82.88
412.919	93.88
413.142	79.88
413.365	80.88
413.589	85.88
413.812	88.88
414.035	90.88
414.258	95.88
414.482	93.88
414.705	79.88
414.928	85.88
415.151	96.88
415.374	81.88
415.597	76.88
415.821	76.88
416.044	80.88
416.267	83.88
416.49	82.88
416.713	69.88
416.936	87.88
417.159	83.88
417.382	88.88
417.605	74.88
417.828	87.88
418.051	79.88
418.274	77.88
418.497	72.88
418.72	79.88
418.943	85.88
419.166	95.88
419.389	91.88
419.611	86.88
419.834	85.88
420.057	75.88
420.28	90.88
420.503	90.88
420.726	79.88
420.948	82.88
421.171	85.88
421.394	92.88
421.617	84.88
421.839	99.88
422.062	85.88
422.285	104.88
422.507	106.88
422.73	108.88
422.953	95.88
423.175	95.88
423.398	87.88
423.621	95.88
423.843	96.88
424.066	83.88
424.288	91.88
424.511	85.88
424.733	83.88
424.956	98.88
425.178	100.88
425.401	88.88
425.623	89.88
425.846	90.88
426.068	91.88
426.291	102.88
426.513	85.88
426.735	96.88
426.958	99.88
427.18	102.88
427.402	132.88
427.625	147.88
427.847	129.88
428.069	101.88
428.292	90.88
428.514	88.88
428.736	73.88
428.958	82.88
429.181	87.88
429.403	99.88
429.625	82.88
429.847	86.88
430.069	84.88
430.292	89.88
430.514	84.88
430.736	94.88
430.958	83.88
431.18	81.88
431.402	81.88
431.624	72.88
431.846	77.88
432.068	91.88
432.29	98.88
432.512	94.88
432.734	71.88
432.956	90.88
433.178	81.88
433.4	101.88
433.622	94.88
433.844	93.88
434.066	102.88
434.287	104.88
434.509	83.88
434.731	99.88
434.953	83.88
435.175	80.88
435.397	97.88
435.618	87.88
435.84	100.88
436.062	104.88
436.284	113.88
436.505	104.88
436.727	105.88
436.949	93.88
437.17	101.88
437.392	86.88
437.614	102.88
437.835	99.88
438.057	106.88
438.278	107.88
438.5	104.88
438.721	121.88
438.943	84.88
439.165	84.88
439.386	97.88
439.608	99.88
439.829	100.88
440.05	116.88
440.272	111.88
440.493	90.88
440.715	81.88
440.936	91.88
441.158	87.88
441.379	83.88
441.6	86.88
441.822	95.88
442.043	96.88
442.264	104.88
442.486	96.88
442.707	98.88
442.928	100.88
443.149	104.88
443.371	110.88
443.592	99.88
443.813	107.88
444.034	96.88
444.255	89.88
444.476	86.88
444.698	98.88
444.919	93.88
445.14	127.88
445.361	97.88
445.582	103.88
445.803	135.88
446.024	136.88
446.245	142.88
446.466	98.88
446.687	83.88
446.908	89.88
447.129	98.88
447.35	83.88
447.571	95.88
447.792	79.88
448.013	96.88
448.234	107.88
448.455	95.88
448.675	116.88
448.896	108.88
449.117	103.88
449.338	103.88
449.559	126.88
449.779	134.88
450	82.88
450.221	74.88
450.442	87.88
450.662	78.88
450.883	91.88
451.104	101.88
451.324	97.88
451.545	85.88
451.766	80.88
451.986	77.88
452.207	93.88
452.428	87.88
452.648	87.88
452.869	97.88
453.089	107.88
453.31	113.88
453.53	90.88
453.751	87.88
453.971	95.88
454.192	88.88
454.412	95.88
454.633	90.88
454.853	80.88
455.073	88.88
455.294	84.88
455.514	85.88
455.734	83.88
455.955	79.88
456.175	82.88
456.395	72.88
456.616	86.88
456.836	90.88
457.056	85.88
457.276	87.88
457.497	79.88
457.717	95.88
457.937	84.88
458.157	79.88
458.377	87.88
458.598	93.88
458.818	127.88
459.038	146.88
459.258	107.88
459.478	97.88
459.698	81.88
459.918	89.88
460.138	83.88
460.358	85.88
460.578	88.88
460.798	89.88
461.018	88.88
461.238	80.88
461.458	90.88
461.678	82.88
461.898	80.88
462.118	85.88
462.338	81.88
462.558	90.88
462.777	85.88
462.997	91.88
463.217	68.88
463.437	83.88
463.657	72.88
463.876	85.88
464.096	90.88
464.316	94.88
464.536	91.88
464.755	79.88
464.975	96.88
465.195	132.88
465.414	127.88
465.634	102.88
465.854	90.88
466.073	90.88
466.293	77.88
466.512	104.88
466.732	84.88
466.951	79.88
467.171	88.88
467.391	101.88
467.61	93.88
467.829	116.88
468.049	90.88
468.268	103.88
468.488	101.88
468.707	74.88
468.927	73.88
469.146	64.88
469.365	80.88
469.585	90.88
469.804	97.88
470.023	91.88
470.243	88.88
470.462	100.88
470.681	104.88
470.901	91.88
471.12	79.88
471.339	95.88
471.558	85.88
471.777	84.88
471.997	103.88
472.216	115.88
472.435	133.88
472.654	103.88
472.873	78.88
473.092	87.88
473.311	90.88
473.53	82.88
473.749	89.88
473.968	83.88
474.187	107.88
474.406	95.88
474.625	93.88
474.844	91.88
475.063	67.88
475.282	77.88
475.501	70.88
475.72	83.88
475.939	77.88
476.158	75.88
476.377	83.88
476.596	93.88
476.814	92.88
477.033	86.88
477.252	89.88
477.471	83.88
477.69	86.88
477.908	91.88
478.127	89.88
478.346	96.88
478.564	85.88
478.783	88.88
479.002	93.88
479.22	85.88
479.439	83.88
479.658	98.88
479.876	79.88
480.095	75.88
480.313	85.88
480.532	102.88
480.751	87.88
480.969	109.88
481.188	167.88
481.406	128.88
481.624	85.88
481.843	87.88
482.061	96.88
482.28	79.88
482.498	84.88
482.717	76.88
482.935	94.88
483.153	88.88
483.372	88.88
483.59	95.88
483.808	83.88
484.027	86.88
484.245	87.88
484.463	94.88
484.681	85.88
484.9	94.88
485.118	104.88
485.336	86.88
485.554	109.88
485.772	97.88
485.99	102.88
486.209	99.88
486.427	123.88
486.645	95.88
486.863	128.88
487.081	109.88
487.299	101.88
487.517	103.88
487.735	79.88
487.953	92.88
488.171	104.88
488.389	91.88
488.607	107.88
488.825	84.88
489.043	97.88
489.261	94.88
489.479	74.88
489.696	83.88
489.914	85.88
490.132	91.88
490.35	88.88
490.568	84.88
490.786	98.88
491.003	87.88
491.221	104.88
491.439	82.88
491.657	93.88
491.874	96.88
492.092	95.88
492.31	89.88
492.527	74.88
492.745	77.88
492.963	88.88
493.18	101.88
493.398	62.88
493.615	104.88
493.833	93.88
494.05	71.88
494.268	71.88
494.485	94.88
494.703	105.88
494.92	93.88
495.138	89.88
495.355	94.88
495.573	93.88
495.79	97.88
496.008	93.88
496.225	91.88
496.442	88.88
496.66	83.88
496.877	99.88
497.094	84.88
497.312	91.88
497.529	90.88
497.746	85.88
497.963	80.88
498.181	95.88
498.398	87.88
498.615	108.88
498.832	108.88
499.049	90.88
499.267	94.88
499.484	90.88
499.701	93.88
499.918	105.88
500.135	87.88
500.352	92.88
500.569	83.88
500.786	74.88
501.003	86.88
501.22	87.88
501.437	91.88
501.654	93.88
501.871	100.88
502.088	86.88
502.305	98.88
502.522	87.88
502.739	87.88
502.956	90.88
503.172	93.88
503.389	88.88
503.606	88.88
503.823	90.88
504.04	90.88
504.256	79.88
504.473	76.88
504.69	94.88
504.907	81.88
505.123	85.88
505.34	103.88
505.557	101.88
505.773	90.88
505.99	82.88
506.207	90.88
506.423	89.88
506.64	94.88
506.856	93.88
507.073	93.88
507.289	95.88
507.506	94.88
507.722	104.88
507.939	116.88
508.155	92.88
508.372	89.88
508.588	84.88
508.805	104.88
509.021	100.88
509.238	93.88
509.454	97.88
509.67	97.88
509.887	105.88
510.103	123.88
510.319	195.88
510.536	653.88
510.752	2010.88
510.968	566.88
511.184	140.88
511.401	109.88
511.617	96.88
511.833	83.88
512.049	91.88
512.265	85.88
512.481	88.88
512.698	95.88
512.914	89.88
513.13	91.88
513.346	92.88
513.562	103.88
513.778	102.88
513.994	92.88
514.21	106.88
514.426	95.88
514.642	137.88
514.858	125.88
515.074	143.88
515.29	373.88
515.506	1170.88
515.721	451.88
515.937	139.88
516.153	101.88
516.369	91.88
