Data from Uncirc_1980_H10_HRD10591_00069.txt Node
Date: Wed Jan 03 12:37:09 EST 2024
User: Yrep
Spectrometer: HR+D1059
Trigger mode: 1
Integration Time (sec): 1.000000E-1
Scans to average: 1
Electric dark correction enabled: true
Nonlinearity correction enabled: false
Boxcar width: 0
XAxis mode: Wavelengths
Number of Pixels in Spectrum: 2048
>>>>>Begin Spectral Data<<<<<
223.165	-16.38
223.4	-16.38
223.635	-16.38
223.869	-25.38
224.104	-22.38
224.338	-12.38
224.573	-10.38
224.808	-14.38
225.042	4.62
225.277	-11.38
225.511	-2.38
225.746	1.62
225.98	10.62
226.215	7.62
226.449	17.62
226.683	10.62
226.918	24.62
227.152	37.62
227.387	31.62
227.621	30.62
227.856	48.62
228.09	54.62
228.324	63.62
228.559	63.62
228.793	61.62
229.027	70.62
229.262	73.62
229.496	83.62
229.73	71.62
229.964	86.62
230.199	88.62
230.433	73.62
230.667	79.62
230.901	78.62
231.136	87.62
231.37	79.62
231.604	72.62
231.838	74.62
232.072	74.62
232.306	72.62
232.541	79.62
232.775	84.62
233.009	85.62
233.243	92.62
233.477	78.62
233.711	100.62
233.945	105.62
234.179	83.62
234.413	87.62
234.647	79.62
234.881	74.62
235.115	77.62
235.349	77.62
235.583	78.62
235.817	77.62
236.051	99.62
236.285	92.62
236.519	95.62
236.753	87.62
236.987	87.62
237.221	80.62
237.455	83.62
237.689	78.62
237.922	77.62
238.156	69.62
238.39	86.62
238.624	79.62
238.858	77.62
239.091	79.62
239.325	91.62
239.559	88.62
239.793	82.62
240.027	85.62
240.26	72.62
240.494	71.62
240.728	75.62
240.961	69.62
241.195	71.62
241.429	72.62
241.662	90.62
241.896	61.62
242.13	81.62
242.363	80.62
242.597	94.62
242.83	88.62
243.064	78.62
243.298	77.62
243.531	91.62
243.765	83.62
243.998	86.62
244.232	87.62
244.465	79.62
244.699	90.62
244.932	82.62
245.166	77.62
245.399	95.62
245.633	78.62
245.866	95.62
246.099	79.62
246.333	83.62
246.566	96.62
246.8	66.62
247.033	66.62
247.266	69.62
247.5	87.62
247.733	83.62
247.966	74.62
248.2	71.62
248.433	86.62
248.666	94.62
248.899	89.62
249.133	81.62
249.366	97.62
249.599	98.62
249.832	87.62
250.066	102.62
250.299	73.62
250.532	83.62
250.765	81.62
250.998	80.62
251.231	86.62
251.465	77.62
251.698	79.62
251.931	92.62
252.164	75.62
252.397	72.62
252.63	72.62
252.863	87.62
253.096	77.62
253.329	71.62
253.562	95.62
253.795	77.62
254.028	79.62
254.261	95.62
254.494	78.62
254.727	88.62
254.96	75.62
255.193	89.62
255.426	89.62
255.659	70.62
255.892	76.62
256.124	68.62
256.357	82.62
256.59	80.62
256.823	75.62
257.056	80.62
257.289	77.62
257.521	65.62
257.754	83.62
257.987	79.62
258.22	81.62
258.452	89.62
258.685	94.62
258.918	69.62
259.151	83.62
259.383	80.62
259.616	80.62
259.849	92.62
260.081	80.62
260.314	80.62
260.547	85.62
260.779	76.62
261.012	74.62
261.244	88.62
261.477	88.62
261.71	92.62
261.942	90.62
262.175	102.62
262.407	81.62
262.64	102.62
262.872	75.62
263.105	77.62
263.337	83.62
263.57	85.62
263.802	95.62
264.035	89.62
264.267	87.62
264.499	77.62
264.732	80.62
264.964	92.62
265.197	88.62
265.429	87.62
265.661	81.62
265.894	80.62
266.126	92.62
266.358	105.62
266.591	78.62
266.823	79.62
267.055	88.62
267.287	79.62
267.52	87.62
267.752	84.62
267.984	93.62
268.216	93.62
268.448	92.62
268.681	79.62
268.913	70.62
269.145	97.62
269.377	77.62
269.609	97.62
269.841	91.62
270.073	76.62
270.306	73.62
270.538	75.62
270.77	72.62
271.002	81.62
271.234	82.62
271.466	98.62
271.698	78.62
271.93	81.62
272.162	81.62
272.394	98.62
272.626	85.62
272.858	74.62
273.09	89.62
273.322	97.62
273.553	87.62
273.785	75.62
274.017	75.62
274.249	71.62
274.481	96.62
274.713	91.62
274.945	101.62
275.176	90.62
275.408	108.62
275.64	78.62
275.872	87.62
276.104	97.62
276.335	86.62
276.567	97.62
276.799	102.62
277.031	89.62
277.262	83.62
277.494	77.62
277.726	91.62
277.957	74.62
278.189	89.62
278.421	75.62
278.652	91.62
278.884	86.62
279.115	96.62
279.347	88.62
279.579	81.62
279.81	80.62
280.042	84.62
280.273	80.62
280.505	75.62
280.736	87.62
280.968	89.62
281.199	85.62
281.431	91.62
281.662	95.62
281.894	100.62
282.125	95.62
282.356	106.62
282.588	121.62
282.819	113.62
283.051	76.62
283.282	90.62
283.513	83.62
283.745	65.62
283.976	73.62
284.207	91.62
284.439	93.62
284.67	75.62
284.901	85.62
285.132	82.62
285.364	94.62
285.595	93.62
285.826	85.62
286.057	84.62
286.288	83.62
286.52	93.62
286.751	79.62
286.982	85.62
287.213	87.62
287.444	101.62
287.675	95.62
287.906	84.62
288.138	88.62
288.369	91.62
288.6	90.62
288.831	92.62
289.062	78.62
289.293	87.62
289.524	86.62
289.755	98.62
289.986	91.62
290.217	96.62
290.448	79.62
290.679	93.62
290.91	103.62
291.141	100.62
291.371	77.62
291.602	73.62
291.833	82.62
292.064	91.62
292.295	81.62
292.526	95.62
292.757	94.62
292.987	93.62
293.218	88.62
293.449	83.62
293.68	90.62
293.91	93.62
294.141	88.62
294.372	92.62
294.603	80.62
294.833	95.62
295.064	99.62
295.295	78.62
295.525	86.62
295.756	96.62
295.987	95.62
296.217	101.62
296.448	108.62
296.679	102.62
296.909	97.62
297.14	83.62
297.37	80.62
297.601	87.62
297.831	92.62
298.062	75.62
298.292	90.62
298.523	81.62
298.753	85.62
298.984	95.62
299.214	94.62
299.445	97.62
299.675	96.62
299.905	83.62
300.136	85.62
300.366	89.62
300.597	84.62
300.827	85.62
301.057	99.62
301.288	99.62
301.518	86.62
301.748	100.62
301.979	96.62
302.209	78.62
302.439	98.62
302.669	95.62
302.9	88.62
303.13	91.62
303.36	97.62
303.59	110.62
303.82	93.62
304.051	102.62
304.281	84.62
304.511	103.62
304.741	95.62
304.971	88.62
305.201	83.62
305.431	108.62
305.661	91.62
305.891	87.62
306.121	100.62
306.352	102.62
306.582	105.62
306.812	95.62
307.042	85.62
307.272	102.62
307.502	79.62
307.731	98.62
307.961	83.62
308.191	103.62
308.421	95.62
308.651	95.62
308.881	80.62
309.111	84.62
309.341	88.62
309.571	84.62
309.8	95.62
310.03	89.62
310.26	89.62
310.49	100.62
310.72	96.62
310.949	100.62
311.179	96.62
311.409	93.62
311.639	113.62
311.868	97.62
312.098	112.62
312.328	85.62
312.557	96.62
312.787	90.62
313.017	107.62
313.246	85.62
313.476	96.62
313.706	107.62
313.935	111.62
314.165	90.62
314.394	93.62
314.624	91.62
314.853	89.62
315.083	101.62
315.312	88.62
315.542	92.62
315.771	88.62
316.001	99.62
316.23	92.62
316.46	96.62
316.689	111.62
316.919	110.62
317.148	105.62
317.377	99.62
317.607	100.62
317.836	89.62
318.065	89.62
318.295	92.62
318.524	75.62
318.753	98.62
318.983	93.62
319.212	102.62
319.441	100.62
319.67	87.62
319.9	89.62
320.129	97.62
320.358	90.62
320.587	100.62
320.816	93.62
321.046	99.62
321.275	93.62
321.504	93.62
321.733	86.62
321.962	95.62
322.191	94.62
322.42	94.62
322.649	108.62
322.878	103.62
323.108	108.62
323.337	114.62
323.566	122.62
323.795	140.62
324.024	177.62
324.253	324.62
324.482	629.62
324.71	1303.62
324.939	1791.62
325.168	656.62
325.397	200.62
325.626	134.62
325.855	139.62
326.084	122.62
326.313	116.62
326.542	147.62
326.77	197.62
326.999	349.62
327.228	725.62
327.457	1331.62
327.686	1097.62
327.914	299.62
328.143	167.62
328.372	147.62
328.6	113.62
328.829	110.62
329.058	107.62
329.287	111.62
329.515	93.62
329.744	117.62
329.972	116.62
330.201	104.62
330.43	128.62
330.658	125.62
330.887	133.62
331.115	122.62
331.344	102.62
331.572	100.62
331.801	105.62
332.03	89.62
332.258	106.62
332.486	96.62
332.715	97.62
332.943	100.62
333.172	97.62
333.4	104.62
333.629	104.62
333.857	116.62
334.085	107.62
334.314	123.62
334.542	139.62
334.771	121.62
334.999	107.62
335.227	105.62
335.455	91.62
335.684	89.62
335.912	104.62
336.14	101.62
336.369	107.62
336.597	107.62
336.825	83.62
337.053	93.62
337.281	113.62
337.51	106.62
337.738	92.62
337.966	89.62
338.194	96.62
338.422	106.62
338.65	83.62
338.878	89.62
339.106	98.62
339.334	93.62
339.562	98.62
339.79	99.62
340.018	86.62
340.246	106.62
340.474	95.62
340.702	84.62
340.93	97.62
341.158	103.62
341.386	104.62
341.614	101.62
341.842	96.62
342.07	97.62
342.298	78.62
342.526	94.62
342.754	92.62
342.981	87.62
343.209	75.62
343.437	97.62
343.665	91.62
343.893	98.62
344.12	91.62
344.348	84.62
344.576	72.62
344.804	87.62
345.031	91.62
345.259	83.62
345.487	100.62
345.714	83.62
345.942	100.62
346.17	87.62
346.397	87.62
346.625	92.62
346.853	79.62
347.08	95.62
347.308	98.62
347.535	86.62
347.763	109.62
347.99	112.62
348.218	104.62
348.445	111.62
348.673	117.62
348.9	87.62
349.128	89.62
349.355	105.62
349.583	102.62
349.81	99.62
350.037	94.62
350.265	88.62
350.492	86.62
350.72	79.62
350.947	98.62
351.174	103.62
351.402	112.62
351.629	102.62
351.856	109.62
352.083	99.62
352.311	116.62
352.538	111.62
352.765	93.62
352.992	104.62
353.22	115.62
353.447	107.62
353.674	94.62
353.901	92.62
354.128	111.62
354.355	102.62
354.583	99.62
354.81	100.62
355.037	99.62
355.264	103.62
355.491	97.62
355.718	99.62
355.945	107.62
356.172	102.62
356.399	92.62
356.626	95.62
356.853	81.62
357.08	94.62
357.307	95.62
357.534	97.62
357.761	97.62
357.988	98.62
358.215	95.62
358.441	92.62
358.668	99.62
358.895	103.62
359.122	90.62
359.349	81.62
359.576	81.62
359.802	94.62
360.029	121.62
360.256	117.62
360.483	93.62
360.709	92.62
360.936	104.62
361.163	95.62
361.39	100.62
361.616	92.62
361.843	84.62
362.07	83.62
362.296	90.62
362.523	84.62
362.749	94.62
362.976	90.62
363.203	113.62
363.429	103.62
363.656	105.62
363.882	93.62
364.109	87.62
364.335	88.62
364.562	80.62
364.788	108.62
365.015	91.62
365.241	103.62
365.468	102.62
365.694	101.62
365.92	103.62
366.147	95.62
366.373	106.62
366.599	94.62
366.826	103.62
367.052	89.62
367.278	118.62
367.505	85.62
367.731	103.62
367.957	97.62
368.184	92.62
368.41	95.62
368.636	109.62
368.862	118.62
369.089	115.62
369.315	113.62
369.541	105.62
369.767	108.62
369.993	100.62
370.219	92.62
370.445	88.62
370.672	95.62
370.898	104.62
371.124	79.62
371.35	91.62
371.576	94.62
371.802	95.62
372.028	88.62
372.254	87.62
372.48	87.62
372.706	85.62
372.932	75.62
373.158	92.62
373.384	103.62
373.61	87.62
373.835	72.62
374.061	102.62
374.287	86.62
374.513	101.62
374.739	91.62
374.965	96.62
375.191	90.62
375.416	88.62
375.642	90.62
375.868	99.62
376.094	96.62
376.319	101.62
376.545	103.62
376.771	84.62
376.997	93.62
377.222	99.62
377.448	97.62
377.674	91.62
377.899	87.62
378.125	84.62
378.35	104.62
378.576	95.62
378.802	103.62
379.027	89.62
379.253	88.62
379.478	111.62
379.704	93.62
379.929	102.62
380.155	92.62
380.38	98.62
380.606	105.62
380.831	103.62
381.057	105.62
381.282	104.62
381.507	99.62
381.733	102.62
381.958	107.62
382.184	105.62
382.409	105.62
382.634	97.62
382.86	107.62
383.085	110.62
383.31	92.62
383.535	101.62
383.761	95.62
383.986	117.62
384.211	105.62
384.436	93.62
384.662	105.62
384.887	99.62
385.112	114.62
385.337	109.62
385.562	112.62
385.787	116.62
386.013	104.62
386.238	113.62
386.463	106.62
386.688	101.62
386.913	105.62
387.138	97.62
387.363	110.62
387.588	106.62
387.813	106.62
388.038	110.62
388.263	105.62
388.488	96.62
388.713	109.62
388.938	101.62
389.163	107.62
389.387	99.62
389.612	100.62
389.837	93.62
390.062	99.62
390.287	82.62
390.512	105.62
390.736	105.62
390.961	85.62
391.186	99.62
391.411	97.62
391.636	101.62
391.86	90.62
392.085	87.62
392.31	88.62
392.534	80.62
392.759	93.62
392.984	91.62
393.208	97.62
393.433	88.62
393.658	87.62
393.882	86.62
394.107	90.62
394.331	98.62
394.556	94.62
394.78	96.62
395.005	88.62
395.229	91.62
395.454	83.62
395.678	90.62
395.903	85.62
396.127	95.62
396.352	101.62
396.576	94.62
396.801	85.62
397.025	89.62
397.249	95.62
397.474	89.62
397.698	95.62
397.922	72.62
398.147	73.62
398.371	104.62
398.595	83.62
398.82	99.62
399.044	92.62
399.268	90.62
399.492	82.62
399.717	92.62
399.941	91.62
400.165	105.62
400.389	91.62
400.613	94.62
400.837	92.62
401.062	96.62
401.286	96.62
401.51	96.62
401.734	87.62
401.958	84.62
402.182	117.62
402.406	140.62
402.63	117.62
402.854	92.62
403.078	92.62
403.302	76.62
403.526	96.62
403.75	97.62
403.974	86.62
404.198	89.62
404.422	87.62
404.645	78.62
404.869	88.62
405.093	98.62
405.317	99.62
405.541	111.62
405.765	99.62
405.988	111.62
406.212	156.62
406.436	194.62
406.66	122.62
406.883	84.62
407.107	83.62
407.331	91.62
407.555	99.62
407.778	83.62
408.002	97.62
408.226	92.62
408.449	85.62
408.673	88.62
408.896	92.62
409.12	87.62
409.344	91.62
409.567	83.62
409.791	88.62
410.014	104.62
410.238	109.62
410.461	98.62
410.685	103.62
410.908	102.62
411.132	108.62
411.355	110.62
411.578	99.62
411.802	86.62
412.025	77.62
412.249	87.62
412.472	96.62
412.695	95.62
412.919	85.62
413.142	79.62
413.365	81.62
413.589	92.62
413.812	107.62
414.035	93.62
414.258	79.62
414.482	91.62
414.705	88.62
414.928	95.62
415.151	102.62
415.374	89.62
415.597	97.62
415.821	94.62
416.044	93.62
416.267	80.62
416.49	86.62
416.713	90.62
416.936	84.62
417.159	100.62
417.382	93.62
417.605	87.62
417.828	93.62
418.051	88.62
418.274	81.62
418.497	95.62
418.72	85.62
418.943	95.62
419.166	87.62
419.389	98.62
419.611	96.62
419.834	76.62
420.057	100.62
420.28	96.62
420.503	85.62
420.726	92.62
420.948	77.62
421.171	98.62
421.394	93.62
421.617	102.62
421.839	78.62
422.062	95.62
422.285	96.62
422.507	95.62
422.73	87.62
422.953	89.62
423.175	93.62
423.398	86.62
423.621	79.62
423.843	96.62
424.066	95.62
424.288	104.62
424.511	88.62
424.733	98.62
424.956	112.62
425.178	91.62
425.401	96.62
425.623	111.62
425.846	90.62
426.068	91.62
426.291	77.62
426.513	94.62
426.735	94.62
426.958	97.62
427.18	95.62
427.402	125.62
427.625	132.62
427.847	116.62
428.069	91.62
428.292	93.62
428.514	100.62
428.736	93.62
428.958	83.62
429.181	87.62
429.403	95.62
429.625	110.62
429.847	90.62
430.069	92.62
430.292	96.62
430.514	81.62
430.736	89.62
430.958	83.62
431.18	93.62
431.402	101.62
431.624	95.62
431.846	77.62
432.068	82.62
432.29	95.62
432.512	81.62
432.734	85.62
432.956	96.62
433.178	104.62
433.4	87.62
433.622	92.62
433.844	89.62
434.066	87.62
434.287	96.62
434.509	92.62
434.731	90.62
434.953	87.62
435.175	88.62
435.397	89.62
435.618	88.62
435.84	86.62
436.062	109.62
436.284	104.62
436.505	106.62
436.727	97.62
436.949	96.62
437.17	87.62
437.392	84.62
437.614	99.62
437.835	103.62
438.057	106.62
438.278	124.62
438.5	105.62
438.721	116.62
438.943	101.62
439.165	96.62
439.386	86.62
439.608	93.62
439.829	99.62
440.05	111.62
440.272	135.62
440.493	102.62
440.715	88.62
440.936	86.62
441.158	90.62
441.379	88.62
441.6	103.62
441.822	86.62
442.043	85.62
442.264	108.62
442.486	88.62
442.707	91.62
442.928	93.62
443.149	111.62
443.371	109.62
443.592	108.62
443.813	88.62
444.034	116.62
444.255	93.62
444.476	95.62
444.698	89.62
444.919	95.62
445.14	129.62
445.361	112.62
445.582	105.62
445.803	127.62
446.024	126.62
446.245	130.62
446.466	90.62
446.687	73.62
446.908	77.62
447.129	84.62
447.35	96.62
447.571	94.62
447.792	79.62
448.013	88.62
448.234	105.62
448.455	95.62
448.675	109.62
448.896	107.62
449.117	98.62
449.338	101.62
449.559	121.62
449.779	133.62
450	92.62
450.221	93.62
450.442	88.62
450.662	108.62
450.883	104.62
451.104	101.62
451.324	87.62
451.545	96.62
451.766	92.62
451.986	88.62
452.207	91.62
452.428	108.62
452.648	94.62
452.869	113.62
453.089	106.62
453.31	108.62
453.53	87.62
453.751	103.62
453.971	103.62
454.192	102.62
454.412	91.62
454.633	96.62
454.853	97.62
455.073	84.62
455.294	98.62
455.514	96.62
455.734	77.62
455.955	92.62
456.175	92.62
456.395	79.62
456.616	93.62
456.836	97.62
457.056	84.62
457.276	82.62
457.497	88.62
457.717	80.62
457.937	73.62
458.157	72.62
458.377	98.62
458.598	99.62
458.818	133.62
459.038	139.62
459.258	105.62
459.478	94.62
459.698	87.62
459.918	90.62
460.138	83.62
460.358	85.62
460.578	87.62
460.798	95.62
461.018	87.62
461.238	89.62
461.458	91.62
461.678	94.62
461.898	87.62
462.118	84.62
462.338	95.62
462.558	91.62
462.777	104.62
462.997	101.62
463.217	87.62
463.437	93.62
463.657	105.62
463.876	80.62
464.096	105.62
464.316	90.62
464.536	87.62
464.755	99.62
464.975	104.62
465.195	132.62
465.414	124.62
465.634	101.62
465.854	87.62
466.073	94.62
466.293	90.62
466.512	99.62
466.732	92.62
466.951	75.62
467.171	91.62
467.391	96.62
467.61	109.62
467.829	89.62
468.049	85.62
468.268	117.62
468.488	101.62
468.707	87.62
468.927	79.62
469.146	77.62
469.365	85.62
469.585	96.62
469.804	99.62
470.023	92.62
470.243	106.62
470.462	85.62
470.681	101.62
470.901	83.62
471.12	85.62
471.339	89.62
471.558	85.62
471.777	99.62
471.997	86.62
472.216	120.62
472.435	132.62
472.654	95.62
472.873	85.62
473.092	93.62
473.311	84.62
473.53	95.62
473.749	81.62
473.968	101.62
474.187	100.62
474.406	80.62
474.625	83.62
474.844	94.62
475.063	88.62
475.282	84.62
475.501	87.62
475.72	97.62
475.939	87.62
476.158	96.62
476.377	81.62
476.596	96.62
476.814	99.62
477.033	98.62
477.252	104.62
477.471	95.62
477.69	103.62
477.908	92.62
478.127	90.62
478.346	86.62
478.564	92.62
478.783	103.62
479.002	89.62
479.22	101.62
479.439	113.62
479.658	106.62
479.876	93.62
480.095	93.62
480.313	90.62
480.532	79.62
480.751	100.62
480.969	110.62
481.188	191.62
481.406	148.62
481.624	116.62
481.843	80.62
482.061	99.62
482.28	93.62
482.498	83.62
482.717	90.62
482.935	90.62
483.153	90.62
483.372	89.62
483.59	89.62
483.808	73.62
484.027	88.62
484.245	90.62
484.463	88.62
484.681	93.62
484.9	95.62
485.118	89.62
485.336	103.62
485.554	96.62
485.772	99.62
485.99	95.62
486.209	99.62
486.427	98.62
486.645	108.62
486.863	99.62
487.081	103.62
487.299	95.62
487.517	91.62
487.735	91.62
487.953	91.62
488.171	101.62
488.389	82.62
488.607	96.62
488.825	97.62
489.043	87.62
489.261	98.62
489.479	104.62
489.696	96.62
489.914	88.62
490.132	80.62
490.35	97.62
490.568	75.62
490.786	99.62
491.003	96.62
491.221	78.62
491.439	80.62
491.657	88.62
491.874	93.62
492.092	97.62
492.31	104.62
492.527	65.62
492.745	91.62
492.963	94.62
493.18	106.62
493.398	102.62
493.615	93.62
493.833	86.62
494.05	104.62
494.268	94.62
494.485	85.62
494.703	93.62
494.92	97.62
495.138	93.62
495.355	107.62
495.573	92.62
495.79	103.62
496.008	93.62
496.225	83.62
496.442	87.62
496.66	96.62
496.877	96.62
497.094	99.62
497.312	96.62
497.529	90.62
497.746	98.62
497.963	92.62
498.181	94.62
498.398	85.62
498.615	99.62
498.832	99.62
499.049	95.62
499.267	83.62
499.484	98.62
499.701	94.62
499.918	90.62
500.135	92.62
500.352	94.62
500.569	104.62
500.786	91.62
501.003	99.62
501.22	86.62
501.437	92.62
501.654	97.62
501.871	100.62
502.088	99.62
502.305	97.62
502.522	101.62
502.739	81.62
502.956	86.62
503.172	93.62
503.389	89.62
503.606	107.62
503.823	90.62
504.04	88.62
504.256	95.62
504.473	98.62
504.69	84.62
504.907	80.62
505.123	92.62
505.34	88.62
505.557	79.62
505.773	88.62
505.99	90.62
506.207	81.62
506.423	93.62
506.64	97.62
506.856	77.62
507.073	105.62
507.289	95.62
507.506	94.62
507.722	102.62
507.939	107.62
508.155	86.62
508.372	102.62
508.588	96.62
508.805	97.62
509.021	97.62
509.238	95.62
509.454	92.62
509.67	91.62
509.887	109.62
510.103	133.62
510.319	187.62
510.536	611.62
510.752	1897.62
510.968	540.62
511.184	134.62
511.401	98.62
511.617	101.62
511.833	91.62
512.049	97.62
512.265	86.62
512.481	96.62
512.698	97.62
512.914	102.62
513.13	87.62
513.346	91.62
513.562	89.62
513.778	116.62
513.994	102.62
514.21	95.62
514.426	109.62
514.642	125.62
514.858	112.62
515.074	136.62
515.29	353.62
