Data from Uncirc_1980_H10_HRD10591_00038.txt Node
Date: Wed Jan 03 12:37:03 EST 2024
User: Yrep
Spectrometer: HR+D1059
Trigger mode: 1
Integration Time (sec): 1.000000E-1
Scans to average: 1
Electric dark correction enabled: true
Nonlinearity correction enabled: false
Boxcar width: 0
XAxis mode: Wavelengths
Number of Pixels in Spectrum: 2048
>>>>>Begin Spectral Data<<<<<
223.165	-25.75
223.4	-25.75
223.635	-25.75
223.869	-16.75
224.104	-20.75
224.338	-4.75
224.573	-9.75
224.808	-17.75
225.042	-14.75
225.277	1.25
225.511	-3.75
225.746	-1.75
225.98	16.25
226.215	2.25
226.449	13.25
226.683	22.25
226.918	35.25
227.152	25.25
227.387	43.25
227.621	30.25
227.856	39.25
228.09	37.25
228.324	46.25
228.559	54.25
228.793	60.25
229.027	49.25
229.262	56.25
229.496	67.25
229.73	80.25
229.964	58.25
230.199	58.25
230.433	72.25
230.667	82.25
230.901	78.25
231.136	71.25
231.37	77.25
231.604	74.25
231.838	80.25
232.072	70.25
232.306	73.25
232.541	72.25
232.775	83.25
233.009	68.25
233.243	62.25
233.477	86.25
233.711	75.25
233.945	86.25
234.179	84.25
234.413	67.25
234.647	77.25
234.881	81.25
235.115	75.25
235.349	55.25
235.583	62.25
235.817	67.25
236.051	81.25
236.285	66.25
236.519	78.25
236.753	71.25
236.987	80.25
237.221	70.25
237.455	80.25
237.689	78.25
237.922	81.25
238.156	81.25
238.39	64.25
238.624	70.25
238.858	55.25
239.091	59.25
239.325	63.25
239.559	72.25
239.793	79.25
240.027	62.25
240.26	83.25
240.494	71.25
240.728	74.25
240.961	66.25
241.195	73.25
241.429	83.25
241.662	74.25
241.896	74.25
242.13	70.25
242.363	63.25
242.597	74.25
242.83	74.25
243.064	67.25
243.298	81.25
243.531	76.25
243.765	60.25
243.998	66.25
244.232	75.25
244.465	78.25
244.699	78.25
244.932	84.25
245.166	72.25
245.399	64.25
245.633	68.25
245.866	78.25
246.099	64.25
246.333	78.25
246.566	73.25
246.8	62.25
247.033	78.25
247.266	82.25
247.5	67.25
247.733	82.25
247.966	82.25
248.2	66.25
248.433	57.25
248.666	76.25
248.899	80.25
249.133	92.25
249.366	74.25
249.599	78.25
249.832	78.25
250.066	84.25
250.299	86.25
250.532	72.25
250.765	75.25
250.998	85.25
251.231	88.25
251.465	66.25
251.698	66.25
251.931	80.25
252.164	82.25
252.397	67.25
252.63	78.25
252.863	76.25
253.096	73.25
253.329	70.25
253.562	74.25
253.795	52.25
254.028	78.25
254.261	83.25
254.494	74.25
254.727	72.25
254.96	76.25
255.193	77.25
255.426	75.25
255.659	82.25
255.892	74.25
256.124	71.25
256.357	71.25
256.59	79.25
256.823	91.25
257.056	75.25
257.289	90.25
257.521	74.25
257.754	70.25
257.987	70.25
258.22	90.25
258.452	75.25
258.685	79.25
258.918	76.25
259.151	76.25
259.383	70.25
259.616	68.25
259.849	75.25
260.081	77.25
260.314	84.25
260.547	78.25
260.779	65.25
261.012	78.25
261.244	74.25
261.477	82.25
261.71	72.25
261.942	101.25
262.175	88.25
262.407	68.25
262.64	81.25
262.872	71.25
263.105	96.25
263.337	83.25
263.57	82.25
263.802	69.25
264.035	82.25
264.267	82.25
264.499	83.25
264.732	85.25
264.964	85.25
265.197	87.25
265.429	68.25
265.661	81.25
265.894	92.25
266.126	79.25
266.358	73.25
266.591	82.25
266.823	73.25
267.055	73.25
267.287	63.25
267.52	73.25
267.752	87.25
267.984	65.25
268.216	78.25
268.448	76.25
268.681	86.25
268.913	84.25
269.145	84.25
269.377	70.25
269.609	78.25
269.841	92.25
270.073	67.25
270.306	83.25
270.538	79.25
270.77	78.25
271.002	86.25
271.234	79.25
271.466	74.25
271.698	64.25
271.93	73.25
272.162	78.25
272.394	82.25
272.626	75.25
272.858	70.25
273.09	71.25
273.322	91.25
273.553	86.25
273.785	94.25
274.017	67.25
274.249	78.25
274.481	81.25
274.713	75.25
274.945	87.25
275.176	64.25
275.408	85.25
275.64	80.25
275.872	90.25
276.104	86.25
276.335	81.25
276.567	83.25
276.799	95.25
277.031	67.25
277.262	85.25
277.494	96.25
277.726	76.25
277.957	83.25
278.189	81.25
278.421	75.25
278.652	74.25
278.884	80.25
279.115	89.25
279.347	76.25
279.579	82.25
279.81	86.25
280.042	73.25
280.273	79.25
280.505	70.25
280.736	78.25
280.968	66.25
281.199	83.25
281.431	86.25
281.662	72.25
281.894	92.25
282.125	96.25
282.356	91.25
282.588	123.25
282.819	97.25
283.051	89.25
283.282	74.25
283.513	85.25
283.745	76.25
283.976	84.25
284.207	80.25
284.439	94.25
284.67	92.25
284.901	69.25
285.132	88.25
285.364	82.25
285.595	92.25
285.826	87.25
286.057	86.25
286.288	70.25
286.52	83.25
286.751	90.25
286.982	83.25
287.213	73.25
287.444	95.25
287.675	65.25
287.906	87.25
288.138	89.25
288.369	72.25
288.6	91.25
288.831	86.25
289.062	85.25
289.293	99.25
289.524	86.25
289.755	80.25
289.986	88.25
290.217	95.25
290.448	92.25
290.679	94.25
290.91	73.25
291.141	81.25
291.371	88.25
291.602	73.25
291.833	94.25
292.064	91.25
292.295	91.25
292.526	88.25
292.757	96.25
292.987	96.25
293.218	94.25
293.449	76.25
293.68	80.25
293.91	82.25
294.141	95.25
294.372	86.25
294.603	73.25
294.833	92.25
295.064	86.25
295.295	70.25
295.525	83.25
295.756	96.25
295.987	94.25
296.217	106.25
296.448	106.25
296.679	76.25
296.909	93.25
297.14	91.25
297.37	76.25
297.601	92.25
297.831	96.25
298.062	92.25
298.292	80.25
298.523	76.25
298.753	84.25
298.984	78.25
299.214	68.25
299.445	80.25
299.675	83.25
299.905	94.25
300.136	70.25
300.366	95.25
300.597	85.25
300.827	91.25
301.057	88.25
301.288	102.25
301.518	90.25
301.748	86.25
301.979	95.25
302.209	97.25
302.439	80.25
302.669	84.25
302.9	80.25
303.13	91.25
303.36	98.25
303.59	85.25
303.82	86.25
304.051	102.25
304.281	95.25
304.511	82.25
304.741	73.25
304.971	88.25
305.201	96.25
305.431	72.25
305.661	85.25
305.891	95.25
306.121	86.25
306.352	92.25
306.582	97.25
306.812	96.25
307.042	84.25
307.272	88.25
307.502	81.25
307.731	93.25
307.961	96.25
308.191	99.25
308.421	98.25
308.651	63.25
308.881	90.25
309.111	87.25
309.341	98.25
309.571	91.25
309.8	70.25
310.03	91.25
310.26	93.25
310.49	91.25
310.72	99.25
310.949	88.25
311.179	95.25
311.409	69.25
311.639	78.25
311.868	93.25
312.098	107.25
312.328	95.25
312.557	94.25
312.787	98.25
313.017	88.25
313.246	90.25
313.476	86.25
313.706	96.25
313.935	92.25
314.165	89.25
314.394	87.25
314.624	92.25
314.853	85.25
315.083	89.25
315.312	82.25
315.542	84.25
315.771	83.25
316.001	74.25
316.23	88.25
316.46	88.25
316.689	92.25
316.919	91.25
317.148	90.25
317.377	91.25
317.607	93.25
317.836	75.25
318.065	90.25
318.295	73.25
318.524	75.25
318.753	92.25
318.983	89.25
319.212	95.25
319.441	112.25
319.67	88.25
319.9	85.25
320.129	96.25
320.358	81.25
320.587	88.25
320.816	96.25
321.046	90.25
321.275	83.25
321.504	90.25
321.733	92.25
321.962	85.25
322.191	90.25
322.42	104.25
322.649	103.25
322.878	91.25
323.108	103.25
323.337	107.25
323.566	118.25
323.795	132.25
324.024	164.25
324.253	286.25
324.482	581.25
324.71	1191.25
324.939	1587.25
325.168	574.25
325.397	205.25
325.626	132.25
325.855	113.25
326.084	109.25
326.313	107.25
326.542	120.25
326.77	193.25
326.999	331.25
327.228	650.25
327.457	1228.25
327.686	987.25
327.914	276.25
328.143	143.25
328.372	120.25
328.6	98.25
328.829	92.25
329.058	104.25
329.287	100.25
329.515	105.25
329.744	100.25
329.972	100.25
330.201	100.25
330.43	101.25
330.658	119.25
330.887	107.25
331.115	102.25
331.344	91.25
331.572	97.25
331.801	109.25
332.03	94.25
332.258	88.25
332.486	104.25
332.715	93.25
332.943	90.25
333.172	97.25
333.4	88.25
333.629	96.25
333.857	100.25
334.085	90.25
334.314	107.25
334.542	109.25
334.771	110.25
334.999	83.25
335.227	83.25
335.455	72.25
335.684	86.25
335.912	95.25
336.14	93.25
336.369	88.25
336.597	85.25
336.825	86.25
337.053	98.25
337.281	82.25
337.51	91.25
337.738	81.25
337.966	98.25
338.194	94.25
338.422	97.25
338.65	82.25
338.878	85.25
339.106	91.25
339.334	85.25
339.562	69.25
339.79	81.25
340.018	84.25
340.246	88.25
340.474	95.25
340.702	83.25
340.93	85.25
341.158	70.25
341.386	82.25
341.614	82.25
341.842	88.25
342.07	78.25
342.298	99.25
342.526	91.25
342.754	89.25
342.981	82.25
343.209	85.25
343.437	92.25
343.665	85.25
343.893	84.25
344.12	80.25
344.348	83.25
344.576	81.25
344.804	86.25
345.031	78.25
345.259	96.25
345.487	86.25
345.714	92.25
345.942	103.25
346.17	93.25
346.397	85.25
346.625	85.25
346.853	96.25
347.08	90.25
347.308	92.25
347.535	90.25
347.763	81.25
347.99	98.25
348.218	89.25
348.445	93.25
348.673	105.25
348.9	95.25
349.128	81.25
349.355	83.25
349.583	104.25
349.81	106.25
350.037	81.25
350.265	100.25
350.492	91.25
350.72	78.25
350.947	97.25
351.174	104.25
351.402	88.25
351.629	93.25
351.856	85.25
352.083	96.25
352.311	91.25
352.538	98.25
352.765	100.25
352.992	99.25
353.22	97.25
353.447	110.25
353.674	100.25
353.901	96.25
354.128	88.25
354.355	103.25
354.583	99.25
354.81	99.25
355.037	89.25
355.264	90.25
355.491	102.25
355.718	97.25
355.945	78.25
356.172	91.25
356.399	103.25
356.626	89.25
356.853	83.25
357.08	89.25
357.307	98.25
357.534	74.25
357.761	84.25
357.988	90.25
358.215	91.25
358.441	86.25
358.668	84.25
358.895	90.25
359.122	63.25
359.349	78.25
359.576	84.25
359.802	84.25
360.029	99.25
360.256	92.25
360.483	89.25
360.709	89.25
360.936	76.25
361.163	79.25
361.39	94.25
361.616	73.25
361.843	93.25
362.07	90.25
362.296	83.25
362.523	74.25
362.749	73.25
362.976	85.25
363.203	80.25
363.429	82.25
363.656	86.25
363.882	88.25
364.109	75.25
364.335	74.25
364.562	93.25
364.788	89.25
365.015	74.25
365.241	90.25
365.468	98.25
365.694	87.25
365.92	98.25
366.147	88.25
366.373	96.25
366.599	86.25
366.826	73.25
367.052	84.25
367.278	74.25
367.505	88.25
367.731	85.25
367.957	96.25
368.184	93.25
368.41	83.25
368.636	89.25
368.862	96.25
369.089	105.25
369.315	84.25
369.541	91.25
369.767	83.25
369.993	84.25
370.219	86.25
370.445	88.25
370.672	79.25
370.898	80.25
371.124	82.25
371.35	99.25
371.576	82.25
371.802	83.25
372.028	81.25
372.254	92.25
372.48	96.25
372.706	88.25
372.932	79.25
373.158	84.25
373.384	84.25
373.61	91.25
373.835	84.25
374.061	88.25
374.287	86.25
374.513	91.25
374.739	71.25
374.965	100.25
375.191	94.25
375.416	94.25
375.642	83.25
375.868	82.25
376.094	91.25
376.319	88.25
376.545	80.25
376.771	92.25
376.997	62.25
377.222	81.25
377.448	89.25
377.674	94.25
377.899	88.25
378.125	67.25
378.35	94.25
378.576	104.25
378.802	94.25
379.027	89.25
379.253	91.25
379.478	103.25
379.704	88.25
379.929	78.25
380.155	97.25
380.38	91.25
380.606	96.25
380.831	112.25
381.057	96.25
381.282	95.25
381.507	83.25
381.733	97.25
381.958	96.25
382.184	92.25
382.409	97.25
382.634	101.25
382.86	88.25
383.085	92.25
383.31	103.25
383.535	95.25
383.761	100.25
383.986	102.25
384.211	105.25
384.436	98.25
384.662	91.25
384.887	114.25
385.112	101.25
385.337	107.25
385.562	95.25
385.787	102.25
386.013	114.25
386.238	108.25
386.463	108.25
386.688	101.25
386.913	89.25
387.138	101.25
387.363	108.25
387.588	94.25
387.813	103.25
388.038	97.25
388.263	110.25
388.488	117.25
388.713	94.25
388.938	83.25
389.163	88.25
389.387	96.25
389.612	104.25
389.837	101.25
390.062	76.25
390.287	87.25
390.512	79.25
390.736	93.25
390.961	88.25
391.186	98.25
391.411	92.25
391.636	86.25
391.86	83.25
392.085	79.25
392.31	91.25
392.534	87.25
392.759	75.25
392.984	74.25
393.208	83.25
393.433	83.25
393.658	94.25
393.882	83.25
394.107	90.25
394.331	80.25
394.556	87.25
394.78	82.25
395.005	87.25
395.229	85.25
395.454	79.25
395.678	88.25
395.903	80.25
396.127	85.25
396.352	79.25
396.576	82.25
396.801	91.25
397.025	88.25
397.249	85.25
397.474	100.25
397.698	94.25
397.922	87.25
398.147	93.25
398.371	84.25
398.595	104.25
398.82	80.25
399.044	94.25
399.268	88.25
399.492	85.25
399.717	88.25
399.941	88.25
400.165	91.25
400.389	97.25
400.613	78.25
400.837	92.25
401.062	76.25
401.286	92.25
401.51	86.25
401.734	83.25
401.958	85.25
402.182	107.25
402.406	112.25
402.63	98.25
402.854	80.25
403.078	82.25
403.302	81.25
403.526	83.25
403.75	89.25
403.974	95.25
404.198	95.25
404.422	87.25
404.645	78.25
404.869	83.25
405.093	81.25
405.317	91.25
405.541	101.25
405.765	89.25
405.988	109.25
406.212	128.25
406.436	162.25
406.66	112.25
406.883	90.25
407.107	82.25
407.331	95.25
407.555	103.25
407.778	101.25
408.002	95.25
408.226	106.25
408.449	91.25
408.673	84.25
408.896	98.25
409.12	100.25
409.344	72.25
409.567	92.25
409.791	92.25
410.014	93.25
410.238	95.25
410.461	90.25
410.685	78.25
410.908	82.25
411.132	114.25
411.355	97.25
411.578	77.25
411.802	87.25
412.025	88.25
412.249	85.25
412.472	89.25
412.695	91.25
412.919	86.25
413.142	98.25
413.365	82.25
413.589	94.25
413.812	88.25
414.035	101.25
414.258	86.25
414.482	87.25
414.705	99.25
414.928	88.25
415.151	99.25
415.374	91.25
415.597	93.25
415.821	88.25
416.044	89.25
416.267	73.25
416.49	90.25
416.713	86.25
416.936	91.25
417.159	83.25
417.382	83.25
417.605	97.25
417.828	91.25
418.051	82.25
418.274	80.25
418.497	80.25
418.72	80.25
418.943	82.25
419.166	88.25
419.389	80.25
419.611	86.25
419.834	89.25
420.057	82.25
420.28	93.25
420.503	82.25
420.726	99.25
420.948	60.25
421.171	80.25
421.394	76.25
421.617	87.25
421.839	86.25
422.062	78.25
422.285	83.25
422.507	90.25
422.73	86.25
422.953	81.25
423.175	95.25
423.398	80.25
423.621	86.25
423.843	74.25
424.066	89.25
424.288	78.25
424.511	89.25
424.733	81.25
424.956	67.25
425.178	84.25
425.401	91.25
425.623	95.25
425.846	82.25
426.068	96.25
426.291	88.25
426.513	73.25
426.735	93.25
426.958	76.25
427.18	97.25
427.402	118.25
427.625	133.25
427.847	111.25
428.069	106.25
428.292	93.25
428.514	84.25
428.736	83.25
428.958	67.25
429.181	78.25
429.403	83.25
429.625	83.25
429.847	86.25
430.069	84.25
430.292	74.25
430.514	80.25
430.736	87.25
430.958	74.25
431.18	81.25
431.402	90.25
431.624	81.25
431.846	76.25
432.068	88.25
432.29	94.25
432.512	90.25
432.734	95.25
432.956	74.25
433.178	90.25
433.4	82.25
433.622	85.25
433.844	86.25
434.066	100.25
434.287	101.25
434.509	87.25
434.731	80.25
434.953	96.25
435.175	78.25
435.397	100.25
435.618	77.25
435.84	98.25
436.062	104.25
436.284	98.25
436.505	86.25
436.727	84.25
436.949	84.25
437.17	89.25
437.392	89.25
437.614	82.25
437.835	101.25
438.057	114.25
438.278	100.25
438.5	91.25
438.721	114.25
438.943	97.25
439.165	86.25
439.386	78.25
439.608	86.25
439.829	89.25
440.05	106.25
440.272	119.25
440.493	78.25
440.715	75.25
440.936	76.25
441.158	91.25
441.379	85.25
441.6	72.25
441.822	99.25
442.043	83.25
442.264	88.25
442.486	79.25
442.707	87.25
442.928	75.25
443.149	104.25
443.371	107.25
443.592	97.25
443.813	105.25
444.034	73.25
444.255	81.25
444.476	86.25
444.698	92.25
444.919	88.25
445.14	137.25
445.361	125.25
445.582	111.25
445.803	113.25
446.024	107.25
446.245	118.25
446.466	98.25
446.687	91.25
446.908	80.25
447.129	93.25
447.35	82.25
447.571	95.25
447.792	100.25
448.013	81.25
448.234	97.25
448.455	106.25
448.675	93.25
448.896	105.25
449.117	76.25
449.338	86.25
449.559	106.25
449.779	113.25
450	82.25
450.221	83.25
450.442	82.25
450.662	91.25
450.883	88.25
451.104	81.25
451.324	92.25
451.545	84.25
451.766	93.25
451.986	89.25
452.207	90.25
452.428	85.25
452.648	80.25
452.869	87.25
453.089	90.25
453.31	100.25
453.53	94.25
453.751	80.25
453.971	87.25
454.192	76.25
454.412	92.25
454.633	96.25
454.853	85.25
455.073	92.25
455.294	85.25
455.514	97.25
455.734	82.25
455.955	80.25
456.175	95.25
456.395	78.25
456.616	86.25
456.836	81.25
457.056	73.25
457.276	76.25
457.497	79.25
457.717	80.25
457.937	79.25
458.157	82.25
458.377	88.25
458.598	87.25
458.818	116.25
459.038	131.25
459.258	104.25
459.478	98.25
459.698	86.25
459.918	78.25
460.138	80.25
460.358	82.25
460.578	84.25
460.798	92.25
461.018	82.25
461.238	80.25
461.458	66.25
461.678	83.25
461.898	75.25
462.118	77.25
462.338	96.25
462.558	93.25
462.777	80.25
462.997	72.25
463.217	84.25
463.437	92.25
463.657	83.25
463.876	79.25
464.096	82.25
464.316	90.25
464.536	93.25
464.755	108.25
464.975	91.25
465.195	117.25
465.414	116.25
465.634	83.25
465.854	80.25
466.073	96.25
466.293	94.25
466.512	93.25
466.732	95.25
466.951	94.25
467.171	90.25
467.391	95.25
467.61	89.25
467.829	72.25
468.049	79.25
468.268	95.25
468.488	86.25
468.707	92.25
468.927	91.25
469.146	84.25
469.365	80.25
469.585	88.25
469.804	80.25
470.023	96.25
470.243	94.25
470.462	85.25
470.681	90.25
470.901	79.25
471.12	94.25
471.339	86.25
471.558	89.25
471.777	66.25
471.997	78.25
472.216	95.25
472.435	107.25
472.654	93.25
472.873	86.25
473.092	88.25
473.311	101.25
473.53	79.25
473.749	87.25
473.968	74.25
474.187	99.25
474.406	86.25
474.625	89.25
474.844	86.25
475.063	81.25
475.282	95.25
475.501	79.25
475.72	81.25
475.939	82.25
476.158	92.25
476.377	87.25
476.596	95.25
476.814	86.25
477.033	98.25
477.252	86.25
477.471	98.25
477.69	84.25
477.908	76.25
478.127	94.25
478.346	95.25
478.564	87.25
478.783	84.25
479.002	79.25
479.22	84.25
479.439	83.25
479.658	90.25
479.876	82.25
480.095	95.25
480.313	88.25
480.532	85.25
480.751	91.25
480.969	104.25
481.188	167.25
481.406	132.25
481.624	80.25
481.843	86.25
482.061	86.25
482.28	78.25
482.498	85.25
482.717	74.25
482.935	89.25
483.153	86.25
483.372	89.25
483.59	99.25
483.808	92.25
484.027	94.25
484.245	80.25
484.463	84.25
484.681	99.25
484.9	94.25
485.118	87.25
485.336	93.25
485.554	85.25
485.772	91.25
485.99	99.25
486.209	90.25
486.427	98.25
486.645	95.25
486.863	103.25
487.081	102.25
487.299	82.25
487.517	79.25
487.735	85.25
487.953	88.25
488.171	103.25
488.389	98.25
488.607	103.25
488.825	88.25
489.043	80.25
489.261	72.25
489.479	83.25
489.696	79.25
489.914	76.25
490.132	80.25
490.35	78.25
490.568	79.25
490.786	90.25
491.003	89.25
491.221	75.25
491.439	103.25
491.657	88.25
491.874	92.25
492.092	79.25
492.31	91.25
492.527	68.25
492.745	82.25
492.963	89.25
493.18	87.25
493.398	99.25
493.615	98.25
493.833	104.25
494.05	82.25
494.268	85.25
494.485	85.25
494.703	84.25
494.92	94.25
495.138	96.25
495.355	95.25
495.573	79.25
495.79	89.25
496.008	101.25
496.225	70.25
496.442	92.25
496.66	86.25
496.877	78.25
497.094	86.25
497.312	103.25
497.529	91.25
497.746	92.25
497.963	99.25
498.181	105.25
498.398	97.25
498.615	93.25
498.832	80.25
499.049	88.25
499.267	97.25
499.484	88.25
499.701	79.25
499.918	91.25
500.135	88.25
500.352	87.25
500.569	96.25
500.786	78.25
501.003	88.25
501.22	87.25
501.437	98.25
501.654	88.25
501.871	103.25
502.088	82.25
502.305	76.25
502.522	81.25
502.739	92.25
502.956	81.25
503.172	85.25
503.389	90.25
503.606	96.25
503.823	110.25
504.04	90.25
504.256	82.25
504.473	86.25
504.69	72.25
504.907	98.25
505.123	70.25
505.34	92.25
505.557	80.25
505.773	98.25
505.99	90.25
506.207	90.25
506.423	91.25
506.64	85.25
506.856	74.25
507.073	87.25
507.289	76.25
507.506	84.25
507.722	105.25
507.939	112.25
508.155	94.25
508.372	108.25
508.588	99.25
508.805	91.25
509.021	93.25
509.238	94.25
509.454	93.25
509.67	101.25
509.887	92.25
510.103	105.25
510.319	177.25
510.536	546.25
510.752	1666.25
510.968	490.25
511.184	152.25
511.401	102.25
511.617	103.25
511.833	84.25
512.049	88.25
512.265	92.25
512.481	90.25
512.698	88.25
512.914	98.25
513.13	90.25
513.346	87.25
513.562	102.25
513.778	78.25
513.994	91.25
514.21	82.25
514.426	85.25
514.642	103.25
514.858	114.25
515.074	123.25
515.29	306.25
515.506	925.25
515.721	357.25
515.937	137.25
516.153	104.25
516.369	91.25
516.585	83.25
516.801	101.25
517.016	92.25
517.232	80.25
517.448	92.25
517.664	94.25
