Data from Uncirc_1980_H10_HRD10591_00085.txt Node
Date: Wed Jan 03 12:37:12 EST 2024
User: Yrep
Spectrometer: HR+D1059
Trigger mode: 1
Integration Time (sec): 1.000000E-1
Scans to average: 1
Electric dark correction enabled: true
Nonlinearity correction enabled: false
Boxcar width: 0
XAxis mode: Wavelengths
Number of Pixels in Spectrum: 2048
>>>>>Begin Spectral Data<<<<<
223.165	-14.25
223.4	-14.25
223.635	-14.25
223.869	-10.25
224.104	-17.25
224.338	-25.25
224.573	-14.25
224.808	-12.25
225.042	-11.25
225.277	1.75
225.511	5.75
225.746	9.75
225.98	-6.25
226.215	5.75
226.449	7.75
226.683	27.75
226.918	23.75
227.152	28.75
227.387	30.75
227.621	42.75
227.856	38.75
228.09	50.75
228.324	53.75
228.559	58.75
228.793	65.75
229.027	69.75
229.262	65.75
229.496	83.75
229.73	73.75
229.964	87.75
230.199	69.75
230.433	70.75
230.667	87.75
230.901	93.75
231.136	80.75
231.37	81.75
231.604	88.75
231.838	68.75
232.072	89.75
232.306	83.75
232.541	88.75
232.775	82.75
233.009	70.75
233.243	98.75
233.477	82.75
233.711	85.75
233.945	83.75
234.179	79.75
234.413	65.75
234.647	61.75
234.881	85.75
235.115	75.75
235.349	79.75
235.583	78.75
235.817	88.75
236.051	79.75
236.285	71.75
236.519	72.75
236.753	78.75
236.987	85.75
237.221	73.75
237.455	86.75
237.689	73.75
237.922	63.75
238.156	81.75
238.39	73.75
238.624	81.75
238.858	77.75
239.091	72.75
239.325	62.75
239.559	67.75
239.793	82.75
240.027	65.75
240.26	73.75
240.494	82.75
240.728	81.75
240.961	76.75
241.195	83.75
241.429	73.75
241.662	69.75
241.896	84.75
242.13	83.75
242.363	84.75
242.597	85.75
242.83	89.75
243.064	85.75
243.298	98.75
243.531	68.75
243.765	72.75
243.998	76.75
244.232	78.75
244.465	85.75
244.699	73.75
244.932	74.75
245.166	77.75
245.399	79.75
245.633	69.75
245.866	84.75
246.099	80.75
246.333	87.75
246.566	74.75
246.8	76.75
247.033	85.75
247.266	82.75
247.5	79.75
247.733	67.75
247.966	97.75
248.2	70.75
248.433	71.75
248.666	72.75
248.899	76.75
249.133	62.75
249.366	87.75
249.599	82.75
249.832	93.75
250.066	86.75
250.299	69.75
250.532	81.75
250.765	64.75
250.998	86.75
251.231	79.75
251.465	89.75
251.698	80.75
251.931	77.75
252.164	85.75
252.397	78.75
252.63	71.75
252.863	69.75
253.096	90.75
253.329	73.75
253.562	87.75
253.795	83.75
254.028	81.75
254.261	73.75
254.494	70.75
254.727	70.75
254.96	74.75
255.193	98.75
255.426	79.75
255.659	81.75
255.892	83.75
256.124	87.75
256.357	97.75
256.59	75.75
256.823	82.75
257.056	69.75
257.289	74.75
257.521	87.75
257.754	81.75
257.987	83.75
258.22	84.75
258.452	83.75
258.685	88.75
258.918	93.75
259.151	67.75
259.383	85.75
259.616	84.75
259.849	80.75
260.081	75.75
260.314	90.75
260.547	74.75
260.779	86.75
261.012	88.75
261.244	87.75
261.477	92.75
261.71	102.75
261.942	99.75
262.175	105.75
262.407	77.75
262.64	86.75
262.872	87.75
263.105	83.75
263.337	80.75
263.57	78.75
263.802	85.75
264.035	81.75
264.267	72.75
264.499	84.75
264.732	71.75
264.964	81.75
265.197	91.75
265.429	83.75
265.661	92.75
265.894	98.75
266.126	85.75
266.358	91.75
266.591	94.75
266.823	73.75
267.055	64.75
267.287	92.75
267.52	79.75
267.752	100.75
267.984	74.75
268.216	100.75
268.448	95.75
268.681	86.75
268.913	88.75
269.145	91.75
269.377	81.75
269.609	73.75
269.841	85.75
270.073	81.75
270.306	94.75
270.538	85.75
270.77	89.75
271.002	84.75
271.234	77.75
271.466	83.75
271.698	86.75
271.93	88.75
272.162	74.75
272.394	94.75
272.626	83.75
272.858	83.75
273.09	86.75
273.322	80.75
273.553	104.75
273.785	91.75
274.017	90.75
274.249	87.75
274.481	88.75
274.713	87.75
274.945	81.75
275.176	83.75
275.408	82.75
275.64	89.75
275.872	81.75
276.104	70.75
276.335	94.75
276.567	93.75
276.799	93.75
277.031	90.75
277.262	84.75
277.494	84.75
277.726	90.75
277.957	70.75
278.189	75.75
278.421	77.75
278.652	89.75
278.884	95.75
279.115	94.75
279.347	80.75
279.579	81.75
279.81	84.75
280.042	93.75
280.273	70.75
280.505	82.75
280.736	87.75
280.968	87.75
281.199	76.75
281.431	87.75
281.662	85.75
281.894	98.75
282.125	87.75
282.356	102.75
282.588	117.75
282.819	103.75
283.051	99.75
283.282	78.75
283.513	89.75
283.745	79.75
283.976	85.75
284.207	83.75
284.439	84.75
284.67	78.75
284.901	87.75
285.132	89.75
285.364	83.75
285.595	90.75
285.826	72.75
286.057	91.75
286.288	85.75
286.52	85.75
286.751	89.75
286.982	92.75
287.213	72.75
287.444	83.75
287.675	98.75
287.906	88.75
288.138	87.75
288.369	93.75
288.6	87.75
288.831	92.75
289.062	85.75
289.293	79.75
289.524	93.75
289.755	85.75
289.986	87.75
290.217	94.75
290.448	81.75
290.679	93.75
290.91	85.75
291.141	85.75
291.371	81.75
291.602	91.75
291.833	111.75
292.064	90.75
292.295	89.75
292.526	93.75
292.757	84.75
292.987	86.75
293.218	84.75
293.449	86.75
293.68	84.75
293.91	94.75
294.141	85.75
294.372	81.75
294.603	87.75
294.833	88.75
295.064	82.75
295.295	97.75
295.525	91.75
295.756	108.75
295.987	89.75
296.217	107.75
296.448	124.75
296.679	99.75
296.909	93.75
297.14	91.75
297.37	96.75
297.601	95.75
297.831	91.75
298.062	96.75
298.292	83.75
298.523	93.75
298.753	78.75
298.984	85.75
299.214	65.75
299.445	79.75
299.675	89.75
299.905	89.75
300.136	93.75
300.366	85.75
300.597	83.75
300.827	85.75
301.057	104.75
301.288	102.75
301.518	73.75
301.748	86.75
301.979	99.75
302.209	96.75
302.439	78.75
302.669	97.75
302.9	77.75
303.13	86.75
303.36	95.75
303.59	91.75
303.82	120.75
304.051	104.75
304.281	90.75
304.511	89.75
304.741	85.75
304.971	87.75
305.201	92.75
305.431	93.75
305.661	92.75
305.891	84.75
306.121	96.75
306.352	107.75
306.582	93.75
306.812	92.75
307.042	97.75
307.272	94.75
307.502	83.75
307.731	98.75
307.961	83.75
308.191	81.75
308.421	100.75
308.651	82.75
308.881	73.75
309.111	75.75
309.341	92.75
309.571	101.75
309.8	97.75
310.03	103.75
310.26	95.75
310.49	91.75
310.72	89.75
310.949	100.75
311.179	90.75
311.409	94.75
311.639	92.75
311.868	87.75
312.098	102.75
312.328	84.75
312.557	97.75
312.787	101.75
313.017	92.75
313.246	105.75
313.476	92.75
313.706	98.75
313.935	79.75
314.165	89.75
314.394	90.75
314.624	84.75
314.853	92.75
315.083	95.75
315.312	105.75
315.542	93.75
315.771	90.75
316.001	74.75
316.23	83.75
316.46	70.75
316.689	80.75
316.919	92.75
317.148	100.75
317.377	102.75
317.607	103.75
317.836	95.75
318.065	74.75
318.295	79.75
318.524	78.75
318.753	80.75
318.983	94.75
319.212	99.75
319.441	93.75
319.67	108.75
319.9	88.75
320.129	81.75
320.358	105.75
320.587	98.75
320.816	93.75
321.046	108.75
321.275	98.75
321.504	81.75
321.733	103.75
321.962	110.75
322.191	92.75
322.42	105.75
322.649	98.75
322.878	102.75
323.108	102.75
323.337	111.75
323.566	120.75
323.795	140.75
324.024	174.75
324.253	291.75
324.482	588.75
324.71	1223.75
324.939	1589.75
325.168	610.75
325.397	197.75
325.626	124.75
325.855	123.75
326.084	130.75
326.313	130.75
326.542	140.75
326.77	171.75
326.999	331.75
327.228	673.75
327.457	1217.75
327.686	998.75
327.914	291.75
328.143	162.75
328.372	135.75
328.6	127.75
328.829	104.75
329.058	113.75
329.287	113.75
329.515	106.75
329.744	99.75
329.972	97.75
330.201	110.75
330.43	129.75
330.658	118.75
330.887	128.75
331.115	126.75
331.344	103.75
331.572	111.75
331.801	93.75
332.03	95.75
332.258	94.75
332.486	93.75
332.715	76.75
332.943	88.75
333.172	93.75
333.4	105.75
333.629	108.75
333.857	115.75
334.085	94.75
334.314	108.75
334.542	130.75
334.771	125.75
334.999	105.75
335.227	103.75
335.455	98.75
335.684	90.75
335.912	98.75
336.14	102.75
336.369	88.75
336.597	107.75
336.825	95.75
337.053	95.75
337.281	83.75
337.51	74.75
337.738	84.75
337.966	94.75
338.194	90.75
338.422	91.75
338.65	94.75
338.878	97.75
339.106	73.75
339.334	100.75
339.562	87.75
339.79	101.75
340.018	97.75
340.246	85.75
340.474	97.75
340.702	91.75
340.93	102.75
341.158	98.75
341.386	91.75
341.614	98.75
341.842	98.75
342.07	98.75
342.298	83.75
342.526	88.75
342.754	88.75
342.981	88.75
343.209	90.75
343.437	86.75
343.665	96.75
343.893	99.75
344.12	100.75
344.348	78.75
344.576	97.75
344.804	111.75
345.031	94.75
345.259	103.75
345.487	77.75
345.714	93.75
345.942	97.75
346.17	83.75
346.397	91.75
346.625	96.75
346.853	98.75
347.08	111.75
347.308	85.75
347.535	92.75
347.763	86.75
347.99	90.75
348.218	84.75
348.445	82.75
348.673	95.75
348.9	97.75
349.128	97.75
349.355	88.75
349.583	94.75
349.81	107.75
350.037	83.75
350.265	90.75
350.492	88.75
350.72	119.75
350.947	94.75
351.174	108.75
351.402	106.75
351.629	94.75
351.856	115.75
352.083	106.75
352.311	100.75
352.538	97.75
352.765	94.75
352.992	114.75
353.22	111.75
353.447	95.75
353.674	94.75
353.901	97.75
354.128	101.75
354.355	94.75
354.583	94.75
354.81	107.75
355.037	108.75
355.264	87.75
355.491	99.75
355.718	90.75
355.945	90.75
356.172	101.75
356.399	95.75
356.626	104.75
356.853	92.75
357.08	92.75
357.307	96.75
357.534	101.75
357.761	102.75
357.988	105.75
358.215	94.75
358.441	98.75
358.668	80.75
358.895	90.75
359.122	96.75
359.349	93.75
359.576	92.75
359.802	107.75
360.029	98.75
360.256	104.75
360.483	83.75
360.709	89.75
360.936	92.75
361.163	86.75
361.39	85.75
361.616	92.75
361.843	90.75
362.07	89.75
362.296	87.75
362.523	90.75
362.749	89.75
362.976	81.75
363.203	101.75
363.429	104.75
363.656	99.75
363.882	85.75
364.109	79.75
364.335	94.75
364.562	92.75
364.788	85.75
365.015	98.75
365.241	104.75
365.468	110.75
365.694	99.75
365.92	95.75
366.147	81.75
366.373	97.75
366.599	85.75
366.826	99.75
367.052	91.75
367.278	92.75
367.505	91.75
367.731	105.75
367.957	97.75
368.184	88.75
368.41	103.75
368.636	121.75
368.862	105.75
369.089	97.75
369.315	93.75
369.541	88.75
369.767	90.75
369.993	90.75
370.219	83.75
370.445	93.75
370.672	90.75
370.898	83.75
371.124	84.75
371.35	90.75
371.576	97.75
371.802	82.75
372.028	87.75
372.254	84.75
372.48	79.75
372.706	87.75
372.932	106.75
373.158	72.75
373.384	97.75
373.61	93.75
373.835	74.75
374.061	83.75
374.287	99.75
374.513	94.75
374.739	71.75
374.965	92.75
375.191	85.75
375.416	95.75
375.642	88.75
375.868	98.75
376.094	89.75
376.319	98.75
376.545	82.75
376.771	106.75
376.997	89.75
377.222	75.75
377.448	95.75
377.674	79.75
377.899	81.75
378.125	92.75
378.35	82.75
378.576	94.75
378.802	86.75
379.027	94.75
379.253	86.75
379.478	89.75
379.704	83.75
379.929	93.75
380.155	88.75
380.38	84.75
380.606	89.75
380.831	89.75
381.057	101.75
381.282	92.75
381.507	94.75
381.733	101.75
381.958	85.75
382.184	104.75
382.409	101.75
382.634	93.75
382.86	94.75
383.085	92.75
383.31	100.75
383.535	99.75
383.761	98.75
383.986	100.75
384.211	99.75
384.436	110.75
384.662	98.75
384.887	110.75
385.112	97.75
385.337	91.75
385.562	105.75
385.787	102.75
386.013	100.75
386.238	114.75
386.463	105.75
386.688	101.75
386.913	110.75
387.138	95.75
387.363	110.75
387.588	94.75
387.813	117.75
388.038	90.75
388.263	99.75
388.488	96.75
388.713	99.75
388.938	91.75
389.163	106.75
389.387	115.75
389.612	103.75
389.837	97.75
390.062	94.75
390.287	101.75
390.512	88.75
390.736	86.75
390.961	99.75
391.186	101.75
391.411	92.75
391.636	84.75
391.86	74.75
392.085	86.75
392.31	85.75
392.534	61.75
392.759	70.75
392.984	91.75
393.208	101.75
393.433	103.75
393.658	97.75
393.882	93.75
394.107	90.75
394.331	76.75
394.556	75.75
394.78	85.75
395.005	93.75
395.229	99.75
395.454	91.75
395.678	78.75
395.903	97.75
396.127	85.75
396.352	93.75
396.576	84.75
396.801	91.75
397.025	90.75
397.249	94.75
397.474	99.75
397.698	103.75
397.922	89.75
398.147	96.75
398.371	83.75
398.595	88.75
398.82	88.75
399.044	92.75
399.268	95.75
399.492	77.75
399.717	93.75
399.941	106.75
400.165	99.75
400.389	91.75
400.613	89.75
400.837	95.75
401.062	76.75
401.286	87.75
401.51	89.75
401.734	91.75
401.958	106.75
402.182	116.75
402.406	133.75
402.63	109.75
402.854	85.75
403.078	94.75
403.302	87.75
403.526	82.75
403.75	94.75
403.974	84.75
404.198	89.75
404.422	83.75
404.645	78.75
404.869	78.75
405.093	87.75
405.317	93.75
405.541	90.75
405.765	92.75
405.988	114.75
406.212	133.75
406.436	181.75
406.66	125.75
406.883	96.75
407.107	101.75
407.331	85.75
407.555	96.75
407.778	86.75
408.002	99.75
408.226	86.75
408.449	79.75
408.673	74.75
408.896	77.75
409.12	82.75
409.344	97.75
409.567	83.75
409.791	88.75
410.014	97.75
410.238	78.75
410.461	94.75
410.685	87.75
410.908	92.75
411.132	106.75
411.355	103.75
411.578	91.75
411.802	92.75
412.025	86.75
412.249	85.75
412.472	78.75
412.695	100.75
412.919	98.75
413.142	95.75
413.365	73.75
413.589	88.75
413.812	82.75
414.035	90.75
414.258	85.75
414.482	98.75
414.705	93.75
414.928	85.75
415.151	94.75
415.374	85.75
415.597	89.75
415.821	90.75
416.044	89.75
416.267	90.75
416.49	78.75
416.713	102.75
416.936	76.75
417.159	88.75
417.382	93.75
417.605	90.75
417.828	99.75
418.051	95.75
418.274	92.75
418.497	97.75
418.72	85.75
418.943	89.75
419.166	81.75
419.389	103.75
419.611	81.75
419.834	92.75
420.057	94.75
420.28	88.75
420.503	90.75
420.726	97.75
420.948	94.75
421.171	88.75
421.394	89.75
421.617	68.75
421.839	83.75
422.062	92.75
422.285	102.75
422.507	99.75
422.73	88.75
422.953	101.75
423.175	89.75
423.398	89.75
423.621	77.75
423.843	85.75
424.066	69.75
424.288	70.75
424.511	85.75
424.733	93.75
424.956	100.75
425.178	109.75
425.401	89.75
425.623	107.75
425.846	97.75
426.068	87.75
426.291	86.75
426.513	85.75
426.735	89.75
426.958	92.75
427.18	94.75
427.402	106.75
427.625	127.75
427.847	97.75
428.069	105.75
428.292	86.75
428.514	81.75
428.736	72.75
428.958	88.75
429.181	95.75
429.403	82.75
429.625	89.75
429.847	86.75
430.069	91.75
430.292	95.75
430.514	71.75
430.736	93.75
430.958	85.75
431.18	91.75
431.402	84.75
431.624	90.75
431.846	93.75
432.068	86.75
432.29	83.75
432.512	95.75
432.734	98.75
432.956	98.75
433.178	106.75
433.4	93.75
433.622	84.75
433.844	91.75
434.066	81.75
434.287	83.75
434.509	85.75
434.731	89.75
434.953	95.75
435.175	84.75
435.397	91.75
435.618	101.75
435.84	86.75
436.062	126.75
436.284	109.75
436.505	100.75
436.727	95.75
436.949	102.75
437.17	89.75
437.392	83.75
437.614	85.75
437.835	100.75
438.057	97.75
438.278	103.75
438.5	105.75
438.721	115.75
438.943	97.75
439.165	88.75
439.386	85.75
439.608	95.75
439.829	93.75
440.05	122.75
440.272	139.75
440.493	113.75
440.715	92.75
440.936	92.75
441.158	82.75
441.379	74.75
441.6	81.75
441.822	85.75
442.043	88.75
442.264	102.75
442.486	76.75
442.707	92.75
442.928	100.75
443.149	111.75
443.371	109.75
443.592	92.75
443.813	116.75
444.034	100.75
444.255	91.75
444.476	91.75
444.698	105.75
444.919	84.75
445.14	130.75
445.361	113.75
445.582	104.75
445.803	125.75
446.024	117.75
446.245	115.75
446.466	97.75
446.687	89.75
446.908	92.75
447.129	76.75
447.35	83.75
447.571	99.75
447.792	76.75
448.013	97.75
448.234	106.75
448.455	101.75
448.675	104.75
448.896	106.75
449.117	86.75
449.338	94.75
449.559	113.75
449.779	114.75
450	103.75
450.221	89.75
450.442	96.75
450.662	91.75
450.883	85.75
451.104	103.75
451.324	82.75
451.545	81.75
451.766	88.75
451.986	78.75
452.207	93.75
452.428	90.75
452.648	93.75
452.869	101.75
453.089	110.75
453.31	99.75
453.53	90.75
453.751	89.75
453.971	85.75
454.192	100.75
454.412	102.75
454.633	100.75
454.853	87.75
455.073	83.75
455.294	94.75
455.514	96.75
455.734	90.75
455.955	85.75
456.175	74.75
456.395	81.75
456.616	92.75
456.836	96.75
457.056	93.75
457.276	87.75
457.497	86.75
457.717	90.75
457.937	87.75
458.157	93.75
458.377	78.75
458.598	111.75
458.818	119.75
459.038	131.75
459.258	107.75
459.478	102.75
459.698	81.75
459.918	93.75
460.138	94.75
460.358	67.75
460.578	96.75
460.798	91.75
461.018	95.75
461.238	81.75
461.458	84.75
461.678	86.75
461.898	91.75
462.118	81.75
462.338	82.75
462.558	94.75
462.777	94.75
462.997	93.75
463.217	83.75
463.437	69.75
463.657	101.75
463.876	91.75
464.096	89.75
464.316	78.75
464.536	91.75
464.755	79.75
464.975	89.75
465.195	133.75
465.414	126.75
465.634	95.75
465.854	89.75
466.073	91.75
466.293	86.75
466.512	91.75
466.732	73.75
466.951	78.75
467.171	91.75
467.391	88.75
467.61	104.75
467.829	103.75
468.049	104.75
468.268	77.75
468.488	106.75
468.707	77.75
468.927	88.75
469.146	94.75
469.365	90.75
469.585	89.75
469.804	88.75
470.023	104.75
470.243	86.75
470.462	87.75
470.681	106.75
470.901	85.75
471.12	100.75
471.339	76.75
471.558	90.75
471.777	89.75
471.997	98.75
472.216	99.75
472.435	149.75
472.654	97.75
472.873	104.75
473.092	91.75
473.311	97.75
473.53	91.75
473.749	85.75
473.968	85.75
474.187	93.75
474.406	86.75
474.625	77.75
474.844	76.75
475.063	90.75
475.282	97.75
475.501	85.75
475.72	82.75
475.939	93.75
476.158	90.75
476.377	90.75
476.596	78.75
476.814	81.75
477.033	86.75
477.252	87.75
477.471	86.75
477.69	88.75
477.908	81.75
478.127	98.75
478.346	85.75
478.564	92.75
478.783	78.75
479.002	104.75
479.22	84.75
479.439	102.75
479.658	89.75
479.876	86.75
480.095	83.75
480.313	88.75
480.532	79.75
480.751	87.75
480.969	121.75
481.188	185.75
481.406	133.75
481.624	91.75
481.843	92.75
482.061	86.75
482.28	85.75
482.498	83.75
482.717	98.75
482.935	88.75
483.153	98.75
483.372	96.75
483.59	98.75
483.808	86.75
484.027	83.75
484.245	78.75
484.463	91.75
484.681	91.75
484.9	93.75
485.118	93.75
485.336	93.75
485.554	95.75
485.772	96.75
485.99	113.75
486.209	95.75
486.427	104.75
486.645	121.75
486.863	102.75
487.081	115.75
487.299	101.75
487.517	107.75
487.735	105.75
487.953	92.75
488.171	95.75
488.389	103.75
488.607	105.75
488.825	98.75
489.043	94.75
489.261	82.75
489.479	94.75
489.696	99.75
489.914	85.75
490.132	86.75
490.35	95.75
490.568	94.75
490.786	91.75
491.003	83.75
491.221	85.75
491.439	74.75
491.657	101.75
491.874	100.75
492.092	91.75
492.31	81.75
492.527	93.75
492.745	88.75
492.963	87.75
493.18	87.75
493.398	82.75
493.615	110.75
493.833	113.75
494.05	97.75
494.268	106.75
494.485	90.75
494.703	99.75
494.92	105.75
495.138	90.75
495.355	84.75
495.573	96.75
495.79	95.75
496.008	87.75
496.225	108.75
496.442	78.75
496.66	90.75
496.877	94.75
497.094	102.75
497.312	95.75
497.529	81.75
497.746	90.75
497.963	85.75
498.181	97.75
498.398	99.75
498.615	102.75
498.832	99.75
499.049	87.75
499.267	97.75
499.484	87.75
499.701	89.75
499.918	89.75
500.135	92.75
500.352	97.75
500.569	83.75
500.786	94.75
501.003	82.75
501.22	99.75
501.437	96.75
501.654	97.75
501.871	100.75
502.088	99.75
502.305	95.75
502.522	94.75
502.739	93.75
502.956	82.75
503.172	94.75
503.389	87.75
503.606	103.75
503.823	80.75
504.04	95.75
504.256	93.75
504.473	88.75
504.69	89.75
504.907	105.75
505.123	86.75
505.34	86.75
505.557	78.75
505.773	81.75
505.99	97.75
506.207	90.75
506.423	87.75
506.64	83.75
506.856	74.75
507.073	93.75
507.289	89.75
507.506	111.75
507.722	98.75
507.939	107.75
508.155	97.75
508.372	90.75
508.588	87.75
508.805	101.75
509.021	94.75
509.238	95.75
509.454	108.75
509.67	101.75
509.887	92.75
510.103	133.75
510.319	206.75
510.536	608.75
510.752	1955.75
510.968	573.75
511.184	134.75
511.401	97.75
511.617	91.75
511.833	97.75
512.049	92.75
512.265	95.75
512.481	102.75
512.698	99.75
512.914	92.75
513.13	84.75
513.346	94.75
513.562	93.75
513.778	94.75
513.994	97.75
514.21	119.75
514.426	108.75
514.642	126.75
514.858	118.75
515.074	158.75
515.29	345.75
515.506	1095.75
515.721	395.75
515.937	138.75
516.153	93.75
