Data from Uncirc_1980_H10_HRD10591_00091.txt Node
Date: Wed Jan 03 12:37:13 EST 2024
User: Yrep
Spectrometer: HR+D1059
Trigger mode: 1
Integration Time (sec): 1.000000E-1
Scans to average: 1
Electric dark correction enabled: true
Nonlinearity correction enabled: false
Boxcar width: 0
XAxis mode: Wavelengths
Number of Pixels in Spectrum: 2048
>>>>>Begin Spectral Data<<<<<
223.165	-27.31
223.4	-27.31
223.635	-27.31
223.869	-22.31
224.104	-10.31
224.338	-13.31
224.573	-7.31
224.808	-17.31
225.042	1.69
225.277	-4.31
225.511	-2.31
225.746	5.69
225.98	4.69
226.215	4.69
226.449	15.69
226.683	19.69
226.918	17.69
227.152	34.69
227.387	37.69
227.621	38.69
227.856	50.69
228.09	35.69
228.324	46.69
228.559	68.69
228.793	59.69
229.027	71.69
229.262	68.69
229.496	72.69
229.73	82.69
229.964	70.69
230.199	69.69
230.433	71.69
230.667	76.69
230.901	70.69
231.136	93.69
231.37	81.69
231.604	74.69
231.838	83.69
232.072	73.69
232.306	71.69
232.541	76.69
232.775	81.69
233.009	85.69
233.243	78.69
233.477	89.69
233.711	91.69
233.945	78.69
234.179	82.69
234.413	68.69
234.647	75.69
234.881	86.69
235.115	70.69
235.349	86.69
235.583	83.69
235.817	83.69
236.051	76.69
236.285	70.69
236.519	93.69
236.753	82.69
236.987	93.69
237.221	83.69
237.455	83.69
237.689	84.69
237.922	76.69
238.156	75.69
238.39	82.69
238.624	73.69
238.858	77.69
239.091	71.69
239.325	73.69
239.559	70.69
239.793	73.69
240.027	71.69
240.26	83.69
240.494	74.69
240.728	85.69
240.961	85.69
241.195	92.69
241.429	72.69
241.662	73.69
241.896	73.69
242.13	72.69
242.363	84.69
242.597	92.69
242.83	76.69
243.064	74.69
243.298	66.69
243.531	73.69
243.765	75.69
243.998	92.69
244.232	81.69
244.465	89.69
244.699	75.69
244.932	63.69
245.166	68.69
245.399	92.69
245.633	103.69
245.866	90.69
246.099	81.69
246.333	79.69
246.566	71.69
246.8	72.69
247.033	84.69
247.266	87.69
247.5	85.69
247.733	85.69
247.966	71.69
248.2	81.69
248.433	93.69
248.666	91.69
248.899	82.69
249.133	81.69
249.366	91.69
249.599	97.69
249.832	91.69
250.066	72.69
250.299	85.69
250.532	77.69
250.765	65.69
250.998	73.69
251.231	61.69
251.465	83.69
251.698	76.69
251.931	83.69
252.164	81.69
252.397	82.69
252.63	90.69
252.863	69.69
253.096	79.69
253.329	77.69
253.562	77.69
253.795	79.69
254.028	87.69
254.261	85.69
254.494	63.69
254.727	74.69
254.96	89.69
255.193	76.69
255.426	89.69
255.659	90.69
255.892	97.69
256.124	93.69
256.357	83.69
256.59	84.69
256.823	78.69
257.056	84.69
257.289	89.69
257.521	76.69
257.754	71.69
257.987	73.69
258.22	90.69
258.452	83.69
258.685	76.69
258.918	88.69
259.151	81.69
259.383	79.69
259.616	72.69
259.849	80.69
260.081	89.69
260.314	78.69
260.547	85.69
260.779	85.69
261.012	69.69
261.244	85.69
261.477	110.69
261.71	102.69
261.942	116.69
262.175	111.69
262.407	93.69
262.64	81.69
262.872	98.69
263.105	79.69
263.337	94.69
263.57	84.69
263.802	87.69
264.035	84.69
264.267	77.69
264.499	85.69
264.732	75.69
264.964	85.69
265.197	73.69
265.429	75.69
265.661	89.69
265.894	79.69
266.126	85.69
266.358	75.69
266.591	76.69
266.823	99.69
267.055	89.69
267.287	91.69
267.52	83.69
267.752	85.69
267.984	98.69
268.216	94.69
268.448	87.69
268.681	90.69
268.913	83.69
269.145	83.69
269.377	82.69
269.609	78.69
269.841	90.69
270.073	86.69
270.306	79.69
270.538	90.69
270.77	94.69
271.002	78.69
271.234	92.69
271.466	88.69
271.698	93.69
271.93	75.69
272.162	82.69
272.394	99.69
272.626	78.69
272.858	72.69
273.09	89.69
273.322	71.69
273.553	81.69
273.785	84.69
274.017	85.69
274.249	83.69
274.481	81.69
274.713	85.69
274.945	84.69
275.176	85.69
275.408	80.69
275.64	101.69
275.872	87.69
276.104	75.69
276.335	93.69
276.567	89.69
276.799	104.69
277.031	89.69
277.262	94.69
277.494	90.69
277.726	85.69
277.957	74.69
278.189	93.69
278.421	84.69
278.652	91.69
278.884	83.69
279.115	87.69
279.347	81.69
279.579	86.69
279.81	76.69
280.042	87.69
280.273	79.69
280.505	75.69
280.736	92.69
280.968	81.69
281.199	99.69
281.431	97.69
281.662	76.69
281.894	75.69
282.125	91.69
282.356	101.69
282.588	128.69
282.819	102.69
283.051	82.69
283.282	80.69
283.513	90.69
283.745	81.69
283.976	93.69
284.207	82.69
284.439	91.69
284.67	83.69
284.901	86.69
285.132	88.69
285.364	91.69
285.595	100.69
285.826	77.69
286.057	84.69
286.288	86.69
286.52	92.69
286.751	86.69
286.982	77.69
287.213	69.69
287.444	92.69
287.675	97.69
287.906	77.69
288.138	89.69
288.369	86.69
288.6	99.69
288.831	74.69
289.062	85.69
289.293	95.69
289.524	81.69
289.755	99.69
289.986	91.69
290.217	81.69
290.448	96.69
290.679	89.69
290.91	73.69
291.141	75.69
291.371	86.69
291.602	86.69
291.833	78.69
292.064	105.69
292.295	93.69
292.526	108.69
292.757	86.69
292.987	71.69
293.218	80.69
293.449	81.69
293.68	90.69
293.91	104.69
294.141	86.69
294.372	81.69
294.603	90.69
294.833	81.69
295.064	83.69
295.295	88.69
295.525	98.69
295.756	100.69
295.987	107.69
296.217	119.69
296.448	99.69
296.679	90.69
296.909	102.69
297.14	86.69
297.37	86.69
297.601	89.69
297.831	87.69
298.062	84.69
298.292	85.69
298.523	91.69
298.753	85.69
298.984	89.69
299.214	95.69
299.445	83.69
299.675	85.69
299.905	80.69
300.136	82.69
300.366	89.69
300.597	91.69
300.827	97.69
301.057	89.69
301.288	92.69
301.518	94.69
301.748	102.69
301.979	102.69
302.209	84.69
302.439	90.69
302.669	77.69
302.9	101.69
303.13	94.69
303.36	98.69
303.59	103.69
303.82	78.69
304.051	83.69
304.281	85.69
304.511	85.69
304.741	84.69
304.971	88.69
305.201	97.69
305.431	87.69
305.661	78.69
305.891	88.69
306.121	102.69
306.352	99.69
306.582	107.69
306.812	90.69
307.042	93.69
307.272	91.69
307.502	95.69
307.731	108.69
307.961	100.69
308.191	95.69
308.421	84.69
308.651	88.69
308.881	97.69
309.111	84.69
309.341	89.69
309.571	89.69
309.8	94.69
310.03	90.69
310.26	65.69
310.49	81.69
310.72	95.69
310.949	94.69
311.179	95.69
311.409	85.69
311.639	94.69
311.868	109.69
312.098	92.69
312.328	96.69
312.557	85.69
312.787	107.69
313.017	93.69
313.246	94.69
313.476	93.69
313.706	101.69
313.935	88.69
314.165	88.69
314.394	95.69
314.624	101.69
314.853	72.69
315.083	89.69
315.312	69.69
315.542	73.69
315.771	84.69
316.001	84.69
316.23	96.69
316.46	95.69
316.689	98.69
316.919	92.69
317.148	94.69
317.377	107.69
317.607	93.69
317.836	101.69
318.065	91.69
318.295	100.69
318.524	85.69
318.753	95.69
318.983	98.69
319.212	95.69
319.441	92.69
319.67	94.69
319.9	86.69
320.129	89.69
320.358	83.69
320.587	101.69
320.816	101.69
321.046	101.69
321.275	90.69
321.504	91.69
321.733	98.69
321.962	93.69
322.191	99.69
322.42	97.69
322.649	116.69
322.878	110.69
323.108	111.69
323.337	127.69
323.566	127.69
323.795	145.69
324.024	182.69
324.253	362.69
324.482	735.69
324.71	1498.69
324.939	2077.69
325.168	756.69
325.397	242.69
325.626	151.69
325.855	123.69
326.084	118.69
326.313	109.69
326.542	130.69
326.77	207.69
326.999	409.69
327.228	846.69
327.457	1548.69
327.686	1269.69
327.914	339.69
328.143	180.69
328.372	139.69
328.6	129.69
328.829	117.69
329.058	117.69
329.287	118.69
329.515	123.69
329.744	102.69
329.972	106.69
330.201	127.69
330.43	136.69
330.658	113.69
330.887	115.69
331.115	114.69
331.344	102.69
331.572	108.69
331.801	103.69
332.03	111.69
332.258	109.69
332.486	98.69
332.715	95.69
332.943	94.69
333.172	104.69
333.4	98.69
333.629	105.69
333.857	114.69
334.085	86.69
334.314	110.69
334.542	131.69
334.771	130.69
334.999	108.69
335.227	95.69
335.455	100.69
335.684	96.69
335.912	85.69
336.14	95.69
336.369	91.69
336.597	96.69
336.825	97.69
337.053	74.69
337.281	89.69
337.51	97.69
337.738	93.69
337.966	98.69
338.194	98.69
338.422	94.69
338.65	89.69
338.878	90.69
339.106	93.69
339.334	86.69
339.562	90.69
339.79	85.69
340.018	88.69
340.246	76.69
340.474	91.69
340.702	96.69
340.93	74.69
341.158	107.69
341.386	89.69
341.614	91.69
341.842	95.69
342.07	89.69
342.298	87.69
342.526	94.69
342.754	85.69
342.981	80.69
343.209	89.69
343.437	113.69
343.665	98.69
343.893	93.69
344.12	87.69
344.348	74.69
344.576	89.69
344.804	88.69
345.031	92.69
345.259	100.69
345.487	114.69
345.714	101.69
345.942	110.69
346.17	85.69
346.397	84.69
346.625	85.69
346.853	99.69
347.08	83.69
347.308	98.69
347.535	98.69
347.763	107.69
347.99	103.69
348.218	91.69
348.445	91.69
348.673	102.69
348.9	87.69
349.128	92.69
349.355	92.69
349.583	93.69
349.81	109.69
350.037	98.69
350.265	97.69
350.492	94.69
350.72	99.69
350.947	93.69
351.174	108.69
351.402	111.69
351.629	109.69
351.856	106.69
352.083	100.69
352.311	105.69
352.538	94.69
352.765	115.69
352.992	111.69
353.22	108.69
353.447	101.69
353.674	92.69
353.901	104.69
354.128	95.69
354.355	111.69
354.583	92.69
354.81	91.69
355.037	92.69
355.264	93.69
355.491	94.69
355.718	97.69
355.945	104.69
356.172	104.69
356.399	99.69
356.626	89.69
356.853	93.69
357.08	91.69
357.307	84.69
357.534	101.69
357.761	110.69
357.988	91.69
358.215	80.69
358.441	104.69
358.668	90.69
358.895	93.69
359.122	87.69
359.349	89.69
359.576	97.69
359.802	85.69
360.029	101.69
360.256	109.69
360.483	100.69
360.709	81.69
360.936	104.69
361.163	91.69
361.39	89.69
361.616	92.69
361.843	92.69
362.07	90.69
362.296	89.69
362.523	88.69
362.749	94.69
362.976	100.69
363.203	91.69
363.429	100.69
363.656	86.69
363.882	84.69
364.109	101.69
364.335	97.69
364.562	90.69
364.788	93.69
365.015	103.69
365.241	91.69
365.468	99.69
365.694	107.69
365.92	86.69
366.147	90.69
366.373	88.69
366.599	68.69
366.826	87.69
367.052	99.69
367.278	84.69
367.505	83.69
367.731	97.69
367.957	88.69
368.184	75.69
368.41	95.69
368.636	109.69
368.862	119.69
369.089	98.69
369.315	94.69
369.541	98.69
369.767	100.69
369.993	92.69
370.219	92.69
370.445	89.69
370.672	92.69
370.898	79.69
371.124	92.69
371.35	85.69
371.576	91.69
371.802	73.69
372.028	78.69
372.254	95.69
372.48	86.69
372.706	71.69
372.932	95.69
373.158	74.69
373.384	98.69
373.61	99.69
373.835	91.69
374.061	84.69
374.287	94.69
374.513	91.69
374.739	93.69
374.965	86.69
375.191	104.69
375.416	86.69
375.642	90.69
375.868	78.69
376.094	76.69
376.319	98.69
376.545	89.69
376.771	98.69
376.997	91.69
377.222	83.69
377.448	95.69
377.674	93.69
377.899	83.69
378.125	91.69
378.35	83.69
378.576	95.69
378.802	96.69
379.027	88.69
379.253	94.69
379.478	95.69
379.704	99.69
379.929	89.69
380.155	77.69
380.38	87.69
380.606	87.69
380.831	85.69
381.057	90.69
381.282	111.69
381.507	87.69
381.733	91.69
381.958	88.69
382.184	82.69
382.409	94.69
382.634	108.69
382.86	100.69
383.085	114.69
383.31	107.69
383.535	81.69
383.761	98.69
383.986	99.69
384.211	88.69
384.436	84.69
384.662	102.69
384.887	105.69
385.112	103.69
385.337	100.69
385.562	89.69
385.787	96.69
386.013	106.69
386.238	102.69
386.463	101.69
386.688	110.69
386.913	101.69
387.138	100.69
387.363	98.69
387.588	91.69
387.813	98.69
388.038	104.69
388.263	107.69
388.488	94.69
388.713	83.69
388.938	106.69
389.163	102.69
389.387	103.69
389.612	84.69
389.837	95.69
390.062	90.69
390.287	81.69
390.512	85.69
390.736	91.69
390.961	99.69
391.186	85.69
391.411	89.69
391.636	89.69
391.86	81.69
392.085	85.69
392.31	87.69
392.534	92.69
392.759	82.69
392.984	82.69
393.208	83.69
393.433	95.69
393.658	87.69
393.882	94.69
394.107	82.69
394.331	90.69
394.556	102.69
394.78	93.69
395.005	91.69
395.229	97.69
395.454	102.69
395.678	76.69
395.903	93.69
396.127	99.69
396.352	85.69
396.576	89.69
396.801	96.69
397.025	85.69
397.249	76.69
397.474	93.69
397.698	78.69
397.922	94.69
398.147	87.69
398.371	83.69
398.595	89.69
398.82	86.69
399.044	86.69
399.268	92.69
399.492	88.69
399.717	94.69
399.941	76.69
400.165	79.69
400.389	78.69
400.613	90.69
400.837	93.69
401.062	95.69
401.286	97.69
401.51	93.69
401.734	106.69
401.958	84.69
402.182	115.69
402.406	141.69
402.63	121.69
402.854	96.69
403.078	99.69
403.302	89.69
403.526	85.69
403.75	77.69
403.974	85.69
404.198	87.69
404.422	84.69
404.645	90.69
404.869	91.69
405.093	97.69
405.317	107.69
405.541	108.69
405.765	89.69
405.988	115.69
406.212	164.69
406.436	204.69
406.66	137.69
406.883	107.69
407.107	100.69
407.331	89.69
407.555	107.69
407.778	96.69
408.002	98.69
408.226	67.69
408.449	86.69
408.673	85.69
408.896	92.69
409.12	107.69
409.344	93.69
409.567	87.69
409.791	99.69
410.014	101.69
410.238	100.69
410.461	98.69
410.685	82.69
410.908	94.69
411.132	113.69
411.355	96.69
411.578	90.69
411.802	80.69
412.025	81.69
412.249	90.69
412.472	75.69
412.695	93.69
412.919	85.69
413.142	88.69
413.365	92.69
413.589	98.69
413.812	85.69
414.035	92.69
414.258	90.69
414.482	78.69
414.705	87.69
414.928	92.69
415.151	71.69
415.374	92.69
415.597	87.69
415.821	87.69
416.044	91.69
416.267	95.69
416.49	88.69
416.713	94.69
416.936	89.69
417.159	107.69
417.382	82.69
417.605	84.69
417.828	92.69
418.051	98.69
418.274	77.69
418.497	71.69
418.72	95.69
418.943	101.69
419.166	95.69
419.389	98.69
419.611	103.69
419.834	83.69
420.057	72.69
420.28	90.69
420.503	92.69
420.726	85.69
420.948	88.69
421.171	90.69
421.394	97.69
421.617	89.69
421.839	92.69
422.062	97.69
422.285	105.69
422.507	86.69
422.73	107.69
422.953	100.69
423.175	105.69
423.398	81.69
423.621	94.69
423.843	90.69
424.066	84.69
424.288	96.69
424.511	102.69
424.733	103.69
424.956	118.69
425.178	87.69
425.401	103.69
425.623	94.69
425.846	86.69
426.068	85.69
426.291	98.69
426.513	91.69
426.735	80.69
426.958	87.69
427.18	102.69
427.402	130.69
427.625	167.69
427.847	122.69
428.069	107.69
428.292	93.69
428.514	87.69
428.736	80.69
428.958	78.69
429.181	99.69
429.403	88.69
429.625	95.69
429.847	101.69
430.069	95.69
430.292	83.69
430.514	75.69
430.736	93.69
430.958	81.69
431.18	83.69
431.402	85.69
431.624	93.69
431.846	107.69
432.068	90.69
432.29	101.69
432.512	85.69
432.734	90.69
432.956	82.69
433.178	85.69
433.4	88.69
433.622	89.69
433.844	98.69
434.066	97.69
434.287	77.69
434.509	86.69
434.731	89.69
434.953	85.69
435.175	85.69
435.397	91.69
435.618	94.69
435.84	106.69
436.062	119.69
436.284	110.69
436.505	92.69
436.727	91.69
436.949	86.69
437.17	90.69
437.392	88.69
437.614	100.69
437.835	97.69
438.057	114.69
438.278	114.69
438.5	109.69
438.721	127.69
438.943	101.69
439.165	90.69
439.386	77.69
439.608	111.69
439.829	101.69
440.05	121.69
440.272	141.69
440.493	91.69
440.715	92.69
440.936	87.69
441.158	92.69
441.379	83.69
441.6	87.69
441.822	90.69
442.043	76.69
442.264	100.69
442.486	93.69
442.707	105.69
442.928	102.69
443.149	108.69
443.371	127.69
443.592	104.69
443.813	104.69
444.034	106.69
444.255	81.69
444.476	83.69
444.698	91.69
444.919	82.69
445.14	133.69
445.361	120.69
445.582	120.69
445.803	141.69
446.024	130.69
446.245	134.69
446.466	114.69
446.687	86.69
446.908	91.69
447.129	88.69
447.35	99.69
447.571	96.69
447.792	86.69
448.013	94.69
448.234	104.69
448.455	101.69
448.675	115.69
448.896	131.69
449.117	99.69
449.338	99.69
449.559	130.69
449.779	131.69
450	94.69
450.221	106.69
450.442	91.69
450.662	92.69
450.883	107.69
451.104	117.69
451.324	105.69
451.545	67.69
451.766	76.69
451.986	89.69
452.207	102.69
452.428	95.69
452.648	84.69
452.869	93.69
453.089	97.69
453.31	103.69
453.53	85.69
453.751	91.69
453.971	95.69
454.192	108.69
454.412	92.69
454.633	93.69
454.853	81.69
455.073	90.69
455.294	93.69
455.514	95.69
455.734	77.69
455.955	76.69
456.175	91.69
456.395	81.69
456.616	93.69
456.836	85.69
457.056	85.69
457.276	97.69
457.497	91.69
457.717	81.69
457.937	85.69
458.157	75.69
458.377	86.69
458.598	95.69
458.818	130.69
459.038	145.69
459.258	107.69
459.478	97.69
459.698	93.69
459.918	90.69
460.138	77.69
460.358	85.69
460.578	91.69
460.798	94.69
461.018	83.69
461.238	78.69
461.458	85.69
461.678	79.69
461.898	93.69
462.118	92.69
462.338	79.69
462.558	93.69
462.777	81.69
462.997	84.69
463.217	81.69
463.437	86.69
463.657	96.69
463.876	92.69
464.096	90.69
464.316	85.69
464.536	91.69
464.755	85.69
464.975	97.69
465.195	148.69
465.414	135.69
465.634	90.69
465.854	90.69
466.073	98.69
466.293	92.69
466.512	99.69
466.732	79.69
466.951	85.69
467.171	98.69
467.391	88.69
467.61	104.69
467.829	106.69
468.049	113.69
468.268	93.69
468.488	77.69
468.707	84.69
468.927	68.69
469.146	85.69
469.365	89.69
469.585	91.69
469.804	105.69
470.023	94.69
470.243	94.69
470.462	94.69
470.681	90.69
470.901	75.69
471.12	77.69
471.339	85.69
471.558	83.69
471.777	88.69
471.997	102.69
472.216	111.69
472.435	145.69
472.654	100.69
472.873	63.69
473.092	85.69
473.311	65.69
473.53	85.69
473.749	79.69
473.968	101.69
474.187	111.69
474.406	102.69
474.625	94.69
474.844	99.69
475.063	85.69
475.282	84.69
475.501	75.69
475.72	81.69
475.939	91.69
476.158	92.69
476.377	89.69
476.596	97.69
476.814	77.69
477.033	96.69
477.252	77.69
477.471	76.69
477.69	89.69
477.908	92.69
478.127	91.69
478.346	87.69
478.564	103.69
478.783	98.69
479.002	85.69
479.22	94.69
479.439	97.69
479.658	90.69
479.876	79.69
480.095	79.69
480.313	87.69
480.532	93.69
480.751	91.69
480.969	112.69
481.188	196.69
481.406	154.69
481.624	90.69
481.843	90.69
482.061	83.69
482.28	82.69
482.498	87.69
482.717	76.69
482.935	79.69
483.153	94.69
483.372	96.69
483.59	83.69
483.808	85.69
484.027	98.69
484.245	88.69
484.463	85.69
484.681	113.69
484.9	94.69
485.118	93.69
485.336	98.69
485.554	92.69
485.772	99.69
485.99	102.69
486.209	106.69
486.427	98.69
486.645	104.69
486.863	99.69
487.081	93.69
487.299	87.69
487.517	99.69
487.735	101.69
487.953	90.69
488.171	87.69
488.389	86.69
488.607	91.69
488.825	82.69
489.043	95.69
489.261	89.69
489.479	92.69
489.696	94.69
489.914	92.69
490.132	79.69
490.35	94.69
490.568	74.69
490.786	87.69
491.003	72.69
491.221	85.69
491.439	92.69
491.657	87.69
491.874	108.69
492.092	86.69
492.31	93.69
492.527	99.69
492.745	86.69
492.963	87.69
493.18	87.69
493.398	92.69
493.615	102.69
493.833	106.69
494.05	70.69
494.268	81.69
494.485	94.69
494.703	91.69
494.92	85.69
495.138	91.69
495.355	94.69
495.573	92.69
495.79	100.69
496.008	78.69
496.225	92.69
496.442	98.69
496.66	83.69
496.877	98.69
497.094	102.69
497.312	96.69
497.529	84.69
497.746	94.69
497.963	87.69
498.181	94.69
498.398	103.69
498.615	97.69
498.832	111.69
499.049	85.69
499.267	70.69
499.484	81.69
499.701	81.69
499.918	92.69
500.135	81.69
500.352	89.69
500.569	95.69
500.786	81.69
501.003	88.69
501.22	94.69
501.437	97.69
501.654	90.69
501.871	109.69
502.088	100.69
502.305	106.69
502.522	84.69
502.739	83.69
502.956	73.69
503.172	87.69
503.389	95.69
503.606	99.69
503.823	86.69
504.04	89.69
504.256	105.69
504.473	92.69
504.69	83.69
504.907	99.69
505.123	87.69
505.34	86.69
505.557	87.69
505.773	87.69
505.99	91.69
506.207	83.69
506.423	88.69
506.64	93.69
506.856	103.69
507.073	87.69
507.289	93.69
507.506	91.69
507.722	115.69
507.939	103.69
508.155	98.69
508.372	93.69
508.588	91.69
508.805	104.69
509.021	101.69
509.238	85.69
509.454	96.69
509.67	88.69
509.887	98.69
510.103	120.69
510.319	181.69
510.536	663.69
510.752	2084.69
510.968	556.69
511.184	156.69
511.401	93.69
511.617	101.69
511.833	89.69
512.049	103.69
512.265	92.69
512.481	92.69
512.698	104.69
512.914	92.69
513.13	89.69
513.346	99.69
513.562	91.69
513.778	102.69
513.994	103.69
514.21	92.69
514.426	115.69
514.642	147.69
514.858	118.69
515.074	147.69
515.29	409.69
515.506	1298.69
515.721	482.69
515.937	149.69
