Data from Uncirc_1980_H10_HRD10591_00037.txt Node
Date: Wed Jan 03 12:37:02 EST 2024
User: Yrep
Spectrometer: HR+D1059
Trigger mode: 1
Integration Time (sec): 1.000000E-1
Scans to average: 1
Electric dark correction enabled: true
Nonlinearity correction enabled: false
Boxcar width: 0
XAxis mode: Wavelengths
Number of Pixels in Spectrum: 2048
>>>>>Begin Spectral Data<<<<<
223.165	-29.56
223.4	-29.56
223.635	-29.56
223.869	2.44
224.104	-21.56
224.338	-20.56
224.573	-19.56
224.808	-8.56
225.042	-3.56
225.277	-3.56
225.511	3.44
225.746	9.44
225.98	-0.56
226.215	-7.56
226.449	10.44
226.683	36.44
226.918	22.44
227.152	30.44
227.387	44.44
227.621	38.44
227.856	34.44
228.09	32.44
228.324	42.44
228.559	42.44
228.793	59.44
229.027	59.44
229.262	57.44
229.496	76.44
229.73	92.44
229.964	82.44
230.199	67.44
230.433	75.44
230.667	85.44
230.901	80.44
231.136	66.44
231.37	86.44
231.604	79.44
231.838	82.44
232.072	71.44
232.306	82.44
232.541	69.44
232.775	78.44
233.009	87.44
233.243	92.44
233.477	86.44
233.711	82.44
233.945	95.44
234.179	86.44
234.413	70.44
234.647	78.44
234.881	86.44
235.115	86.44
235.349	78.44
235.583	79.44
235.817	79.44
236.051	69.44
236.285	85.44
236.519	84.44
236.753	92.44
236.987	69.44
237.221	77.44
237.455	89.44
237.689	87.44
237.922	72.44
238.156	93.44
238.39	72.44
238.624	75.44
238.858	69.44
239.091	82.44
239.325	88.44
239.559	70.44
239.793	71.44
240.027	95.44
240.26	83.44
240.494	73.44
240.728	77.44
240.961	76.44
241.195	78.44
241.429	68.44
241.662	73.44
241.896	74.44
242.13	75.44
242.363	74.44
242.597	76.44
242.83	72.44
243.064	91.44
243.298	63.44
243.531	84.44
243.765	86.44
243.998	70.44
244.232	83.44
244.465	82.44
244.699	66.44
244.932	79.44
245.166	60.44
245.399	74.44
245.633	70.44
245.866	78.44
246.099	84.44
246.333	85.44
246.566	84.44
246.8	85.44
247.033	69.44
247.266	82.44
247.5	74.44
247.733	95.44
247.966	84.44
248.2	89.44
248.433	76.44
248.666	74.44
248.899	68.44
249.133	102.44
249.366	88.44
249.599	99.44
249.832	92.44
250.066	110.44
250.299	74.44
250.532	72.44
250.765	77.44
250.998	70.44
251.231	70.44
251.465	78.44
251.698	70.44
251.931	75.44
252.164	82.44
252.397	86.44
252.63	72.44
252.863	64.44
253.096	84.44
253.329	81.44
253.562	83.44
253.795	77.44
254.028	84.44
254.261	77.44
254.494	75.44
254.727	82.44
254.96	79.44
255.193	85.44
255.426	85.44
255.659	94.44
255.892	98.44
256.124	92.44
256.357	77.44
256.59	82.44
256.823	88.44
257.056	91.44
257.289	83.44
257.521	85.44
257.754	89.44
257.987	89.44
258.22	82.44
258.452	71.44
258.685	89.44
258.918	88.44
259.151	82.44
259.383	91.44
259.616	67.44
259.849	92.44
260.081	88.44
260.314	71.44
260.547	84.44
260.779	75.44
261.012	86.44
261.244	85.44
261.477	88.44
261.71	98.44
261.942	98.44
262.175	106.44
262.407	102.44
262.64	89.44
262.872	74.44
263.105	76.44
263.337	85.44
263.57	88.44
263.802	84.44
264.035	84.44
264.267	74.44
264.499	84.44
264.732	84.44
264.964	88.44
265.197	82.44
265.429	83.44
265.661	84.44
265.894	96.44
266.126	72.44
266.358	87.44
266.591	99.44
266.823	94.44
267.055	86.44
267.287	88.44
267.52	94.44
267.752	90.44
267.984	76.44
268.216	82.44
268.448	81.44
268.681	84.44
268.913	90.44
269.145	89.44
269.377	96.44
269.609	87.44
269.841	83.44
270.073	78.44
270.306	94.44
270.538	90.44
270.77	83.44
271.002	87.44
271.234	76.44
271.466	93.44
271.698	78.44
271.93	86.44
272.162	83.44
272.394	98.44
272.626	83.44
272.858	79.44
273.09	84.44
273.322	83.44
273.553	92.44
273.785	93.44
274.017	74.44
274.249	74.44
274.481	81.44
274.713	88.44
274.945	79.44
275.176	68.44
275.408	85.44
275.64	77.44
275.872	68.44
276.104	76.44
276.335	91.44
276.567	97.44
276.799	101.44
277.031	81.44
277.262	91.44
277.494	84.44
277.726	80.44
277.957	84.44
278.189	71.44
278.421	86.44
278.652	86.44
278.884	80.44
279.115	83.44
279.347	77.44
279.579	82.44
279.81	84.44
280.042	96.44
280.273	94.44
280.505	87.44
280.736	79.44
280.968	92.44
281.199	92.44
281.431	93.44
281.662	92.44
281.894	91.44
282.125	88.44
282.356	98.44
282.588	121.44
282.819	100.44
283.051	93.44
283.282	94.44
283.513	87.44
283.745	90.44
283.976	84.44
284.207	78.44
284.439	96.44
284.67	86.44
284.901	99.44
285.132	102.44
285.364	85.44
285.595	84.44
285.826	91.44
286.057	87.44
286.288	88.44
286.52	79.44
286.751	77.44
286.982	79.44
287.213	88.44
287.444	94.44
287.675	87.44
287.906	70.44
288.138	90.44
288.369	86.44
288.6	104.44
288.831	93.44
289.062	79.44
289.293	91.44
289.524	78.44
289.755	92.44
289.986	91.44
290.217	66.44
290.448	88.44
290.679	88.44
290.91	84.44
291.141	87.44
291.371	90.44
291.602	75.44
291.833	80.44
292.064	94.44
292.295	90.44
292.526	92.44
292.757	87.44
292.987	90.44
293.218	86.44
293.449	95.44
293.68	89.44
293.91	63.44
294.141	84.44
294.372	100.44
294.603	99.44
294.833	77.44
295.064	85.44
295.295	86.44
295.525	75.44
295.756	90.44
295.987	102.44
296.217	128.44
296.448	117.44
296.679	92.44
296.909	82.44
297.14	92.44
297.37	86.44
297.601	88.44
297.831	111.44
298.062	75.44
298.292	102.44
298.523	94.44
298.753	103.44
298.984	102.44
299.214	83.44
299.445	88.44
299.675	83.44
299.905	88.44
300.136	90.44
300.366	92.44
300.597	84.44
300.827	94.44
301.057	97.44
301.288	101.44
301.518	116.44
301.748	86.44
301.979	102.44
302.209	92.44
302.439	78.44
302.669	89.44
302.9	82.44
303.13	94.44
303.36	80.44
303.59	91.44
303.82	117.44
304.051	99.44
304.281	80.44
304.511	90.44
304.741	79.44
304.971	72.44
305.201	91.44
305.431	88.44
305.661	103.44
305.891	104.44
306.121	96.44
306.352	94.44
306.582	90.44
306.812	99.44
307.042	93.44
307.272	93.44
307.502	90.44
307.731	85.44
307.961	72.44
308.191	98.44
308.421	81.44
308.651	90.44
308.881	71.44
309.111	90.44
309.341	86.44
309.571	109.44
309.8	97.44
310.03	86.44
310.26	107.44
310.49	94.44
310.72	100.44
310.949	103.44
311.179	102.44
311.409	101.44
311.639	83.44
311.868	101.44
312.098	96.44
312.328	95.44
312.557	93.44
312.787	101.44
313.017	93.44
313.246	88.44
313.476	98.44
313.706	86.44
313.935	90.44
314.165	83.44
314.394	92.44
314.624	99.44
314.853	91.44
315.083	90.44
315.312	103.44
315.542	94.44
315.771	100.44
316.001	91.44
316.23	84.44
316.46	71.44
316.689	92.44
316.919	86.44
317.148	85.44
317.377	106.44
317.607	90.44
317.836	91.44
318.065	92.44
318.295	98.44
318.524	92.44
318.753	104.44
318.983	93.44
319.212	96.44
319.441	104.44
319.67	97.44
319.9	95.44
320.129	106.44
320.358	84.44
320.587	88.44
320.816	96.44
321.046	96.44
321.275	95.44
321.504	87.44
321.733	100.44
321.962	95.44
322.191	84.44
322.42	94.44
322.649	107.44
322.878	104.44
323.108	104.44
323.337	102.44
323.566	115.44
323.795	133.44
324.024	177.44
324.253	283.44
324.482	592.44
324.71	1140.44
324.939	1479.44
325.168	563.44
325.397	184.44
325.626	131.44
325.855	103.44
326.084	111.44
326.313	126.44
326.542	137.44
326.77	185.44
326.999	326.44
327.228	630.44
327.457	1165.44
327.686	928.44
327.914	285.44
328.143	140.44
328.372	124.44
328.6	115.44
328.829	109.44
329.058	99.44
329.287	105.44
329.515	104.44
329.744	94.44
329.972	98.44
330.201	117.44
330.43	106.44
330.658	110.44
330.887	118.44
331.115	128.44
331.344	103.44
331.572	105.44
331.801	110.44
332.03	99.44
332.258	87.44
332.486	88.44
332.715	99.44
332.943	87.44
333.172	90.44
333.4	98.44
333.629	103.44
333.857	117.44
334.085	98.44
334.314	110.44
334.542	124.44
334.771	118.44
334.999	86.44
335.227	88.44
335.455	79.44
335.684	84.44
335.912	100.44
336.14	91.44
336.369	95.44
336.597	95.44
336.825	93.44
337.053	111.44
337.281	105.44
337.51	86.44
337.738	98.44
337.966	82.44
338.194	89.44
338.422	94.44
338.65	101.44
338.878	90.44
339.106	89.44
339.334	107.44
339.562	82.44
339.79	86.44
340.018	84.44
340.246	84.44
340.474	92.44
340.702	90.44
340.93	83.44
341.158	90.44
341.386	97.44
341.614	92.44
341.842	104.44
342.07	84.44
342.298	94.44
342.526	85.44
342.754	93.44
342.981	61.44
343.209	85.44
343.437	103.44
343.665	104.44
343.893	83.44
344.12	96.44
344.348	85.44
344.576	84.44
344.804	86.44
345.031	102.44
345.259	83.44
345.487	86.44
345.714	89.44
345.942	106.44
346.17	82.44
346.397	83.44
346.625	84.44
346.853	82.44
347.08	90.44
347.308	104.44
347.535	110.44
347.763	110.44
347.99	95.44
348.218	95.44
348.445	89.44
348.673	95.44
348.9	85.44
349.128	95.44
349.355	99.44
349.583	100.44
349.81	73.44
350.037	86.44
350.265	93.44
350.492	94.44
350.72	89.44
350.947	89.44
351.174	87.44
351.402	97.44
351.629	101.44
351.856	117.44
352.083	97.44
352.311	111.44
352.538	103.44
352.765	96.44
352.992	99.44
353.22	108.44
353.447	98.44
353.674	99.44
353.901	94.44
354.128	92.44
354.355	89.44
354.583	95.44
354.81	98.44
355.037	95.44
355.264	104.44
355.491	98.44
355.718	100.44
355.945	95.44
356.172	94.44
356.399	95.44
356.626	97.44
356.853	96.44
357.08	95.44
357.307	82.44
357.534	77.44
357.761	89.44
357.988	105.44
358.215	109.44
358.441	91.44
358.668	84.44
358.895	99.44
359.122	97.44
359.349	94.44
359.576	103.44
359.802	93.44
360.029	101.44
360.256	104.44
360.483	80.44
360.709	82.44
360.936	89.44
361.163	74.44
361.39	92.44
361.616	96.44
361.843	91.44
362.07	100.44
362.296	96.44
362.523	85.44
362.749	95.44
362.976	100.44
363.203	90.44
363.429	95.44
363.656	94.44
363.882	91.44
364.109	89.44
364.335	87.44
364.562	95.44
364.788	86.44
365.015	88.44
365.241	95.44
365.468	114.44
365.694	118.44
365.92	92.44
366.147	87.44
366.373	78.44
366.599	76.44
366.826	86.44
367.052	109.44
367.278	79.44
367.505	77.44
367.731	93.44
367.957	95.44
368.184	102.44
368.41	84.44
368.636	96.44
368.862	111.44
369.089	99.44
369.315	83.44
369.541	90.44
369.767	104.44
369.993	86.44
370.219	88.44
370.445	85.44
370.672	92.44
370.898	90.44
371.124	88.44
371.35	91.44
371.576	87.44
371.802	95.44
372.028	90.44
372.254	95.44
372.48	91.44
372.706	86.44
372.932	88.44
373.158	92.44
373.384	108.44
373.61	113.44
373.835	106.44
374.061	93.44
374.287	88.44
374.513	79.44
374.739	100.44
374.965	105.44
375.191	94.44
375.416	99.44
375.642	94.44
375.868	102.44
376.094	103.44
376.319	87.44
376.545	80.44
376.771	95.44
376.997	98.44
377.222	94.44
377.448	86.44
377.674	75.44
377.899	91.44
378.125	94.44
378.35	84.44
378.576	93.44
378.802	82.44
379.027	95.44
379.253	97.44
379.478	111.44
379.704	96.44
379.929	96.44
380.155	109.44
380.38	98.44
380.606	92.44
380.831	93.44
381.057	104.44
381.282	104.44
381.507	86.44
381.733	107.44
381.958	92.44
382.184	112.44
382.409	119.44
382.634	111.44
382.86	103.44
383.085	107.44
383.31	106.44
383.535	112.44
383.761	111.44
383.986	110.44
384.211	107.44
384.436	91.44
384.662	111.44
384.887	112.44
385.112	112.44
385.337	113.44
385.562	114.44
385.787	108.44
386.013	104.44
386.238	123.44
386.463	112.44
386.688	120.44
386.913	113.44
387.138	104.44
387.363	110.44
387.588	114.44
387.813	108.44
388.038	114.44
388.263	114.44
388.488	120.44
388.713	99.44
388.938	98.44
389.163	105.44
389.387	97.44
389.612	112.44
389.837	94.44
390.062	90.44
390.287	98.44
390.512	72.44
390.736	85.44
390.961	93.44
391.186	89.44
391.411	91.44
391.636	95.44
391.86	84.44
392.085	86.44
392.31	90.44
392.534	85.44
392.759	91.44
392.984	88.44
393.208	75.44
393.433	94.44
393.658	82.44
393.882	90.44
394.107	84.44
394.331	80.44
394.556	79.44
394.78	81.44
395.005	87.44
395.229	84.44
395.454	80.44
395.678	80.44
395.903	84.44
396.127	99.44
396.352	90.44
396.576	86.44
396.801	86.44
397.025	87.44
397.249	94.44
397.474	91.44
397.698	87.44
397.922	82.44
398.147	77.44
398.371	77.44
398.595	88.44
398.82	82.44
399.044	86.44
399.268	87.44
399.492	86.44
399.717	91.44
399.941	88.44
400.165	82.44
400.389	87.44
400.613	82.44
400.837	90.44
401.062	84.44
401.286	91.44
401.51	87.44
401.734	97.44
401.958	90.44
402.182	109.44
402.406	128.44
402.63	110.44
402.854	95.44
403.078	98.44
403.302	98.44
403.526	88.44
403.75	98.44
403.974	94.44
404.198	86.44
404.422	96.44
404.645	84.44
404.869	88.44
405.093	88.44
405.317	96.44
405.541	96.44
405.765	88.44
405.988	107.44
406.212	150.44
406.436	172.44
406.66	119.44
406.883	94.44
407.107	90.44
407.331	88.44
407.555	105.44
407.778	79.44
408.002	86.44
408.226	76.44
408.449	99.44
408.673	97.44
408.896	107.44
409.12	98.44
409.344	95.44
409.567	84.44
409.791	87.44
410.014	100.44
410.238	79.44
410.461	90.44
410.685	110.44
410.908	98.44
411.132	102.44
411.355	110.44
411.578	102.44
411.802	85.44
412.025	82.44
412.249	90.44
412.472	104.44
412.695	95.44
412.919	78.44
413.142	90.44
413.365	92.44
413.589	92.44
413.812	75.44
414.035	86.44
414.258	94.44
414.482	99.44
414.705	103.44
414.928	102.44
415.151	78.44
415.374	101.44
415.597	97.44
415.821	86.44
416.044	85.44
416.267	75.44
416.49	91.44
416.713	84.44
416.936	92.44
417.159	87.44
417.382	84.44
417.605	83.44
417.828	85.44
418.051	95.44
418.274	94.44
418.497	87.44
418.72	85.44
418.943	85.44
419.166	85.44
419.389	91.44
419.611	94.44
419.834	98.44
420.057	91.44
420.28	90.44
420.503	89.44
420.726	75.44
420.948	91.44
421.171	90.44
421.394	88.44
421.617	90.44
421.839	85.44
422.062	78.44
422.285	96.44
422.507	85.44
422.73	95.44
422.953	100.44
423.175	86.44
423.398	89.44
423.621	109.44
423.843	92.44
424.066	95.44
424.288	90.44
424.511	90.44
424.733	86.44
424.956	94.44
425.178	101.44
425.401	92.44
425.623	98.44
425.846	79.44
426.068	92.44
426.291	82.44
426.513	80.44
426.735	99.44
426.958	90.44
427.18	95.44
427.402	120.44
427.625	136.44
427.847	116.44
428.069	104.44
428.292	93.44
428.514	76.44
428.736	85.44
428.958	98.44
429.181	100.44
429.403	94.44
429.625	86.44
429.847	93.44
430.069	101.44
430.292	82.44
430.514	81.44
430.736	98.44
430.958	80.44
431.18	72.44
431.402	92.44
431.624	76.44
431.846	86.44
432.068	97.44
432.29	88.44
432.512	102.44
432.734	93.44
432.956	104.44
433.178	93.44
433.4	115.44
433.622	88.44
433.844	88.44
434.066	77.44
434.287	83.44
434.509	73.44
434.731	80.44
434.953	88.44
435.175	86.44
435.397	102.44
435.618	88.44
435.84	87.44
436.062	106.44
436.284	110.44
436.505	93.44
436.727	104.44
436.949	82.44
437.17	101.44
437.392	102.44
437.614	85.44
437.835	103.44
438.057	123.44
438.278	99.44
438.5	106.44
438.721	100.44
438.943	101.44
439.165	90.44
439.386	78.44
439.608	89.44
439.829	89.44
440.05	108.44
440.272	115.44
440.493	87.44
440.715	83.44
440.936	92.44
441.158	90.44
441.379	89.44
441.6	99.44
441.822	86.44
442.043	79.44
442.264	90.44
442.486	88.44
442.707	92.44
442.928	96.44
443.149	99.44
443.371	105.44
443.592	111.44
443.813	114.44
444.034	96.44
444.255	93.44
444.476	87.44
444.698	89.44
444.919	90.44
445.14	127.44
445.361	125.44
445.582	121.44
445.803	115.44
446.024	113.44
446.245	109.44
446.466	94.44
446.687	96.44
446.908	96.44
447.129	100.44
447.35	92.44
447.571	85.44
447.792	104.44
448.013	91.44
448.234	108.44
448.455	95.44
448.675	105.44
448.896	88.44
449.117	95.44
449.338	111.44
449.559	107.44
449.779	119.44
450	88.44
450.221	97.44
450.442	93.44
450.662	103.44
450.883	95.44
451.104	98.44
451.324	90.44
451.545	80.44
451.766	94.44
451.986	71.44
452.207	97.44
452.428	86.44
452.648	78.44
452.869	100.44
453.089	110.44
453.31	112.44
453.53	92.44
453.751	107.44
453.971	100.44
454.192	100.44
454.412	83.44
454.633	107.44
454.853	93.44
455.073	91.44
455.294	74.44
455.514	90.44
455.734	85.44
455.955	92.44
456.175	96.44
456.395	82.44
456.616	86.44
456.836	88.44
457.056	88.44
457.276	101.44
457.497	91.44
457.717	82.44
457.937	93.44
458.157	92.44
458.377	86.44
458.598	93.44
458.818	114.44
459.038	128.44
459.258	85.44
459.478	84.44
459.698	82.44
459.918	87.44
460.138	100.44
460.358	100.44
460.578	77.44
460.798	90.44
461.018	101.44
461.238	89.44
461.458	89.44
461.678	86.44
461.898	75.44
462.118	92.44
462.338	97.44
462.558	82.44
462.777	93.44
462.997	84.44
463.217	91.44
463.437	95.44
463.657	101.44
463.876	90.44
464.096	76.44
464.316	88.44
464.536	93.44
464.755	87.44
464.975	104.44
465.195	139.44
465.414	120.44
465.634	92.44
465.854	93.44
466.073	87.44
466.293	93.44
466.512	92.44
466.732	91.44
466.951	103.44
467.171	112.44
467.391	102.44
467.61	97.44
467.829	96.44
468.049	97.44
468.268	95.44
468.488	90.44
468.707	86.44
468.927	87.44
469.146	66.44
469.365	95.44
469.585	87.44
469.804	98.44
470.023	80.44
470.243	105.44
470.462	100.44
470.681	110.44
470.901	104.44
471.12	88.44
471.339	78.44
471.558	92.44
471.777	83.44
471.997	92.44
472.216	102.44
472.435	135.44
472.654	107.44
472.873	73.44
473.092	87.44
473.311	79.44
473.53	104.44
473.749	98.44
473.968	96.44
474.187	107.44
474.406	90.44
474.625	84.44
474.844	90.44
475.063	103.44
475.282	75.44
475.501	90.44
475.72	88.44
475.939	80.44
476.158	83.44
476.377	90.44
476.596	82.44
476.814	103.44
477.033	93.44
477.252	88.44
477.471	91.44
477.69	105.44
477.908	88.44
478.127	94.44
478.346	103.44
478.564	88.44
478.783	104.44
479.002	88.44
479.22	75.44
479.439	88.44
479.658	97.44
479.876	96.44
480.095	93.44
480.313	90.44
480.532	87.44
480.751	91.44
480.969	112.44
481.188	155.44
481.406	127.44
481.624	93.44
481.843	92.44
482.061	90.44
482.28	95.44
482.498	98.44
482.717	71.44
482.935	89.44
483.153	93.44
483.372	87.44
483.59	99.44
483.808	96.44
484.027	82.44
484.245	106.44
484.463	91.44
484.681	96.44
484.9	104.44
485.118	114.44
485.336	76.44
485.554	94.44
485.772	107.44
485.99	94.44
486.209	106.44
486.427	99.44
486.645	124.44
486.863	118.44
487.081	91.44
487.299	103.44
487.517	111.44
487.735	97.44
487.953	88.44
488.171	93.44
488.389	95.44
488.607	86.44
488.825	98.44
489.043	84.44
489.261	94.44
489.479	106.44
489.696	99.44
489.914	83.44
490.132	90.44
490.35	99.44
490.568	99.44
490.786	99.44
491.003	103.44
491.221	94.44
491.439	88.44
491.657	93.44
491.874	93.44
492.092	95.44
492.31	84.44
492.527	86.44
492.745	80.44
492.963	95.44
493.18	98.44
493.398	84.44
493.615	95.44
493.833	92.44
494.05	99.44
494.268	88.44
494.485	94.44
494.703	89.44
494.92	92.44
495.138	95.44
495.355	109.44
495.573	96.44
495.79	99.44
496.008	106.44
496.225	82.44
496.442	85.44
496.66	93.44
496.877	88.44
497.094	88.44
497.312	85.44
497.529	99.44
497.746	91.44
497.963	91.44
498.181	100.44
498.398	103.44
498.615	106.44
498.832	92.44
499.049	93.44
499.267	110.44
499.484	85.44
499.701	96.44
499.918	90.44
500.135	80.44
500.352	91.44
500.569	87.44
500.786	90.44
501.003	112.44
501.22	93.44
501.437	86.44
501.654	90.44
501.871	94.44
502.088	98.44
502.305	81.44
502.522	86.44
502.739	88.44
502.956	101.44
503.172	107.44
503.389	89.44
503.606	100.44
503.823	94.44
504.04	101.44
504.256	97.44
504.473	101.44
504.69	83.44
504.907	97.44
505.123	82.44
505.34	94.44
505.557	86.44
505.773	101.44
505.99	92.44
506.207	95.44
506.423	94.44
506.64	104.44
506.856	83.44
507.073	102.44
507.289	87.44
507.506	92.44
507.722	91.44
507.939	108.44
508.155	103.44
508.372	85.44
508.588	85.44
508.805	106.44
509.021	92.44
509.238	99.44
509.454	96.44
509.67	94.44
509.887	102.44
510.103	110.44
510.319	192.44
510.536	572.44
510.752	1741.44
510.968	502.44
511.184	136.44
511.401	108.44
511.617	102.44
511.833	91.44
512.049	86.44
512.265	101.44
512.481	84.44
512.698	78.44
512.914	93.44
513.13	74.44
513.346	96.44
513.562	86.44
513.778	91.44
513.994	90.44
514.21	100.44
514.426	99.44
514.642	120.44
514.858	120.44
515.074	130.44
515.29	304.44
515.506	994.44
515.721	385.44
515.937	128.44
