Data from Uncirc_1980_H10_HRD10591_00007.txt Node
Date: Wed Jan 03 12:36:56 EST 2024
User: Yrep
Spectrometer: HR+D1059
Trigger mode: 1
Integration Time (sec): 1.000000E-1
Scans to average: 1
Electric dark correction enabled: true
Nonlinearity correction enabled: false
Boxcar width: 0
XAxis mode: Wavelengths
Number of Pixels in Spectrum: 2048
>>>>>Begin Spectral Data<<<<<
223.165	-8.06
223.4	-8.06
223.635	-8.06
223.869	-19.06
224.104	-23.06
224.338	-10.06
224.573	-21.06
224.808	-19.06
225.042	-4.06
225.277	-3.06
225.511	-7.06
225.746	-0.06
225.98	11.94
226.215	13.94
226.449	5.94
226.683	10.94
226.918	32.94
227.152	38.94
227.387	42.94
227.621	46.94
227.856	56.94
228.09	36.94
228.324	56.94
228.559	65.94
228.793	53.94
229.027	53.94
229.262	64.94
229.496	76.94
229.73	84.94
229.964	68.94
230.199	67.94
230.433	66.94
230.667	79.94
230.901	80.94
231.136	76.94
231.37	66.94
231.604	99.94
231.838	103.94
232.072	86.94
232.306	86.94
232.541	87.94
232.775	78.94
233.009	89.94
233.243	75.94
233.477	77.94
233.711	84.94
233.945	84.94
234.179	96.94
234.413	78.94
234.647	87.94
234.881	77.94
235.115	88.94
235.349	88.94
235.583	86.94
235.817	95.94
236.051	78.94
236.285	81.94
236.519	88.94
236.753	92.94
236.987	74.94
237.221	96.94
237.455	90.94
237.689	92.94
237.922	80.94
238.156	88.94
238.39	72.94
238.624	88.94
238.858	77.94
239.091	79.94
239.325	74.94
239.559	74.94
239.793	76.94
240.027	87.94
240.26	76.94
240.494	88.94
240.728	76.94
240.961	76.94
241.195	79.94
241.429	95.94
241.662	76.94
241.896	84.94
242.13	74.94
242.363	88.94
242.597	76.94
242.83	85.94
243.064	83.94
243.298	77.94
243.531	77.94
243.765	81.94
243.998	102.94
244.232	94.94
244.465	79.94
244.699	77.94
244.932	79.94
245.166	78.94
245.399	76.94
245.633	80.94
245.866	84.94
246.099	79.94
246.333	79.94
246.566	86.94
246.8	74.94
247.033	88.94
247.266	66.94
247.5	84.94
247.733	76.94
247.966	70.94
248.2	92.94
248.433	75.94
248.666	79.94
248.899	66.94
249.133	87.94
249.366	100.94
249.599	109.94
249.832	96.94
250.066	86.94
250.299	92.94
250.532	97.94
250.765	88.94
250.998	78.94
251.231	92.94
251.465	88.94
251.698	88.94
251.931	84.94
252.164	85.94
252.397	74.94
252.63	74.94
252.863	72.94
253.096	94.94
253.329	94.94
253.562	91.94
253.795	72.94
254.028	84.94
254.261	89.94
254.494	90.94
254.727	91.94
254.96	73.94
255.193	76.94
255.426	86.94
255.659	86.94
255.892	100.94
256.124	89.94
256.357	82.94
256.59	85.94
256.823	70.94
257.056	74.94
257.289	81.94
257.521	77.94
257.754	69.94
257.987	75.94
258.22	93.94
258.452	84.94
258.685	94.94
258.918	82.94
259.151	78.94
259.383	86.94
259.616	74.94
259.849	62.94
260.081	88.94
260.314	84.94
260.547	86.94
260.779	74.94
261.012	71.94
261.244	81.94
261.477	96.94
261.71	88.94
261.942	94.94
262.175	105.94
262.407	93.94
262.64	82.94
262.872	92.94
263.105	92.94
263.337	77.94
263.57	79.94
263.802	89.94
264.035	92.94
264.267	86.94
264.499	93.94
264.732	79.94
264.964	81.94
265.197	90.94
265.429	86.94
265.661	82.94
265.894	96.94
266.126	79.94
266.358	92.94
266.591	86.94
266.823	92.94
267.055	95.94
267.287	81.94
267.52	88.94
267.752	83.94
267.984	81.94
268.216	90.94
268.448	87.94
268.681	97.94
268.913	87.94
269.145	80.94
269.377	93.94
269.609	97.94
269.841	85.94
270.073	88.94
270.306	90.94
270.538	84.94
270.77	90.94
271.002	80.94
271.234	94.94
271.466	84.94
271.698	82.94
271.93	80.94
272.162	90.94
272.394	95.94
272.626	78.94
272.858	86.94
273.09	79.94
273.322	98.94
273.553	94.94
273.785	91.94
274.017	87.94
274.249	80.94
274.481	96.94
274.713	70.94
274.945	88.94
275.176	102.94
275.408	81.94
275.64	94.94
275.872	88.94
276.104	70.94
276.335	81.94
276.567	84.94
276.799	96.94
277.031	106.94
277.262	102.94
277.494	101.94
277.726	95.94
277.957	104.94
278.189	62.94
278.421	98.94
278.652	93.94
278.884	81.94
279.115	78.94
279.347	78.94
279.579	88.94
279.81	86.94
280.042	101.94
280.273	88.94
280.505	82.94
280.736	84.94
280.968	94.94
281.199	90.94
281.431	80.94
281.662	98.94
281.894	84.94
282.125	96.94
282.356	108.94
282.588	119.94
282.819	110.94
283.051	96.94
283.282	103.94
283.513	104.94
283.745	85.94
283.976	70.94
284.207	92.94
284.439	79.94
284.67	89.94
284.901	99.94
285.132	80.94
285.364	90.94
285.595	95.94
285.826	94.94
286.057	90.94
286.288	78.94
286.52	94.94
286.751	87.94
286.982	96.94
287.213	94.94
287.444	89.94
287.675	79.94
287.906	79.94
288.138	79.94
288.369	78.94
288.6	92.94
288.831	84.94
289.062	79.94
289.293	86.94
289.524	96.94
289.755	94.94
289.986	90.94
290.217	104.94
290.448	78.94
290.679	78.94
290.91	89.94
291.141	97.94
291.371	80.94
291.602	92.94
291.833	91.94
292.064	76.94
292.295	78.94
292.526	88.94
292.757	99.94
292.987	100.94
293.218	99.94
293.449	87.94
293.68	92.94
293.91	95.94
294.141	77.94
294.372	89.94
294.603	90.94
294.833	99.94
295.064	110.94
295.295	93.94
295.525	98.94
295.756	94.94
295.987	108.94
296.217	114.94
296.448	106.94
296.679	95.94
296.909	96.94
297.14	103.94
297.37	88.94
297.601	98.94
297.831	88.94
298.062	89.94
298.292	77.94
298.523	80.94
298.753	90.94
298.984	79.94
299.214	84.94
299.445	94.94
299.675	107.94
299.905	90.94
300.136	83.94
300.366	84.94
300.597	92.94
300.827	76.94
301.057	90.94
301.288	100.94
301.518	109.94
301.748	96.94
301.979	108.94
302.209	99.94
302.439	98.94
302.669	77.94
302.9	81.94
303.13	102.94
303.36	91.94
303.59	104.94
303.82	100.94
304.051	103.94
304.281	102.94
304.511	88.94
304.741	96.94
304.971	81.94
305.201	93.94
305.431	100.94
305.661	97.94
305.891	80.94
306.121	90.94
306.352	82.94
306.582	110.94
306.812	92.94
307.042	88.94
307.272	84.94
307.502	89.94
307.731	102.94
307.961	96.94
308.191	93.94
308.421	94.94
308.651	97.94
308.881	86.94
309.111	94.94
309.341	97.94
309.571	80.94
309.8	93.94
310.03	104.94
310.26	100.94
310.49	101.94
310.72	104.94
310.949	105.94
311.179	85.94
311.409	86.94
311.639	93.94
311.868	107.94
312.098	82.94
312.328	87.94
312.557	108.94
312.787	97.94
313.017	104.94
313.246	94.94
313.476	90.94
313.706	79.94
313.935	90.94
314.165	94.94
314.394	96.94
314.624	95.94
314.853	95.94
315.083	89.94
315.312	94.94
315.542	89.94
315.771	105.94
316.001	98.94
316.23	88.94
316.46	87.94
316.689	98.94
316.919	97.94
317.148	86.94
317.377	96.94
317.607	101.94
317.836	92.94
318.065	88.94
318.295	90.94
318.524	90.94
318.753	89.94
318.983	99.94
319.212	111.94
319.441	104.94
319.67	106.94
319.9	98.94
320.129	110.94
320.358	99.94
320.587	88.94
320.816	97.94
321.046	111.94
321.275	101.94
321.504	98.94
321.733	91.94
321.962	103.94
322.191	100.94
322.42	97.94
322.649	106.94
322.878	104.94
323.108	103.94
323.337	134.94
323.566	103.94
323.795	136.94
324.024	168.94
324.253	277.94
324.482	589.94
324.71	1180.94
324.939	1590.94
325.168	607.94
325.397	220.94
325.626	129.94
325.855	120.94
326.084	114.94
326.313	113.94
326.542	133.94
326.77	189.94
326.999	329.94
327.228	705.94
327.457	1227.94
327.686	1015.94
327.914	274.94
328.143	165.94
328.372	134.94
328.6	113.94
328.829	114.94
329.058	112.94
329.287	112.94
329.515	104.94
329.744	98.94
329.972	116.94
330.201	109.94
330.43	130.94
330.658	119.94
330.887	116.94
331.115	116.94
331.344	100.94
331.572	98.94
331.801	104.94
332.03	109.94
332.258	92.94
332.486	88.94
332.715	91.94
332.943	82.94
333.172	95.94
333.4	88.94
333.629	114.94
333.857	116.94
334.085	97.94
334.314	109.94
334.542	130.94
334.771	108.94
334.999	111.94
335.227	76.94
335.455	111.94
335.684	94.94
335.912	96.94
336.14	107.94
336.369	96.94
336.597	114.94
336.825	109.94
337.053	103.94
337.281	92.94
337.51	101.94
337.738	93.94
337.966	89.94
338.194	93.94
338.422	86.94
338.65	108.94
338.878	104.94
339.106	98.94
339.334	79.94
339.562	93.94
339.79	95.94
340.018	77.94
340.246	97.94
340.474	94.94
340.702	70.94
340.93	100.94
341.158	93.94
341.386	96.94
341.614	97.94
341.842	98.94
342.07	98.94
342.298	93.94
342.526	106.94
342.754	103.94
342.981	98.94
343.209	88.94
343.437	105.94
343.665	82.94
343.893	105.94
344.12	102.94
344.348	101.94
344.576	92.94
344.804	88.94
345.031	93.94
345.259	106.94
345.487	104.94
345.714	98.94
345.942	107.94
346.17	97.94
346.397	100.94
346.625	90.94
346.853	104.94
347.08	107.94
347.308	73.94
347.535	98.94
347.763	103.94
347.99	92.94
348.218	117.94
348.445	112.94
348.673	97.94
348.9	114.94
349.128	105.94
349.355	83.94
349.583	92.94
349.81	112.94
350.037	100.94
350.265	82.94
350.492	94.94
350.72	90.94
350.947	113.94
351.174	88.94
351.402	103.94
351.629	109.94
351.856	95.94
352.083	103.94
352.311	96.94
352.538	113.94
352.765	111.94
352.992	112.94
353.22	105.94
353.447	110.94
353.674	106.94
353.901	87.94
354.128	109.94
354.355	104.94
354.583	111.94
354.81	112.94
355.037	92.94
355.264	97.94
355.491	102.94
355.718	106.94
355.945	114.94
356.172	96.94
356.399	113.94
356.626	101.94
356.853	85.94
357.08	101.94
357.307	100.94
357.534	87.94
357.761	104.94
357.988	124.94
358.215	118.94
358.441	114.94
358.668	105.94
358.895	96.94
359.122	87.94
359.349	100.94
359.576	109.94
359.802	102.94
360.029	101.94
360.256	109.94
360.483	105.94
360.709	88.94
360.936	101.94
361.163	100.94
361.39	112.94
361.616	98.94
361.843	100.94
362.07	106.94
362.296	102.94
362.523	102.94
362.749	91.94
362.976	88.94
363.203	104.94
363.429	102.94
363.656	88.94
363.882	88.94
364.109	95.94
364.335	96.94
364.562	104.94
364.788	118.94
365.015	97.94
365.241	104.94
365.468	111.94
365.694	82.94
365.92	101.94
366.147	99.94
366.373	83.94
366.599	106.94
366.826	94.94
367.052	96.94
367.278	94.94
367.505	88.94
367.731	93.94
367.957	88.94
368.184	100.94
368.41	95.94
368.636	118.94
368.862	122.94
369.089	104.94
369.315	100.94
369.541	101.94
369.767	85.94
369.993	96.94
370.219	91.94
370.445	88.94
370.672	92.94
370.898	100.94
371.124	96.94
371.35	113.94
371.576	96.94
371.802	93.94
372.028	98.94
372.254	97.94
372.48	101.94
372.706	89.94
372.932	101.94
373.158	91.94
373.384	96.94
373.61	111.94
373.835	96.94
374.061	116.94
374.287	101.94
374.513	114.94
374.739	100.94
374.965	92.94
375.191	96.94
375.416	103.94
375.642	98.94
375.868	97.94
376.094	100.94
376.319	103.94
376.545	93.94
376.771	100.94
376.997	105.94
377.222	109.94
377.448	100.94
377.674	103.94
377.899	100.94
378.125	88.94
378.35	102.94
378.576	92.94
378.802	92.94
379.027	102.94
379.253	102.94
379.478	107.94
379.704	96.94
379.929	116.94
380.155	117.94
380.38	109.94
380.606	114.94
380.831	117.94
381.057	118.94
381.282	114.94
381.507	109.94
381.733	110.94
381.958	116.94
382.184	135.94
382.409	125.94
382.634	117.94
382.86	110.94
383.085	106.94
383.31	117.94
383.535	129.94
383.761	135.94
383.986	125.94
384.211	137.94
384.436	126.94
384.662	141.94
384.887	133.94
385.112	141.94
385.337	154.94
385.562	156.94
385.787	137.94
386.013	160.94
386.238	155.94
386.463	138.94
386.688	141.94
386.913	143.94
387.138	157.94
387.363	146.94
387.588	124.94
387.813	136.94
388.038	152.94
388.263	164.94
388.488	162.94
388.713	120.94
388.938	104.94
389.163	104.94
389.387	107.94
389.612	94.94
389.837	87.94
390.062	106.94
390.287	92.94
390.512	101.94
390.736	105.94
390.961	91.94
391.186	106.94
391.411	92.94
391.636	88.94
391.86	102.94
392.085	96.94
392.31	98.94
392.534	110.94
392.759	104.94
392.984	89.94
393.208	103.94
393.433	89.94
393.658	89.94
393.882	94.94
394.107	105.94
394.331	92.94
394.556	89.94
394.78	102.94
395.005	80.94
395.229	89.94
395.454	90.94
395.678	104.94
395.903	87.94
396.127	93.94
396.352	113.94
396.576	91.94
396.801	92.94
397.025	98.94
397.249	84.94
397.474	92.94
397.698	82.94
397.922	95.94
398.147	86.94
398.371	80.94
398.595	102.94
398.82	100.94
399.044	90.94
399.268	98.94
399.492	79.94
399.717	93.94
399.941	84.94
400.165	98.94
400.389	92.94
400.613	101.94
400.837	103.94
401.062	107.94
401.286	79.94
401.51	76.94
401.734	93.94
401.958	109.94
402.182	121.94
402.406	132.94
402.63	110.94
402.854	97.94
403.078	92.94
403.302	90.94
403.526	103.94
403.75	88.94
403.974	100.94
404.198	108.94
404.422	96.94
404.645	105.94
404.869	101.94
405.093	110.94
405.317	98.94
405.541	100.94
405.765	102.94
405.988	103.94
406.212	141.94
406.436	193.94
406.66	109.94
406.883	109.94
407.107	88.94
407.331	105.94
407.555	104.94
407.778	90.94
408.002	91.94
408.226	102.94
408.449	81.94
408.673	84.94
408.896	102.94
409.12	105.94
409.344	93.94
409.567	100.94
409.791	89.94
410.014	108.94
410.238	81.94
410.461	103.94
410.685	81.94
410.908	104.94
411.132	98.94
411.355	99.94
411.578	95.94
411.802	89.94
412.025	99.94
412.249	85.94
412.472	94.94
412.695	91.94
412.919	87.94
413.142	116.94
413.365	93.94
413.589	97.94
413.812	101.94
414.035	97.94
414.258	104.94
414.482	83.94
414.705	90.94
414.928	93.94
415.151	102.94
415.374	108.94
415.597	96.94
415.821	101.94
416.044	100.94
416.267	90.94
416.49	92.94
416.713	90.94
416.936	87.94
417.159	98.94
417.382	91.94
417.605	95.94
417.828	96.94
418.051	111.94
418.274	91.94
418.497	90.94
418.72	77.94
418.943	90.94
419.166	96.94
419.389	97.94
419.611	94.94
419.834	105.94
420.057	102.94
420.28	103.94
420.503	96.94
420.726	95.94
420.948	104.94
421.171	105.94
421.394	104.94
421.617	92.94
421.839	105.94
422.062	97.94
422.285	98.94
422.507	105.94
422.73	110.94
422.953	105.94
423.175	94.94
423.398	93.94
423.621	96.94
423.843	98.94
424.066	90.94
424.288	84.94
424.511	90.94
424.733	92.94
424.956	88.94
425.178	86.94
425.401	106.94
425.623	86.94
425.846	102.94
426.068	87.94
426.291	98.94
426.513	100.94
426.735	90.94
426.958	97.94
427.18	101.94
427.402	122.94
427.625	143.94
427.847	113.94
428.069	112.94
428.292	100.94
428.514	89.94
428.736	87.94
428.958	81.94
429.181	105.94
429.403	88.94
429.625	81.94
429.847	90.94
430.069	95.94
430.292	83.94
430.514	80.94
430.736	96.94
430.958	93.94
431.18	82.94
431.402	85.94
431.624	84.94
431.846	97.94
432.068	107.94
432.29	101.94
432.512	81.94
432.734	81.94
432.956	103.94
433.178	108.94
433.4	85.94
433.622	104.94
433.844	94.94
434.066	90.94
434.287	91.94
434.509	103.94
434.731	109.94
434.953	90.94
435.175	97.94
435.397	84.94
435.618	98.94
435.84	102.94
436.062	118.94
436.284	116.94
436.505	103.94
436.727	82.94
436.949	90.94
437.17	94.94
437.392	96.94
437.614	97.94
437.835	95.94
438.057	117.94
438.278	104.94
438.5	101.94
438.721	117.94
438.943	98.94
439.165	82.94
439.386	86.94
439.608	103.94
439.829	95.94
440.05	114.94
440.272	124.94
440.493	98.94
440.715	97.94
440.936	90.94
441.158	93.94
441.379	92.94
441.6	95.94
441.822	117.94
442.043	89.94
442.264	94.94
442.486	108.94
442.707	88.94
442.928	107.94
443.149	113.94
443.371	122.94
443.592	101.94
443.813	112.94
444.034	104.94
444.255	98.94
444.476	81.94
444.698	94.94
444.919	95.94
445.14	128.94
445.361	118.94
445.582	102.94
445.803	113.94
446.024	126.94
446.245	111.94
446.466	106.94
446.687	103.94
446.908	101.94
447.129	99.94
447.35	95.94
447.571	91.94
447.792	95.94
448.013	94.94
448.234	92.94
448.455	91.94
448.675	105.94
448.896	92.94
449.117	92.94
449.338	93.94
449.559	131.94
449.779	108.94
450	98.94
450.221	104.94
450.442	87.94
450.662	74.94
450.883	95.94
451.104	110.94
451.324	103.94
451.545	101.94
451.766	85.94
451.986	96.94
452.207	92.94
452.428	87.94
452.648	93.94
452.869	105.94
453.089	97.94
453.31	105.94
453.53	96.94
453.751	99.94
453.971	106.94
454.192	88.94
454.412	97.94
454.633	89.94
454.853	85.94
455.073	93.94
455.294	89.94
455.514	104.94
455.734	94.94
455.955	104.94
456.175	86.94
456.395	90.94
456.616	85.94
456.836	98.94
457.056	66.94
457.276	85.94
457.497	84.94
457.717	94.94
457.937	108.94
458.157	93.94
458.377	90.94
458.598	85.94
458.818	126.94
459.038	135.94
459.258	104.94
459.478	96.94
459.698	87.94
459.918	88.94
460.138	87.94
460.358	95.94
460.578	90.94
460.798	90.94
461.018	88.94
461.238	85.94
461.458	88.94
461.678	80.94
461.898	88.94
462.118	82.94
462.338	90.94
462.558	87.94
462.777	88.94
462.997	88.94
463.217	100.94
463.437	95.94
463.657	86.94
463.876	81.94
464.096	78.94
464.316	76.94
464.536	94.94
464.755	92.94
464.975	105.94
465.195	141.94
465.414	128.94
465.634	94.94
465.854	90.94
466.073	81.94
466.293	92.94
466.512	88.94
466.732	94.94
466.951	93.94
467.171	98.94
467.391	79.94
467.61	92.94
467.829	96.94
468.049	97.94
468.268	98.94
468.488	88.94
468.707	111.94
468.927	83.94
469.146	74.94
469.365	84.94
469.585	88.94
469.804	101.94
470.023	87.94
470.243	88.94
470.462	80.94
470.681	86.94
470.901	84.94
471.12	86.94
471.339	95.94
471.558	86.94
471.777	77.94
471.997	92.94
472.216	113.94
472.435	134.94
472.654	84.94
472.873	84.94
473.092	95.94
473.311	89.94
473.53	90.94
473.749	100.94
473.968	109.94
474.187	98.94
474.406	90.94
474.625	84.94
474.844	92.94
475.063	89.94
475.282	84.94
475.501	97.94
475.72	93.94
475.939	89.94
476.158	91.94
476.377	85.94
476.596	84.94
476.814	84.94
477.033	84.94
477.252	87.94
477.471	96.94
477.69	97.94
477.908	88.94
478.127	95.94
478.346	82.94
478.564	100.94
478.783	98.94
479.002	88.94
479.22	88.94
479.439	113.94
479.658	106.94
479.876	89.94
480.095	90.94
480.313	87.94
480.532	106.94
480.751	99.94
480.969	115.94
481.188	169.94
481.406	129.94
481.624	100.94
481.843	90.94
482.061	86.94
482.28	99.94
482.498	97.94
482.717	90.94
482.935	88.94
483.153	84.94
483.372	93.94
483.59	87.94
483.808	89.94
484.027	108.94
484.245	100.94
484.463	110.94
484.681	116.94
484.9	101.94
485.118	95.94
485.336	104.94
485.554	101.94
485.772	94.94
485.99	105.94
486.209	110.94
486.427	105.94
486.645	103.94
486.863	105.94
487.081	108.94
487.299	92.94
487.517	106.94
487.735	90.94
487.953	109.94
488.171	91.94
488.389	96.94
488.607	105.94
488.825	97.94
489.043	94.94
489.261	87.94
489.479	97.94
489.696	96.94
489.914	97.94
490.132	78.94
490.35	89.94
490.568	95.94
490.786	93.94
491.003	92.94
491.221	78.94
491.439	82.94
491.657	84.94
491.874	108.94
492.092	88.94
492.31	100.94
492.527	88.94
492.745	86.94
492.963	95.94
493.18	102.94
493.398	104.94
493.615	94.94
493.833	115.94
494.05	91.94
494.268	88.94
494.485	95.94
494.703	86.94
494.92	99.94
495.138	90.94
495.355	100.94
495.573	87.94
495.79	89.94
496.008	88.94
496.225	98.94
496.442	80.94
496.66	90.94
496.877	94.94
497.094	94.94
497.312	90.94
497.529	84.94
497.746	85.94
497.963	95.94
498.181	98.94
498.398	97.94
498.615	107.94
498.832	108.94
499.049	95.94
499.267	88.94
499.484	96.94
499.701	92.94
499.918	113.94
500.135	84.94
500.352	93.94
500.569	81.94
500.786	93.94
501.003	91.94
501.22	96.94
501.437	90.94
501.654	98.94
501.871	111.94
502.088	86.94
502.305	100.94
502.522	85.94
502.739	80.94
502.956	92.94
503.172	93.94
503.389	90.94
503.606	80.94
503.823	80.94
504.04	88.94
504.256	96.94
504.473	93.94
504.69	78.94
504.907	81.94
505.123	95.94
505.34	88.94
505.557	94.94
505.773	106.94
505.99	109.94
506.207	82.94
506.423	93.94
506.64	100.94
506.856	100.94
507.073	100.94
507.289	94.94
507.506	113.94
507.722	100.94
507.939	106.94
508.155	109.94
508.372	78.94
508.588	84.94
508.805	103.94
509.021	89.94
509.238	97.94
509.454	110.94
509.67	101.94
509.887	106.94
510.103	120.94
510.319	188.94
510.536	578.94
510.752	1727.94
510.968	483.94
511.184	136.94
511.401	100.94
511.617	93.94
511.833	84.94
512.049	78.94
512.265	87.94
512.481	104.94
512.698	108.94
512.914	100.94
513.13	87.94
513.346	101.94
513.562	92.94
513.778	96.94
