Data from Uncirc_1980_H10_HRD10591_00086.txt Node
Date: Wed Jan 03 12:37:12 EST 2024
User: Yrep
Spectrometer: HR+D1059
Trigger mode: 1
Integration Time (sec): 1.000000E-1
Scans to average: 1
Electric dark correction enabled: true
Nonlinearity correction enabled: false
Boxcar width: 0
XAxis mode: Wavelengths
Number of Pixels in Spectrum: 2048
>>>>>Begin Spectral Data<<<<<
223.165	-9.06
223.4	-9.06
223.635	-9.06
223.869	-28.06
224.104	-4.06
224.338	-21.06
224.573	-23.06
224.808	-12.06
225.042	-3.06
225.277	-14.06
225.511	-6.06
225.746	2.94
225.98	18.94
226.215	5.94
226.449	8.94
226.683	14.94
226.918	26.94
227.152	41.94
227.387	20.94
227.621	31.94
227.856	42.94
228.09	50.94
228.324	56.94
228.559	67.94
228.793	58.94
229.027	56.94
229.262	63.94
229.496	65.94
229.73	73.94
229.964	57.94
230.199	74.94
230.433	69.94
230.667	78.94
230.901	76.94
231.136	90.94
231.37	82.94
231.604	64.94
231.838	69.94
232.072	84.94
232.306	68.94
232.541	74.94
232.775	63.94
233.009	84.94
233.243	73.94
233.477	82.94
233.711	76.94
233.945	80.94
234.179	84.94
234.413	79.94
234.647	78.94
234.881	82.94
235.115	81.94
235.349	91.94
235.583	92.94
235.817	85.94
236.051	75.94
236.285	69.94
236.519	73.94
236.753	89.94
236.987	68.94
237.221	67.94
237.455	71.94
237.689	78.94
237.922	82.94
238.156	81.94
238.39	66.94
238.624	65.94
238.858	85.94
239.091	82.94
239.325	67.94
239.559	62.94
239.793	78.94
240.027	72.94
240.26	68.94
240.494	74.94
240.728	77.94
240.961	78.94
241.195	72.94
241.429	73.94
241.662	60.94
241.896	79.94
242.13	80.94
242.363	74.94
242.597	78.94
242.83	77.94
243.064	75.94
243.298	66.94
243.531	68.94
243.765	76.94
243.998	83.94
244.232	88.94
244.465	64.94
244.699	76.94
244.932	75.94
245.166	73.94
245.399	68.94
245.633	59.94
245.866	64.94
246.099	76.94
246.333	72.94
246.566	75.94
246.8	73.94
247.033	79.94
247.266	77.94
247.5	66.94
247.733	67.94
247.966	78.94
248.2	62.94
248.433	74.94
248.666	83.94
248.899	81.94
249.133	86.94
249.366	76.94
249.599	83.94
249.832	84.94
250.066	69.94
250.299	72.94
250.532	71.94
250.765	70.94
250.998	75.94
251.231	67.94
251.465	84.94
251.698	82.94
251.931	84.94
252.164	88.94
252.397	79.94
252.63	74.94
252.863	75.94
253.096	72.94
253.329	66.94
253.562	75.94
253.795	70.94
254.028	76.94
254.261	87.94
254.494	65.94
254.727	84.94
254.96	80.94
255.193	76.94
255.426	79.94
255.659	75.94
255.892	87.94
256.124	75.94
256.357	60.94
256.59	69.94
256.823	71.94
257.056	64.94
257.289	82.94
257.521	70.94
257.754	86.94
257.987	85.94
258.22	84.94
258.452	76.94
258.685	73.94
258.918	69.94
259.151	82.94
259.383	88.94
259.616	80.94
259.849	82.94
260.081	77.94
260.314	83.94
260.547	89.94
260.779	74.94
261.012	81.94
261.244	71.94
261.477	78.94
261.71	86.94
261.942	99.94
262.175	97.94
262.407	84.94
262.64	68.94
262.872	71.94
263.105	80.94
263.337	73.94
263.57	64.94
263.802	67.94
264.035	63.94
264.267	79.94
264.499	78.94
264.732	78.94
264.964	84.94
265.197	71.94
265.429	70.94
265.661	75.94
265.894	92.94
266.126	78.94
266.358	85.94
266.591	79.94
266.823	73.94
267.055	74.94
267.287	88.94
267.52	84.94
267.752	85.94
267.984	80.94
268.216	85.94
268.448	74.94
268.681	79.94
268.913	87.94
269.145	79.94
269.377	84.94
269.609	77.94
269.841	68.94
270.073	86.94
270.306	80.94
270.538	75.94
270.77	87.94
271.002	79.94
271.234	55.94
271.466	74.94
271.698	83.94
271.93	76.94
272.162	93.94
272.394	86.94
272.626	92.94
272.858	75.94
273.09	81.94
273.322	84.94
273.553	90.94
273.785	71.94
274.017	77.94
274.249	71.94
274.481	75.94
274.713	68.94
274.945	78.94
275.176	81.94
275.408	82.94
275.64	68.94
275.872	78.94
276.104	67.94
276.335	92.94
276.567	95.94
276.799	98.94
277.031	78.94
277.262	80.94
277.494	78.94
277.726	92.94
277.957	88.94
278.189	81.94
278.421	79.94
278.652	76.94
278.884	66.94
279.115	84.94
279.347	80.94
279.579	89.94
279.81	76.94
280.042	87.94
280.273	73.94
280.505	80.94
280.736	87.94
280.968	71.94
281.199	68.94
281.431	82.94
281.662	75.94
281.894	80.94
282.125	82.94
282.356	110.94
282.588	104.94
282.819	100.94
283.051	80.94
283.282	87.94
283.513	99.94
283.745	95.94
283.976	81.94
284.207	96.94
284.439	94.94
284.67	95.94
284.901	81.94
285.132	84.94
285.364	91.94
285.595	86.94
285.826	75.94
286.057	82.94
286.288	110.94
286.52	80.94
286.751	87.94
286.982	86.94
287.213	87.94
287.444	83.94
287.675	90.94
287.906	82.94
288.138	95.94
288.369	78.94
288.6	81.94
288.831	83.94
289.062	84.94
289.293	80.94
289.524	63.94
289.755	72.94
289.986	85.94
290.217	87.94
290.448	85.94
290.679	73.94
290.91	80.94
291.141	82.94
291.371	79.94
291.602	76.94
291.833	90.94
292.064	76.94
292.295	83.94
292.526	82.94
292.757	92.94
292.987	82.94
293.218	94.94
293.449	79.94
293.68	63.94
293.91	83.94
294.141	78.94
294.372	87.94
294.603	88.94
294.833	97.94
295.064	83.94
295.295	70.94
295.525	93.94
295.756	75.94
295.987	91.94
296.217	121.94
296.448	111.94
296.679	85.94
296.909	82.94
297.14	101.94
297.37	87.94
297.601	84.94
297.831	81.94
298.062	76.94
298.292	90.94
298.523	83.94
298.753	98.94
298.984	88.94
299.214	97.94
299.445	79.94
299.675	86.94
299.905	101.94
300.136	80.94
300.366	85.94
300.597	88.94
300.827	83.94
301.057	86.94
301.288	94.94
301.518	99.94
301.748	76.94
301.979	96.94
302.209	89.94
302.439	86.94
302.669	76.94
302.9	86.94
303.13	92.94
303.36	102.94
303.59	99.94
303.82	99.94
304.051	102.94
304.281	95.94
304.511	92.94
304.741	93.94
304.971	96.94
305.201	98.94
305.431	89.94
305.661	89.94
305.891	100.94
306.121	89.94
306.352	87.94
306.582	87.94
306.812	73.94
307.042	89.94
307.272	101.94
307.502	101.94
307.731	87.94
307.961	96.94
308.191	86.94
308.421	78.94
308.651	92.94
308.881	89.94
309.111	95.94
309.341	102.94
309.571	85.94
309.8	87.94
310.03	89.94
310.26	99.94
310.49	95.94
310.72	100.94
310.949	96.94
311.179	100.94
311.409	98.94
311.639	96.94
311.868	91.94
312.098	80.94
312.328	93.94
312.557	84.94
312.787	91.94
313.017	98.94
313.246	92.94
313.476	89.94
313.706	100.94
313.935	78.94
314.165	99.94
314.394	89.94
314.624	84.94
314.853	87.94
315.083	102.94
315.312	93.94
315.542	80.94
315.771	97.94
316.001	66.94
316.23	86.94
316.46	90.94
316.689	74.94
316.919	91.94
317.148	83.94
317.377	79.94
317.607	95.94
317.836	99.94
318.065	96.94
318.295	97.94
318.524	88.94
318.753	90.94
318.983	95.94
319.212	93.94
319.441	106.94
319.67	102.94
319.9	102.94
320.129	90.94
320.358	83.94
320.587	101.94
320.816	78.94
321.046	91.94
321.275	91.94
321.504	83.94
321.733	101.94
321.962	82.94
322.191	80.94
322.42	112.94
322.649	102.94
322.878	96.94
323.108	104.94
323.337	100.94
323.566	118.94
323.795	123.94
324.024	179.94
324.253	308.94
324.482	580.94
324.71	1147.94
324.939	1514.94
325.168	582.94
325.397	196.94
325.626	132.94
325.855	112.94
326.084	102.94
326.313	115.94
326.542	115.94
326.77	180.94
326.999	329.94
327.228	678.94
327.457	1177.94
327.686	957.94
327.914	269.94
328.143	160.94
328.372	119.94
328.6	107.94
328.829	115.94
329.058	111.94
329.287	98.94
329.515	92.94
329.744	98.94
329.972	108.94
330.201	101.94
330.43	114.94
330.658	104.94
330.887	128.94
331.115	109.94
331.344	84.94
331.572	84.94
331.801	100.94
332.03	84.94
332.258	97.94
332.486	83.94
332.715	82.94
332.943	82.94
333.172	98.94
333.4	81.94
333.629	111.94
333.857	101.94
334.085	103.94
334.314	94.94
334.542	125.94
334.771	122.94
334.999	97.94
335.227	86.94
335.455	89.94
335.684	94.94
335.912	88.94
336.14	100.94
336.369	95.94
336.597	88.94
336.825	98.94
337.053	97.94
337.281	88.94
337.51	100.94
337.738	90.94
337.966	98.94
338.194	78.94
338.422	87.94
338.65	78.94
338.878	80.94
339.106	91.94
339.334	78.94
339.562	70.94
339.79	98.94
340.018	81.94
340.246	95.94
340.474	87.94
340.702	78.94
340.93	88.94
341.158	74.94
341.386	98.94
341.614	98.94
341.842	95.94
342.07	83.94
342.298	70.94
342.526	96.94
342.754	76.94
342.981	100.94
343.209	84.94
343.437	95.94
343.665	86.94
343.893	91.94
344.12	100.94
344.348	80.94
344.576	80.94
344.804	87.94
345.031	86.94
345.259	98.94
345.487	88.94
345.714	95.94
345.942	91.94
346.17	91.94
346.397	86.94
346.625	88.94
346.853	96.94
347.08	82.94
347.308	107.94
347.535	98.94
347.763	89.94
347.99	87.94
348.218	84.94
348.445	92.94
348.673	94.94
348.9	96.94
349.128	98.94
349.355	87.94
349.583	96.94
349.81	89.94
350.037	90.94
350.265	94.94
350.492	90.94
350.72	84.94
350.947	88.94
351.174	99.94
351.402	91.94
351.629	89.94
351.856	98.94
352.083	89.94
352.311	99.94
352.538	98.94
352.765	108.94
352.992	99.94
353.22	100.94
353.447	95.94
353.674	93.94
353.901	99.94
354.128	81.94
354.355	84.94
354.583	94.94
354.81	100.94
355.037	84.94
355.264	79.94
355.491	96.94
355.718	95.94
355.945	95.94
356.172	81.94
356.399	86.94
356.626	85.94
356.853	90.94
357.08	90.94
357.307	86.94
357.534	102.94
357.761	97.94
357.988	90.94
358.215	94.94
358.441	98.94
358.668	101.94
358.895	103.94
359.122	78.94
359.349	90.94
359.576	90.94
359.802	80.94
360.029	86.94
360.256	90.94
360.483	88.94
360.709	81.94
360.936	96.94
361.163	88.94
361.39	96.94
361.616	87.94
361.843	93.94
362.07	90.94
362.296	87.94
362.523	80.94
362.749	88.94
362.976	79.94
363.203	90.94
363.429	92.94
363.656	91.94
363.882	92.94
364.109	82.94
364.335	81.94
364.562	86.94
364.788	90.94
365.015	85.94
365.241	107.94
365.468	88.94
365.694	89.94
365.92	87.94
366.147	84.94
366.373	78.94
366.599	75.94
366.826	80.94
367.052	70.94
367.278	96.94
367.505	85.94
367.731	84.94
367.957	78.94
368.184	87.94
368.41	71.94
368.636	95.94
368.862	104.94
369.089	106.94
369.315	85.94
369.541	85.94
369.767	81.94
369.993	64.94
370.219	80.94
370.445	86.94
370.672	88.94
370.898	80.94
371.124	85.94
371.35	86.94
371.576	83.94
371.802	66.94
372.028	98.94
372.254	92.94
372.48	88.94
372.706	90.94
372.932	87.94
373.158	88.94
373.384	96.94
373.61	88.94
373.835	82.94
374.061	81.94
374.287	89.94
374.513	84.94
374.739	77.94
374.965	87.94
375.191	91.94
375.416	86.94
375.642	81.94
375.868	90.94
376.094	99.94
376.319	87.94
376.545	86.94
376.771	86.94
376.997	76.94
377.222	71.94
377.448	86.94
377.674	91.94
377.899	96.94
378.125	96.94
378.35	93.94
378.576	82.94
378.802	77.94
379.027	97.94
379.253	105.94
379.478	86.94
379.704	88.94
379.929	95.94
380.155	82.94
380.38	89.94
380.606	91.94
380.831	87.94
381.057	90.94
381.282	97.94
381.507	110.94
381.733	88.94
381.958	90.94
382.184	89.94
382.409	97.94
382.634	96.94
382.86	83.94
383.085	92.94
383.31	90.94
383.535	89.94
383.761	107.94
383.986	98.94
384.211	101.94
384.436	88.94
384.662	100.94
384.887	82.94
385.112	100.94
385.337	100.94
385.562	114.94
385.787	97.94
386.013	108.94
386.238	99.94
386.463	91.94
386.688	106.94
386.913	98.94
387.138	100.94
387.363	104.94
387.588	82.94
387.813	98.94
388.038	98.94
388.263	111.94
388.488	100.94
388.713	87.94
388.938	90.94
389.163	105.94
389.387	92.94
389.612	96.94
389.837	97.94
390.062	95.94
390.287	73.94
390.512	78.94
390.736	90.94
390.961	94.94
391.186	88.94
391.411	87.94
391.636	79.94
391.86	79.94
392.085	91.94
392.31	70.94
392.534	78.94
392.759	91.94
392.984	102.94
393.208	92.94
393.433	89.94
393.658	81.94
393.882	74.94
394.107	88.94
394.331	70.94
394.556	79.94
394.78	91.94
395.005	86.94
395.229	80.94
395.454	85.94
395.678	87.94
395.903	80.94
396.127	78.94
396.352	79.94
396.576	71.94
396.801	84.94
397.025	88.94
397.249	78.94
397.474	76.94
397.698	78.94
397.922	85.94
398.147	72.94
398.371	68.94
398.595	85.94
398.82	90.94
399.044	81.94
399.268	91.94
399.492	95.94
399.717	90.94
399.941	82.94
400.165	83.94
400.389	80.94
400.613	78.94
400.837	81.94
401.062	84.94
401.286	96.94
401.51	90.94
401.734	82.94
401.958	80.94
402.182	103.94
402.406	116.94
402.63	106.94
402.854	89.94
403.078	73.94
403.302	91.94
403.526	82.94
403.75	80.94
403.974	74.94
404.198	89.94
404.422	76.94
404.645	87.94
404.869	84.94
405.093	90.94
405.317	82.94
405.541	87.94
405.765	94.94
405.988	108.94
406.212	126.94
406.436	164.94
406.66	132.94
406.883	100.94
407.107	73.94
407.331	100.94
407.555	100.94
407.778	83.94
408.002	79.94
408.226	81.94
408.449	83.94
408.673	86.94
408.896	92.94
409.12	63.94
409.344	89.94
409.567	83.94
409.791	82.94
410.014	88.94
410.238	81.94
410.461	86.94
410.685	88.94
410.908	94.94
411.132	104.94
411.355	90.94
411.578	76.94
411.802	81.94
412.025	78.94
412.249	100.94
412.472	93.94
412.695	94.94
412.919	82.94
413.142	64.94
413.365	73.94
413.589	95.94
413.812	96.94
414.035	96.94
414.258	82.94
414.482	103.94
414.705	94.94
414.928	92.94
415.151	84.94
415.374	88.94
415.597	85.94
415.821	94.94
416.044	102.94
416.267	100.94
416.49	75.94
416.713	92.94
416.936	91.94
417.159	80.94
417.382	81.94
417.605	70.94
417.828	80.94
418.051	84.94
418.274	87.94
418.497	81.94
418.72	71.94
418.943	101.94
419.166	82.94
419.389	81.94
419.611	73.94
419.834	91.94
420.057	71.94
420.28	91.94
420.503	77.94
420.726	83.94
420.948	86.94
421.171	101.94
421.394	83.94
421.617	95.94
421.839	87.94
422.062	99.94
422.285	90.94
422.507	83.94
422.73	94.94
422.953	88.94
423.175	86.94
423.398	88.94
423.621	86.94
423.843	78.94
424.066	85.94
424.288	79.94
424.511	84.94
424.733	86.94
424.956	103.94
425.178	82.94
425.401	95.94
425.623	91.94
425.846	88.94
426.068	88.94
426.291	87.94
426.513	92.94
426.735	99.94
426.958	87.94
427.18	107.94
427.402	107.94
427.625	131.94
427.847	105.94
428.069	98.94
428.292	75.94
428.514	73.94
428.736	84.94
428.958	75.94
429.181	86.94
429.403	88.94
429.625	84.94
429.847	75.94
430.069	94.94
430.292	95.94
430.514	90.94
430.736	68.94
430.958	80.94
431.18	87.94
431.402	83.94
431.624	85.94
431.846	90.94
432.068	87.94
432.29	75.94
432.512	84.94
432.734	89.94
432.956	86.94
433.178	102.94
433.4	94.94
433.622	83.94
433.844	80.94
434.066	80.94
434.287	82.94
434.509	86.94
434.731	74.94
434.953	101.94
435.175	91.94
435.397	82.94
435.618	72.94
435.84	95.94
436.062	119.94
436.284	97.94
436.505	85.94
436.727	99.94
436.949	93.94
437.17	88.94
437.392	73.94
437.614	94.94
437.835	97.94
438.057	86.94
438.278	86.94
438.5	75.94
438.721	100.94
438.943	92.94
439.165	84.94
439.386	92.94
439.608	81.94
439.829	96.94
440.05	106.94
440.272	132.94
440.493	85.94
440.715	91.94
440.936	91.94
441.158	79.94
441.379	75.94
441.6	74.94
441.822	87.94
442.043	71.94
442.264	102.94
442.486	106.94
442.707	94.94
442.928	92.94
443.149	94.94
443.371	111.94
443.592	91.94
443.813	95.94
444.034	91.94
444.255	86.94
444.476	89.94
444.698	104.94
444.919	82.94
445.14	127.94
445.361	118.94
445.582	90.94
445.803	107.94
446.024	106.94
446.245	97.94
446.466	94.94
446.687	93.94
446.908	74.94
447.129	84.94
447.35	79.94
447.571	76.94
447.792	94.94
448.013	89.94
448.234	95.94
448.455	87.94
448.675	94.94
448.896	96.94
449.117	97.94
449.338	104.94
449.559	112.94
449.779	103.94
450	91.94
450.221	83.94
450.442	96.94
450.662	79.94
450.883	84.94
451.104	90.94
451.324	100.94
451.545	84.94
451.766	81.94
451.986	84.94
452.207	90.94
452.428	83.94
452.648	95.94
452.869	91.94
453.089	106.94
453.31	98.94
453.53	91.94
453.751	89.94
453.971	89.94
454.192	95.94
454.412	83.94
454.633	92.94
454.853	92.94
455.073	83.94
455.294	90.94
455.514	85.94
455.734	92.94
455.955	81.94
456.175	89.94
456.395	76.94
456.616	88.94
456.836	80.94
457.056	72.94
457.276	85.94
457.497	70.94
457.717	87.94
457.937	91.94
458.157	76.94
458.377	89.94
458.598	104.94
458.818	120.94
459.038	132.94
459.258	98.94
459.478	85.94
459.698	74.94
459.918	85.94
460.138	100.94
460.358	78.94
460.578	86.94
460.798	95.94
461.018	89.94
461.238	81.94
461.458	85.94
461.678	77.94
461.898	90.94
462.118	73.94
462.338	84.94
462.558	80.94
462.777	77.94
462.997	82.94
463.217	73.94
463.437	75.94
463.657	69.94
463.876	73.94
464.096	73.94
464.316	89.94
464.536	88.94
464.755	94.94
464.975	90.94
465.195	136.94
465.414	119.94
465.634	87.94
465.854	81.94
466.073	86.94
466.293	80.94
466.512	87.94
466.732	83.94
466.951	77.94
467.171	83.94
467.391	105.94
467.61	105.94
467.829	80.94
468.049	89.94
468.268	95.94
468.488	78.94
468.707	75.94
468.927	84.94
469.146	89.94
469.365	91.94
469.585	88.94
469.804	95.94
470.023	84.94
470.243	76.94
470.462	101.94
470.681	87.94
470.901	86.94
471.12	75.94
471.339	72.94
471.558	74.94
471.777	79.94
471.997	78.94
472.216	91.94
472.435	127.94
472.654	90.94
472.873	86.94
473.092	72.94
473.311	84.94
473.53	88.94
473.749	78.94
473.968	90.94
474.187	82.94
474.406	86.94
474.625	90.94
474.844	70.94
475.063	82.94
475.282	91.94
475.501	92.94
475.72	79.94
475.939	77.94
476.158	72.94
476.377	79.94
476.596	79.94
476.814	80.94
477.033	82.94
477.252	79.94
477.471	78.94
477.69	81.94
477.908	81.94
478.127	102.94
478.346	75.94
478.564	94.94
478.783	74.94
479.002	82.94
479.22	84.94
479.439	83.94
479.658	87.94
479.876	90.94
480.095	92.94
480.313	88.94
480.532	88.94
480.751	100.94
480.969	104.94
481.188	172.94
481.406	133.94
481.624	94.94
481.843	73.94
482.061	95.94
482.28	79.94
482.498	74.94
482.717	80.94
482.935	89.94
483.153	90.94
483.372	86.94
483.59	82.94
483.808	69.94
484.027	85.94
484.245	72.94
484.463	86.94
484.681	99.94
484.9	84.94
485.118	83.94
485.336	84.94
485.554	88.94
485.772	112.94
485.99	94.94
486.209	106.94
486.427	98.94
486.645	103.94
486.863	107.94
487.081	98.94
487.299	98.94
487.517	93.94
487.735	94.94
487.953	71.94
488.171	78.94
488.389	88.94
488.607	88.94
488.825	91.94
489.043	89.94
489.261	85.94
489.479	90.94
489.696	82.94
489.914	93.94
490.132	81.94
490.35	85.94
490.568	90.94
490.786	87.94
491.003	82.94
491.221	79.94
491.439	80.94
491.657	80.94
491.874	99.94
492.092	71.94
492.31	87.94
492.527	97.94
492.745	97.94
492.963	85.94
493.18	85.94
493.398	98.94
493.615	86.94
493.833	86.94
494.05	86.94
494.268	100.94
494.485	91.94
494.703	74.94
494.92	91.94
495.138	102.94
495.355	106.94
495.573	75.94
495.79	83.94
496.008	76.94
496.225	79.94
496.442	102.94
496.66	99.94
496.877	88.94
497.094	89.94
497.312	76.94
497.529	83.94
497.746	74.94
497.963	75.94
498.181	93.94
498.398	94.94
498.615	87.94
498.832	90.94
499.049	90.94
499.267	83.94
499.484	91.94
499.701	78.94
499.918	71.94
500.135	104.94
500.352	82.94
500.569	95.94
500.786	94.94
501.003	88.94
501.22	81.94
501.437	87.94
501.654	91.94
501.871	89.94
502.088	76.94
502.305	85.94
502.522	90.94
502.739	94.94
502.956	94.94
503.172	82.94
503.389	82.94
503.606	92.94
503.823	74.94
504.04	78.94
504.256	74.94
504.473	85.94
504.69	71.94
504.907	93.94
505.123	100.94
505.34	92.94
505.557	89.94
505.773	83.94
505.99	84.94
506.207	84.94
506.423	94.94
506.64	91.94
506.856	88.94
507.073	88.94
507.289	92.94
507.506	92.94
507.722	95.94
507.939	92.94
508.155	105.94
508.372	89.94
508.588	91.94
508.805	104.94
509.021	84.94
509.238	107.94
509.454	104.94
509.67	96.94
509.887	103.94
510.103	127.94
510.319	177.94
510.536	572.94
510.752	1781.94
510.968	512.94
511.184	136.94
511.401	114.94
511.617	87.94
511.833	81.94
512.049	87.94
512.265	99.94
512.481	77.94
512.698	84.94
512.914	93.94
513.13	89.94
513.346	92.94
513.562	90.94
513.778	107.94
513.994	100.94
514.21	93.94
514.426	99.94
514.642	122.94
514.858	114.94
515.074	146.94
515.29	339.94
515.506	1040.94
515.721	413.94
515.937	121.94
516.153	98.94
516.369	89.94
516.585	98.94
516.801	90.94
517.016	88.94
517.232	84.94
517.448	90.94
517.664	82.94
