Data from Uncirc_1980_H10_HRD10591_00074.txt Node
Date: Wed Jan 03 12:37:10 EST 2024
User: Yrep
Spectrometer: HR+D1059
Trigger mode: 1
Integration Time (sec): 1.000000E-1
Scans to average: 1
Electric dark correction enabled: true
Nonlinearity correction enabled: false
Boxcar width: 0
XAxis mode: Wavelengths
Number of Pixels in Spectrum: 2048
>>>>>Begin Spectral Data<<<<<
223.165	-19.62
223.4	-19.62
223.635	-19.62
223.869	-23.62
224.104	-21.62
224.338	-11.62
224.573	-27.62
224.808	-10.62
225.042	-4.62
225.277	-0.62
225.511	-5.62
225.746	0.38
225.98	5.38
226.215	12.38
226.449	17.38
226.683	25.38
226.918	33.38
227.152	31.38
227.387	46.38
227.621	48.38
227.856	46.38
228.09	36.38
228.324	58.38
228.559	57.38
228.793	63.38
229.027	64.38
229.262	83.38
229.496	73.38
229.73	81.38
229.964	79.38
230.199	54.38
230.433	69.38
230.667	83.38
230.901	71.38
231.136	88.38
231.37	83.38
231.604	73.38
231.838	88.38
232.072	89.38
232.306	83.38
232.541	88.38
232.775	89.38
233.009	76.38
233.243	76.38
233.477	85.38
233.711	83.38
233.945	84.38
234.179	91.38
234.413	98.38
234.647	98.38
234.881	80.38
235.115	79.38
235.349	89.38
235.583	78.38
235.817	64.38
236.051	92.38
236.285	71.38
236.519	65.38
236.753	72.38
236.987	64.38
237.221	80.38
237.455	77.38
237.689	65.38
237.922	71.38
238.156	66.38
238.39	71.38
238.624	71.38
238.858	74.38
239.091	63.38
239.325	64.38
239.559	75.38
239.793	87.38
240.027	83.38
240.26	72.38
240.494	79.38
240.728	73.38
240.961	87.38
241.195	80.38
241.429	79.38
241.662	80.38
241.896	79.38
242.13	68.38
242.363	71.38
242.597	72.38
242.83	61.38
243.064	83.38
243.298	87.38
243.531	93.38
243.765	80.38
243.998	81.38
244.232	79.38
244.465	83.38
244.699	75.38
244.932	75.38
245.166	87.38
245.399	80.38
245.633	72.38
245.866	76.38
246.099	84.38
246.333	89.38
246.566	63.38
246.8	81.38
247.033	83.38
247.266	72.38
247.5	81.38
247.733	87.38
247.966	80.38
248.2	98.38
248.433	73.38
248.666	72.38
248.899	92.38
249.133	90.38
249.366	101.38
249.599	92.38
249.832	81.38
250.066	67.38
250.299	80.38
250.532	76.38
250.765	79.38
250.998	87.38
251.231	75.38
251.465	81.38
251.698	75.38
251.931	75.38
252.164	81.38
252.397	85.38
252.63	68.38
252.863	75.38
253.096	78.38
253.329	90.38
253.562	72.38
253.795	69.38
254.028	89.38
254.261	77.38
254.494	75.38
254.727	91.38
254.96	84.38
255.193	85.38
255.426	74.38
255.659	84.38
255.892	75.38
256.124	68.38
256.357	79.38
256.59	80.38
256.823	83.38
257.056	74.38
257.289	76.38
257.521	74.38
257.754	83.38
257.987	75.38
258.22	75.38
258.452	70.38
258.685	98.38
258.918	96.38
259.151	75.38
259.383	87.38
259.616	79.38
259.849	79.38
260.081	80.38
260.314	83.38
260.547	83.38
260.779	87.38
261.012	80.38
261.244	69.38
261.477	82.38
261.71	68.38
261.942	101.38
262.175	111.38
262.407	84.38
262.64	83.38
262.872	75.38
263.105	74.38
263.337	81.38
263.57	90.38
263.802	77.38
264.035	92.38
264.267	86.38
264.499	81.38
264.732	72.38
264.964	82.38
265.197	82.38
265.429	80.38
265.661	87.38
265.894	85.38
266.126	59.38
266.358	77.38
266.591	79.38
266.823	76.38
267.055	95.38
267.287	77.38
267.52	79.38
267.752	74.38
267.984	83.38
268.216	82.38
268.448	82.38
268.681	81.38
268.913	92.38
269.145	64.38
269.377	85.38
269.609	95.38
269.841	83.38
270.073	88.38
270.306	91.38
270.538	75.38
270.77	71.38
271.002	83.38
271.234	76.38
271.466	78.38
271.698	86.38
271.93	80.38
272.162	91.38
272.394	75.38
272.626	82.38
272.858	92.38
273.09	81.38
273.322	76.38
273.553	75.38
273.785	89.38
274.017	73.38
274.249	80.38
274.481	99.38
274.713	84.38
274.945	88.38
275.176	84.38
275.408	83.38
275.64	87.38
275.872	90.38
276.104	77.38
276.335	84.38
276.567	94.38
276.799	96.38
277.031	94.38
277.262	84.38
277.494	74.38
277.726	75.38
277.957	71.38
278.189	83.38
278.421	91.38
278.652	83.38
278.884	81.38
279.115	80.38
279.347	71.38
279.579	79.38
279.81	81.38
280.042	97.38
280.273	93.38
280.505	81.38
280.736	88.38
280.968	84.38
281.199	84.38
281.431	94.38
281.662	90.38
281.894	87.38
282.125	75.38
282.356	92.38
282.588	103.38
282.819	101.38
283.051	85.38
283.282	73.38
283.513	100.38
283.745	79.38
283.976	85.38
284.207	90.38
284.439	81.38
284.67	84.38
284.901	83.38
285.132	81.38
285.364	89.38
285.595	83.38
285.826	93.38
286.057	95.38
286.288	93.38
286.52	93.38
286.751	91.38
286.982	81.38
287.213	91.38
287.444	86.38
287.675	75.38
287.906	83.38
288.138	80.38
288.369	89.38
288.6	89.38
288.831	91.38
289.062	80.38
289.293	71.38
289.524	95.38
289.755	87.38
289.986	84.38
290.217	92.38
290.448	86.38
290.679	90.38
290.91	82.38
291.141	80.38
291.371	93.38
291.602	87.38
291.833	72.38
292.064	76.38
292.295	88.38
292.526	87.38
292.757	93.38
292.987	89.38
293.218	88.38
293.449	76.38
293.68	73.38
293.91	83.38
294.141	85.38
294.372	81.38
294.603	85.38
294.833	97.38
295.064	83.38
295.295	88.38
295.525	82.38
295.756	95.38
295.987	104.38
296.217	112.38
296.448	102.38
296.679	95.38
296.909	80.38
297.14	94.38
297.37	71.38
297.601	85.38
297.831	80.38
298.062	89.38
298.292	93.38
298.523	98.38
298.753	100.38
298.984	83.38
299.214	92.38
299.445	91.38
299.675	95.38
299.905	91.38
300.136	73.38
300.366	92.38
300.597	93.38
300.827	77.38
301.057	92.38
301.288	104.38
301.518	99.38
301.748	76.38
301.979	94.38
302.209	79.38
302.439	94.38
302.669	76.38
302.9	90.38
303.13	85.38
303.36	92.38
303.59	107.38
303.82	95.38
304.051	98.38
304.281	93.38
304.511	99.38
304.741	83.38
304.971	75.38
305.201	81.38
305.431	101.38
305.661	95.38
305.891	87.38
306.121	84.38
306.352	90.38
306.582	84.38
306.812	79.38
307.042	90.38
307.272	90.38
307.502	100.38
307.731	101.38
307.961	93.38
308.191	92.38
308.421	89.38
308.651	90.38
308.881	91.38
309.111	106.38
309.341	82.38
309.571	88.38
309.8	84.38
310.03	99.38
310.26	88.38
310.49	94.38
310.72	83.38
310.949	100.38
311.179	105.38
311.409	89.38
311.639	84.38
311.868	90.38
312.098	100.38
312.328	91.38
312.557	90.38
312.787	115.38
313.017	91.38
313.246	90.38
313.476	92.38
313.706	82.38
313.935	91.38
314.165	97.38
314.394	95.38
314.624	78.38
314.853	87.38
315.083	85.38
315.312	93.38
315.542	93.38
315.771	87.38
316.001	97.38
316.23	95.38
316.46	95.38
316.689	81.38
316.919	80.38
317.148	84.38
317.377	86.38
317.607	95.38
317.836	83.38
318.065	83.38
318.295	87.38
318.524	68.38
318.753	85.38
318.983	87.38
319.212	104.38
319.441	99.38
319.67	87.38
319.9	96.38
320.129	94.38
320.358	76.38
320.587	99.38
320.816	92.38
321.046	90.38
321.275	79.38
321.504	76.38
321.733	104.38
321.962	95.38
322.191	98.38
322.42	112.38
322.649	107.38
322.878	96.38
323.108	100.38
323.337	102.38
323.566	103.38
323.795	126.38
324.024	163.38
324.253	309.38
324.482	614.38
324.71	1172.38
324.939	1591.38
325.168	595.38
325.397	201.38
325.626	130.38
325.855	99.38
326.084	108.38
326.313	122.38
326.542	127.38
326.77	180.38
326.999	348.38
327.228	677.38
327.457	1244.38
327.686	999.38
327.914	300.38
328.143	171.38
328.372	140.38
328.6	106.38
328.829	97.38
329.058	116.38
329.287	130.38
329.515	102.38
329.744	104.38
329.972	103.38
330.201	87.38
330.43	105.38
330.658	125.38
330.887	124.38
331.115	91.38
331.344	74.38
331.572	92.38
331.801	82.38
332.03	91.38
332.258	95.38
332.486	93.38
332.715	85.38
332.943	94.38
333.172	81.38
333.4	90.38
333.629	93.38
333.857	109.38
334.085	102.38
334.314	97.38
334.542	126.38
334.771	140.38
334.999	96.38
335.227	87.38
335.455	85.38
335.684	100.38
335.912	88.38
336.14	92.38
336.369	101.38
336.597	92.38
336.825	81.38
337.053	77.38
337.281	95.38
337.51	109.38
337.738	99.38
337.966	93.38
338.194	86.38
338.422	96.38
338.65	91.38
338.878	90.38
339.106	85.38
339.334	79.38
339.562	85.38
339.79	93.38
340.018	76.38
340.246	99.38
340.474	99.38
340.702	84.38
340.93	87.38
341.158	91.38
341.386	76.38
341.614	88.38
341.842	89.38
342.07	78.38
342.298	84.38
342.526	91.38
342.754	91.38
342.981	96.38
343.209	91.38
343.437	100.38
343.665	81.38
343.893	88.38
344.12	87.38
344.348	89.38
344.576	98.38
344.804	86.38
345.031	96.38
345.259	88.38
345.487	85.38
345.714	100.38
345.942	83.38
346.17	96.38
346.397	89.38
346.625	88.38
346.853	90.38
347.08	90.38
347.308	93.38
347.535	98.38
347.763	97.38
347.99	96.38
348.218	97.38
348.445	97.38
348.673	103.38
348.9	103.38
349.128	84.38
349.355	93.38
349.583	94.38
349.81	93.38
350.037	90.38
350.265	96.38
350.492	101.38
350.72	99.38
350.947	90.38
351.174	111.38
351.402	99.38
351.629	96.38
351.856	101.38
352.083	96.38
352.311	110.38
352.538	95.38
352.765	117.38
352.992	114.38
353.22	92.38
353.447	92.38
353.674	91.38
353.901	90.38
354.128	116.38
354.355	89.38
354.583	95.38
354.81	103.38
355.037	95.38
355.264	87.38
355.491	101.38
355.718	91.38
355.945	89.38
356.172	91.38
356.399	100.38
356.626	93.38
356.853	92.38
357.08	96.38
357.307	84.38
357.534	94.38
357.761	96.38
357.988	91.38
358.215	91.38
358.441	92.38
358.668	88.38
358.895	84.38
359.122	82.38
359.349	84.38
359.576	94.38
359.802	89.38
360.029	95.38
360.256	101.38
360.483	82.38
360.709	98.38
360.936	86.38
361.163	91.38
361.39	76.38
361.616	74.38
361.843	73.38
362.07	88.38
362.296	84.38
362.523	86.38
362.749	91.38
362.976	81.38
363.203	68.38
363.429	78.38
363.656	89.38
363.882	89.38
364.109	88.38
364.335	90.38
364.562	96.38
364.788	89.38
365.015	76.38
365.241	101.38
365.468	97.38
365.694	94.38
365.92	87.38
366.147	80.38
366.373	84.38
366.599	85.38
366.826	76.38
367.052	77.38
367.278	73.38
367.505	92.38
367.731	90.38
367.957	84.38
368.184	89.38
368.41	90.38
368.636	104.38
368.862	107.38
369.089	114.38
369.315	89.38
369.541	86.38
369.767	93.38
369.993	88.38
370.219	89.38
370.445	79.38
370.672	81.38
370.898	83.38
371.124	72.38
371.35	91.38
371.576	81.38
371.802	74.38
372.028	85.38
372.254	102.38
372.48	84.38
372.706	88.38
372.932	93.38
373.158	85.38
373.384	92.38
373.61	91.38
373.835	90.38
374.061	78.38
374.287	89.38
374.513	101.38
374.739	82.38
374.965	101.38
375.191	88.38
375.416	95.38
375.642	75.38
375.868	87.38
376.094	88.38
376.319	89.38
376.545	83.38
376.771	93.38
376.997	87.38
377.222	83.38
377.448	85.38
377.674	96.38
377.899	84.38
378.125	89.38
378.35	92.38
378.576	80.38
378.802	88.38
379.027	96.38
379.253	85.38
379.478	84.38
379.704	93.38
379.929	91.38
380.155	96.38
380.38	89.38
380.606	85.38
380.831	101.38
381.057	82.38
381.282	89.38
381.507	95.38
381.733	109.38
381.958	100.38
382.184	109.38
382.409	119.38
382.634	98.38
382.86	93.38
383.085	96.38
383.31	91.38
383.535	118.38
383.761	100.38
383.986	105.38
384.211	108.38
384.436	96.38
384.662	100.38
384.887	112.38
385.112	98.38
385.337	103.38
385.562	117.38
385.787	98.38
386.013	114.38
386.238	109.38
386.463	87.38
386.688	109.38
386.913	123.38
387.138	104.38
387.363	98.38
387.588	100.38
387.813	92.38
388.038	113.38
388.263	115.38
388.488	106.38
388.713	83.38
388.938	86.38
389.163	94.38
389.387	101.38
389.612	88.38
389.837	93.38
390.062	99.38
390.287	81.38
390.512	95.38
390.736	88.38
390.961	96.38
391.186	91.38
391.411	87.38
391.636	88.38
391.86	84.38
392.085	92.38
392.31	80.38
392.534	66.38
392.759	79.38
392.984	81.38
393.208	94.38
393.433	80.38
393.658	88.38
393.882	74.38
394.107	82.38
394.331	91.38
394.556	99.38
394.78	85.38
395.005	90.38
395.229	96.38
395.454	73.38
395.678	84.38
395.903	90.38
396.127	79.38
396.352	93.38
396.576	102.38
396.801	79.38
397.025	94.38
397.249	73.38
397.474	89.38
397.698	81.38
397.922	91.38
398.147	74.38
398.371	73.38
398.595	71.38
398.82	88.38
399.044	69.38
399.268	95.38
399.492	79.38
399.717	75.38
399.941	95.38
400.165	112.38
400.389	79.38
400.613	82.38
400.837	81.38
401.062	88.38
401.286	82.38
401.51	91.38
401.734	85.38
401.958	95.38
402.182	106.38
402.406	139.38
402.63	90.38
402.854	86.38
403.078	100.38
403.302	89.38
403.526	85.38
403.75	85.38
403.974	83.38
404.198	94.38
404.422	96.38
404.645	95.38
404.869	79.38
405.093	80.38
405.317	89.38
405.541	79.38
405.765	83.38
405.988	108.38
406.212	147.38
406.436	180.38
406.66	125.38
406.883	92.38
407.107	85.38
407.331	88.38
407.555	95.38
407.778	77.38
408.002	102.38
408.226	79.38
408.449	78.38
408.673	88.38
408.896	95.38
409.12	89.38
409.344	99.38
409.567	93.38
409.791	96.38
410.014	82.38
410.238	96.38
410.461	92.38
410.685	97.38
410.908	84.38
411.132	95.38
411.355	92.38
411.578	85.38
411.802	73.38
412.025	81.38
412.249	87.38
412.472	81.38
412.695	75.38
412.919	84.38
413.142	89.38
413.365	90.38
413.589	88.38
413.812	92.38
414.035	92.38
414.258	81.38
414.482	91.38
414.705	84.38
414.928	81.38
415.151	91.38
415.374	88.38
415.597	91.38
415.821	73.38
416.044	97.38
416.267	93.38
416.49	94.38
416.713	88.38
416.936	102.38
417.159	69.38
417.382	85.38
417.605	83.38
417.828	92.38
418.051	76.38
418.274	81.38
418.497	90.38
418.72	89.38
418.943	93.38
419.166	88.38
419.389	87.38
419.611	92.38
419.834	102.38
420.057	85.38
420.28	91.38
420.503	82.38
420.726	89.38
420.948	79.38
421.171	92.38
421.394	97.38
421.617	104.38
421.839	92.38
422.062	87.38
422.285	94.38
422.507	92.38
422.73	100.38
422.953	83.38
423.175	96.38
423.398	97.38
423.621	91.38
423.843	95.38
424.066	64.38
424.288	90.38
424.511	92.38
424.733	76.38
424.956	93.38
425.178	84.38
425.401	96.38
425.623	96.38
425.846	77.38
426.068	92.38
426.291	88.38
426.513	77.38
426.735	74.38
426.958	93.38
427.18	102.38
427.402	111.38
427.625	138.38
427.847	106.38
428.069	96.38
428.292	90.38
428.514	78.38
428.736	83.38
428.958	95.38
429.181	86.38
429.403	89.38
429.625	84.38
429.847	83.38
430.069	89.38
430.292	88.38
430.514	88.38
430.736	90.38
430.958	94.38
431.18	89.38
431.402	76.38
431.624	83.38
431.846	79.38
432.068	74.38
432.29	87.38
432.512	74.38
432.734	85.38
432.956	108.38
433.178	90.38
433.4	95.38
433.622	87.38
433.844	72.38
434.066	89.38
434.287	102.38
434.509	100.38
434.731	89.38
434.953	90.38
435.175	69.38
435.397	89.38
435.618	83.38
435.84	97.38
436.062	104.38
436.284	103.38
436.505	88.38
436.727	103.38
436.949	95.38
437.17	88.38
437.392	81.38
437.614	95.38
437.835	94.38
438.057	105.38
438.278	101.38
438.5	95.38
438.721	102.38
438.943	92.38
439.165	101.38
439.386	84.38
439.608	89.38
439.829	93.38
440.05	102.38
440.272	101.38
440.493	94.38
440.715	103.38
440.936	83.38
441.158	76.38
441.379	87.38
441.6	79.38
441.822	89.38
442.043	104.38
442.264	96.38
442.486	87.38
442.707	98.38
442.928	96.38
443.149	106.38
443.371	98.38
443.592	72.38
443.813	86.38
444.034	94.38
444.255	84.38
444.476	92.38
444.698	94.38
444.919	76.38
445.14	131.38
445.361	113.38
445.582	102.38
445.803	112.38
446.024	118.38
446.245	109.38
446.466	91.38
446.687	81.38
446.908	74.38
447.129	90.38
447.35	62.38
447.571	93.38
447.792	88.38
448.013	82.38
448.234	92.38
448.455	85.38
448.675	95.38
448.896	103.38
449.117	85.38
449.338	89.38
449.559	98.38
449.779	104.38
450	101.38
450.221	86.38
450.442	70.38
450.662	74.38
450.883	84.38
451.104	110.38
451.324	87.38
451.545	74.38
451.766	76.38
451.986	69.38
452.207	95.38
452.428	96.38
452.648	103.38
452.869	105.38
453.089	103.38
453.31	97.38
453.53	83.38
453.751	100.38
453.971	84.38
454.192	92.38
454.412	82.38
454.633	76.38
454.853	85.38
455.073	83.38
455.294	91.38
455.514	80.38
455.734	87.38
455.955	89.38
456.175	83.38
456.395	87.38
456.616	75.38
456.836	81.38
457.056	89.38
457.276	77.38
457.497	71.38
457.717	80.38
457.937	98.38
458.157	76.38
458.377	88.38
458.598	88.38
458.818	104.38
459.038	118.38
459.258	107.38
459.478	91.38
459.698	93.38
459.918	100.38
460.138	82.38
460.358	85.38
460.578	75.38
460.798	88.38
461.018	67.38
461.238	72.38
461.458	85.38
461.678	79.38
461.898	78.38
462.118	74.38
462.338	80.38
462.558	87.38
462.777	80.38
462.997	76.38
463.217	77.38
463.437	88.38
463.657	81.38
463.876	91.38
464.096	71.38
464.316	89.38
464.536	91.38
464.755	89.38
464.975	100.38
465.195	121.38
465.414	120.38
465.634	106.38
465.854	76.38
466.073	74.38
466.293	72.38
466.512	88.38
466.732	75.38
466.951	83.38
467.171	91.38
467.391	82.38
467.61	101.38
467.829	86.38
468.049	85.38
468.268	98.38
468.488	85.38
468.707	82.38
468.927	81.38
469.146	93.38
469.365	80.38
469.585	87.38
469.804	92.38
470.023	87.38
470.243	92.38
470.462	94.38
470.681	79.38
470.901	88.38
471.12	79.38
471.339	91.38
471.558	84.38
471.777	90.38
471.997	77.38
472.216	108.38
472.435	115.38
472.654	95.38
472.873	86.38
473.092	81.38
473.311	84.38
473.53	88.38
473.749	80.38
473.968	104.38
474.187	91.38
474.406	99.38
474.625	88.38
474.844	67.38
475.063	81.38
475.282	74.38
475.501	79.38
475.72	88.38
475.939	88.38
476.158	76.38
476.377	82.38
476.596	78.38
476.814	86.38
477.033	77.38
477.252	92.38
477.471	85.38
477.69	102.38
477.908	90.38
478.127	76.38
478.346	104.38
478.564	91.38
478.783	106.38
479.002	92.38
479.22	84.38
479.439	87.38
479.658	103.38
479.876	87.38
480.095	85.38
480.313	88.38
480.532	85.38
480.751	78.38
480.969	84.38
481.188	170.38
481.406	135.38
481.624	88.38
481.843	88.38
482.061	83.38
482.28	76.38
482.498	91.38
482.717	77.38
482.935	78.38
483.153	84.38
483.372	89.38
483.59	86.38
483.808	96.38
484.027	86.38
484.245	96.38
484.463	80.38
484.681	91.38
484.9	98.38
485.118	77.38
485.336	94.38
485.554	100.38
485.772	103.38
485.99	99.38
486.209	103.38
486.427	97.38
486.645	97.38
486.863	93.38
487.081	97.38
487.299	96.38
487.517	99.38
487.735	89.38
487.953	99.38
488.171	101.38
488.389	102.38
488.607	91.38
488.825	85.38
489.043	93.38
489.261	82.38
489.479	98.38
489.696	95.38
489.914	76.38
490.132	88.38
490.35	87.38
490.568	71.38
490.786	97.38
491.003	83.38
491.221	78.38
491.439	107.38
491.657	93.38
491.874	89.38
492.092	86.38
492.31	88.38
492.527	85.38
492.745	86.38
492.963	89.38
493.18	79.38
493.398	84.38
493.615	102.38
493.833	100.38
494.05	82.38
494.268	77.38
494.485	79.38
494.703	85.38
494.92	95.38
495.138	80.38
495.355	102.38
495.573	99.38
495.79	90.38
496.008	87.38
496.225	91.38
496.442	87.38
496.66	97.38
496.877	103.38
497.094	99.38
497.312	93.38
497.529	93.38
497.746	87.38
497.963	91.38
498.181	100.38
498.398	80.38
498.615	92.38
498.832	99.38
499.049	87.38
499.267	85.38
499.484	97.38
499.701	96.38
499.918	90.38
500.135	87.38
500.352	75.38
500.569	87.38
500.786	83.38
501.003	88.38
501.22	75.38
501.437	95.38
501.654	97.38
501.871	90.38
502.088	91.38
502.305	89.38
502.522	89.38
502.739	87.38
502.956	88.38
503.172	83.38
503.389	107.38
503.606	90.38
503.823	84.38
504.04	89.38
504.256	79.38
504.473	81.38
504.69	90.38
504.907	88.38
505.123	74.38
505.34	66.38
505.557	89.38
505.773	60.38
505.99	82.38
506.207	82.38
506.423	89.38
506.64	95.38
506.856	83.38
507.073	95.38
507.289	87.38
507.506	89.38
507.722	104.38
507.939	100.38
508.155	79.38
508.372	99.38
508.588	101.38
508.805	106.38
509.021	98.38
509.238	114.38
509.454	104.38
509.67	102.38
509.887	96.38
510.103	130.38
510.319	165.38
510.536	619.38
510.752	1901.38
510.968	529.38
511.184	133.38
511.401	103.38
511.617	87.38
511.833	77.38
512.049	81.38
512.265	99.38
512.481	99.38
512.698	97.38
512.914	80.38
513.13	95.38
513.346	84.38
513.562	87.38
513.778	99.38
513.994	100.38
514.21	92.38
514.426	108.38
514.642	109.38
514.858	106.38
515.074	141.38
515.29	357.38
515.506	1068.38
515.721	389.38
515.937	128.38
516.153	95.38
516.369	87.38
516.585	90.38
516.801	91.38
517.016	95.38
