Data from Uncirc_1980_H10_HRD10591_00070.txt Node
Date: Wed Jan 03 12:37:09 EST 2024
User: Yrep
Spectrometer: HR+D1059
Trigger mode: 1
Integration Time (sec): 1.000000E-1
Scans to average: 1
Electric dark correction enabled: true
Nonlinearity correction enabled: false
Boxcar width: 0
XAxis mode: Wavelengths
Number of Pixels in Spectrum: 2048
>>>>>Begin Spectral Data<<<<<
223.165	-17.56
223.4	-17.56
223.635	-17.56
223.869	-16.56
224.104	-17.56
224.338	-8.56
224.573	-21.56
224.808	-20.56
225.042	-8.56
225.277	-6.56
225.511	-6.56
225.746	-5.56
225.98	11.44
226.215	14.44
226.449	20.44
226.683	30.44
226.918	22.44
227.152	30.44
227.387	31.44
227.621	35.44
227.856	43.44
228.09	60.44
228.324	42.44
228.559	55.44
228.793	61.44
229.027	65.44
229.262	73.44
229.496	75.44
229.73	85.44
229.964	92.44
230.199	78.44
230.433	68.44
230.667	82.44
230.901	86.44
231.136	71.44
231.37	76.44
231.604	79.44
231.838	72.44
232.072	83.44
232.306	88.44
232.541	92.44
232.775	77.44
233.009	83.44
233.243	84.44
233.477	87.44
233.711	89.44
233.945	86.44
234.179	85.44
234.413	67.44
234.647	71.44
234.881	76.44
235.115	83.44
235.349	78.44
235.583	84.44
235.817	76.44
236.051	77.44
236.285	79.44
236.519	74.44
236.753	85.44
236.987	89.44
237.221	80.44
237.455	85.44
237.689	86.44
237.922	86.44
238.156	76.44
238.39	86.44
238.624	62.44
238.858	67.44
239.091	60.44
239.325	80.44
239.559	92.44
239.793	86.44
240.027	86.44
240.26	86.44
240.494	72.44
240.728	88.44
240.961	70.44
241.195	68.44
241.429	74.44
241.662	74.44
241.896	78.44
242.13	71.44
242.363	83.44
242.597	77.44
242.83	73.44
243.064	81.44
243.298	63.44
243.531	61.44
243.765	87.44
243.998	89.44
244.232	79.44
244.465	66.44
244.699	69.44
244.932	77.44
245.166	75.44
245.399	80.44
245.633	90.44
245.866	88.44
246.099	93.44
246.333	82.44
246.566	73.44
246.8	72.44
247.033	90.44
247.266	84.44
247.5	71.44
247.733	77.44
247.966	76.44
248.2	81.44
248.433	87.44
248.666	74.44
248.899	70.44
249.133	85.44
249.366	89.44
249.599	90.44
249.832	93.44
250.066	79.44
250.299	72.44
250.532	92.44
250.765	75.44
250.998	79.44
251.231	77.44
251.465	75.44
251.698	85.44
251.931	80.44
252.164	73.44
252.397	83.44
252.63	96.44
252.863	79.44
253.096	75.44
253.329	84.44
253.562	92.44
253.795	95.44
254.028	79.44
254.261	79.44
254.494	92.44
254.727	76.44
254.96	87.44
255.193	77.44
255.426	91.44
255.659	88.44
255.892	79.44
256.124	81.44
256.357	92.44
256.59	78.44
256.823	79.44
257.056	85.44
257.289	71.44
257.521	78.44
257.754	75.44
257.987	82.44
258.22	88.44
258.452	85.44
258.685	95.44
258.918	87.44
259.151	91.44
259.383	83.44
259.616	76.44
259.849	84.44
260.081	79.44
260.314	74.44
260.547	94.44
260.779	84.44
261.012	107.44
261.244	94.44
261.477	95.44
261.71	87.44
261.942	107.44
262.175	119.44
262.407	100.44
262.64	86.44
262.872	77.44
263.105	64.44
263.337	87.44
263.57	82.44
263.802	94.44
264.035	73.44
264.267	68.44
264.499	77.44
264.732	80.44
264.964	76.44
265.197	83.44
265.429	90.44
265.661	66.44
265.894	91.44
266.126	86.44
266.358	82.44
266.591	91.44
266.823	81.44
267.055	78.44
267.287	79.44
267.52	89.44
267.752	89.44
267.984	78.44
268.216	96.44
268.448	88.44
268.681	97.44
268.913	83.44
269.145	75.44
269.377	87.44
269.609	80.44
269.841	76.44
270.073	76.44
270.306	85.44
270.538	108.44
270.77	86.44
271.002	82.44
271.234	88.44
271.466	80.44
271.698	90.44
271.93	90.44
272.162	71.44
272.394	80.44
272.626	74.44
272.858	76.44
273.09	80.44
273.322	85.44
273.553	88.44
273.785	76.44
274.017	85.44
274.249	82.44
274.481	88.44
274.713	74.44
274.945	94.44
275.176	83.44
275.408	83.44
275.64	84.44
275.872	93.44
276.104	92.44
276.335	85.44
276.567	90.44
276.799	107.44
277.031	99.44
277.262	103.44
277.494	77.44
277.726	91.44
277.957	86.44
278.189	79.44
278.421	74.44
278.652	82.44
278.884	76.44
279.115	80.44
279.347	88.44
279.579	83.44
279.81	85.44
280.042	97.44
280.273	87.44
280.505	79.44
280.736	87.44
280.968	90.44
281.199	72.44
281.431	90.44
281.662	90.44
281.894	79.44
282.125	91.44
282.356	106.44
282.588	136.44
282.819	106.44
283.051	88.44
283.282	90.44
283.513	78.44
283.745	77.44
283.976	86.44
284.207	78.44
284.439	79.44
284.67	90.44
284.901	85.44
285.132	86.44
285.364	99.44
285.595	95.44
285.826	79.44
286.057	94.44
286.288	83.44
286.52	100.44
286.751	97.44
286.982	94.44
287.213	78.44
287.444	95.44
287.675	93.44
287.906	98.44
288.138	84.44
288.369	88.44
288.6	83.44
288.831	86.44
289.062	80.44
289.293	76.44
289.524	76.44
289.755	75.44
289.986	88.44
290.217	90.44
290.448	90.44
290.679	91.44
290.91	80.44
291.141	96.44
291.371	92.44
291.602	88.44
291.833	86.44
292.064	98.44
292.295	113.44
292.526	78.44
292.757	85.44
292.987	95.44
293.218	76.44
293.449	91.44
293.68	92.44
293.91	79.44
294.141	93.44
294.372	86.44
294.603	92.44
294.833	93.44
295.064	101.44
295.295	83.44
295.525	95.44
295.756	103.44
295.987	97.44
296.217	131.44
296.448	120.44
296.679	83.44
296.909	98.44
297.14	82.44
297.37	88.44
297.601	90.44
297.831	92.44
298.062	84.44
298.292	78.44
298.523	85.44
298.753	89.44
298.984	80.44
299.214	66.44
299.445	95.44
299.675	84.44
299.905	99.44
300.136	91.44
300.366	92.44
300.597	91.44
300.827	78.44
301.057	86.44
301.288	94.44
301.518	90.44
301.748	93.44
301.979	95.44
302.209	84.44
302.439	95.44
302.669	107.44
302.9	85.44
303.13	88.44
303.36	87.44
303.59	96.44
303.82	106.44
304.051	97.44
304.281	96.44
304.511	98.44
304.741	93.44
304.971	88.44
305.201	87.44
305.431	86.44
305.661	107.44
305.891	98.44
306.121	95.44
306.352	99.44
306.582	90.44
306.812	103.44
307.042	99.44
307.272	90.44
307.502	90.44
307.731	99.44
307.961	99.44
308.191	79.44
308.421	84.44
308.651	91.44
308.881	85.44
309.111	74.44
309.341	86.44
309.571	100.44
309.8	108.44
310.03	86.44
310.26	102.44
310.49	104.44
310.72	105.44
310.949	103.44
311.179	88.44
311.409	84.44
311.639	107.44
311.868	88.44
312.098	96.44
312.328	96.44
312.557	92.44
312.787	96.44
313.017	112.44
313.246	88.44
313.476	91.44
313.706	89.44
313.935	104.44
314.165	98.44
314.394	116.44
314.624	94.44
314.853	78.44
315.083	79.44
315.312	92.44
315.542	90.44
315.771	85.44
316.001	104.44
316.23	95.44
316.46	99.44
316.689	89.44
316.919	98.44
317.148	99.44
317.377	103.44
317.607	84.44
317.836	84.44
318.065	83.44
318.295	88.44
318.524	85.44
318.753	100.44
318.983	77.44
319.212	79.44
319.441	97.44
319.67	98.44
319.9	99.44
320.129	95.44
320.358	74.44
320.587	92.44
320.816	96.44
321.046	91.44
321.275	90.44
321.504	94.44
321.733	112.44
321.962	89.44
322.191	99.44
322.42	112.44
322.649	105.44
322.878	114.44
323.108	100.44
323.337	119.44
323.566	123.44
323.795	135.44
324.024	175.44
324.253	288.44
324.482	578.44
324.71	1218.44
324.939	1675.44
325.168	644.44
325.397	201.44
325.626	139.44
325.855	108.44
326.084	108.44
326.313	124.44
326.542	139.44
326.77	180.44
326.999	340.44
327.228	696.44
327.457	1276.44
327.686	1084.44
327.914	309.44
328.143	170.44
328.372	133.44
328.6	118.44
328.829	124.44
329.058	104.44
329.287	110.44
329.515	116.44
329.744	108.44
329.972	102.44
330.201	109.44
330.43	118.44
330.658	124.44
330.887	131.44
331.115	117.44
331.344	92.44
331.572	95.44
331.801	101.44
332.03	103.44
332.258	95.44
332.486	96.44
332.715	92.44
332.943	87.44
333.172	94.44
333.4	97.44
333.629	104.44
333.857	102.44
334.085	105.44
334.314	97.44
334.542	112.44
334.771	116.44
334.999	106.44
335.227	95.44
335.455	88.44
335.684	93.44
335.912	108.44
336.14	88.44
336.369	81.44
336.597	104.44
336.825	94.44
337.053	90.44
337.281	88.44
337.51	82.44
337.738	85.44
337.966	91.44
338.194	93.44
338.422	91.44
338.65	96.44
338.878	100.44
339.106	91.44
339.334	92.44
339.562	112.44
339.79	89.44
340.018	82.44
340.246	92.44
340.474	100.44
340.702	95.44
340.93	88.44
341.158	99.44
341.386	88.44
341.614	94.44
341.842	83.44
342.07	94.44
342.298	96.44
342.526	91.44
342.754	87.44
342.981	94.44
343.209	84.44
343.437	90.44
343.665	95.44
343.893	100.44
344.12	87.44
344.348	77.44
344.576	87.44
344.804	94.44
345.031	93.44
345.259	99.44
345.487	90.44
345.714	107.44
345.942	95.44
346.17	82.44
346.397	100.44
346.625	99.44
346.853	91.44
347.08	90.44
347.308	86.44
347.535	90.44
347.763	101.44
347.99	104.44
348.218	102.44
348.445	109.44
348.673	95.44
348.9	102.44
349.128	105.44
349.355	98.44
349.583	101.44
349.81	105.44
350.037	99.44
350.265	98.44
350.492	99.44
350.72	89.44
350.947	95.44
351.174	104.44
351.402	110.44
351.629	101.44
351.856	99.44
352.083	103.44
352.311	100.44
352.538	94.44
352.765	91.44
352.992	101.44
353.22	112.44
353.447	104.44
353.674	93.44
353.901	96.44
354.128	93.44
354.355	95.44
354.583	106.44
354.81	91.44
355.037	95.44
355.264	107.44
355.491	114.44
355.718	93.44
355.945	94.44
356.172	97.44
356.399	90.44
356.626	94.44
356.853	88.44
357.08	114.44
357.307	102.44
357.534	88.44
357.761	90.44
357.988	93.44
358.215	107.44
358.441	95.44
358.668	97.44
358.895	89.44
359.122	84.44
359.349	82.44
359.576	76.44
359.802	93.44
360.029	117.44
360.256	106.44
360.483	77.44
360.709	88.44
360.936	92.44
361.163	99.44
361.39	87.44
361.616	83.44
361.843	87.44
362.07	100.44
362.296	102.44
362.523	87.44
362.749	99.44
362.976	94.44
363.203	95.44
363.429	99.44
363.656	80.44
363.882	83.44
364.109	84.44
364.335	98.44
364.562	94.44
364.788	98.44
365.015	84.44
365.241	95.44
365.468	118.44
365.694	112.44
365.92	90.44
366.147	87.44
366.373	100.44
366.599	77.44
366.826	92.44
367.052	92.44
367.278	78.44
367.505	88.44
367.731	82.44
367.957	70.44
368.184	90.44
368.41	102.44
368.636	105.44
368.862	107.44
369.089	106.44
369.315	91.44
369.541	103.44
369.767	90.44
369.993	87.44
370.219	94.44
370.445	88.44
370.672	87.44
370.898	89.44
371.124	98.44
371.35	65.44
371.576	77.44
371.802	76.44
372.028	89.44
372.254	92.44
372.48	89.44
372.706	91.44
372.932	76.44
373.158	88.44
373.384	106.44
373.61	76.44
373.835	73.44
374.061	82.44
374.287	93.44
374.513	84.44
374.739	91.44
374.965	95.44
375.191	98.44
375.416	89.44
375.642	96.44
375.868	95.44
376.094	96.44
376.319	83.44
376.545	82.44
376.771	90.44
376.997	87.44
377.222	86.44
377.448	87.44
377.674	93.44
377.899	111.44
378.125	80.44
378.35	91.44
378.576	96.44
378.802	85.44
379.027	106.44
379.253	106.44
379.478	90.44
379.704	105.44
379.929	84.44
380.155	92.44
380.38	87.44
380.606	105.44
380.831	94.44
381.057	93.44
381.282	103.44
381.507	96.44
381.733	104.44
381.958	103.44
382.184	103.44
382.409	88.44
382.634	101.44
382.86	111.44
383.085	105.44
383.31	105.44
383.535	111.44
383.761	90.44
383.986	101.44
384.211	116.44
384.436	92.44
384.662	107.44
384.887	91.44
385.112	84.44
385.337	106.44
385.562	105.44
385.787	112.44
386.013	109.44
386.238	118.44
386.463	93.44
386.688	109.44
386.913	103.44
387.138	107.44
387.363	99.44
387.588	95.44
387.813	88.44
388.038	97.44
388.263	105.44
388.488	117.44
388.713	90.44
388.938	101.44
389.163	95.44
389.387	90.44
389.612	94.44
389.837	105.44
390.062	102.44
390.287	87.44
390.512	82.44
390.736	82.44
390.961	87.44
391.186	91.44
391.411	94.44
391.636	88.44
391.86	86.44
392.085	88.44
392.31	95.44
392.534	97.44
392.759	95.44
392.984	97.44
393.208	85.44
393.433	90.44
393.658	96.44
393.882	96.44
394.107	96.44
394.331	88.44
394.556	85.44
394.78	105.44
395.005	89.44
395.229	88.44
395.454	95.44
395.678	86.44
395.903	92.44
396.127	97.44
396.352	83.44
396.576	86.44
396.801	80.44
397.025	63.44
397.249	84.44
397.474	88.44
397.698	105.44
397.922	93.44
398.147	87.44
398.371	80.44
398.595	87.44
398.82	90.44
399.044	95.44
399.268	87.44
399.492	92.44
399.717	75.44
399.941	100.44
400.165	85.44
400.389	100.44
400.613	94.44
400.837	79.44
401.062	93.44
401.286	94.44
401.51	94.44
401.734	91.44
401.958	89.44
402.182	111.44
402.406	139.44
402.63	99.44
402.854	94.44
403.078	82.44
403.302	93.44
403.526	74.44
403.75	90.44
403.974	81.44
404.198	88.44
404.422	91.44
404.645	79.44
404.869	82.44
405.093	89.44
405.317	97.44
405.541	90.44
405.765	87.44
405.988	92.44
406.212	139.44
406.436	182.44
406.66	127.44
406.883	104.44
407.107	92.44
407.331	88.44
407.555	95.44
407.778	87.44
408.002	95.44
408.226	82.44
408.449	79.44
408.673	88.44
408.896	89.44
409.12	95.44
409.344	100.44
409.567	99.44
409.791	94.44
410.014	99.44
410.238	89.44
410.461	102.44
410.685	87.44
410.908	97.44
411.132	112.44
411.355	93.44
411.578	86.44
411.802	90.44
412.025	82.44
412.249	77.44
412.472	102.44
412.695	100.44
412.919	94.44
413.142	94.44
413.365	102.44
413.589	90.44
413.812	95.44
414.035	95.44
414.258	95.44
414.482	94.44
414.705	94.44
414.928	95.44
415.151	87.44
415.374	90.44
415.597	100.44
415.821	97.44
416.044	95.44
416.267	83.44
416.49	103.44
416.713	101.44
416.936	80.44
417.159	101.44
417.382	97.44
417.605	98.44
417.828	94.44
418.051	92.44
418.274	95.44
418.497	94.44
418.72	74.44
418.943	74.44
419.166	98.44
419.389	87.44
419.611	93.44
419.834	88.44
420.057	89.44
420.28	92.44
420.503	88.44
420.726	80.44
420.948	87.44
421.171	84.44
421.394	91.44
421.617	96.44
421.839	98.44
422.062	99.44
422.285	104.44
422.507	85.44
422.73	76.44
422.953	78.44
423.175	102.44
423.398	85.44
423.621	99.44
423.843	85.44
424.066	93.44
424.288	86.44
424.511	90.44
424.733	86.44
424.956	94.44
425.178	108.44
425.401	106.44
425.623	97.44
425.846	88.44
426.068	87.44
426.291	91.44
426.513	82.44
426.735	100.44
426.958	83.44
427.18	100.44
427.402	112.44
427.625	153.44
427.847	117.44
428.069	109.44
428.292	87.44
428.514	84.44
428.736	83.44
428.958	93.44
429.181	88.44
429.403	89.44
429.625	100.44
429.847	86.44
430.069	91.44
430.292	94.44
430.514	102.44
430.736	89.44
430.958	79.44
431.18	78.44
431.402	94.44
431.624	95.44
431.846	87.44
432.068	86.44
432.29	80.44
432.512	94.44
432.734	86.44
432.956	85.44
433.178	102.44
433.4	79.44
433.622	92.44
433.844	80.44
434.066	92.44
434.287	93.44
434.509	83.44
434.731	76.44
434.953	89.44
435.175	82.44
435.397	111.44
435.618	102.44
435.84	105.44
436.062	106.44
436.284	113.44
436.505	96.44
436.727	94.44
436.949	75.44
437.17	93.44
437.392	87.44
437.614	74.44
437.835	105.44
438.057	116.44
438.278	114.44
438.5	103.44
438.721	107.44
438.943	100.44
439.165	97.44
439.386	90.44
439.608	87.44
439.829	84.44
440.05	118.44
440.272	124.44
440.493	80.44
440.715	83.44
440.936	80.44
441.158	94.44
441.379	87.44
441.6	89.44
441.822	85.44
442.043	79.44
442.264	88.44
442.486	102.44
442.707	86.44
442.928	108.44
443.149	108.44
443.371	105.44
443.592	109.44
443.813	108.44
444.034	90.44
444.255	100.44
444.476	80.44
444.698	86.44
444.919	84.44
445.14	127.44
445.361	116.44
445.582	107.44
445.803	119.44
446.024	139.44
446.245	114.44
446.466	87.44
446.687	88.44
446.908	80.44
447.129	85.44
447.35	85.44
447.571	101.44
447.792	88.44
448.013	85.44
448.234	95.44
448.455	71.44
448.675	101.44
448.896	105.44
449.117	95.44
449.338	107.44
449.559	122.44
449.779	111.44
450	83.44
450.221	93.44
450.442	73.44
450.662	79.44
450.883	101.44
451.104	104.44
451.324	73.44
451.545	79.44
451.766	76.44
451.986	98.44
452.207	80.44
452.428	91.44
452.648	96.44
452.869	98.44
453.089	94.44
453.31	100.44
453.53	93.44
453.751	79.44
453.971	85.44
454.192	97.44
454.412	97.44
454.633	96.44
454.853	98.44
455.073	99.44
455.294	83.44
455.514	74.44
455.734	102.44
455.955	83.44
456.175	82.44
456.395	88.44
456.616	83.44
456.836	82.44
457.056	96.44
457.276	89.44
457.497	78.44
457.717	90.44
457.937	84.44
458.157	94.44
458.377	95.44
458.598	100.44
458.818	132.44
459.038	133.44
459.258	103.44
459.478	88.44
459.698	85.44
459.918	82.44
460.138	79.44
460.358	77.44
460.578	91.44
460.798	82.44
461.018	84.44
461.238	97.44
461.458	92.44
461.678	99.44
461.898	91.44
462.118	87.44
462.338	74.44
462.558	77.44
462.777	83.44
462.997	82.44
463.217	78.44
463.437	80.44
463.657	98.44
463.876	94.44
464.096	105.44
464.316	84.44
464.536	86.44
464.755	91.44
464.975	107.44
465.195	134.44
465.414	128.44
465.634	117.44
465.854	81.44
466.073	83.44
466.293	95.44
466.512	76.44
466.732	81.44
466.951	95.44
467.171	82.44
467.391	106.44
467.61	87.44
467.829	103.44
468.049	104.44
468.268	91.44
468.488	92.44
468.707	85.44
468.927	96.44
469.146	98.44
469.365	78.44
469.585	85.44
469.804	88.44
470.023	100.44
470.243	86.44
470.462	93.44
470.681	95.44
470.901	94.44
471.12	83.44
471.339	83.44
471.558	81.44
471.777	77.44
471.997	88.44
472.216	106.44
472.435	126.44
472.654	93.44
472.873	99.44
473.092	90.44
473.311	82.44
473.53	89.44
473.749	83.44
473.968	84.44
474.187	98.44
474.406	95.44
474.625	87.44
474.844	99.44
475.063	88.44
475.282	101.44
475.501	85.44
475.72	93.44
475.939	85.44
476.158	78.44
476.377	85.44
476.596	92.44
476.814	99.44
477.033	97.44
477.252	92.44
477.471	90.44
477.69	88.44
477.908	82.44
478.127	98.44
478.346	107.44
478.564	100.44
478.783	109.44
479.002	85.44
479.22	90.44
479.439	100.44
479.658	86.44
479.876	96.44
480.095	98.44
480.313	98.44
480.532	93.44
480.751	90.44
480.969	103.44
481.188	167.44
481.406	114.44
481.624	95.44
481.843	77.44
482.061	101.44
482.28	102.44
482.498	111.44
482.717	110.44
482.935	96.44
483.153	75.44
483.372	82.44
483.59	92.44
483.808	104.44
484.027	103.44
484.245	94.44
484.463	100.44
484.681	107.44
484.9	110.44
485.118	93.44
485.336	102.44
485.554	107.44
485.772	114.44
485.99	112.44
486.209	103.44
486.427	98.44
486.645	114.44
486.863	113.44
487.081	82.44
487.299	77.44
487.517	103.44
487.735	97.44
487.953	93.44
488.171	84.44
488.389	84.44
488.607	91.44
488.825	96.44
489.043	89.44
489.261	83.44
489.479	92.44
489.696	94.44
489.914	87.44
490.132	89.44
490.35	106.44
490.568	94.44
490.786	89.44
491.003	69.44
491.221	86.44
491.439	99.44
491.657	84.44
491.874	97.44
492.092	102.44
492.31	98.44
492.527	97.44
492.745	77.44
492.963	86.44
493.18	87.44
493.398	92.44
493.615	89.44
493.833	79.44
494.05	71.44
494.268	95.44
494.485	94.44
494.703	84.44
494.92	74.44
495.138	83.44
495.355	93.44
495.573	93.44
495.79	92.44
496.008	99.44
496.225	106.44
496.442	82.44
496.66	92.44
496.877	88.44
497.094	95.44
497.312	102.44
497.529	87.44
497.746	88.44
497.963	94.44
498.181	83.44
498.398	90.44
498.615	95.44
498.832	101.44
499.049	101.44
499.267	93.44
499.484	89.44
499.701	79.44
499.918	94.44
500.135	86.44
500.352	90.44
500.569	81.44
500.786	90.44
501.003	104.44
501.22	88.44
501.437	86.44
501.654	91.44
501.871	110.44
502.088	82.44
502.305	90.44
502.522	85.44
502.739	82.44
502.956	100.44
503.172	77.44
503.389	89.44
503.606	110.44
503.823	99.44
504.04	93.44
504.256	91.44
504.473	84.44
504.69	74.44
504.907	101.44
505.123	86.44
505.34	98.44
505.557	79.44
505.773	92.44
505.99	90.44
506.207	89.44
506.423	95.44
506.64	97.44
506.856	95.44
507.073	91.44
507.289	95.44
507.506	87.44
507.722	111.44
507.939	86.44
508.155	71.44
508.372	96.44
508.588	76.44
508.805	92.44
509.021	99.44
509.238	104.44
509.454	89.44
509.67	99.44
509.887	101.44
510.103	124.44
510.319	178.44
510.536	569.44
510.752	1789.44
510.968	511.44
511.184	137.44
511.401	100.44
511.617	90.44
511.833	88.44
512.049	67.44
512.265	81.44
512.481	79.44
512.698	92.44
512.914	102.44
513.13	93.44
513.346	95.44
513.562	91.44
513.778	94.44
513.994	79.44
514.21	79.44
514.426	92.44
514.642	120.44
514.858	103.44
515.074	125.44
515.29	341.44
515.506	1087.44
515.721	397.44
515.937	130.44
