Data from Uncirc_1980_H10_HRD10591_00001.txt Node
Date: Wed Jan 03 12:36:55 EST 2024
User: Yrep
Spectrometer: HR+D1059
Trigger mode: 1
Integration Time (sec): 1.000000E-1
Scans to average: 1
Electric dark correction enabled: true
Nonlinearity correction enabled: false
Boxcar width: 0
XAxis mode: Wavelengths
Number of Pixels in Spectrum: 2048
>>>>>Begin Spectral Data<<<<<
223.165	-19.25
223.4	-19.25
223.635	-19.25
223.869	-25.25
224.104	-10.25
224.338	-15.25
224.573	-8.25
224.808	-14.25
225.042	-16.25
225.277	9.75
225.511	-7.25
225.746	-1.25
225.98	12.75
226.215	12.75
226.449	13.75
226.683	20.75
226.918	14.75
227.152	32.75
227.387	38.75
227.621	35.75
227.856	37.75
228.09	57.75
228.324	59.75
228.559	61.75
228.793	55.75
229.027	59.75
229.262	73.75
229.496	67.75
229.73	69.75
229.964	79.75
230.199	75.75
230.433	79.75
230.667	86.75
230.901	74.75
231.136	74.75
231.37	82.75
231.604	88.75
231.838	87.75
232.072	73.75
232.306	86.75
232.541	77.75
232.775	82.75
233.009	70.75
233.243	91.75
233.477	71.75
233.711	69.75
233.945	83.75
234.179	73.75
234.413	85.75
234.647	91.75
234.881	82.75
235.115	80.75
235.349	82.75
235.583	76.75
235.817	68.75
236.051	73.75
236.285	82.75
236.519	75.75
236.753	84.75
236.987	72.75
237.221	80.75
237.455	76.75
237.689	83.75
237.922	77.75
238.156	86.75
238.39	83.75
238.624	73.75
238.858	79.75
239.091	82.75
239.325	79.75
239.559	90.75
239.793	82.75
240.027	89.75
240.26	73.75
240.494	78.75
240.728	85.75
240.961	84.75
241.195	63.75
241.429	86.75
241.662	80.75
241.896	90.75
242.13	94.75
242.363	75.75
242.597	76.75
242.83	79.75
243.064	67.75
243.298	99.75
243.531	76.75
243.765	73.75
243.998	84.75
244.232	69.75
244.465	88.75
244.699	77.75
244.932	92.75
245.166	86.75
245.399	79.75
245.633	91.75
245.866	84.75
246.099	87.75
246.333	74.75
246.566	71.75
246.8	102.75
247.033	91.75
247.266	84.75
247.5	83.75
247.733	85.75
247.966	82.75
248.2	75.75
248.433	78.75
248.666	90.75
248.899	93.75
249.133	86.75
249.366	99.75
249.599	91.75
249.832	75.75
250.066	84.75
250.299	92.75
250.532	95.75
250.765	76.75
250.998	72.75
251.231	83.75
251.465	95.75
251.698	78.75
251.931	71.75
252.164	88.75
252.397	86.75
252.63	91.75
252.863	81.75
253.096	82.75
253.329	83.75
253.562	90.75
253.795	93.75
254.028	78.75
254.261	82.75
254.494	79.75
254.727	86.75
254.96	91.75
255.193	83.75
255.426	94.75
255.659	87.75
255.892	88.75
256.124	79.75
256.357	70.75
256.59	70.75
256.823	83.75
257.056	74.75
257.289	86.75
257.521	89.75
257.754	86.75
257.987	106.75
258.22	77.75
258.452	84.75
258.685	77.75
258.918	89.75
259.151	83.75
259.383	74.75
259.616	95.75
259.849	84.75
260.081	86.75
260.314	87.75
260.547	70.75
260.779	80.75
261.012	74.75
261.244	79.75
261.477	97.75
261.71	89.75
261.942	100.75
262.175	110.75
262.407	80.75
262.64	98.75
262.872	75.75
263.105	90.75
263.337	87.75
263.57	90.75
263.802	62.75
264.035	88.75
264.267	86.75
264.499	95.75
264.732	99.75
264.964	91.75
265.197	82.75
265.429	86.75
265.661	76.75
265.894	88.75
266.126	87.75
266.358	100.75
266.591	87.75
266.823	78.75
267.055	74.75
267.287	78.75
267.52	84.75
267.752	92.75
267.984	87.75
268.216	86.75
268.448	88.75
268.681	78.75
268.913	90.75
269.145	91.75
269.377	85.75
269.609	82.75
269.841	85.75
270.073	88.75
270.306	98.75
270.538	92.75
270.77	90.75
271.002	90.75
271.234	86.75
271.466	82.75
271.698	88.75
271.93	103.75
272.162	93.75
272.394	93.75
272.626	97.75
272.858	87.75
273.09	71.75
273.322	72.75
273.553	85.75
273.785	86.75
274.017	92.75
274.249	88.75
274.481	86.75
274.713	94.75
274.945	89.75
275.176	71.75
275.408	94.75
275.64	104.75
275.872	89.75
276.104	77.75
276.335	82.75
276.567	86.75
276.799	96.75
277.031	105.75
277.262	92.75
277.494	77.75
277.726	96.75
277.957	86.75
278.189	90.75
278.421	93.75
278.652	85.75
278.884	87.75
279.115	100.75
279.347	91.75
279.579	84.75
279.81	79.75
280.042	96.75
280.273	82.75
280.505	85.75
280.736	79.75
280.968	102.75
281.199	96.75
281.431	96.75
281.662	75.75
281.894	94.75
282.125	96.75
282.356	92.75
282.588	114.75
282.819	110.75
283.051	76.75
283.282	82.75
283.513	92.75
283.745	79.75
283.976	81.75
284.207	86.75
284.439	82.75
284.67	92.75
284.901	68.75
285.132	65.75
285.364	93.75
285.595	81.75
285.826	94.75
286.057	85.75
286.288	103.75
286.52	86.75
286.751	91.75
286.982	83.75
287.213	82.75
287.444	84.75
287.675	89.75
287.906	88.75
288.138	90.75
288.369	88.75
288.6	92.75
288.831	75.75
289.062	85.75
289.293	82.75
289.524	88.75
289.755	77.75
289.986	88.75
290.217	88.75
290.448	88.75
290.679	97.75
290.91	86.75
291.141	90.75
291.371	87.75
291.602	94.75
291.833	88.75
292.064	90.75
292.295	102.75
292.526	102.75
292.757	102.75
292.987	92.75
293.218	87.75
293.449	81.75
293.68	82.75
293.91	92.75
294.141	83.75
294.372	92.75
294.603	98.75
294.833	84.75
295.064	73.75
295.295	93.75
295.525	82.75
295.756	96.75
295.987	100.75
296.217	126.75
296.448	114.75
296.679	104.75
296.909	83.75
297.14	74.75
297.37	75.75
297.601	99.75
297.831	94.75
298.062	98.75
298.292	91.75
298.523	89.75
298.753	92.75
298.984	80.75
299.214	101.75
299.445	80.75
299.675	86.75
299.905	90.75
300.136	81.75
300.366	106.75
300.597	95.75
300.827	95.75
301.057	91.75
301.288	99.75
301.518	92.75
301.748	89.75
301.979	115.75
302.209	94.75
302.439	86.75
302.669	91.75
302.9	100.75
303.13	93.75
303.36	86.75
303.59	92.75
303.82	102.75
304.051	100.75
304.281	100.75
304.511	97.75
304.741	98.75
304.971	88.75
305.201	86.75
305.431	100.75
305.661	90.75
305.891	88.75
306.121	88.75
306.352	92.75
306.582	87.75
306.812	90.75
307.042	79.75
307.272	90.75
307.502	94.75
307.731	98.75
307.961	96.75
308.191	91.75
308.421	95.75
308.651	79.75
308.881	79.75
309.111	98.75
309.341	94.75
309.571	83.75
309.8	92.75
310.03	95.75
310.26	103.75
310.49	86.75
310.72	87.75
310.949	100.75
311.179	93.75
311.409	90.75
311.639	101.75
311.868	73.75
312.098	87.75
312.328	94.75
312.557	103.75
312.787	116.75
313.017	110.75
313.246	96.75
313.476	83.75
313.706	103.75
313.935	88.75
314.165	100.75
314.394	87.75
314.624	92.75
314.853	93.75
315.083	94.75
315.312	93.75
315.542	92.75
315.771	88.75
316.001	76.75
316.23	97.75
316.46	93.75
316.689	90.75
316.919	87.75
317.148	112.75
317.377	95.75
317.607	90.75
317.836	109.75
318.065	97.75
318.295	100.75
318.524	91.75
318.753	95.75
318.983	90.75
319.212	91.75
319.441	98.75
319.67	101.75
319.9	86.75
320.129	103.75
320.358	90.75
320.587	106.75
320.816	101.75
321.046	83.75
321.275	96.75
321.504	106.75
321.733	88.75
321.962	94.75
322.191	101.75
322.42	109.75
322.649	110.75
322.878	110.75
323.108	109.75
323.337	117.75
323.566	118.75
323.795	132.75
324.024	166.75
324.253	286.75
324.482	564.75
324.71	1170.75
324.939	1546.75
325.168	598.75
325.397	177.75
325.626	129.75
325.855	119.75
326.084	118.75
326.313	114.75
326.542	141.75
326.77	191.75
326.999	343.75
327.228	686.75
327.457	1222.75
327.686	986.75
327.914	296.75
328.143	164.75
328.372	126.75
328.6	112.75
328.829	105.75
329.058	103.75
329.287	117.75
329.515	107.75
329.744	103.75
329.972	106.75
330.201	95.75
330.43	120.75
330.658	108.75
330.887	113.75
331.115	112.75
331.344	98.75
331.572	100.75
331.801	95.75
332.03	92.75
332.258	98.75
332.486	95.75
332.715	91.75
332.943	97.75
333.172	106.75
333.4	93.75
333.629	98.75
333.857	105.75
334.085	89.75
334.314	102.75
334.542	103.75
334.771	118.75
334.999	100.75
335.227	76.75
335.455	70.75
335.684	83.75
335.912	103.75
336.14	103.75
336.369	101.75
336.597	102.75
336.825	95.75
337.053	90.75
337.281	86.75
337.51	86.75
337.738	88.75
337.966	92.75
338.194	90.75
338.422	93.75
338.65	100.75
338.878	90.75
339.106	92.75
339.334	94.75
339.562	87.75
339.79	103.75
340.018	78.75
340.246	87.75
340.474	94.75
340.702	88.75
340.93	93.75
341.158	88.75
341.386	86.75
341.614	113.75
341.842	91.75
342.07	86.75
342.298	96.75
342.526	78.75
342.754	88.75
342.981	81.75
343.209	103.75
343.437	100.75
343.665	88.75
343.893	90.75
344.12	101.75
344.348	94.75
344.576	90.75
344.804	80.75
345.031	91.75
345.259	93.75
345.487	94.75
345.714	85.75
345.942	91.75
346.17	86.75
346.397	92.75
346.625	91.75
346.853	89.75
347.08	80.75
347.308	86.75
347.535	98.75
347.763	103.75
347.99	101.75
348.218	86.75
348.445	92.75
348.673	95.75
348.9	90.75
349.128	95.75
349.355	98.75
349.583	101.75
349.81	83.75
350.037	90.75
350.265	71.75
350.492	84.75
350.72	89.75
350.947	100.75
351.174	100.75
351.402	121.75
351.629	116.75
351.856	105.75
352.083	99.75
352.311	96.75
352.538	101.75
352.765	103.75
352.992	98.75
353.22	108.75
353.447	104.75
353.674	102.75
353.901	90.75
354.128	109.75
354.355	91.75
354.583	101.75
354.81	95.75
355.037	96.75
355.264	109.75
355.491	104.75
355.718	99.75
355.945	90.75
356.172	103.75
356.399	100.75
356.626	100.75
356.853	105.75
357.08	112.75
357.307	112.75
357.534	106.75
357.761	100.75
357.988	108.75
358.215	117.75
358.441	122.75
358.668	127.75
358.895	106.75
359.122	116.75
359.349	102.75
359.576	94.75
359.802	102.75
360.029	95.75
360.256	110.75
360.483	89.75
360.709	91.75
360.936	101.75
361.163	93.75
361.39	103.75
361.616	110.75
361.843	96.75
362.07	93.75
362.296	86.75
362.523	101.75
362.749	82.75
362.976	96.75
363.203	95.75
363.429	101.75
363.656	97.75
363.882	94.75
364.109	86.75
364.335	89.75
364.562	103.75
364.788	108.75
365.015	102.75
365.241	90.75
365.468	108.75
365.694	110.75
365.92	106.75
366.147	98.75
366.373	100.75
366.599	67.75
366.826	93.75
367.052	96.75
367.278	90.75
367.505	88.75
367.731	106.75
367.957	84.75
368.184	100.75
368.41	90.75
368.636	99.75
368.862	111.75
369.089	105.75
369.315	82.75
369.541	93.75
369.767	88.75
369.993	96.75
370.219	91.75
370.445	97.75
370.672	90.75
370.898	101.75
371.124	99.75
371.35	104.75
371.576	100.75
371.802	102.75
372.028	102.75
372.254	91.75
372.48	103.75
372.706	89.75
372.932	84.75
373.158	94.75
373.384	108.75
373.61	103.75
373.835	106.75
374.061	108.75
374.287	105.75
374.513	106.75
374.739	105.75
374.965	116.75
375.191	98.75
375.416	113.75
375.642	109.75
375.868	114.75
376.094	97.75
376.319	78.75
376.545	110.75
376.771	96.75
376.997	90.75
377.222	107.75
377.448	107.75
377.674	94.75
377.899	107.75
378.125	93.75
378.35	101.75
378.576	104.75
378.802	95.75
379.027	123.75
379.253	107.75
379.478	106.75
379.704	100.75
379.929	109.75
380.155	116.75
380.38	104.75
380.606	119.75
380.831	109.75
381.057	111.75
381.282	118.75
381.507	135.75
381.733	120.75
381.958	112.75
382.184	122.75
382.409	116.75
382.634	125.75
382.86	132.75
383.085	133.75
383.31	126.75
383.535	125.75
383.761	131.75
383.986	131.75
384.211	131.75
384.436	135.75
384.662	166.75
384.887	146.75
385.112	168.75
385.337	148.75
385.562	168.75
385.787	166.75
386.013	156.75
386.238	162.75
386.463	151.75
386.688	168.75
386.913	172.75
387.138	164.75
387.363	149.75
387.588	140.75
387.813	136.75
388.038	168.75
388.263	198.75
388.488	180.75
388.713	123.75
388.938	88.75
389.163	98.75
389.387	109.75
389.612	94.75
389.837	90.75
390.062	93.75
390.287	107.75
390.512	96.75
390.736	90.75
390.961	84.75
391.186	91.75
391.411	97.75
391.636	84.75
391.86	95.75
392.085	84.75
392.31	92.75
392.534	77.75
392.759	89.75
392.984	98.75
393.208	108.75
393.433	101.75
393.658	99.75
393.882	93.75
394.107	91.75
394.331	84.75
394.556	96.75
394.78	84.75
395.005	95.75
395.229	82.75
395.454	85.75
395.678	92.75
395.903	90.75
396.127	76.75
396.352	100.75
396.576	88.75
396.801	89.75
397.025	110.75
397.249	86.75
397.474	97.75
397.698	90.75
397.922	84.75
398.147	92.75
398.371	82.75
398.595	93.75
398.82	85.75
399.044	78.75
399.268	86.75
399.492	86.75
399.717	74.75
399.941	92.75
400.165	86.75
400.389	96.75
400.613	86.75
400.837	91.75
401.062	105.75
401.286	94.75
401.51	84.75
401.734	72.75
401.958	95.75
402.182	112.75
402.406	134.75
402.63	109.75
402.854	98.75
403.078	87.75
403.302	88.75
403.526	82.75
403.75	87.75
403.974	100.75
404.198	91.75
404.422	104.75
404.645	78.75
404.869	94.75
405.093	99.75
405.317	99.75
405.541	103.75
405.765	87.75
405.988	85.75
406.212	134.75
406.436	165.75
406.66	122.75
406.883	95.75
407.107	98.75
407.331	112.75
407.555	91.75
407.778	103.75
408.002	98.75
408.226	98.75
408.449	85.75
408.673	110.75
408.896	76.75
409.12	108.75
409.344	93.75
409.567	84.75
409.791	106.75
410.014	100.75
410.238	94.75
410.461	88.75
410.685	91.75
410.908	95.75
411.132	110.75
411.355	100.75
411.578	102.75
411.802	91.75
412.025	106.75
412.249	87.75
412.472	90.75
412.695	107.75
412.919	114.75
413.142	85.75
413.365	101.75
413.589	117.75
413.812	93.75
414.035	94.75
414.258	111.75
414.482	103.75
414.705	86.75
414.928	94.75
415.151	96.75
415.374	93.75
415.597	107.75
415.821	90.75
416.044	105.75
416.267	87.75
416.49	102.75
416.713	100.75
416.936	91.75
417.159	86.75
417.382	90.75
417.605	107.75
417.828	107.75
418.051	93.75
418.274	104.75
418.497	96.75
418.72	102.75
418.943	98.75
419.166	90.75
419.389	94.75
419.611	89.75
419.834	93.75
420.057	91.75
420.28	93.75
420.503	78.75
420.726	89.75
420.948	102.75
421.171	87.75
421.394	100.75
421.617	98.75
421.839	101.75
422.062	87.75
422.285	83.75
422.507	105.75
422.73	128.75
422.953	101.75
423.175	80.75
423.398	82.75
423.621	89.75
423.843	82.75
424.066	108.75
424.288	79.75
424.511	88.75
424.733	94.75
424.956	112.75
425.178	100.75
425.401	91.75
425.623	93.75
425.846	97.75
426.068	118.75
426.291	85.75
426.513	95.75
426.735	87.75
426.958	89.75
427.18	96.75
427.402	119.75
427.625	128.75
427.847	113.75
428.069	101.75
428.292	90.75
428.514	95.75
428.736	87.75
428.958	94.75
429.181	91.75
429.403	90.75
429.625	77.75
429.847	88.75
430.069	106.75
430.292	94.75
430.514	80.75
430.736	73.75
430.958	91.75
431.18	88.75
431.402	76.75
431.624	76.75
431.846	95.75
432.068	91.75
432.29	96.75
432.512	92.75
432.734	82.75
432.956	94.75
433.178	103.75
433.4	103.75
433.622	78.75
433.844	82.75
434.066	87.75
434.287	94.75
434.509	88.75
434.731	85.75
434.953	85.75
435.175	100.75
435.397	87.75
435.618	87.75
435.84	95.75
436.062	112.75
436.284	98.75
436.505	106.75
436.727	94.75
436.949	86.75
437.17	90.75
437.392	88.75
437.614	97.75
437.835	96.75
438.057	106.75
438.278	102.75
438.5	109.75
438.721	110.75
438.943	99.75
439.165	94.75
439.386	101.75
439.608	90.75
439.829	88.75
440.05	120.75
440.272	116.75
440.493	92.75
440.715	96.75
440.936	90.75
441.158	79.75
441.379	90.75
441.6	77.75
441.822	95.75
442.043	89.75
442.264	99.75
442.486	93.75
442.707	98.75
442.928	94.75
443.149	113.75
443.371	106.75
443.592	94.75
443.813	102.75
444.034	98.75
444.255	96.75
444.476	86.75
444.698	86.75
444.919	83.75
445.14	139.75
445.361	110.75
445.582	105.75
445.803	118.75
446.024	115.75
446.245	133.75
446.466	107.75
446.687	92.75
446.908	87.75
447.129	82.75
447.35	89.75
447.571	98.75
447.792	91.75
448.013	94.75
448.234	94.75
448.455	89.75
448.675	98.75
448.896	111.75
449.117	100.75
449.338	112.75
449.559	119.75
449.779	114.75
450	98.75
450.221	82.75
450.442	86.75
450.662	105.75
450.883	103.75
451.104	88.75
451.324	79.75
451.545	90.75
451.766	85.75
451.986	89.75
452.207	103.75
452.428	95.75
452.648	86.75
452.869	102.75
453.089	104.75
453.31	96.75
453.53	84.75
453.751	92.75
453.971	91.75
454.192	100.75
454.412	106.75
454.633	86.75
454.853	74.75
455.073	70.75
455.294	88.75
455.514	95.75
455.734	91.75
455.955	89.75
456.175	94.75
456.395	87.75
456.616	77.75
456.836	85.75
457.056	91.75
457.276	84.75
457.497	90.75
457.717	83.75
457.937	94.75
458.157	102.75
458.377	98.75
458.598	96.75
458.818	113.75
459.038	129.75
459.258	109.75
459.478	109.75
459.698	95.75
459.918	82.75
460.138	95.75
460.358	77.75
460.578	103.75
460.798	87.75
461.018	74.75
461.238	90.75
461.458	87.75
461.678	84.75
461.898	80.75
462.118	86.75
462.338	82.75
462.558	94.75
462.777	84.75
462.997	80.75
463.217	90.75
463.437	87.75
463.657	79.75
463.876	98.75
464.096	88.75
464.316	80.75
464.536	98.75
464.755	84.75
464.975	94.75
465.195	127.75
465.414	114.75
465.634	91.75
465.854	85.75
466.073	96.75
466.293	79.75
466.512	86.75
466.732	82.75
466.951	91.75
467.171	86.75
467.391	96.75
467.61	90.75
467.829	86.75
468.049	86.75
468.268	107.75
468.488	92.75
468.707	82.75
468.927	86.75
469.146	89.75
469.365	82.75
469.585	94.75
469.804	93.75
470.023	95.75
470.243	95.75
470.462	89.75
470.681	85.75
470.901	83.75
471.12	90.75
471.339	93.75
471.558	102.75
471.777	90.75
471.997	92.75
472.216	102.75
472.435	116.75
472.654	103.75
472.873	77.75
473.092	98.75
473.311	94.75
473.53	94.75
473.749	87.75
473.968	94.75
474.187	92.75
474.406	99.75
474.625	92.75
474.844	89.75
475.063	80.75
475.282	89.75
475.501	93.75
475.72	91.75
475.939	96.75
476.158	92.75
476.377	82.75
476.596	86.75
476.814	104.75
477.033	90.75
477.252	89.75
477.471	100.75
477.69	85.75
477.908	87.75
478.127	94.75
478.346	85.75
478.564	82.75
478.783	89.75
479.002	101.75
479.22	96.75
479.439	99.75
479.658	104.75
479.876	104.75
480.095	83.75
480.313	106.75
480.532	97.75
480.751	87.75
480.969	113.75
481.188	146.75
481.406	122.75
481.624	102.75
481.843	93.75
482.061	94.75
482.28	103.75
482.498	103.75
482.717	101.75
482.935	102.75
483.153	99.75
483.372	99.75
483.59	92.75
483.808	95.75
484.027	106.75
484.245	80.75
484.463	88.75
484.681	109.75
484.9	101.75
485.118	105.75
485.336	102.75
485.554	112.75
485.772	103.75
485.99	103.75
486.209	115.75
486.427	101.75
486.645	114.75
486.863	111.75
487.081	95.75
487.299	110.75
487.517	108.75
487.735	91.75
487.953	89.75
488.171	106.75
488.389	76.75
488.607	102.75
488.825	88.75
489.043	90.75
489.261	85.75
489.479	104.75
489.696	93.75
489.914	93.75
490.132	99.75
490.35	92.75
490.568	91.75
490.786	102.75
491.003	106.75
491.221	97.75
491.439	102.75
491.657	99.75
491.874	83.75
492.092	79.75
492.31	86.75
492.527	92.75
492.745	93.75
492.963	84.75
493.18	87.75
493.398	94.75
493.615	88.75
493.833	87.75
494.05	100.75
494.268	106.75
494.485	87.75
494.703	100.75
494.92	93.75
495.138	93.75
495.355	98.75
495.573	93.75
495.79	88.75
496.008	99.75
496.225	91.75
496.442	88.75
496.66	101.75
496.877	92.75
497.094	104.75
497.312	94.75
497.529	93.75
497.746	92.75
497.963	91.75
498.181	102.75
498.398	100.75
498.615	110.75
498.832	107.75
499.049	91.75
499.267	89.75
499.484	87.75
499.701	92.75
499.918	94.75
500.135	91.75
500.352	102.75
500.569	87.75
500.786	100.75
501.003	87.75
501.22	92.75
501.437	101.75
501.654	86.75
501.871	94.75
502.088	80.75
502.305	104.75
502.522	100.75
502.739	78.75
502.956	86.75
503.172	78.75
503.389	91.75
503.606	98.75
503.823	93.75
504.04	98.75
504.256	107.75
504.473	103.75
504.69	87.75
504.907	99.75
505.123	83.75
505.34	89.75
505.557	99.75
505.773	92.75
505.99	94.75
506.207	90.75
506.423	88.75
506.64	104.75
506.856	82.75
507.073	95.75
507.289	90.75
507.506	85.75
507.722	99.75
507.939	102.75
508.155	94.75
508.372	103.75
508.588	100.75
508.805	95.75
509.021	92.75
509.238	100.75
509.454	106.75
509.67	100.75
509.887	108.75
510.103	119.75
510.319	157.75
510.536	501.75
510.752	1444.75
510.968	406.75
511.184	126.75
511.401	104.75
511.617	90.75
511.833	100.75
512.049	90.75
512.265	79.75
512.481	94.75
512.698	76.75
512.914	85.75
513.13	92.75
513.346	88.75
513.562	102.75
513.778	100.75
513.994	94.75
514.21	95.75
514.426	111.75
