Data from Uncirc_1980_H10_HRD10591_00010.txt Node
Date: Wed Jan 03 12:36:57 EST 2024
User: Yrep
Spectrometer: HR+D1059
Trigger mode: 1
Integration Time (sec): 1.000000E-1
Scans to average: 1
Electric dark correction enabled: true
Nonlinearity correction enabled: false
Boxcar width: 0
XAxis mode: Wavelengths
Number of Pixels in Spectrum: 2048
>>>>>Begin Spectral Data<<<<<
223.165	-6.06
223.4	-6.06
223.635	-6.06
223.869	-29.06
224.104	-24.06
224.338	-23.06
224.573	-9.06
224.808	-18.06
225.042	7.94
225.277	4.94
225.511	5.94
225.746	7.94
225.98	-6.06
226.215	0.94
226.449	17.94
226.683	15.94
226.918	22.94
227.152	30.94
227.387	31.94
227.621	34.94
227.856	42.94
228.09	46.94
228.324	40.94
228.559	52.94
228.793	73.94
229.027	61.94
229.262	61.94
229.496	70.94
229.73	91.94
229.964	69.94
230.199	66.94
230.433	79.94
230.667	78.94
230.901	72.94
231.136	77.94
231.37	77.94
231.604	73.94
231.838	86.94
232.072	87.94
232.306	86.94
232.541	79.94
232.775	76.94
233.009	71.94
233.243	86.94
233.477	73.94
233.711	84.94
233.945	74.94
234.179	91.94
234.413	87.94
234.647	87.94
234.881	93.94
235.115	77.94
235.349	95.94
235.583	80.94
235.817	91.94
236.051	80.94
236.285	84.94
236.519	86.94
236.753	81.94
236.987	84.94
237.221	83.94
237.455	85.94
237.689	78.94
237.922	70.94
238.156	87.94
238.39	80.94
238.624	72.94
238.858	77.94
239.091	71.94
239.325	86.94
239.559	75.94
239.793	82.94
240.027	92.94
240.26	67.94
240.494	75.94
240.728	87.94
240.961	76.94
241.195	78.94
241.429	68.94
241.662	77.94
241.896	67.94
242.13	73.94
242.363	87.94
242.597	89.94
242.83	73.94
243.064	87.94
243.298	76.94
243.531	76.94
243.765	82.94
243.998	82.94
244.232	80.94
244.465	80.94
244.699	84.94
244.932	84.94
245.166	70.94
245.399	88.94
245.633	85.94
245.866	92.94
246.099	70.94
246.333	68.94
246.566	70.94
246.8	73.94
247.033	74.94
247.266	90.94
247.5	75.94
247.733	73.94
247.966	87.94
248.2	77.94
248.433	76.94
248.666	71.94
248.899	89.94
249.133	78.94
249.366	75.94
249.599	75.94
249.832	85.94
250.066	81.94
250.299	88.94
250.532	83.94
250.765	69.94
250.998	71.94
251.231	82.94
251.465	97.94
251.698	84.94
251.931	96.94
252.164	67.94
252.397	84.94
252.63	82.94
252.863	89.94
253.096	79.94
253.329	77.94
253.562	74.94
253.795	91.94
254.028	86.94
254.261	84.94
254.494	82.94
254.727	76.94
254.96	79.94
255.193	79.94
255.426	90.94
255.659	79.94
255.892	72.94
256.124	91.94
256.357	75.94
256.59	82.94
256.823	98.94
257.056	80.94
257.289	71.94
257.521	85.94
257.754	83.94
257.987	78.94
258.22	77.94
258.452	73.94
258.685	87.94
258.918	73.94
259.151	88.94
259.383	91.94
259.616	75.94
259.849	90.94
260.081	90.94
260.314	90.94
260.547	85.94
260.779	89.94
261.012	90.94
261.244	81.94
261.477	75.94
261.71	97.94
261.942	89.94
262.175	107.94
262.407	74.94
262.64	74.94
262.872	95.94
263.105	84.94
263.337	82.94
263.57	78.94
263.802	91.94
264.035	86.94
264.267	92.94
264.499	91.94
264.732	85.94
264.964	66.94
265.197	84.94
265.429	74.94
265.661	73.94
265.894	83.94
266.126	102.94
266.358	99.94
266.591	82.94
266.823	79.94
267.055	71.94
267.287	82.94
267.52	90.94
267.752	81.94
267.984	75.94
268.216	86.94
268.448	82.94
268.681	100.94
268.913	68.94
269.145	92.94
269.377	97.94
269.609	83.94
269.841	84.94
270.073	83.94
270.306	87.94
270.538	76.94
270.77	86.94
271.002	79.94
271.234	66.94
271.466	98.94
271.698	107.94
271.93	88.94
272.162	84.94
272.394	87.94
272.626	90.94
272.858	87.94
273.09	79.94
273.322	87.94
273.553	75.94
273.785	90.94
274.017	71.94
274.249	82.94
274.481	67.94
274.713	84.94
274.945	95.94
275.176	85.94
275.408	92.94
275.64	93.94
275.872	93.94
276.104	88.94
276.335	90.94
276.567	103.94
276.799	108.94
277.031	105.94
277.262	98.94
277.494	88.94
277.726	82.94
277.957	82.94
278.189	72.94
278.421	87.94
278.652	79.94
278.884	82.94
279.115	70.94
279.347	82.94
279.579	94.94
279.81	82.94
280.042	89.94
280.273	90.94
280.505	83.94
280.736	77.94
280.968	86.94
281.199	70.94
281.431	68.94
281.662	76.94
281.894	94.94
282.125	100.94
282.356	103.94
282.588	136.94
282.819	100.94
283.051	73.94
283.282	88.94
283.513	96.94
283.745	84.94
283.976	72.94
284.207	94.94
284.439	86.94
284.67	85.94
284.901	90.94
285.132	93.94
285.364	89.94
285.595	93.94
285.826	88.94
286.057	84.94
286.288	97.94
286.52	108.94
286.751	98.94
286.982	83.94
287.213	70.94
287.444	86.94
287.675	88.94
287.906	103.94
288.138	85.94
288.369	98.94
288.6	79.94
288.831	97.94
289.062	95.94
289.293	100.94
289.524	83.94
289.755	78.94
289.986	81.94
290.217	82.94
290.448	78.94
290.679	86.94
290.91	79.94
291.141	90.94
291.371	88.94
291.602	97.94
291.833	85.94
292.064	82.94
292.295	89.94
292.526	87.94
292.757	89.94
292.987	96.94
293.218	86.94
293.449	87.94
293.68	77.94
293.91	92.94
294.141	91.94
294.372	88.94
294.603	92.94
294.833	108.94
295.064	79.94
295.295	83.94
295.525	84.94
295.756	88.94
295.987	102.94
296.217	136.94
296.448	106.94
296.679	82.94
296.909	97.94
297.14	89.94
297.37	100.94
297.601	94.94
297.831	94.94
298.062	95.94
298.292	91.94
298.523	89.94
298.753	107.94
298.984	91.94
299.214	75.94
299.445	89.94
299.675	92.94
299.905	91.94
300.136	84.94
300.366	78.94
300.597	93.94
300.827	88.94
301.057	95.94
301.288	96.94
301.518	105.94
301.748	104.94
301.979	107.94
302.209	95.94
302.439	69.94
302.669	106.94
302.9	80.94
303.13	89.94
303.36	80.94
303.59	93.94
303.82	109.94
304.051	100.94
304.281	98.94
304.511	111.94
304.741	90.94
304.971	72.94
305.201	95.94
305.431	109.94
305.661	95.94
305.891	84.94
306.121	79.94
306.352	100.94
306.582	103.94
306.812	111.94
307.042	88.94
307.272	89.94
307.502	103.94
307.731	88.94
307.961	94.94
308.191	76.94
308.421	83.94
308.651	96.94
308.881	97.94
309.111	98.94
309.341	95.94
309.571	96.94
309.8	88.94
310.03	112.94
310.26	99.94
310.49	77.94
310.72	90.94
310.949	98.94
311.179	106.94
311.409	85.94
311.639	89.94
311.868	103.94
312.098	106.94
312.328	99.94
312.557	93.94
312.787	117.94
313.017	110.94
313.246	85.94
313.476	90.94
313.706	83.94
313.935	84.94
314.165	88.94
314.394	94.94
314.624	96.94
314.853	96.94
315.083	100.94
315.312	98.94
315.542	85.94
315.771	99.94
316.001	83.94
316.23	88.94
316.46	91.94
316.689	92.94
316.919	95.94
317.148	96.94
317.377	107.94
317.607	92.94
317.836	91.94
318.065	81.94
318.295	95.94
318.524	72.94
318.753	93.94
318.983	89.94
319.212	100.94
319.441	107.94
319.67	92.94
319.9	103.94
320.129	79.94
320.358	91.94
320.587	85.94
320.816	97.94
321.046	94.94
321.275	99.94
321.504	92.94
321.733	103.94
321.962	108.94
322.191	98.94
322.42	102.94
322.649	108.94
322.878	97.94
323.108	94.94
323.337	103.94
323.566	127.94
323.795	150.94
324.024	178.94
324.253	311.94
324.482	670.94
324.71	1399.94
324.939	1840.94
325.168	685.94
325.397	222.94
325.626	142.94
325.855	132.94
326.084	122.94
326.313	126.94
326.542	134.94
326.77	198.94
326.999	396.94
327.228	760.94
327.457	1400.94
327.686	1139.94
327.914	320.94
328.143	175.94
328.372	148.94
328.6	115.94
328.829	119.94
329.058	130.94
329.287	128.94
329.515	106.94
329.744	106.94
329.972	107.94
330.201	103.94
330.43	118.94
330.658	110.94
330.887	137.94
331.115	120.94
331.344	101.94
331.572	111.94
331.801	88.94
332.03	91.94
332.258	102.94
332.486	91.94
332.715	96.94
332.943	105.94
333.172	100.94
333.4	75.94
333.629	82.94
333.857	104.94
334.085	119.94
334.314	108.94
334.542	121.94
334.771	123.94
334.999	101.94
335.227	92.94
335.455	95.94
335.684	121.94
335.912	92.94
336.14	96.94
336.369	109.94
336.597	99.94
336.825	93.94
337.053	109.94
337.281	112.94
337.51	82.94
337.738	104.94
337.966	99.94
338.194	64.94
338.422	88.94
338.65	85.94
338.878	102.94
339.106	97.94
339.334	94.94
339.562	94.94
339.79	105.94
340.018	83.94
340.246	80.94
340.474	103.94
340.702	86.94
340.93	97.94
341.158	92.94
341.386	105.94
341.614	79.94
341.842	104.94
342.07	93.94
342.298	82.94
342.526	84.94
342.754	104.94
342.981	84.94
343.209	96.94
343.437	108.94
343.665	94.94
343.893	73.94
344.12	94.94
344.348	89.94
344.576	111.94
344.804	104.94
345.031	80.94
345.259	106.94
345.487	92.94
345.714	91.94
345.942	90.94
346.17	95.94
346.397	82.94
346.625	91.94
346.853	83.94
347.08	89.94
347.308	94.94
347.535	98.94
347.763	111.94
347.99	106.94
348.218	102.94
348.445	80.94
348.673	105.94
348.9	90.94
349.128	103.94
349.355	88.94
349.583	106.94
349.81	96.94
350.037	92.94
350.265	90.94
350.492	110.94
350.72	92.94
350.947	78.94
351.174	109.94
351.402	105.94
351.629	104.94
351.856	96.94
352.083	101.94
352.311	109.94
352.538	114.94
352.765	112.94
352.992	118.94
353.22	99.94
353.447	102.94
353.674	103.94
353.901	100.94
354.128	100.94
354.355	86.94
354.583	77.94
354.81	104.94
355.037	102.94
355.264	100.94
355.491	97.94
355.718	92.94
355.945	95.94
356.172	91.94
356.399	108.94
356.626	106.94
356.853	107.94
357.08	92.94
357.307	113.94
357.534	102.94
357.761	112.94
357.988	105.94
358.215	107.94
358.441	116.94
358.668	99.94
358.895	115.94
359.122	100.94
359.349	92.94
359.576	102.94
359.802	103.94
360.029	97.94
360.256	98.94
360.483	97.94
360.709	83.94
360.936	94.94
361.163	87.94
361.39	103.94
361.616	90.94
361.843	92.94
362.07	106.94
362.296	90.94
362.523	94.94
362.749	88.94
362.976	83.94
363.203	78.94
363.429	95.94
363.656	95.94
363.882	84.94
364.109	77.94
364.335	79.94
364.562	81.94
364.788	94.94
365.015	95.94
365.241	100.94
365.468	103.94
365.694	98.94
365.92	94.94
366.147	86.94
366.373	82.94
366.599	91.94
366.826	93.94
367.052	75.94
367.278	89.94
367.505	99.94
367.731	88.94
367.957	91.94
368.184	100.94
368.41	94.94
368.636	102.94
368.862	105.94
369.089	111.94
369.315	93.94
369.541	108.94
369.767	86.94
369.993	90.94
370.219	100.94
370.445	82.94
370.672	79.94
370.898	96.94
371.124	95.94
371.35	83.94
371.576	83.94
371.802	110.94
372.028	90.94
372.254	94.94
372.48	92.94
372.706	99.94
372.932	87.94
373.158	105.94
373.384	108.94
373.61	111.94
373.835	84.94
374.061	95.94
374.287	104.94
374.513	77.94
374.739	78.94
374.965	83.94
375.191	98.94
375.416	95.94
375.642	100.94
375.868	100.94
376.094	95.94
376.319	80.94
376.545	94.94
376.771	90.94
376.997	88.94
377.222	98.94
377.448	96.94
377.674	101.94
377.899	99.94
378.125	93.94
378.35	110.94
378.576	110.94
378.802	83.94
379.027	110.94
379.253	115.94
379.478	95.94
379.704	91.94
379.929	76.94
380.155	99.94
380.38	104.94
380.606	109.94
380.831	98.94
381.057	98.94
381.282	111.94
381.507	96.94
381.733	109.94
381.958	125.94
382.184	112.94
382.409	135.94
382.634	109.94
382.86	106.94
383.085	120.94
383.31	113.94
383.535	121.94
383.761	124.94
383.986	122.94
384.211	102.94
384.436	124.94
384.662	131.94
384.887	126.94
385.112	152.94
385.337	133.94
385.562	140.94
385.787	127.94
386.013	151.94
386.238	140.94
386.463	125.94
386.688	135.94
386.913	128.94
387.138	129.94
387.363	128.94
387.588	140.94
387.813	118.94
388.038	140.94
388.263	170.94
388.488	168.94
388.713	103.94
388.938	112.94
389.163	90.94
389.387	83.94
389.612	106.94
389.837	94.94
390.062	110.94
390.287	77.94
390.512	94.94
390.736	93.94
390.961	89.94
391.186	90.94
391.411	98.94
391.636	104.94
391.86	83.94
392.085	87.94
392.31	86.94
392.534	87.94
392.759	88.94
392.984	95.94
393.208	79.94
393.433	110.94
393.658	93.94
393.882	84.94
394.107	88.94
394.331	77.94
394.556	100.94
394.78	94.94
395.005	99.94
395.229	92.94
395.454	88.94
395.678	91.94
395.903	83.94
396.127	79.94
396.352	98.94
396.576	86.94
396.801	87.94
397.025	108.94
397.249	89.94
397.474	97.94
397.698	91.94
397.922	84.94
398.147	84.94
398.371	105.94
398.595	92.94
398.82	93.94
399.044	107.94
399.268	89.94
399.492	93.94
399.717	87.94
399.941	93.94
400.165	78.94
400.389	79.94
400.613	96.94
400.837	78.94
401.062	94.94
401.286	95.94
401.51	93.94
401.734	85.94
401.958	105.94
402.182	119.94
402.406	142.94
402.63	116.94
402.854	107.94
403.078	76.94
403.302	94.94
403.526	105.94
403.75	98.94
403.974	83.94
404.198	93.94
404.422	79.94
404.645	95.94
404.869	107.94
405.093	95.94
405.317	94.94
405.541	94.94
405.765	103.94
405.988	103.94
406.212	142.94
406.436	189.94
406.66	128.94
406.883	97.94
407.107	88.94
407.331	106.94
407.555	101.94
407.778	97.94
408.002	90.94
408.226	105.94
408.449	88.94
408.673	96.94
408.896	94.94
409.12	104.94
409.344	83.94
409.567	91.94
409.791	90.94
410.014	100.94
410.238	98.94
410.461	95.94
410.685	89.94
410.908	98.94
411.132	110.94
411.355	95.94
411.578	94.94
411.802	106.94
412.025	77.94
412.249	90.94
412.472	92.94
412.695	98.94
412.919	82.94
413.142	86.94
413.365	94.94
413.589	94.94
413.812	88.94
414.035	94.94
414.258	98.94
414.482	102.94
414.705	96.94
414.928	95.94
415.151	98.94
415.374	109.94
415.597	87.94
415.821	92.94
416.044	84.94
416.267	101.94
416.49	100.94
416.713	94.94
416.936	103.94
417.159	97.94
417.382	98.94
417.605	112.94
417.828	114.94
418.051	102.94
418.274	94.94
418.497	89.94
418.72	96.94
418.943	89.94
419.166	92.94
419.389	99.94
419.611	83.94
419.834	94.94
420.057	106.94
420.28	97.94
420.503	90.94
420.726	74.94
420.948	90.94
421.171	87.94
421.394	94.94
421.617	105.94
421.839	95.94
422.062	77.94
422.285	90.94
422.507	100.94
422.73	103.94
422.953	104.94
423.175	94.94
423.398	96.94
423.621	89.94
423.843	75.94
424.066	78.94
424.288	94.94
424.511	86.94
424.733	96.94
424.956	112.94
425.178	114.94
425.401	100.94
425.623	96.94
425.846	93.94
426.068	106.94
426.291	86.94
426.513	97.94
426.735	90.94
426.958	85.94
427.18	100.94
427.402	126.94
427.625	139.94
427.847	117.94
428.069	119.94
428.292	96.94
428.514	80.94
428.736	75.94
428.958	84.94
429.181	101.94
429.403	92.94
429.625	77.94
429.847	79.94
430.069	102.94
430.292	92.94
430.514	90.94
430.736	102.94
430.958	84.94
431.18	90.94
431.402	74.94
431.624	89.94
431.846	90.94
432.068	90.94
432.29	80.94
432.512	100.94
432.734	101.94
432.956	86.94
433.178	99.94
433.4	104.94
433.622	100.94
433.844	82.94
434.066	98.94
434.287	94.94
434.509	87.94
434.731	77.94
434.953	91.94
435.175	66.94
435.397	95.94
435.618	100.94
435.84	116.94
436.062	122.94
436.284	105.94
436.505	103.94
436.727	111.94
436.949	98.94
437.17	93.94
437.392	83.94
437.614	80.94
437.835	88.94
438.057	112.94
438.278	107.94
438.5	110.94
438.721	120.94
438.943	95.94
439.165	87.94
439.386	77.94
439.608	82.94
439.829	90.94
440.05	123.94
440.272	126.94
440.493	97.94
440.715	99.94
440.936	93.94
441.158	84.94
441.379	87.94
441.6	75.94
441.822	84.94
442.043	90.94
442.264	96.94
442.486	107.94
442.707	91.94
442.928	98.94
443.149	129.94
443.371	120.94
443.592	110.94
443.813	106.94
444.034	99.94
444.255	91.94
444.476	68.94
444.698	90.94
444.919	91.94
445.14	129.94
445.361	139.94
445.582	103.94
445.803	125.94
446.024	125.94
446.245	134.94
446.466	103.94
446.687	94.94
446.908	91.94
447.129	91.94
447.35	89.94
447.571	77.94
447.792	84.94
448.013	94.94
448.234	94.94
448.455	106.94
448.675	113.94
448.896	124.94
449.117	92.94
449.338	104.94
449.559	116.94
449.779	134.94
450	95.94
450.221	99.94
450.442	85.94
450.662	90.94
450.883	102.94
451.104	95.94
451.324	101.94
451.545	96.94
451.766	83.94
451.986	79.94
452.207	95.94
452.428	84.94
452.648	103.94
452.869	112.94
453.089	112.94
453.31	105.94
453.53	90.94
453.751	92.94
453.971	101.94
454.192	102.94
454.412	92.94
454.633	78.94
454.853	88.94
455.073	90.94
455.294	96.94
455.514	89.94
455.734	95.94
455.955	91.94
456.175	87.94
456.395	77.94
456.616	85.94
456.836	79.94
457.056	90.94
457.276	104.94
457.497	91.94
457.717	87.94
457.937	91.94
458.157	105.94
458.377	84.94
458.598	100.94
458.818	126.94
459.038	151.94
459.258	110.94
459.478	86.94
459.698	89.94
459.918	92.94
460.138	76.94
460.358	106.94
460.578	78.94
460.798	94.94
461.018	82.94
461.238	102.94
461.458	96.94
461.678	79.94
461.898	84.94
462.118	93.94
462.338	103.94
462.558	87.94
462.777	82.94
462.997	82.94
463.217	96.94
463.437	92.94
463.657	89.94
463.876	99.94
464.096	86.94
464.316	84.94
464.536	86.94
464.755	103.94
464.975	102.94
465.195	162.94
465.414	150.94
465.634	98.94
465.854	74.94
466.073	80.94
466.293	100.94
466.512	98.94
466.732	86.94
466.951	85.94
467.171	104.94
467.391	88.94
467.61	118.94
467.829	92.94
468.049	90.94
468.268	100.94
468.488	90.94
468.707	87.94
468.927	88.94
469.146	86.94
469.365	98.94
469.585	76.94
469.804	85.94
470.023	111.94
470.243	87.94
470.462	82.94
470.681	104.94
470.901	86.94
471.12	88.94
471.339	82.94
471.558	94.94
471.777	99.94
471.997	82.94
472.216	120.94
472.435	127.94
472.654	99.94
472.873	84.94
473.092	95.94
473.311	94.94
473.53	69.94
473.749	86.94
473.968	105.94
474.187	105.94
474.406	100.94
474.625	82.94
474.844	83.94
475.063	87.94
475.282	90.94
475.501	74.94
475.72	91.94
475.939	95.94
476.158	97.94
476.377	85.94
476.596	102.94
476.814	91.94
477.033	92.94
477.252	101.94
477.471	82.94
477.69	85.94
477.908	99.94
478.127	93.94
478.346	94.94
478.564	98.94
478.783	92.94
479.002	93.94
479.22	92.94
479.439	93.94
479.658	98.94
479.876	107.94
480.095	83.94
480.313	91.94
480.532	92.94
480.751	95.94
480.969	107.94
481.188	191.94
481.406	139.94
481.624	103.94
481.843	95.94
482.061	103.94
482.28	84.94
482.498	82.94
482.717	85.94
482.935	86.94
483.153	94.94
483.372	99.94
483.59	89.94
483.808	100.94
484.027	92.94
484.245	91.94
484.463	103.94
484.681	99.94
484.9	96.94
485.118	88.94
485.336	110.94
485.554	94.94
485.772	101.94
485.99	109.94
486.209	101.94
486.427	111.94
486.645	117.94
486.863	114.94
487.081	99.94
487.299	106.94
487.517	88.94
487.735	84.94
487.953	86.94
488.171	83.94
488.389	95.94
488.607	106.94
488.825	91.94
489.043	86.94
489.261	91.94
489.479	106.94
489.696	99.94
489.914	80.94
490.132	80.94
490.35	101.94
490.568	84.94
490.786	94.94
491.003	86.94
491.221	85.94
491.439	95.94
491.657	95.94
491.874	91.94
492.092	94.94
492.31	92.94
492.527	77.94
492.745	102.94
492.963	92.94
493.18	100.94
493.398	103.94
493.615	95.94
493.833	88.94
494.05	82.94
494.268	99.94
494.485	100.94
494.703	82.94
494.92	98.94
495.138	97.94
495.355	90.94
495.573	91.94
495.79	97.94
496.008	110.94
496.225	90.94
496.442	83.94
496.66	102.94
496.877	94.94
497.094	86.94
497.312	90.94
497.529	98.94
497.746	93.94
497.963	99.94
498.181	100.94
498.398	100.94
498.615	120.94
498.832	94.94
499.049	91.94
499.267	83.94
499.484	83.94
499.701	94.94
499.918	94.94
500.135	92.94
500.352	92.94
500.569	83.94
500.786	95.94
501.003	98.94
501.22	98.94
501.437	98.94
501.654	99.94
501.871	93.94
502.088	85.94
502.305	99.94
502.522	99.94
502.739	100.94
502.956	91.94
503.172	92.94
503.389	96.94
503.606	104.94
503.823	107.94
504.04	99.94
504.256	95.94
504.473	89.94
504.69	89.94
504.907	103.94
505.123	86.94
505.34	85.94
505.557	94.94
505.773	85.94
505.99	90.94
506.207	87.94
506.423	104.94
506.64	94.94
506.856	90.94
507.073	93.94
507.289	86.94
507.506	87.94
507.722	112.94
507.939	105.94
508.155	92.94
508.372	99.94
508.588	104.94
508.805	96.94
509.021	93.94
509.238	92.94
509.454	102.94
509.67	101.94
509.887	103.94
510.103	134.94
510.319	191.94
510.536	622.94
510.752	1962.94
510.968	551.94
511.184	116.94
511.401	116.94
511.617	85.94
511.833	96.94
512.049	90.94
512.265	93.94
512.481	92.94
512.698	82.94
512.914	99.94
513.13	87.94
513.346	95.94
513.562	93.94
513.778	115.94
513.994	86.94
514.21	98.94
514.426	110.94
514.642	119.94
514.858	114.94
