Data from Uncirc_1980_H10_HRD10591_00087.txt Node
Date: Wed Jan 03 12:37:12 EST 2024
User: Yrep
Spectrometer: HR+D1059
Trigger mode: 1
Integration Time (sec): 1.000000E-1
Scans to average: 1
Electric dark correction enabled: true
Nonlinearity correction enabled: false
Boxcar width: 0
XAxis mode: Wavelengths
Number of Pixels in Spectrum: 2048
>>>>>Begin Spectral Data<<<<<
223.165	-14.94
223.4	-14.94
223.635	-14.94
223.869	-15.94
224.104	-21.94
224.338	-15.94
224.573	-16.94
224.808	-17.94
225.042	-16.94
225.277	-1.94
225.511	-7.94
225.746	12.06
225.98	7.06
226.215	10.06
226.449	20.06
226.683	20.06
226.918	23.06
227.152	38.06
227.387	27.06
227.621	44.06
227.856	43.06
228.09	50.06
228.324	51.06
228.559	50.06
228.793	58.06
229.027	64.06
229.262	68.06
229.496	57.06
229.73	83.06
229.964	78.06
230.199	71.06
230.433	83.06
230.667	71.06
230.901	90.06
231.136	72.06
231.37	75.06
231.604	63.06
231.838	70.06
232.072	85.06
232.306	78.06
232.541	86.06
232.775	76.06
233.009	82.06
233.243	66.06
233.477	85.06
233.711	68.06
233.945	73.06
234.179	68.06
234.413	96.06
234.647	87.06
234.881	75.06
235.115	89.06
235.349	85.06
235.583	74.06
235.817	73.06
236.051	62.06
236.285	64.06
236.519	82.06
236.753	67.06
236.987	85.06
237.221	78.06
237.455	79.06
237.689	79.06
237.922	67.06
238.156	86.06
238.39	59.06
238.624	69.06
238.858	79.06
239.091	67.06
239.325	70.06
239.559	80.06
239.793	68.06
240.027	72.06
240.26	82.06
240.494	88.06
240.728	74.06
240.961	70.06
241.195	70.06
241.429	74.06
241.662	75.06
241.896	68.06
242.13	71.06
242.363	66.06
242.597	82.06
242.83	73.06
243.064	66.06
243.298	61.06
243.531	70.06
243.765	81.06
243.998	67.06
244.232	84.06
244.465	75.06
244.699	69.06
244.932	82.06
245.166	72.06
245.399	66.06
245.633	70.06
245.866	76.06
246.099	73.06
246.333	67.06
246.566	71.06
246.8	64.06
247.033	74.06
247.266	63.06
247.5	85.06
247.733	86.06
247.966	90.06
248.2	81.06
248.433	75.06
248.666	66.06
248.899	93.06
249.133	74.06
249.366	89.06
249.599	91.06
249.832	82.06
250.066	65.06
250.299	84.06
250.532	76.06
250.765	81.06
250.998	84.06
251.231	82.06
251.465	69.06
251.698	71.06
251.931	76.06
252.164	68.06
252.397	55.06
252.63	70.06
252.863	78.06
253.096	88.06
253.329	78.06
253.562	66.06
253.795	62.06
254.028	79.06
254.261	85.06
254.494	84.06
254.727	95.06
254.96	75.06
255.193	86.06
255.426	67.06
255.659	92.06
255.892	82.06
256.124	79.06
256.357	83.06
256.59	75.06
256.823	81.06
257.056	92.06
257.289	89.06
257.521	84.06
257.754	92.06
257.987	72.06
258.22	70.06
258.452	89.06
258.685	84.06
258.918	87.06
259.151	80.06
259.383	80.06
259.616	79.06
259.849	73.06
260.081	84.06
260.314	82.06
260.547	64.06
260.779	78.06
261.012	65.06
261.244	83.06
261.477	89.06
261.71	81.06
261.942	96.06
262.175	99.06
262.407	72.06
262.64	85.06
262.872	88.06
263.105	80.06
263.337	86.06
263.57	76.06
263.802	90.06
264.035	71.06
264.267	76.06
264.499	67.06
264.732	97.06
264.964	78.06
265.197	90.06
265.429	95.06
265.661	79.06
265.894	83.06
266.126	82.06
266.358	81.06
266.591	70.06
266.823	70.06
267.055	76.06
267.287	73.06
267.52	86.06
267.752	84.06
267.984	73.06
268.216	74.06
268.448	86.06
268.681	90.06
268.913	74.06
269.145	81.06
269.377	88.06
269.609	87.06
269.841	86.06
270.073	98.06
270.306	76.06
270.538	97.06
270.77	80.06
271.002	86.06
271.234	71.06
271.466	78.06
271.698	78.06
271.93	84.06
272.162	89.06
272.394	74.06
272.626	84.06
272.858	78.06
273.09	90.06
273.322	73.06
273.553	71.06
273.785	79.06
274.017	83.06
274.249	67.06
274.481	75.06
274.713	95.06
274.945	73.06
275.176	80.06
275.408	84.06
275.64	79.06
275.872	78.06
276.104	82.06
276.335	89.06
276.567	98.06
276.799	85.06
277.031	94.06
277.262	84.06
277.494	79.06
277.726	87.06
277.957	90.06
278.189	81.06
278.421	84.06
278.652	71.06
278.884	86.06
279.115	81.06
279.347	84.06
279.579	85.06
279.81	85.06
280.042	80.06
280.273	91.06
280.505	78.06
280.736	89.06
280.968	67.06
281.199	83.06
281.431	88.06
281.662	77.06
281.894	83.06
282.125	91.06
282.356	109.06
282.588	127.06
282.819	104.06
283.051	85.06
283.282	89.06
283.513	88.06
283.745	82.06
283.976	67.06
284.207	78.06
284.439	86.06
284.67	90.06
284.901	64.06
285.132	68.06
285.364	74.06
285.595	74.06
285.826	83.06
286.057	85.06
286.288	74.06
286.52	84.06
286.751	90.06
286.982	74.06
287.213	75.06
287.444	86.06
287.675	65.06
287.906	96.06
288.138	90.06
288.369	86.06
288.6	95.06
288.831	92.06
289.062	105.06
289.293	86.06
289.524	86.06
289.755	82.06
289.986	96.06
290.217	87.06
290.448	75.06
290.679	83.06
290.91	81.06
291.141	82.06
291.371	89.06
291.602	84.06
291.833	90.06
292.064	95.06
292.295	69.06
292.526	82.06
292.757	82.06
292.987	70.06
293.218	85.06
293.449	87.06
293.68	76.06
293.91	79.06
294.141	79.06
294.372	80.06
294.603	82.06
294.833	92.06
295.064	86.06
295.295	98.06
295.525	64.06
295.756	88.06
295.987	107.06
296.217	115.06
296.448	111.06
296.679	86.06
296.909	95.06
297.14	89.06
297.37	80.06
297.601	91.06
297.831	80.06
298.062	81.06
298.292	80.06
298.523	91.06
298.753	91.06
298.984	71.06
299.214	75.06
299.445	83.06
299.675	73.06
299.905	82.06
300.136	70.06
300.366	75.06
300.597	83.06
300.827	82.06
301.057	96.06
301.288	90.06
301.518	89.06
301.748	78.06
301.979	94.06
302.209	86.06
302.439	79.06
302.669	91.06
302.9	81.06
303.13	82.06
303.36	86.06
303.59	81.06
303.82	87.06
304.051	83.06
304.281	68.06
304.511	92.06
304.741	101.06
304.971	91.06
305.201	84.06
305.431	72.06
305.661	84.06
305.891	89.06
306.121	101.06
306.352	82.06
306.582	88.06
306.812	100.06
307.042	93.06
307.272	82.06
307.502	87.06
307.731	84.06
307.961	95.06
308.191	81.06
308.421	86.06
308.651	96.06
308.881	100.06
309.111	100.06
309.341	95.06
309.571	74.06
309.8	84.06
310.03	93.06
310.26	98.06
310.49	83.06
310.72	97.06
310.949	98.06
311.179	84.06
311.409	89.06
311.639	91.06
311.868	78.06
312.098	90.06
312.328	86.06
312.557	93.06
312.787	96.06
313.017	94.06
313.246	97.06
313.476	87.06
313.706	102.06
313.935	92.06
314.165	98.06
314.394	87.06
314.624	85.06
314.853	106.06
315.083	86.06
315.312	85.06
315.542	84.06
315.771	89.06
316.001	85.06
316.23	85.06
316.46	75.06
316.689	84.06
316.919	99.06
317.148	84.06
317.377	93.06
317.607	96.06
317.836	92.06
318.065	92.06
318.295	93.06
318.524	87.06
318.753	88.06
318.983	89.06
319.212	105.06
319.441	94.06
319.67	93.06
319.9	87.06
320.129	97.06
320.358	80.06
320.587	78.06
320.816	97.06
321.046	88.06
321.275	83.06
321.504	79.06
321.733	83.06
321.962	85.06
322.191	86.06
322.42	89.06
322.649	97.06
322.878	108.06
323.108	92.06
323.337	106.06
323.566	119.06
323.795	118.06
324.024	163.06
324.253	290.06
324.482	604.06
324.71	1210.06
324.939	1581.06
325.168	600.06
325.397	184.06
325.626	117.06
325.855	116.06
326.084	114.06
326.313	124.06
326.542	144.06
326.77	171.06
326.999	342.06
327.228	692.06
327.457	1232.06
327.686	1003.06
327.914	307.06
328.143	169.06
328.372	123.06
328.6	97.06
328.829	104.06
329.058	108.06
329.287	111.06
329.515	97.06
329.744	104.06
329.972	89.06
330.201	113.06
330.43	113.06
330.658	107.06
330.887	114.06
331.115	118.06
331.344	94.06
331.572	98.06
331.801	98.06
332.03	84.06
332.258	94.06
332.486	103.06
332.715	95.06
332.943	84.06
333.172	97.06
333.4	83.06
333.629	87.06
333.857	86.06
334.085	95.06
334.314	116.06
334.542	131.06
334.771	119.06
334.999	102.06
335.227	105.06
335.455	86.06
335.684	93.06
335.912	107.06
336.14	96.06
336.369	88.06
336.597	85.06
336.825	96.06
337.053	90.06
337.281	107.06
337.51	96.06
337.738	104.06
337.966	98.06
338.194	94.06
338.422	95.06
338.65	96.06
338.878	84.06
339.106	101.06
339.334	97.06
339.562	96.06
339.79	96.06
340.018	85.06
340.246	99.06
340.474	90.06
340.702	85.06
340.93	86.06
341.158	93.06
341.386	87.06
341.614	94.06
341.842	76.06
342.07	110.06
342.298	78.06
342.526	83.06
342.754	91.06
342.981	85.06
343.209	79.06
343.437	88.06
343.665	85.06
343.893	92.06
344.12	90.06
344.348	88.06
344.576	75.06
344.804	96.06
345.031	78.06
345.259	92.06
345.487	96.06
345.714	79.06
345.942	92.06
346.17	89.06
346.397	97.06
346.625	75.06
346.853	84.06
347.08	83.06
347.308	79.06
347.535	88.06
347.763	86.06
347.99	104.06
348.218	96.06
348.445	98.06
348.673	98.06
348.9	92.06
349.128	90.06
349.355	107.06
349.583	103.06
349.81	98.06
350.037	99.06
350.265	76.06
350.492	100.06
350.72	91.06
350.947	92.06
351.174	111.06
351.402	100.06
351.629	113.06
351.856	97.06
352.083	104.06
352.311	86.06
352.538	106.06
352.765	90.06
352.992	95.06
353.22	105.06
353.447	89.06
353.674	106.06
353.901	82.06
354.128	89.06
354.355	96.06
354.583	102.06
354.81	87.06
355.037	86.06
355.264	95.06
355.491	88.06
355.718	82.06
355.945	89.06
356.172	106.06
356.399	97.06
356.626	82.06
356.853	81.06
357.08	81.06
357.307	91.06
357.534	98.06
357.761	95.06
357.988	85.06
358.215	80.06
358.441	95.06
358.668	100.06
358.895	87.06
359.122	97.06
359.349	101.06
359.576	88.06
359.802	83.06
360.029	101.06
360.256	99.06
360.483	98.06
360.709	86.06
360.936	84.06
361.163	100.06
361.39	81.06
361.616	91.06
361.843	80.06
362.07	83.06
362.296	81.06
362.523	86.06
362.749	89.06
362.976	86.06
363.203	80.06
363.429	86.06
363.656	74.06
363.882	83.06
364.109	100.06
364.335	94.06
364.562	88.06
364.788	98.06
365.015	81.06
365.241	99.06
365.468	103.06
365.694	90.06
365.92	104.06
366.147	78.06
366.373	78.06
366.599	84.06
366.826	88.06
367.052	88.06
367.278	92.06
367.505	79.06
367.731	83.06
367.957	94.06
368.184	84.06
368.41	90.06
368.636	95.06
368.862	104.06
369.089	99.06
369.315	91.06
369.541	90.06
369.767	86.06
369.993	88.06
370.219	81.06
370.445	88.06
370.672	82.06
370.898	73.06
371.124	82.06
371.35	78.06
371.576	96.06
371.802	76.06
372.028	81.06
372.254	81.06
372.48	84.06
372.706	84.06
372.932	101.06
373.158	84.06
373.384	85.06
373.61	95.06
373.835	90.06
374.061	98.06
374.287	87.06
374.513	85.06
374.739	99.06
374.965	87.06
375.191	89.06
375.416	79.06
375.642	87.06
375.868	83.06
376.094	86.06
376.319	78.06
376.545	84.06
376.771	91.06
376.997	82.06
377.222	104.06
377.448	92.06
377.674	82.06
377.899	83.06
378.125	95.06
378.35	100.06
378.576	101.06
378.802	93.06
379.027	88.06
379.253	93.06
379.478	86.06
379.704	84.06
379.929	86.06
380.155	89.06
380.38	99.06
380.606	80.06
380.831	85.06
381.057	94.06
381.282	87.06
381.507	92.06
381.733	74.06
381.958	98.06
382.184	95.06
382.409	88.06
382.634	95.06
382.86	92.06
383.085	101.06
383.31	86.06
383.535	88.06
383.761	107.06
383.986	92.06
384.211	94.06
384.436	104.06
384.662	97.06
384.887	78.06
385.112	91.06
385.337	101.06
385.562	92.06
385.787	96.06
386.013	104.06
386.238	113.06
386.463	102.06
386.688	102.06
386.913	81.06
387.138	106.06
387.363	92.06
387.588	97.06
387.813	96.06
388.038	94.06
388.263	113.06
388.488	95.06
388.713	90.06
388.938	91.06
389.163	87.06
389.387	98.06
389.612	94.06
389.837	99.06
390.062	99.06
390.287	83.06
390.512	102.06
390.736	100.06
390.961	94.06
391.186	91.06
391.411	86.06
391.636	96.06
391.86	95.06
392.085	84.06
392.31	76.06
392.534	89.06
392.759	91.06
392.984	82.06
393.208	94.06
393.433	84.06
393.658	74.06
393.882	68.06
394.107	79.06
394.331	88.06
394.556	82.06
394.78	83.06
395.005	95.06
395.229	85.06
395.454	104.06
395.678	83.06
395.903	103.06
396.127	88.06
396.352	83.06
396.576	90.06
396.801	83.06
397.025	82.06
397.249	82.06
397.474	93.06
397.698	83.06
397.922	83.06
398.147	99.06
398.371	78.06
398.595	92.06
398.82	73.06
399.044	79.06
399.268	84.06
399.492	76.06
399.717	86.06
399.941	98.06
400.165	88.06
400.389	100.06
400.613	85.06
400.837	74.06
401.062	81.06
401.286	87.06
401.51	75.06
401.734	91.06
401.958	95.06
402.182	110.06
402.406	140.06
402.63	94.06
402.854	92.06
403.078	88.06
403.302	82.06
403.526	88.06
403.75	84.06
403.974	87.06
404.198	95.06
404.422	82.06
404.645	75.06
404.869	80.06
405.093	88.06
405.317	86.06
405.541	91.06
405.765	78.06
405.988	106.06
406.212	127.06
406.436	179.06
406.66	124.06
406.883	90.06
407.107	94.06
407.331	104.06
407.555	95.06
407.778	91.06
408.002	105.06
408.226	80.06
408.449	89.06
408.673	91.06
408.896	82.06
409.12	78.06
409.344	73.06
409.567	94.06
409.791	89.06
410.014	95.06
410.238	94.06
410.461	101.06
410.685	103.06
410.908	101.06
411.132	96.06
411.355	92.06
411.578	91.06
411.802	88.06
412.025	93.06
412.249	71.06
412.472	82.06
412.695	86.06
412.919	83.06
413.142	91.06
413.365	89.06
413.589	73.06
413.812	95.06
414.035	90.06
414.258	84.06
414.482	96.06
414.705	86.06
414.928	94.06
415.151	99.06
415.374	73.06
415.597	83.06
415.821	88.06
416.044	85.06
416.267	90.06
416.49	88.06
416.713	87.06
416.936	97.06
417.159	99.06
417.382	87.06
417.605	82.06
417.828	90.06
418.051	90.06
418.274	88.06
418.497	80.06
418.72	87.06
418.943	85.06
419.166	96.06
419.389	86.06
419.611	93.06
419.834	91.06
420.057	96.06
420.28	82.06
420.503	94.06
420.726	88.06
420.948	80.06
421.171	76.06
421.394	84.06
421.617	90.06
421.839	73.06
422.062	91.06
422.285	104.06
422.507	100.06
422.73	103.06
422.953	96.06
423.175	89.06
423.398	97.06
423.621	84.06
423.843	83.06
424.066	86.06
424.288	79.06
424.511	89.06
424.733	105.06
424.956	112.06
425.178	91.06
425.401	92.06
425.623	90.06
425.846	96.06
426.068	92.06
426.291	90.06
426.513	91.06
426.735	99.06
426.958	91.06
427.18	93.06
427.402	118.06
427.625	145.06
427.847	99.06
428.069	107.06
428.292	87.06
428.514	85.06
428.736	77.06
428.958	88.06
429.181	84.06
429.403	94.06
429.625	90.06
429.847	75.06
430.069	94.06
430.292	90.06
430.514	73.06
430.736	86.06
430.958	81.06
431.18	98.06
431.402	82.06
431.624	104.06
431.846	74.06
432.068	79.06
432.29	86.06
432.512	90.06
432.734	84.06
432.956	72.06
433.178	88.06
433.4	96.06
433.622	104.06
433.844	96.06
434.066	83.06
434.287	72.06
434.509	88.06
434.731	86.06
434.953	82.06
435.175	95.06
435.397	87.06
435.618	89.06
435.84	83.06
436.062	101.06
436.284	100.06
436.505	91.06
436.727	103.06
436.949	80.06
437.17	89.06
437.392	80.06
437.614	87.06
437.835	96.06
438.057	113.06
438.278	99.06
438.5	82.06
438.721	117.06
438.943	114.06
439.165	85.06
439.386	82.06
439.608	75.06
439.829	86.06
440.05	108.06
440.272	119.06
440.493	91.06
440.715	75.06
440.936	82.06
441.158	70.06
441.379	103.06
441.6	105.06
441.822	77.06
442.043	87.06
442.264	94.06
442.486	106.06
442.707	85.06
442.928	107.06
443.149	115.06
443.371	111.06
443.592	96.06
443.813	86.06
444.034	90.06
444.255	81.06
444.476	83.06
444.698	85.06
444.919	76.06
445.14	117.06
445.361	119.06
445.582	95.06
445.803	104.06
446.024	111.06
446.245	105.06
446.466	92.06
446.687	79.06
446.908	101.06
447.129	87.06
447.35	83.06
447.571	84.06
447.792	97.06
448.013	93.06
448.234	95.06
448.455	91.06
448.675	106.06
448.896	97.06
449.117	97.06
449.338	84.06
449.559	107.06
449.779	121.06
450	89.06
450.221	89.06
450.442	61.06
450.662	90.06
450.883	91.06
451.104	111.06
451.324	86.06
451.545	91.06
451.766	92.06
451.986	72.06
452.207	97.06
452.428	79.06
452.648	98.06
452.869	109.06
453.089	88.06
453.31	116.06
453.53	75.06
453.751	88.06
453.971	89.06
454.192	102.06
454.412	75.06
454.633	90.06
454.853	87.06
455.073	94.06
455.294	89.06
455.514	103.06
455.734	108.06
455.955	75.06
456.175	79.06
456.395	73.06
456.616	85.06
456.836	92.06
457.056	84.06
457.276	94.06
457.497	90.06
457.717	82.06
457.937	77.06
458.157	92.06
458.377	96.06
458.598	103.06
458.818	112.06
459.038	136.06
459.258	99.06
459.478	85.06
459.698	78.06
459.918	80.06
460.138	79.06
460.358	84.06
460.578	89.06
460.798	89.06
461.018	84.06
461.238	75.06
461.458	88.06
461.678	80.06
461.898	93.06
462.118	93.06
462.338	93.06
462.558	87.06
462.777	85.06
462.997	83.06
463.217	73.06
463.437	88.06
463.657	84.06
463.876	73.06
464.096	88.06
464.316	88.06
464.536	92.06
464.755	87.06
464.975	92.06
465.195	126.06
465.414	126.06
465.634	96.06
465.854	88.06
466.073	75.06
466.293	76.06
466.512	74.06
466.732	93.06
466.951	88.06
467.171	92.06
467.391	80.06
467.61	101.06
467.829	86.06
468.049	87.06
468.268	90.06
468.488	99.06
468.707	107.06
468.927	91.06
469.146	77.06
469.365	71.06
469.585	85.06
469.804	76.06
470.023	90.06
470.243	91.06
470.462	70.06
470.681	102.06
470.901	89.06
471.12	86.06
471.339	76.06
471.558	90.06
471.777	80.06
471.997	74.06
472.216	102.06
472.435	125.06
472.654	95.06
472.873	99.06
473.092	84.06
473.311	100.06
473.53	85.06
473.749	65.06
473.968	87.06
474.187	89.06
474.406	78.06
474.625	83.06
474.844	94.06
475.063	98.06
475.282	77.06
475.501	97.06
475.72	92.06
475.939	81.06
476.158	82.06
476.377	100.06
476.596	91.06
476.814	97.06
477.033	80.06
477.252	86.06
477.471	82.06
477.69	90.06
477.908	76.06
478.127	86.06
478.346	90.06
478.564	79.06
478.783	80.06
479.002	79.06
479.22	89.06
479.439	97.06
479.658	94.06
479.876	98.06
480.095	82.06
480.313	74.06
480.532	96.06
480.751	88.06
480.969	111.06
481.188	165.06
481.406	126.06
481.624	85.06
481.843	75.06
482.061	96.06
482.28	71.06
482.498	78.06
482.717	82.06
482.935	81.06
483.153	76.06
483.372	100.06
483.59	84.06
483.808	93.06
484.027	96.06
484.245	86.06
484.463	90.06
484.681	88.06
484.9	91.06
485.118	91.06
485.336	100.06
485.554	103.06
485.772	90.06
485.99	100.06
486.209	92.06
486.427	89.06
486.645	117.06
486.863	99.06
487.081	86.06
487.299	91.06
487.517	102.06
487.735	88.06
487.953	86.06
488.171	90.06
488.389	86.06
488.607	82.06
488.825	82.06
489.043	81.06
489.261	84.06
489.479	93.06
489.696	81.06
489.914	91.06
490.132	76.06
490.35	84.06
490.568	108.06
490.786	99.06
491.003	78.06
491.221	90.06
491.439	89.06
491.657	87.06
491.874	95.06
492.092	98.06
492.31	89.06
492.527	91.06
492.745	89.06
492.963	87.06
493.18	75.06
493.398	95.06
493.615	95.06
493.833	93.06
494.05	92.06
494.268	90.06
494.485	93.06
494.703	87.06
494.92	82.06
495.138	92.06
495.355	103.06
495.573	86.06
495.79	97.06
496.008	87.06
496.225	92.06
496.442	100.06
496.66	96.06
496.877	103.06
497.094	82.06
497.312	81.06
497.529	73.06
497.746	78.06
497.963	94.06
498.181	93.06
498.398	87.06
498.615	97.06
498.832	90.06
499.049	80.06
499.267	76.06
499.484	66.06
499.701	80.06
499.918	91.06
500.135	88.06
500.352	86.06
500.569	82.06
500.786	89.06
501.003	85.06
501.22	86.06
501.437	90.06
501.654	87.06
501.871	102.06
502.088	85.06
502.305	96.06
502.522	91.06
502.739	86.06
502.956	107.06
503.172	91.06
503.389	74.06
503.606	101.06
503.823	91.06
504.04	76.06
504.256	97.06
504.473	89.06
504.69	63.06
504.907	83.06
505.123	88.06
505.34	89.06
505.557	77.06
505.773	88.06
505.99	93.06
506.207	74.06
506.423	88.06
506.64	95.06
506.856	87.06
507.073	90.06
507.289	102.06
507.506	84.06
507.722	104.06
507.939	90.06
508.155	101.06
508.372	78.06
508.588	87.06
508.805	94.06
509.021	99.06
509.238	101.06
509.454	96.06
509.67	94.06
509.887	103.06
510.103	126.06
510.319	180.06
510.536	599.06
510.752	1832.06
510.968	523.06
511.184	126.06
511.401	112.06
511.617	90.06
511.833	98.06
512.049	79.06
512.265	85.06
512.481	76.06
512.698	94.06
512.914	74.06
513.13	88.06
513.346	102.06
513.562	98.06
513.778	92.06
513.994	81.06
514.21	81.06
514.426	105.06
514.642	112.06
514.858	103.06
515.074	145.06
515.29	324.06
515.506	1046.06
515.721	387.06
515.937	135.06
516.153	94.06
516.369	92.06
516.585	72.06
516.801	83.06
517.016	88.06
517.232	89.06
