Data from Uncirc_1980_H10_HRD10591_00054.txt Node
Date: Wed Jan 03 12:37:06 EST 2024
User: Yrep
Spectrometer: HR+D1059
Trigger mode: 1
Integration Time (sec): 1.000000E-1
Scans to average: 1
Electric dark correction enabled: true
Nonlinearity correction enabled: false
Boxcar width: 0
XAxis mode: Wavelengths
Number of Pixels in Spectrum: 2048
>>>>>Begin Spectral Data<<<<<
223.165	-19.38
223.4	-19.38
223.635	-19.38
223.869	-12.38
224.104	-12.38
224.338	-14.38
224.573	-8.38
224.808	-8.38
225.042	-14.38
225.277	-8.38
225.511	2.62
225.746	2.62
225.98	4.62
226.215	7.62
226.449	18.62
226.683	11.62
226.918	22.62
227.152	27.62
227.387	35.62
227.621	52.62
227.856	47.62
228.09	51.62
228.324	40.62
228.559	49.62
228.793	63.62
229.027	72.62
229.262	62.62
229.496	74.62
229.73	88.62
229.964	76.62
230.199	79.62
230.433	60.62
230.667	63.62
230.901	84.62
231.136	74.62
231.37	83.62
231.604	85.62
231.838	89.62
232.072	89.62
232.306	92.62
232.541	74.62
232.775	75.62
233.009	85.62
233.243	73.62
233.477	72.62
233.711	78.62
233.945	78.62
234.179	82.62
234.413	81.62
234.647	79.62
234.881	69.62
235.115	83.62
235.349	82.62
235.583	88.62
235.817	71.62
236.051	71.62
236.285	64.62
236.519	70.62
236.753	67.62
236.987	83.62
237.221	94.62
237.455	82.62
237.689	79.62
237.922	79.62
238.156	90.62
238.39	71.62
238.624	69.62
238.858	76.62
239.091	60.62
239.325	77.62
239.559	74.62
239.793	83.62
240.027	85.62
240.26	83.62
240.494	81.62
240.728	74.62
240.961	76.62
241.195	84.62
241.429	77.62
241.662	67.62
241.896	71.62
242.13	89.62
242.363	64.62
242.597	66.62
242.83	77.62
243.064	83.62
243.298	78.62
243.531	81.62
243.765	79.62
243.998	81.62
244.232	86.62
244.465	90.62
244.699	76.62
244.932	87.62
245.166	65.62
245.399	90.62
245.633	77.62
245.866	69.62
246.099	69.62
246.333	75.62
246.566	76.62
246.8	74.62
247.033	77.62
247.266	77.62
247.5	71.62
247.733	64.62
247.966	73.62
248.2	69.62
248.433	92.62
248.666	79.62
248.899	76.62
249.133	71.62
249.366	95.62
249.599	98.62
249.832	86.62
250.066	69.62
250.299	81.62
250.532	94.62
250.765	65.62
250.998	81.62
251.231	78.62
251.465	68.62
251.698	78.62
251.931	102.62
252.164	86.62
252.397	76.62
252.63	77.62
252.863	78.62
253.096	69.62
253.329	82.62
253.562	77.62
253.795	73.62
254.028	80.62
254.261	82.62
254.494	93.62
254.727	84.62
254.96	93.62
255.193	78.62
255.426	75.62
255.659	84.62
255.892	89.62
256.124	89.62
256.357	95.62
256.59	67.62
256.823	81.62
257.056	85.62
257.289	73.62
257.521	77.62
257.754	92.62
257.987	78.62
258.22	73.62
258.452	85.62
258.685	73.62
258.918	84.62
259.151	84.62
259.383	83.62
259.616	81.62
259.849	78.62
260.081	88.62
260.314	81.62
260.547	89.62
260.779	86.62
261.012	94.62
261.244	82.62
261.477	93.62
261.71	82.62
261.942	96.62
262.175	108.62
262.407	72.62
262.64	75.62
262.872	85.62
263.105	75.62
263.337	100.62
263.57	76.62
263.802	75.62
264.035	86.62
264.267	101.62
264.499	89.62
264.732	98.62
264.964	81.62
265.197	84.62
265.429	89.62
265.661	75.62
265.894	79.62
266.126	93.62
266.358	71.62
266.591	87.62
266.823	75.62
267.055	90.62
267.287	90.62
267.52	89.62
267.752	84.62
267.984	83.62
268.216	71.62
268.448	84.62
268.681	70.62
268.913	82.62
269.145	89.62
269.377	82.62
269.609	88.62
269.841	90.62
270.073	75.62
270.306	79.62
270.538	77.62
270.77	72.62
271.002	95.62
271.234	86.62
271.466	82.62
271.698	98.62
271.93	82.62
272.162	87.62
272.394	84.62
272.626	78.62
272.858	85.62
273.09	99.62
273.322	91.62
273.553	96.62
273.785	89.62
274.017	94.62
274.249	94.62
274.481	68.62
274.713	86.62
274.945	84.62
275.176	78.62
275.408	78.62
275.64	85.62
275.872	89.62
276.104	84.62
276.335	81.62
276.567	97.62
276.799	92.62
277.031	94.62
277.262	80.62
277.494	77.62
277.726	80.62
277.957	96.62
278.189	82.62
278.421	83.62
278.652	93.62
278.884	79.62
279.115	70.62
279.347	66.62
279.579	70.62
279.81	74.62
280.042	92.62
280.273	99.62
280.505	78.62
280.736	89.62
280.968	86.62
281.199	86.62
281.431	77.62
281.662	86.62
281.894	84.62
282.125	98.62
282.356	124.62
282.588	118.62
282.819	104.62
283.051	94.62
283.282	90.62
283.513	77.62
283.745	85.62
283.976	83.62
284.207	78.62
284.439	90.62
284.67	90.62
284.901	76.62
285.132	76.62
285.364	86.62
285.595	95.62
285.826	87.62
286.057	85.62
286.288	76.62
286.52	81.62
286.751	87.62
286.982	102.62
287.213	104.62
287.444	90.62
287.675	83.62
287.906	71.62
288.138	88.62
288.369	91.62
288.6	102.62
288.831	94.62
289.062	78.62
289.293	100.62
289.524	85.62
289.755	100.62
289.986	86.62
290.217	87.62
290.448	90.62
290.679	103.62
290.91	83.62
291.141	81.62
291.371	89.62
291.602	79.62
291.833	76.62
292.064	91.62
292.295	95.62
292.526	87.62
292.757	75.62
292.987	83.62
293.218	84.62
293.449	78.62
293.68	91.62
293.91	89.62
294.141	100.62
294.372	89.62
294.603	81.62
294.833	77.62
295.064	88.62
295.295	93.62
295.525	97.62
295.756	101.62
295.987	116.62
296.217	119.62
296.448	107.62
296.679	89.62
296.909	106.62
297.14	80.62
297.37	90.62
297.601	94.62
297.831	91.62
298.062	91.62
298.292	81.62
298.523	88.62
298.753	90.62
298.984	87.62
299.214	100.62
299.445	96.62
299.675	95.62
299.905	93.62
300.136	78.62
300.366	94.62
300.597	101.62
300.827	99.62
301.057	86.62
301.288	96.62
301.518	92.62
301.748	99.62
301.979	109.62
302.209	83.62
302.439	92.62
302.669	78.62
302.9	90.62
303.13	94.62
303.36	104.62
303.59	103.62
303.82	111.62
304.051	102.62
304.281	86.62
304.511	81.62
304.741	90.62
304.971	88.62
305.201	103.62
305.431	105.62
305.661	98.62
305.891	79.62
306.121	91.62
306.352	101.62
306.582	95.62
306.812	94.62
307.042	85.62
307.272	98.62
307.502	87.62
307.731	79.62
307.961	86.62
308.191	69.62
308.421	87.62
308.651	81.62
308.881	98.62
309.111	94.62
309.341	101.62
309.571	89.62
309.8	103.62
310.03	86.62
310.26	93.62
310.49	102.62
310.72	100.62
310.949	105.62
311.179	96.62
311.409	102.62
311.639	99.62
311.868	92.62
312.098	92.62
312.328	103.62
312.557	95.62
312.787	87.62
313.017	101.62
313.246	89.62
313.476	85.62
313.706	91.62
313.935	89.62
314.165	98.62
314.394	95.62
314.624	100.62
314.853	98.62
315.083	93.62
315.312	90.62
315.542	94.62
315.771	102.62
316.001	95.62
316.23	87.62
316.46	97.62
316.689	91.62
316.919	101.62
317.148	78.62
317.377	85.62
317.607	93.62
317.836	104.62
318.065	96.62
318.295	90.62
318.524	95.62
318.753	111.62
318.983	92.62
319.212	86.62
319.441	99.62
319.67	107.62
319.9	106.62
320.129	95.62
320.358	100.62
320.587	100.62
320.816	85.62
321.046	102.62
321.275	97.62
321.504	84.62
321.733	82.62
321.962	92.62
322.191	106.62
322.42	100.62
322.649	121.62
322.878	109.62
323.108	126.62
323.337	118.62
323.566	133.62
323.795	132.62
324.024	181.62
324.253	367.62
324.482	739.62
324.71	1562.62
324.939	2086.62
325.168	769.62
325.397	205.62
325.626	142.62
325.855	127.62
326.084	129.62
326.313	131.62
326.542	153.62
326.77	223.62
326.999	415.62
327.228	835.62
327.457	1635.62
327.686	1294.62
327.914	347.62
328.143	174.62
328.372	145.62
328.6	117.62
328.829	126.62
329.058	133.62
329.287	124.62
329.515	114.62
329.744	105.62
329.972	89.62
330.201	115.62
330.43	137.62
330.658	132.62
330.887	127.62
331.115	121.62
331.344	117.62
331.572	94.62
331.801	107.62
332.03	113.62
332.258	95.62
332.486	101.62
332.715	95.62
332.943	105.62
333.172	87.62
333.4	103.62
333.629	107.62
333.857	123.62
334.085	119.62
334.314	124.62
334.542	126.62
334.771	139.62
334.999	112.62
335.227	95.62
335.455	91.62
335.684	108.62
335.912	85.62
336.14	88.62
336.369	90.62
336.597	88.62
336.825	86.62
337.053	93.62
337.281	91.62
337.51	94.62
337.738	103.62
337.966	93.62
338.194	89.62
338.422	111.62
338.65	97.62
338.878	97.62
339.106	85.62
339.334	93.62
339.562	97.62
339.79	94.62
340.018	100.62
340.246	99.62
340.474	96.62
340.702	93.62
340.93	90.62
341.158	87.62
341.386	103.62
341.614	98.62
341.842	102.62
342.07	90.62
342.298	99.62
342.526	108.62
342.754	99.62
342.981	83.62
343.209	86.62
343.437	91.62
343.665	79.62
343.893	83.62
344.12	91.62
344.348	94.62
344.576	91.62
344.804	91.62
345.031	100.62
345.259	97.62
345.487	90.62
345.714	86.62
345.942	98.62
346.17	88.62
346.397	95.62
346.625	101.62
346.853	94.62
347.08	87.62
347.308	81.62
347.535	98.62
347.763	98.62
347.99	102.62
348.218	98.62
348.445	106.62
348.673	92.62
348.9	97.62
349.128	95.62
349.355	85.62
349.583	99.62
349.81	92.62
350.037	83.62
350.265	108.62
350.492	95.62
350.72	106.62
350.947	106.62
351.174	103.62
351.402	93.62
351.629	85.62
351.856	97.62
352.083	101.62
352.311	87.62
352.538	97.62
352.765	110.62
352.992	107.62
353.22	130.62
353.447	115.62
353.674	102.62
353.901	90.62
354.128	95.62
354.355	105.62
354.583	91.62
354.81	103.62
355.037	97.62
355.264	89.62
355.491	86.62
355.718	95.62
355.945	91.62
356.172	98.62
356.399	92.62
356.626	110.62
356.853	88.62
357.08	105.62
357.307	94.62
357.534	86.62
357.761	92.62
357.988	108.62
358.215	101.62
358.441	83.62
358.668	100.62
358.895	92.62
359.122	92.62
359.349	74.62
359.576	78.62
359.802	93.62
360.029	111.62
360.256	110.62
360.483	102.62
360.709	95.62
360.936	91.62
361.163	101.62
361.39	95.62
361.616	93.62
361.843	105.62
362.07	93.62
362.296	102.62
362.523	83.62
362.749	95.62
362.976	95.62
363.203	90.62
363.429	90.62
363.656	84.62
363.882	85.62
364.109	88.62
364.335	97.62
364.562	100.62
364.788	97.62
365.015	98.62
365.241	92.62
365.468	103.62
365.694	97.62
365.92	93.62
366.147	85.62
366.373	87.62
366.599	95.62
366.826	90.62
367.052	77.62
367.278	95.62
367.505	99.62
367.731	97.62
367.957	82.62
368.184	89.62
368.41	106.62
368.636	120.62
368.862	112.62
369.089	110.62
369.315	91.62
369.541	93.62
369.767	85.62
369.993	96.62
370.219	108.62
370.445	99.62
370.672	86.62
370.898	86.62
371.124	95.62
371.35	87.62
371.576	61.62
371.802	90.62
372.028	89.62
372.254	74.62
372.48	85.62
372.706	85.62
372.932	92.62
373.158	97.62
373.384	103.62
373.61	100.62
373.835	100.62
374.061	89.62
374.287	89.62
374.513	103.62
374.739	87.62
374.965	110.62
375.191	89.62
375.416	87.62
375.642	91.62
375.868	104.62
376.094	89.62
376.319	98.62
376.545	81.62
376.771	98.62
376.997	107.62
377.222	99.62
377.448	86.62
377.674	103.62
377.899	93.62
378.125	88.62
378.35	102.62
378.576	93.62
378.802	93.62
379.027	98.62
379.253	89.62
379.478	86.62
379.704	93.62
379.929	104.62
380.155	98.62
380.38	109.62
380.606	105.62
380.831	93.62
381.057	96.62
381.282	97.62
381.507	102.62
381.733	114.62
381.958	98.62
382.184	106.62
382.409	111.62
382.634	97.62
382.86	99.62
383.085	101.62
383.31	90.62
383.535	100.62
383.761	95.62
383.986	102.62
384.211	106.62
384.436	99.62
384.662	103.62
384.887	98.62
385.112	112.62
385.337	123.62
385.562	113.62
385.787	116.62
386.013	118.62
386.238	106.62
386.463	115.62
386.688	121.62
386.913	107.62
387.138	117.62
387.363	115.62
387.588	97.62
387.813	96.62
388.038	105.62
388.263	124.62
388.488	99.62
388.713	100.62
388.938	101.62
389.163	104.62
389.387	89.62
389.612	70.62
389.837	98.62
390.062	83.62
390.287	94.62
390.512	93.62
390.736	100.62
390.961	100.62
391.186	90.62
391.411	93.62
391.636	85.62
391.86	83.62
392.085	83.62
392.31	78.62
392.534	87.62
392.759	89.62
392.984	75.62
393.208	84.62
393.433	95.62
393.658	97.62
393.882	85.62
394.107	95.62
394.331	82.62
394.556	103.62
394.78	80.62
395.005	90.62
395.229	77.62
395.454	89.62
395.678	102.62
395.903	85.62
396.127	89.62
396.352	87.62
396.576	74.62
396.801	98.62
397.025	99.62
397.249	88.62
397.474	93.62
397.698	86.62
397.922	106.62
398.147	85.62
398.371	75.62
398.595	99.62
398.82	79.62
399.044	85.62
399.268	78.62
399.492	90.62
399.717	85.62
399.941	91.62
400.165	100.62
400.389	87.62
400.613	88.62
400.837	88.62
401.062	89.62
401.286	95.62
401.51	79.62
401.734	103.62
401.958	104.62
402.182	125.62
402.406	165.62
402.63	107.62
402.854	89.62
403.078	92.62
403.302	82.62
403.526	82.62
403.75	94.62
403.974	90.62
404.198	91.62
404.422	102.62
404.645	88.62
404.869	90.62
405.093	105.62
405.317	98.62
405.541	113.62
405.765	108.62
405.988	118.62
406.212	159.62
406.436	220.62
406.66	135.62
406.883	86.62
407.107	91.62
407.331	91.62
407.555	107.62
407.778	88.62
408.002	85.62
408.226	80.62
408.449	90.62
408.673	89.62
408.896	91.62
409.12	103.62
409.344	108.62
409.567	92.62
409.791	91.62
410.014	84.62
410.238	91.62
410.461	91.62
410.685	92.62
410.908	100.62
411.132	119.62
411.355	103.62
411.578	93.62
411.802	91.62
412.025	81.62
412.249	102.62
412.472	105.62
412.695	101.62
412.919	94.62
413.142	79.62
413.365	94.62
413.589	92.62
413.812	86.62
414.035	87.62
414.258	90.62
414.482	81.62
414.705	100.62
414.928	97.62
415.151	98.62
415.374	98.62
415.597	83.62
415.821	91.62
416.044	98.62
416.267	100.62
416.49	94.62
416.713	98.62
416.936	84.62
417.159	94.62
417.382	84.62
417.605	93.62
417.828	87.62
418.051	91.62
418.274	82.62
418.497	73.62
418.72	91.62
418.943	91.62
419.166	93.62
419.389	84.62
419.611	94.62
419.834	91.62
420.057	103.62
420.28	97.62
420.503	91.62
420.726	96.62
420.948	94.62
421.171	102.62
421.394	92.62
421.617	96.62
421.839	94.62
422.062	102.62
422.285	83.62
422.507	92.62
422.73	101.62
422.953	91.62
423.175	78.62
423.398	96.62
423.621	104.62
423.843	100.62
424.066	86.62
424.288	111.62
424.511	85.62
424.733	97.62
424.956	105.62
425.178	95.62
425.401	89.62
425.623	93.62
425.846	104.62
426.068	90.62
426.291	89.62
426.513	82.62
426.735	93.62
426.958	92.62
427.18	104.62
427.402	135.62
427.625	178.62
427.847	137.62
428.069	119.62
428.292	93.62
428.514	87.62
428.736	85.62
428.958	77.62
429.181	93.62
429.403	86.62
429.625	72.62
429.847	92.62
430.069	97.62
430.292	97.62
430.514	75.62
430.736	83.62
430.958	84.62
431.18	85.62
431.402	84.62
431.624	84.62
431.846	67.62
432.068	93.62
432.29	86.62
432.512	93.62
432.734	73.62
432.956	95.62
433.178	111.62
433.4	99.62
433.622	89.62
433.844	97.62
434.066	87.62
434.287	96.62
434.509	87.62
434.731	94.62
434.953	85.62
435.175	79.62
435.397	93.62
435.618	100.62
435.84	116.62
436.062	125.62
436.284	102.62
436.505	91.62
436.727	111.62
436.949	88.62
437.17	101.62
437.392	88.62
437.614	85.62
437.835	116.62
438.057	133.62
438.278	121.62
438.5	106.62
438.721	124.62
438.943	97.62
439.165	91.62
439.386	91.62
439.608	105.62
439.829	90.62
440.05	140.62
440.272	146.62
440.493	104.62
440.715	83.62
440.936	91.62
441.158	82.62
441.379	96.62
441.6	90.62
441.822	92.62
442.043	107.62
442.264	107.62
442.486	107.62
442.707	104.62
442.928	105.62
443.149	125.62
443.371	134.62
443.592	116.62
443.813	124.62
444.034	110.62
444.255	69.62
444.476	93.62
444.698	84.62
444.919	96.62
445.14	144.62
445.361	122.62
445.582	125.62
445.803	150.62
446.024	153.62
446.245	145.62
446.466	113.62
446.687	84.62
446.908	94.62
447.129	87.62
447.35	86.62
447.571	84.62
447.792	89.62
448.013	97.62
448.234	91.62
448.455	89.62
448.675	117.62
448.896	138.62
449.117	97.62
449.338	95.62
449.559	145.62
449.779	139.62
450	95.62
450.221	95.62
450.442	86.62
450.662	109.62
450.883	107.62
451.104	102.62
451.324	91.62
451.545	97.62
451.766	69.62
451.986	71.62
452.207	90.62
452.428	89.62
452.648	92.62
452.869	105.62
453.089	108.62
453.31	107.62
453.53	101.62
453.751	92.62
453.971	102.62
454.192	99.62
454.412	94.62
454.633	101.62
454.853	98.62
455.073	85.62
455.294	99.62
455.514	100.62
455.734	100.62
455.955	77.62
456.175	90.62
456.395	94.62
456.616	85.62
456.836	92.62
457.056	90.62
457.276	66.62
457.497	97.62
457.717	84.62
457.937	80.62
458.157	95.62
458.377	89.62
458.598	108.62
458.818	137.62
459.038	164.62
459.258	126.62
459.478	89.62
459.698	74.62
459.918	94.62
460.138	85.62
460.358	71.62
460.578	68.62
460.798	100.62
461.018	87.62
461.238	76.62
461.458	66.62
461.678	81.62
461.898	85.62
462.118	93.62
462.338	95.62
462.558	79.62
462.777	101.62
462.997	85.62
463.217	90.62
463.437	84.62
463.657	72.62
463.876	91.62
464.096	88.62
464.316	76.62
464.536	90.62
464.755	95.62
464.975	99.62
465.195	159.62
465.414	165.62
465.634	95.62
465.854	101.62
466.073	85.62
466.293	91.62
466.512	87.62
466.732	84.62
466.951	88.62
467.171	82.62
467.391	100.62
467.61	90.62
467.829	92.62
468.049	93.62
468.268	107.62
468.488	87.62
468.707	86.62
468.927	95.62
469.146	78.62
469.365	89.62
469.585	79.62
469.804	88.62
470.023	83.62
470.243	81.62
470.462	103.62
470.681	113.62
470.901	82.62
471.12	75.62
471.339	70.62
471.558	77.62
471.777	81.62
471.997	99.62
472.216	115.62
472.435	139.62
472.654	85.62
472.873	87.62
473.092	89.62
473.311	84.62
473.53	78.62
473.749	77.62
473.968	98.62
474.187	109.62
474.406	99.62
474.625	85.62
474.844	86.62
475.063	83.62
475.282	73.62
475.501	96.62
475.72	82.62
475.939	90.62
476.158	96.62
476.377	87.62
476.596	93.62
476.814	94.62
477.033	92.62
477.252	77.62
477.471	85.62
477.69	96.62
477.908	85.62
478.127	95.62
478.346	92.62
478.564	87.62
478.783	87.62
479.002	101.62
479.22	98.62
479.439	99.62
479.658	99.62
479.876	88.62
480.095	91.62
480.313	93.62
480.532	83.62
480.751	91.62
480.969	109.62
481.188	188.62
481.406	144.62
481.624	89.62
481.843	78.62
482.061	82.62
482.28	98.62
482.498	77.62
482.717	84.62
482.935	91.62
483.153	101.62
483.372	91.62
483.59	81.62
483.808	84.62
484.027	96.62
484.245	84.62
484.463	90.62
484.681	103.62
484.9	90.62
485.118	91.62
485.336	98.62
485.554	99.62
485.772	102.62
485.99	111.62
486.209	107.62
486.427	95.62
486.645	106.62
486.863	106.62
487.081	108.62
487.299	100.62
487.517	88.62
487.735	100.62
487.953	82.62
488.171	96.62
488.389	109.62
488.607	99.62
488.825	84.62
489.043	66.62
489.261	78.62
489.479	81.62
489.696	83.62
489.914	91.62
490.132	88.62
490.35	95.62
490.568	93.62
490.786	87.62
491.003	86.62
491.221	82.62
491.439	93.62
491.657	106.62
491.874	94.62
492.092	98.62
492.31	96.62
492.527	79.62
492.745	85.62
492.963	94.62
493.18	94.62
493.398	83.62
493.615	97.62
493.833	96.62
494.05	78.62
494.268	92.62
494.485	84.62
494.703	99.62
494.92	89.62
495.138	81.62
495.355	83.62
495.573	83.62
495.79	84.62
496.008	86.62
496.225	93.62
496.442	97.62
496.66	97.62
496.877	81.62
497.094	86.62
497.312	74.62
497.529	85.62
497.746	97.62
497.963	94.62
498.181	84.62
498.398	91.62
498.615	102.62
498.832	114.62
499.049	85.62
499.267	85.62
499.484	92.62
499.701	92.62
499.918	97.62
500.135	91.62
500.352	77.62
500.569	96.62
500.786	83.62
501.003	86.62
501.22	95.62
501.437	84.62
501.654	97.62
501.871	118.62
502.088	84.62
502.305	86.62
502.522	97.62
502.739	78.62
502.956	82.62
503.172	104.62
503.389	83.62
503.606	97.62
503.823	99.62
504.04	94.62
504.256	91.62
504.473	79.62
504.69	86.62
504.907	97.62
505.123	81.62
505.34	85.62
505.557	82.62
505.773	89.62
505.99	76.62
506.207	81.62
506.423	99.62
506.64	78.62
506.856	102.62
507.073	85.62
507.289	91.62
507.506	89.62
507.722	103.62
507.939	104.62
508.155	101.62
508.372	92.62
508.588	97.62
508.805	83.62
509.021	93.62
509.238	106.62
509.454	94.62
509.67	98.62
509.887	101.62
510.103	122.62
510.319	181.62
510.536	663.62
510.752	2198.62
510.968	580.62
511.184	126.62
511.401	106.62
511.617	99.62
511.833	98.62
512.049	95.62
512.265	81.62
512.481	88.62
512.698	106.62
512.914	88.62
513.13	103.62
513.346	97.62
513.562	90.62
513.778	89.62
513.994	82.62
514.21	103.62
514.426	103.62
514.642	137.62
514.858	130.62
515.074	168.62
515.29	411.62
515.506	1356.62
