Data from Uncirc_1980_H10_HRD10591_00058.txt Node
Date: Wed Jan 03 12:37:07 EST 2024
User: Yrep
Spectrometer: HR+D1059
Trigger mode: 1
Integration Time (sec): 1.000000E-1
Scans to average: 1
Electric dark correction enabled: true
Nonlinearity correction enabled: false
Boxcar width: 0
XAxis mode: Wavelengths
Number of Pixels in Spectrum: 2048
>>>>>Begin Spectral Data<<<<<
223.165	-22.31
223.4	-22.31
223.635	-22.31
223.869	-16.31
224.104	-31.31
224.338	-17.31
224.573	-12.31
224.808	-14.31
225.042	-18.31
225.277	-7.31
225.511	1.69
225.746	-9.31
225.98	8.69
226.215	26.69
226.449	41.69
226.683	23.69
226.918	21.69
227.152	24.69
227.387	39.69
227.621	32.69
227.856	44.69
228.09	45.69
228.324	50.69
228.559	55.69
228.793	56.69
229.027	50.69
229.262	76.69
229.496	79.69
229.73	86.69
229.964	87.69
230.199	78.69
230.433	77.69
230.667	72.69
230.901	74.69
231.136	82.69
231.37	81.69
231.604	76.69
231.838	91.69
232.072	76.69
232.306	83.69
232.541	77.69
232.775	73.69
233.009	100.69
233.243	84.69
233.477	91.69
233.711	77.69
233.945	70.69
234.179	79.69
234.413	81.69
234.647	79.69
234.881	71.69
235.115	84.69
235.349	85.69
235.583	67.69
235.817	71.69
236.051	85.69
236.285	85.69
236.519	81.69
236.753	82.69
236.987	78.69
237.221	70.69
237.455	83.69
237.689	71.69
237.922	90.69
238.156	87.69
238.39	86.69
238.624	65.69
238.858	71.69
239.091	80.69
239.325	79.69
239.559	85.69
239.793	81.69
240.027	79.69
240.26	80.69
240.494	79.69
240.728	73.69
240.961	73.69
241.195	78.69
241.429	67.69
241.662	79.69
241.896	71.69
242.13	86.69
242.363	76.69
242.597	66.69
242.83	68.69
243.064	81.69
243.298	87.69
243.531	56.69
243.765	78.69
243.998	75.69
244.232	62.69
244.465	76.69
244.699	86.69
244.932	70.69
245.166	66.69
245.399	77.69
245.633	97.69
245.866	88.69
246.099	71.69
246.333	77.69
246.566	77.69
246.8	78.69
247.033	90.69
247.266	69.69
247.5	78.69
247.733	69.69
247.966	80.69
248.2	82.69
248.433	83.69
248.666	86.69
248.899	74.69
249.133	86.69
249.366	95.69
249.599	95.69
249.832	70.69
250.066	95.69
250.299	79.69
250.532	72.69
250.765	73.69
250.998	80.69
251.231	75.69
251.465	85.69
251.698	64.69
251.931	77.69
252.164	76.69
252.397	85.69
252.63	64.69
252.863	72.69
253.096	84.69
253.329	68.69
253.562	79.69
253.795	73.69
254.028	84.69
254.261	91.69
254.494	77.69
254.727	76.69
254.96	68.69
255.193	86.69
255.426	73.69
255.659	82.69
255.892	78.69
256.124	79.69
256.357	94.69
256.59	89.69
256.823	88.69
257.056	78.69
257.289	77.69
257.521	81.69
257.754	85.69
257.987	85.69
258.22	84.69
258.452	78.69
258.685	75.69
258.918	70.69
259.151	88.69
259.383	87.69
259.616	66.69
259.849	73.69
260.081	75.69
260.314	79.69
260.547	90.69
260.779	91.69
261.012	75.69
261.244	91.69
261.477	80.69
261.71	91.69
261.942	100.69
262.175	111.69
262.407	91.69
262.64	83.69
262.872	87.69
263.105	74.69
263.337	83.69
263.57	71.69
263.802	74.69
264.035	84.69
264.267	93.69
264.499	78.69
264.732	95.69
264.964	94.69
265.197	71.69
265.429	85.69
265.661	84.69
265.894	86.69
266.126	79.69
266.358	83.69
266.591	101.69
266.823	91.69
267.055	83.69
267.287	71.69
267.52	70.69
267.752	98.69
267.984	74.69
268.216	85.69
268.448	82.69
268.681	91.69
268.913	95.69
269.145	93.69
269.377	78.69
269.609	93.69
269.841	75.69
270.073	75.69
270.306	73.69
270.538	89.69
270.77	83.69
271.002	66.69
271.234	81.69
271.466	91.69
271.698	72.69
271.93	81.69
272.162	103.69
272.394	88.69
272.626	85.69
272.858	90.69
273.09	75.69
273.322	83.69
273.553	72.69
273.785	78.69
274.017	82.69
274.249	85.69
274.481	67.69
274.713	90.69
274.945	79.69
275.176	82.69
275.408	80.69
275.64	89.69
275.872	67.69
276.104	72.69
276.335	82.69
276.567	76.69
276.799	108.69
277.031	98.69
277.262	92.69
277.494	95.69
277.726	87.69
277.957	76.69
278.189	79.69
278.421	86.69
278.652	81.69
278.884	84.69
279.115	102.69
279.347	79.69
279.579	97.69
279.81	75.69
280.042	79.69
280.273	86.69
280.505	75.69
280.736	88.69
280.968	97.69
281.199	94.69
281.431	82.69
281.662	99.69
281.894	82.69
282.125	78.69
282.356	105.69
282.588	122.69
282.819	93.69
283.051	92.69
283.282	90.69
283.513	92.69
283.745	99.69
283.976	72.69
284.207	99.69
284.439	95.69
284.67	88.69
284.901	86.69
285.132	90.69
285.364	81.69
285.595	87.69
285.826	83.69
286.057	84.69
286.288	72.69
286.52	84.69
286.751	86.69
286.982	98.69
287.213	88.69
287.444	93.69
287.675	85.69
287.906	73.69
288.138	96.69
288.369	87.69
288.6	95.69
288.831	95.69
289.062	85.69
289.293	77.69
289.524	91.69
289.755	94.69
289.986	92.69
290.217	87.69
290.448	76.69
290.679	79.69
290.91	93.69
291.141	84.69
291.371	98.69
291.602	73.69
291.833	97.69
292.064	89.69
292.295	90.69
292.526	79.69
292.757	83.69
292.987	81.69
293.218	82.69
293.449	95.69
293.68	94.69
293.91	86.69
294.141	94.69
294.372	95.69
294.603	70.69
294.833	99.69
295.064	87.69
295.295	102.69
295.525	87.69
295.756	96.69
295.987	110.69
296.217	92.69
296.448	109.69
296.679	79.69
296.909	78.69
297.14	85.69
297.37	91.69
297.601	85.69
297.831	97.69
298.062	103.69
298.292	90.69
298.523	81.69
298.753	88.69
298.984	82.69
299.214	85.69
299.445	89.69
299.675	86.69
299.905	91.69
300.136	93.69
300.366	74.69
300.597	87.69
300.827	77.69
301.057	85.69
301.288	107.69
301.518	111.69
301.748	81.69
301.979	103.69
302.209	97.69
302.439	81.69
302.669	94.69
302.9	94.69
303.13	79.69
303.36	91.69
303.59	98.69
303.82	95.69
304.051	91.69
304.281	98.69
304.511	102.69
304.741	74.69
304.971	88.69
305.201	85.69
305.431	98.69
305.661	98.69
305.891	87.69
306.121	85.69
306.352	92.69
306.582	99.69
306.812	95.69
307.042	92.69
307.272	104.69
307.502	90.69
307.731	91.69
307.961	90.69
308.191	94.69
308.421	88.69
308.651	87.69
308.881	95.69
309.111	85.69
309.341	89.69
309.571	102.69
309.8	104.69
310.03	98.69
310.26	106.69
310.49	96.69
310.72	85.69
310.949	91.69
311.179	71.69
311.409	76.69
311.639	88.69
311.868	104.69
312.098	88.69
312.328	79.69
312.557	95.69
312.787	88.69
313.017	102.69
313.246	98.69
313.476	95.69
313.706	89.69
313.935	95.69
314.165	90.69
314.394	98.69
314.624	103.69
314.853	98.69
315.083	92.69
315.312	95.69
315.542	95.69
315.771	91.69
316.001	106.69
316.23	102.69
316.46	104.69
316.689	96.69
316.919	84.69
317.148	78.69
317.377	100.69
317.607	89.69
317.836	97.69
318.065	74.69
318.295	93.69
318.524	97.69
318.753	95.69
318.983	93.69
319.212	85.69
319.441	101.69
319.67	95.69
319.9	91.69
320.129	77.69
320.358	94.69
320.587	86.69
320.816	86.69
321.046	93.69
321.275	90.69
321.504	95.69
321.733	93.69
321.962	107.69
322.191	93.69
322.42	93.69
322.649	102.69
322.878	109.69
323.108	101.69
323.337	112.69
323.566	114.69
323.795	136.69
324.024	150.69
324.253	283.69
324.482	618.69
324.71	1187.69
324.939	1585.69
325.168	611.69
325.397	193.69
325.626	137.69
325.855	114.69
326.084	107.69
326.313	121.69
326.542	133.69
326.77	213.69
326.999	345.69
327.228	672.69
327.457	1264.69
327.686	1014.69
327.914	295.69
328.143	156.69
328.372	136.69
328.6	115.69
328.829	109.69
329.058	116.69
329.287	109.69
329.515	90.69
329.744	98.69
329.972	113.69
330.201	108.69
330.43	128.69
330.658	110.69
330.887	123.69
331.115	115.69
331.344	97.69
331.572	97.69
331.801	95.69
332.03	104.69
332.258	81.69
332.486	81.69
332.715	101.69
332.943	101.69
333.172	85.69
333.4	91.69
333.629	92.69
333.857	99.69
334.085	94.69
334.314	108.69
334.542	116.69
334.771	107.69
334.999	88.69
335.227	94.69
335.455	87.69
335.684	91.69
335.912	95.69
336.14	97.69
336.369	102.69
336.597	98.69
336.825	85.69
337.053	91.69
337.281	92.69
337.51	90.69
337.738	96.69
337.966	94.69
338.194	93.69
338.422	87.69
338.65	89.69
338.878	107.69
339.106	89.69
339.334	75.69
339.562	83.69
339.79	75.69
340.018	102.69
340.246	93.69
340.474	94.69
340.702	97.69
340.93	88.69
341.158	91.69
341.386	85.69
341.614	79.69
341.842	105.69
342.07	94.69
342.298	77.69
342.526	101.69
342.754	91.69
342.981	76.69
343.209	95.69
343.437	97.69
343.665	92.69
343.893	82.69
344.12	81.69
344.348	73.69
344.576	89.69
344.804	79.69
345.031	85.69
345.259	79.69
345.487	99.69
345.714	92.69
345.942	69.69
346.17	94.69
346.397	95.69
346.625	100.69
346.853	88.69
347.08	82.69
347.308	77.69
347.535	81.69
347.763	83.69
347.99	107.69
348.218	99.69
348.445	86.69
348.673	89.69
348.9	87.69
349.128	84.69
349.355	85.69
349.583	99.69
349.81	93.69
350.037	79.69
350.265	95.69
350.492	83.69
350.72	85.69
350.947	84.69
351.174	100.69
351.402	82.69
351.629	91.69
351.856	94.69
352.083	95.69
352.311	110.69
352.538	96.69
352.765	96.69
352.992	101.69
353.22	100.69
353.447	98.69
353.674	100.69
353.901	91.69
354.128	115.69
354.355	92.69
354.583	101.69
354.81	98.69
355.037	94.69
355.264	102.69
355.491	95.69
355.718	98.69
355.945	104.69
356.172	97.69
356.399	101.69
356.626	88.69
356.853	101.69
357.08	91.69
357.307	100.69
357.534	86.69
357.761	91.69
357.988	87.69
358.215	108.69
358.441	93.69
358.668	76.69
358.895	97.69
359.122	91.69
359.349	100.69
359.576	87.69
359.802	93.69
360.029	103.69
360.256	107.69
360.483	82.69
360.709	86.69
360.936	105.69
361.163	84.69
361.39	91.69
361.616	76.69
361.843	91.69
362.07	95.69
362.296	91.69
362.523	81.69
362.749	84.69
362.976	77.69
363.203	89.69
363.429	85.69
363.656	89.69
363.882	74.69
364.109	87.69
364.335	81.69
364.562	82.69
364.788	84.69
365.015	91.69
365.241	95.69
365.468	92.69
365.694	97.69
365.92	85.69
366.147	98.69
366.373	91.69
366.599	97.69
366.826	93.69
367.052	99.69
367.278	86.69
367.505	91.69
367.731	87.69
367.957	90.69
368.184	99.69
368.41	90.69
368.636	102.69
368.862	95.69
369.089	108.69
369.315	81.69
369.541	84.69
369.767	81.69
369.993	88.69
370.219	104.69
370.445	89.69
370.672	82.69
370.898	78.69
371.124	86.69
371.35	87.69
371.576	77.69
371.802	78.69
372.028	94.69
372.254	90.69
372.48	85.69
372.706	90.69
372.932	78.69
373.158	84.69
373.384	92.69
373.61	89.69
373.835	90.69
374.061	106.69
374.287	104.69
374.513	85.69
374.739	70.69
374.965	78.69
375.191	70.69
375.416	83.69
375.642	89.69
375.868	97.69
376.094	96.69
376.319	88.69
376.545	85.69
376.771	86.69
376.997	83.69
377.222	93.69
377.448	78.69
377.674	81.69
377.899	83.69
378.125	83.69
378.35	90.69
378.576	93.69
378.802	76.69
379.027	90.69
379.253	88.69
379.478	91.69
379.704	91.69
379.929	94.69
380.155	82.69
380.38	91.69
380.606	108.69
380.831	86.69
381.057	90.69
381.282	85.69
381.507	94.69
381.733	81.69
381.958	89.69
382.184	94.69
382.409	102.69
382.634	112.69
382.86	91.69
383.085	100.69
383.31	105.69
383.535	85.69
383.761	98.69
383.986	93.69
384.211	102.69
384.436	89.69
384.662	95.69
384.887	97.69
385.112	97.69
385.337	103.69
385.562	113.69
385.787	99.69
386.013	97.69
386.238	119.69
386.463	107.69
386.688	105.69
386.913	100.69
387.138	111.69
387.363	105.69
387.588	85.69
387.813	93.69
388.038	114.69
388.263	101.69
388.488	95.69
388.713	98.69
388.938	97.69
389.163	108.69
389.387	93.69
389.612	104.69
389.837	87.69
390.062	107.69
390.287	96.69
390.512	81.69
390.736	89.69
390.961	89.69
391.186	77.69
391.411	84.69
391.636	95.69
391.86	95.69
392.085	102.69
392.31	84.69
392.534	81.69
392.759	90.69
392.984	89.69
393.208	87.69
393.433	86.69
393.658	72.69
393.882	83.69
394.107	77.69
394.331	75.69
394.556	86.69
394.78	99.69
395.005	85.69
395.229	75.69
395.454	93.69
395.678	87.69
395.903	86.69
396.127	106.69
396.352	94.69
396.576	92.69
396.801	100.69
397.025	83.69
397.249	83.69
397.474	85.69
397.698	77.69
397.922	87.69
398.147	91.69
398.371	85.69
398.595	89.69
398.82	69.69
399.044	89.69
399.268	91.69
399.492	78.69
399.717	82.69
399.941	75.69
400.165	79.69
400.389	97.69
400.613	81.69
400.837	98.69
401.062	84.69
401.286	68.69
401.51	84.69
401.734	74.69
401.958	111.69
402.182	110.69
402.406	131.69
402.63	109.69
402.854	90.69
403.078	90.69
403.302	82.69
403.526	91.69
403.75	82.69
403.974	83.69
404.198	86.69
404.422	79.69
404.645	85.69
404.869	85.69
405.093	86.69
405.317	100.69
405.541	93.69
405.765	97.69
405.988	92.69
406.212	145.69
406.436	196.69
406.66	116.69
406.883	103.69
407.107	89.69
407.331	102.69
407.555	90.69
407.778	105.69
408.002	89.69
408.226	92.69
408.449	85.69
408.673	84.69
408.896	92.69
409.12	85.69
409.344	92.69
409.567	95.69
409.791	98.69
410.014	90.69
410.238	75.69
410.461	91.69
410.685	100.69
410.908	97.69
411.132	113.69
411.355	102.69
411.578	81.69
411.802	77.69
412.025	92.69
412.249	84.69
412.472	87.69
412.695	90.69
412.919	66.69
413.142	97.69
413.365	99.69
413.589	83.69
413.812	93.69
414.035	91.69
414.258	94.69
414.482	88.69
414.705	87.69
414.928	100.69
415.151	93.69
415.374	92.69
415.597	90.69
415.821	93.69
416.044	89.69
416.267	92.69
416.49	90.69
416.713	79.69
416.936	83.69
417.159	77.69
417.382	81.69
417.605	83.69
417.828	98.69
418.051	89.69
418.274	76.69
418.497	91.69
418.72	81.69
418.943	86.69
419.166	87.69
419.389	90.69
419.611	95.69
419.834	90.69
420.057	95.69
420.28	85.69
420.503	87.69
420.726	70.69
420.948	89.69
421.171	88.69
421.394	89.69
421.617	74.69
421.839	87.69
422.062	89.69
422.285	85.69
422.507	100.69
422.73	101.69
422.953	93.69
423.175	90.69
423.398	95.69
423.621	85.69
423.843	75.69
424.066	74.69
424.288	90.69
424.511	91.69
424.733	86.69
424.956	91.69
425.178	90.69
425.401	83.69
425.623	94.69
425.846	81.69
426.068	91.69
426.291	83.69
426.513	82.69
426.735	91.69
426.958	97.69
427.18	105.69
427.402	128.69
427.625	137.69
427.847	121.69
428.069	109.69
428.292	83.69
428.514	74.69
428.736	81.69
428.958	57.69
429.181	98.69
429.403	81.69
429.625	81.69
429.847	91.69
430.069	103.69
430.292	93.69
430.514	85.69
430.736	75.69
430.958	83.69
431.18	95.69
431.402	93.69
431.624	91.69
431.846	69.69
432.068	88.69
432.29	85.69
432.512	104.69
432.734	87.69
432.956	85.69
433.178	98.69
433.4	96.69
433.622	94.69
433.844	85.69
434.066	87.69
434.287	100.69
434.509	84.69
434.731	93.69
434.953	79.69
435.175	86.69
435.397	96.69
435.618	89.69
435.84	89.69
436.062	105.69
436.284	101.69
436.505	102.69
436.727	97.69
436.949	74.69
437.17	87.69
437.392	83.69
437.614	86.69
437.835	94.69
438.057	91.69
438.278	79.69
438.5	88.69
438.721	106.69
438.943	91.69
439.165	84.69
439.386	90.69
439.608	82.69
439.829	85.69
440.05	103.69
440.272	123.69
440.493	93.69
440.715	94.69
440.936	76.69
441.158	87.69
441.379	76.69
441.6	100.69
441.822	87.69
442.043	84.69
442.264	95.69
442.486	89.69
442.707	75.69
442.928	98.69
443.149	105.69
443.371	129.69
443.592	105.69
443.813	94.69
444.034	95.69
444.255	95.69
444.476	72.69
444.698	87.69
444.919	78.69
445.14	126.69
445.361	122.69
445.582	103.69
445.803	123.69
446.024	121.69
446.245	120.69
446.466	102.69
446.687	74.69
446.908	95.69
447.129	89.69
447.35	98.69
447.571	91.69
447.792	85.69
448.013	89.69
448.234	101.69
448.455	89.69
448.675	100.69
448.896	82.69
449.117	91.69
449.338	82.69
449.559	123.69
449.779	111.69
450	102.69
450.221	100.69
450.442	90.69
450.662	87.69
450.883	99.69
451.104	118.69
451.324	89.69
451.545	83.69
451.766	86.69
451.986	84.69
452.207	89.69
452.428	75.69
452.648	94.69
452.869	104.69
453.089	107.69
453.31	110.69
453.53	98.69
453.751	92.69
453.971	89.69
454.192	92.69
454.412	89.69
454.633	77.69
454.853	94.69
455.073	82.69
455.294	74.69
455.514	92.69
455.734	77.69
455.955	85.69
456.175	88.69
456.395	90.69
456.616	91.69
456.836	90.69
457.056	79.69
457.276	85.69
457.497	89.69
457.717	86.69
457.937	96.69
458.157	95.69
458.377	97.69
458.598	103.69
458.818	125.69
459.038	123.69
459.258	97.69
459.478	89.69
459.698	74.69
459.918	59.69
460.138	93.69
460.358	75.69
460.578	82.69
460.798	92.69
461.018	90.69
461.238	81.69
461.458	91.69
461.678	99.69
461.898	108.69
462.118	105.69
462.338	93.69
462.558	84.69
462.777	83.69
462.997	94.69
463.217	74.69
463.437	82.69
463.657	72.69
463.876	96.69
464.096	89.69
464.316	89.69
464.536	89.69
464.755	73.69
464.975	103.69
465.195	122.69
465.414	122.69
465.634	105.69
465.854	84.69
466.073	86.69
466.293	86.69
466.512	77.69
466.732	70.69
466.951	81.69
467.171	75.69
467.391	101.69
467.61	111.69
467.829	94.69
468.049	86.69
468.268	110.69
468.488	85.69
468.707	70.69
468.927	90.69
469.146	86.69
469.365	78.69
469.585	91.69
469.804	106.69
470.023	77.69
470.243	79.69
470.462	93.69
470.681	98.69
470.901	89.69
471.12	84.69
471.339	89.69
471.558	82.69
471.777	83.69
471.997	82.69
472.216	109.69
472.435	123.69
472.654	97.69
472.873	97.69
473.092	87.69
473.311	81.69
473.53	84.69
473.749	90.69
473.968	85.69
474.187	101.69
474.406	76.69
474.625	78.69
474.844	86.69
475.063	95.69
475.282	94.69
475.501	85.69
475.72	77.69
475.939	79.69
476.158	84.69
476.377	89.69
476.596	88.69
476.814	93.69
477.033	97.69
477.252	101.69
477.471	93.69
477.69	87.69
477.908	99.69
478.127	86.69
478.346	89.69
478.564	86.69
478.783	93.69
479.002	96.69
479.22	97.69
479.439	101.69
479.658	87.69
479.876	98.69
480.095	84.69
480.313	90.69
480.532	107.69
480.751	96.69
480.969	104.69
481.188	162.69
481.406	153.69
481.624	94.69
481.843	98.69
482.061	100.69
482.28	98.69
482.498	94.69
482.717	98.69
482.935	113.69
483.153	101.69
483.372	83.69
483.59	94.69
483.808	70.69
484.027	73.69
484.245	86.69
484.463	89.69
484.681	102.69
484.9	103.69
485.118	71.69
485.336	82.69
485.554	91.69
485.772	109.69
485.99	100.69
486.209	101.69
486.427	104.69
486.645	102.69
486.863	102.69
487.081	108.69
487.299	93.69
487.517	103.69
487.735	98.69
487.953	95.69
488.171	93.69
488.389	92.69
488.607	104.69
488.825	82.69
489.043	100.69
489.261	91.69
489.479	87.69
489.696	81.69
489.914	88.69
490.132	91.69
490.35	84.69
490.568	86.69
490.786	87.69
491.003	83.69
491.221	89.69
491.439	97.69
491.657	92.69
491.874	99.69
492.092	99.69
492.31	105.69
492.527	92.69
492.745	76.69
492.963	89.69
493.18	83.69
493.398	84.69
493.615	85.69
493.833	92.69
494.05	85.69
494.268	99.69
494.485	82.69
494.703	87.69
494.92	89.69
495.138	94.69
495.355	100.69
495.573	84.69
495.79	87.69
496.008	83.69
496.225	85.69
496.442	92.69
496.66	92.69
496.877	91.69
497.094	93.69
497.312	97.69
497.529	95.69
497.746	97.69
497.963	101.69
498.181	93.69
498.398	94.69
498.615	114.69
498.832	102.69
499.049	97.69
499.267	102.69
499.484	86.69
499.701	96.69
499.918	86.69
500.135	90.69
500.352	81.69
500.569	100.69
500.786	96.69
501.003	89.69
501.22	71.69
501.437	77.69
501.654	91.69
501.871	97.69
502.088	86.69
502.305	82.69
502.522	87.69
502.739	70.69
502.956	92.69
503.172	94.69
503.389	105.69
503.606	102.69
503.823	104.69
504.04	93.69
504.256	75.69
504.473	93.69
504.69	97.69
504.907	98.69
505.123	97.69
505.34	88.69
505.557	91.69
505.773	89.69
505.99	89.69
506.207	86.69
506.423	88.69
506.64	78.69
506.856	92.69
507.073	101.69
507.289	80.69
507.506	89.69
507.722	102.69
507.939	103.69
508.155	83.69
508.372	108.69
508.588	95.69
508.805	104.69
509.021	86.69
509.238	96.69
509.454	91.69
509.67	87.69
509.887	100.69
510.103	116.69
510.319	177.69
510.536	576.69
510.752	1739.69
510.968	505.69
511.184	125.69
511.401	94.69
511.617	91.69
511.833	92.69
512.049	82.69
512.265	86.69
512.481	97.69
512.698	87.69
512.914	81.69
513.13	93.69
513.346	89.69
513.562	98.69
513.778	95.69
513.994	95.69
514.21	85.69
514.426	107.69
514.642	109.69
514.858	120.69
515.074	147.69
515.29	326.69
515.506	1011.69
515.721	396.69
515.937	132.69
516.153	97.69
516.369	99.69
516.585	85.69
