Data from Uncirc_1980_H10_HRD10591_00076.txt Node
Date: Wed Jan 03 12:37:10 EST 2024
User: Yrep
Spectrometer: HR+D1059
Trigger mode: 1
Integration Time (sec): 1.000000E-1
Scans to average: 1
Electric dark correction enabled: true
Nonlinearity correction enabled: false
Boxcar width: 0
XAxis mode: Wavelengths
Number of Pixels in Spectrum: 2048
>>>>>Begin Spectral Data<<<<<
223.165	-14.38
223.4	-14.38
223.635	-14.38
223.869	-22.38
224.104	-8.38
224.338	-18.38
224.573	-12.38
224.808	-16.38
225.042	-13.38
225.277	-6.38
225.511	-7.38
225.746	2.62
225.98	13.62
226.215	13.62
226.449	4.62
226.683	26.62
226.918	31.62
227.152	26.62
227.387	37.62
227.621	35.62
227.856	35.62
228.09	59.62
228.324	47.62
228.559	67.62
228.793	61.62
229.027	61.62
229.262	66.62
229.496	62.62
229.73	80.62
229.964	80.62
230.199	75.62
230.433	69.62
230.667	75.62
230.901	74.62
231.136	70.62
231.37	83.62
231.604	67.62
231.838	82.62
232.072	69.62
232.306	89.62
232.541	81.62
232.775	90.62
233.009	82.62
233.243	83.62
233.477	67.62
233.711	89.62
233.945	79.62
234.179	68.62
234.413	83.62
234.647	73.62
234.881	78.62
235.115	81.62
235.349	71.62
235.583	86.62
235.817	83.62
236.051	75.62
236.285	78.62
236.519	74.62
236.753	84.62
236.987	78.62
237.221	79.62
237.455	92.62
237.689	77.62
237.922	79.62
238.156	74.62
238.39	63.62
238.624	67.62
238.858	69.62
239.091	62.62
239.325	76.62
239.559	76.62
239.793	73.62
240.027	81.62
240.26	85.62
240.494	79.62
240.728	76.62
240.961	82.62
241.195	75.62
241.429	77.62
241.662	59.62
241.896	67.62
242.13	84.62
242.363	84.62
242.597	77.62
242.83	81.62
243.064	69.62
243.298	72.62
243.531	91.62
243.765	83.62
243.998	83.62
244.232	75.62
244.465	75.62
244.699	75.62
244.932	83.62
245.166	83.62
245.399	81.62
245.633	75.62
245.866	75.62
246.099	76.62
246.333	78.62
246.566	81.62
246.8	97.62
247.033	71.62
247.266	71.62
247.5	82.62
247.733	75.62
247.966	85.62
248.2	87.62
248.433	79.62
248.666	89.62
248.899	83.62
249.133	87.62
249.366	90.62
249.599	79.62
249.832	83.62
250.066	75.62
250.299	86.62
250.532	60.62
250.765	81.62
250.998	77.62
251.231	82.62
251.465	92.62
251.698	73.62
251.931	75.62
252.164	79.62
252.397	62.62
252.63	89.62
252.863	77.62
253.096	78.62
253.329	77.62
253.562	75.62
253.795	71.62
254.028	82.62
254.261	83.62
254.494	83.62
254.727	85.62
254.96	103.62
255.193	78.62
255.426	85.62
255.659	74.62
255.892	87.62
256.124	86.62
256.357	87.62
256.59	81.62
256.823	63.62
257.056	86.62
257.289	88.62
257.521	71.62
257.754	93.62
257.987	75.62
258.22	90.62
258.452	84.62
258.685	76.62
258.918	86.62
259.151	73.62
259.383	77.62
259.616	75.62
259.849	89.62
260.081	82.62
260.314	87.62
260.547	95.62
260.779	85.62
261.012	78.62
261.244	53.62
261.477	91.62
261.71	93.62
261.942	99.62
262.175	95.62
262.407	105.62
262.64	86.62
262.872	78.62
263.105	81.62
263.337	73.62
263.57	83.62
263.802	72.62
264.035	93.62
264.267	94.62
264.499	83.62
264.732	86.62
264.964	81.62
265.197	85.62
265.429	76.62
265.661	75.62
265.894	73.62
266.126	82.62
266.358	89.62
266.591	91.62
266.823	77.62
267.055	104.62
267.287	84.62
267.52	83.62
267.752	87.62
267.984	88.62
268.216	89.62
268.448	78.62
268.681	75.62
268.913	72.62
269.145	73.62
269.377	95.62
269.609	83.62
269.841	74.62
270.073	68.62
270.306	70.62
270.538	84.62
270.77	66.62
271.002	87.62
271.234	81.62
271.466	91.62
271.698	99.62
271.93	78.62
272.162	97.62
272.394	97.62
272.626	84.62
272.858	88.62
273.09	80.62
273.322	76.62
273.553	70.62
273.785	73.62
274.017	83.62
274.249	74.62
274.481	82.62
274.713	86.62
274.945	91.62
275.176	87.62
275.408	80.62
275.64	84.62
275.872	74.62
276.104	83.62
276.335	93.62
276.567	84.62
276.799	96.62
277.031	94.62
277.262	76.62
277.494	81.62
277.726	94.62
277.957	92.62
278.189	92.62
278.421	90.62
278.652	82.62
278.884	85.62
279.115	80.62
279.347	77.62
279.579	89.62
279.81	83.62
280.042	69.62
280.273	88.62
280.505	78.62
280.736	78.62
280.968	83.62
281.199	82.62
281.431	91.62
281.662	87.62
281.894	99.62
282.125	78.62
282.356	111.62
282.588	109.62
282.819	78.62
283.051	85.62
283.282	89.62
283.513	91.62
283.745	84.62
283.976	93.62
284.207	77.62
284.439	77.62
284.67	92.62
284.901	93.62
285.132	84.62
285.364	81.62
285.595	87.62
285.826	89.62
286.057	89.62
286.288	82.62
286.52	83.62
286.751	86.62
286.982	92.62
287.213	74.62
287.444	97.62
287.675	86.62
287.906	92.62
288.138	82.62
288.369	83.62
288.6	95.62
288.831	82.62
289.062	96.62
289.293	69.62
289.524	91.62
289.755	93.62
289.986	77.62
290.217	81.62
290.448	81.62
290.679	92.62
290.91	86.62
291.141	71.62
291.371	84.62
291.602	75.62
291.833	98.62
292.064	92.62
292.295	80.62
292.526	90.62
292.757	104.62
292.987	78.62
293.218	86.62
293.449	91.62
293.68	93.62
293.91	88.62
294.141	82.62
294.372	86.62
294.603	86.62
294.833	93.62
295.064	103.62
295.295	61.62
295.525	85.62
295.756	98.62
295.987	103.62
296.217	112.62
296.448	101.62
296.679	78.62
296.909	97.62
297.14	92.62
297.37	78.62
297.601	89.62
297.831	94.62
298.062	82.62
298.292	89.62
298.523	103.62
298.753	82.62
298.984	91.62
299.214	91.62
299.445	86.62
299.675	72.62
299.905	90.62
300.136	94.62
300.366	67.62
300.597	92.62
300.827	88.62
301.057	93.62
301.288	101.62
301.518	90.62
301.748	83.62
301.979	108.62
302.209	88.62
302.439	85.62
302.669	106.62
302.9	79.62
303.13	96.62
303.36	90.62
303.59	95.62
303.82	95.62
304.051	94.62
304.281	93.62
304.511	93.62
304.741	89.62
304.971	82.62
305.201	85.62
305.431	87.62
305.661	89.62
305.891	90.62
306.121	84.62
306.352	85.62
306.582	84.62
306.812	91.62
307.042	86.62
307.272	94.62
307.502	87.62
307.731	91.62
307.961	76.62
308.191	89.62
308.421	98.62
308.651	84.62
308.881	94.62
309.111	84.62
309.341	78.62
309.571	102.62
309.8	90.62
310.03	102.62
310.26	93.62
310.49	98.62
310.72	87.62
310.949	82.62
311.179	85.62
311.409	91.62
311.639	92.62
311.868	82.62
312.098	87.62
312.328	94.62
312.557	101.62
312.787	94.62
313.017	88.62
313.246	85.62
313.476	77.62
313.706	83.62
313.935	90.62
314.165	95.62
314.394	100.62
314.624	94.62
314.853	95.62
315.083	102.62
315.312	78.62
315.542	87.62
315.771	88.62
316.001	96.62
316.23	92.62
316.46	96.62
316.689	99.62
316.919	93.62
317.148	81.62
317.377	83.62
317.607	92.62
317.836	77.62
318.065	89.62
318.295	92.62
318.524	87.62
318.753	99.62
318.983	89.62
319.212	88.62
319.441	107.62
319.67	99.62
319.9	89.62
320.129	109.62
320.358	103.62
320.587	92.62
320.816	89.62
321.046	109.62
321.275	86.62
321.504	88.62
321.733	82.62
321.962	98.62
322.191	87.62
322.42	85.62
322.649	93.62
322.878	92.62
323.108	110.62
323.337	115.62
323.566	123.62
323.795	126.62
324.024	159.62
324.253	291.62
324.482	569.62
324.71	1164.62
324.939	1546.62
325.168	571.62
325.397	195.62
325.626	140.62
325.855	109.62
326.084	114.62
326.313	103.62
326.542	138.62
326.77	191.62
326.999	351.62
327.228	692.62
327.457	1183.62
327.686	973.62
327.914	289.62
328.143	158.62
328.372	131.62
328.6	110.62
328.829	108.62
329.058	129.62
329.287	104.62
329.515	104.62
329.744	98.62
329.972	102.62
330.201	95.62
330.43	111.62
330.658	118.62
330.887	123.62
331.115	109.62
331.344	84.62
331.572	101.62
331.801	90.62
332.03	111.62
332.258	103.62
332.486	87.62
332.715	73.62
332.943	93.62
333.172	97.62
333.4	77.62
333.629	100.62
333.857	104.62
334.085	98.62
334.314	95.62
334.542	116.62
334.771	126.62
334.999	93.62
335.227	92.62
335.455	91.62
335.684	91.62
335.912	94.62
336.14	98.62
336.369	101.62
336.597	81.62
336.825	78.62
337.053	88.62
337.281	101.62
337.51	90.62
337.738	81.62
337.966	97.62
338.194	93.62
338.422	97.62
338.65	78.62
338.878	91.62
339.106	88.62
339.334	86.62
339.562	92.62
339.79	86.62
340.018	86.62
340.246	98.62
340.474	81.62
340.702	85.62
340.93	104.62
341.158	97.62
341.386	65.62
341.614	81.62
341.842	93.62
342.07	102.62
342.298	83.62
342.526	86.62
342.754	86.62
342.981	79.62
343.209	81.62
343.437	103.62
343.665	97.62
343.893	94.62
344.12	76.62
344.348	93.62
344.576	75.62
344.804	88.62
345.031	107.62
345.259	82.62
345.487	91.62
345.714	85.62
345.942	79.62
346.17	91.62
346.397	79.62
346.625	88.62
346.853	77.62
347.08	96.62
347.308	105.62
347.535	94.62
347.763	86.62
347.99	108.62
348.218	100.62
348.445	104.62
348.673	102.62
348.9	86.62
349.128	93.62
349.355	110.62
349.583	94.62
349.81	101.62
350.037	97.62
350.265	90.62
350.492	101.62
350.72	93.62
350.947	89.62
351.174	106.62
351.402	105.62
351.629	89.62
351.856	104.62
352.083	91.62
352.311	93.62
352.538	97.62
352.765	111.62
352.992	109.62
353.22	105.62
353.447	105.62
353.674	85.62
353.901	105.62
354.128	92.62
354.355	94.62
354.583	109.62
354.81	101.62
355.037	89.62
355.264	93.62
355.491	91.62
355.718	69.62
355.945	93.62
356.172	93.62
356.399	79.62
356.626	83.62
356.853	89.62
357.08	93.62
357.307	92.62
357.534	97.62
357.761	91.62
357.988	105.62
358.215	101.62
358.441	88.62
358.668	83.62
358.895	99.62
359.122	79.62
359.349	91.62
359.576	92.62
359.802	91.62
360.029	117.62
360.256	103.62
360.483	83.62
360.709	84.62
360.936	87.62
361.163	96.62
361.39	101.62
361.616	100.62
361.843	87.62
362.07	94.62
362.296	95.62
362.523	99.62
362.749	95.62
362.976	101.62
363.203	95.62
363.429	90.62
363.656	102.62
363.882	101.62
364.109	103.62
364.335	93.62
364.562	93.62
364.788	90.62
365.015	89.62
365.241	90.62
365.468	118.62
365.694	115.62
365.92	110.62
366.147	103.62
366.373	97.62
366.599	98.62
366.826	103.62
367.052	77.62
367.278	89.62
367.505	103.62
367.731	81.62
367.957	95.62
368.184	89.62
368.41	97.62
368.636	89.62
368.862	111.62
369.089	106.62
369.315	81.62
369.541	90.62
369.767	83.62
369.993	83.62
370.219	83.62
370.445	90.62
370.672	86.62
370.898	76.62
371.124	84.62
371.35	90.62
371.576	99.62
371.802	82.62
372.028	88.62
372.254	89.62
372.48	90.62
372.706	99.62
372.932	86.62
373.158	90.62
373.384	96.62
373.61	97.62
373.835	84.62
374.061	94.62
374.287	84.62
374.513	103.62
374.739	97.62
374.965	85.62
375.191	90.62
375.416	101.62
375.642	94.62
375.868	81.62
376.094	94.62
376.319	103.62
376.545	93.62
376.771	90.62
376.997	82.62
377.222	94.62
377.448	99.62
377.674	93.62
377.899	94.62
378.125	88.62
378.35	97.62
378.576	96.62
378.802	99.62
379.027	102.62
379.253	93.62
379.478	94.62
379.704	96.62
379.929	101.62
380.155	95.62
380.38	92.62
380.606	91.62
380.831	104.62
381.057	81.62
381.282	103.62
381.507	111.62
381.733	89.62
381.958	97.62
382.184	107.62
382.409	93.62
382.634	95.62
382.86	109.62
383.085	104.62
383.31	90.62
383.535	92.62
383.761	94.62
383.986	102.62
384.211	93.62
384.436	95.62
384.662	106.62
384.887	96.62
385.112	93.62
385.337	102.62
385.562	96.62
385.787	94.62
386.013	100.62
386.238	111.62
386.463	97.62
386.688	105.62
386.913	100.62
387.138	108.62
387.363	99.62
387.588	98.62
387.813	90.62
388.038	94.62
388.263	117.62
388.488	110.62
388.713	102.62
388.938	98.62
389.163	75.62
389.387	99.62
389.612	100.62
389.837	94.62
390.062	89.62
390.287	91.62
390.512	88.62
390.736	83.62
390.961	87.62
391.186	87.62
391.411	94.62
391.636	97.62
391.86	83.62
392.085	102.62
392.31	84.62
392.534	74.62
392.759	93.62
392.984	87.62
393.208	82.62
393.433	80.62
393.658	88.62
393.882	86.62
394.107	90.62
394.331	89.62
394.556	85.62
394.78	90.62
395.005	83.62
395.229	81.62
395.454	88.62
395.678	101.62
395.903	95.62
396.127	79.62
396.352	90.62
396.576	74.62
396.801	83.62
397.025	79.62
397.249	94.62
397.474	85.62
397.698	89.62
397.922	75.62
398.147	84.62
398.371	97.62
398.595	92.62
398.82	67.62
399.044	93.62
399.268	92.62
399.492	87.62
399.717	93.62
399.941	86.62
400.165	86.62
400.389	79.62
400.613	89.62
400.837	73.62
401.062	93.62
401.286	81.62
401.51	83.62
401.734	100.62
401.958	94.62
402.182	99.62
402.406	130.62
402.63	107.62
402.854	82.62
403.078	93.62
403.302	75.62
403.526	77.62
403.75	91.62
403.974	94.62
404.198	78.62
404.422	97.62
404.645	92.62
404.869	73.62
405.093	105.62
405.317	94.62
405.541	89.62
405.765	85.62
405.988	123.62
406.212	149.62
406.436	172.62
406.66	118.62
406.883	92.62
407.107	92.62
407.331	83.62
407.555	93.62
407.778	95.62
408.002	88.62
408.226	104.62
408.449	88.62
408.673	86.62
408.896	87.62
409.12	89.62
409.344	99.62
409.567	88.62
409.791	94.62
410.014	90.62
410.238	102.62
410.461	101.62
410.685	96.62
410.908	86.62
411.132	95.62
411.355	98.62
411.578	91.62
411.802	94.62
412.025	96.62
412.249	91.62
412.472	95.62
412.695	86.62
412.919	97.62
413.142	89.62
413.365	82.62
413.589	93.62
413.812	90.62
414.035	97.62
414.258	77.62
414.482	81.62
414.705	82.62
414.928	89.62
415.151	84.62
415.374	94.62
415.597	93.62
415.821	96.62
416.044	97.62
416.267	94.62
416.49	87.62
416.713	89.62
416.936	86.62
417.159	81.62
417.382	83.62
417.605	94.62
417.828	91.62
418.051	104.62
418.274	97.62
418.497	82.62
418.72	101.62
418.943	94.62
419.166	81.62
419.389	92.62
419.611	75.62
419.834	77.62
420.057	72.62
420.28	87.62
420.503	85.62
420.726	72.62
420.948	93.62
421.171	82.62
421.394	90.62
421.617	88.62
421.839	84.62
422.062	88.62
422.285	87.62
422.507	93.62
422.73	95.62
422.953	85.62
423.175	96.62
423.398	78.62
423.621	76.62
423.843	85.62
424.066	87.62
424.288	95.62
424.511	78.62
424.733	100.62
424.956	92.62
425.178	87.62
425.401	85.62
425.623	82.62
425.846	92.62
426.068	100.62
426.291	97.62
426.513	92.62
426.735	94.62
426.958	93.62
427.18	99.62
427.402	112.62
427.625	126.62
427.847	112.62
428.069	81.62
428.292	84.62
428.514	82.62
428.736	92.62
428.958	81.62
429.181	83.62
429.403	79.62
429.625	93.62
429.847	99.62
430.069	99.62
430.292	92.62
430.514	87.62
430.736	87.62
430.958	83.62
431.18	71.62
431.402	82.62
431.624	79.62
431.846	110.62
432.068	76.62
432.29	93.62
432.512	77.62
432.734	75.62
432.956	85.62
433.178	88.62
433.4	103.62
433.622	109.62
433.844	86.62
434.066	100.62
434.287	92.62
434.509	89.62
434.731	78.62
434.953	87.62
435.175	90.62
435.397	84.62
435.618	88.62
435.84	93.62
436.062	104.62
436.284	102.62
436.505	105.62
436.727	108.62
436.949	85.62
437.17	89.62
437.392	99.62
437.614	92.62
437.835	95.62
438.057	113.62
438.278	101.62
438.5	88.62
438.721	103.62
438.943	107.62
439.165	91.62
439.386	84.62
439.608	98.62
439.829	92.62
440.05	109.62
440.272	118.62
440.493	94.62
440.715	92.62
440.936	94.62
441.158	79.62
441.379	89.62
441.6	91.62
441.822	105.62
442.043	92.62
442.264	107.62
442.486	97.62
442.707	86.62
442.928	86.62
443.149	98.62
443.371	119.62
443.592	111.62
443.813	101.62
444.034	84.62
444.255	95.62
444.476	77.62
444.698	79.62
444.919	82.62
445.14	129.62
445.361	122.62
445.582	120.62
445.803	95.62
446.024	120.62
446.245	103.62
446.466	93.62
446.687	90.62
446.908	85.62
447.129	87.62
447.35	90.62
447.571	94.62
447.792	100.62
448.013	92.62
448.234	106.62
448.455	78.62
448.675	101.62
448.896	97.62
449.117	106.62
449.338	97.62
449.559	110.62
449.779	115.62
450	74.62
450.221	85.62
450.442	86.62
450.662	70.62
450.883	104.62
451.104	94.62
451.324	89.62
451.545	94.62
451.766	84.62
451.986	86.62
452.207	86.62
452.428	98.62
452.648	93.62
452.869	102.62
453.089	124.62
453.31	97.62
453.53	100.62
453.751	78.62
453.971	81.62
454.192	95.62
454.412	90.62
454.633	91.62
454.853	93.62
455.073	97.62
455.294	88.62
455.514	87.62
455.734	78.62
455.955	91.62
456.175	86.62
456.395	78.62
456.616	85.62
456.836	81.62
457.056	79.62
457.276	84.62
457.497	74.62
457.717	81.62
457.937	77.62
458.157	86.62
458.377	85.62
458.598	98.62
458.818	123.62
459.038	126.62
459.258	106.62
459.478	92.62
459.698	81.62
459.918	86.62
460.138	100.62
460.358	81.62
460.578	98.62
460.798	80.62
461.018	86.62
461.238	95.62
461.458	84.62
461.678	88.62
461.898	85.62
462.118	89.62
462.338	76.62
462.558	84.62
462.777	91.62
462.997	75.62
463.217	72.62
463.437	105.62
463.657	93.62
463.876	83.62
464.096	85.62
464.316	98.62
464.536	90.62
464.755	82.62
464.975	92.62
465.195	134.62
465.414	124.62
465.634	90.62
465.854	79.62
466.073	91.62
466.293	99.62
466.512	92.62
466.732	85.62
466.951	93.62
467.171	101.62
467.391	98.62
467.61	105.62
467.829	86.62
468.049	91.62
468.268	91.62
468.488	94.62
468.707	84.62
468.927	73.62
469.146	90.62
469.365	91.62
469.585	87.62
469.804	96.62
470.023	96.62
470.243	97.62
470.462	88.62
470.681	89.62
470.901	85.62
471.12	90.62
471.339	85.62
471.558	76.62
471.777	89.62
471.997	85.62
472.216	99.62
472.435	139.62
472.654	90.62
472.873	85.62
473.092	88.62
473.311	89.62
473.53	100.62
473.749	82.62
473.968	93.62
474.187	93.62
474.406	96.62
474.625	93.62
474.844	98.62
475.063	83.62
475.282	74.62
475.501	84.62
475.72	94.62
475.939	87.62
476.158	92.62
476.377	97.62
476.596	81.62
476.814	90.62
477.033	92.62
477.252	77.62
477.471	72.62
477.69	88.62
477.908	99.62
478.127	86.62
478.346	75.62
478.564	90.62
478.783	81.62
479.002	98.62
479.22	98.62
479.439	106.62
479.658	84.62
479.876	87.62
480.095	84.62
480.313	102.62
480.532	92.62
480.751	90.62
480.969	97.62
481.188	175.62
481.406	149.62
481.624	103.62
481.843	83.62
482.061	86.62
482.28	84.62
482.498	94.62
482.717	102.62
482.935	102.62
483.153	88.62
483.372	77.62
483.59	77.62
483.808	96.62
484.027	93.62
484.245	106.62
484.463	116.62
484.681	95.62
484.9	92.62
485.118	100.62
485.336	84.62
485.554	95.62
485.772	98.62
485.99	98.62
486.209	98.62
486.427	103.62
486.645	101.62
486.863	104.62
487.081	92.62
487.299	89.62
487.517	101.62
487.735	90.62
487.953	76.62
488.171	97.62
488.389	93.62
488.607	92.62
488.825	84.62
489.043	97.62
489.261	91.62
489.479	78.62
489.696	92.62
489.914	90.62
490.132	87.62
490.35	79.62
490.568	91.62
490.786	85.62
491.003	96.62
491.221	98.62
491.439	95.62
491.657	75.62
491.874	87.62
492.092	94.62
492.31	83.62
492.527	78.62
492.745	89.62
492.963	84.62
493.18	89.62
493.398	105.62
493.615	106.62
493.833	88.62
494.05	90.62
494.268	98.62
494.485	86.62
494.703	86.62
494.92	90.62
495.138	79.62
495.355	74.62
495.573	94.62
495.79	85.62
496.008	83.62
496.225	87.62
496.442	86.62
496.66	79.62
496.877	89.62
497.094	90.62
497.312	97.62
497.529	91.62
497.746	88.62
497.963	86.62
498.181	91.62
498.398	86.62
498.615	91.62
498.832	92.62
499.049	90.62
499.267	91.62
499.484	86.62
499.701	88.62
499.918	92.62
500.135	85.62
500.352	82.62
500.569	99.62
500.786	94.62
501.003	97.62
501.22	88.62
501.437	83.62
501.654	94.62
501.871	101.62
502.088	86.62
502.305	79.62
502.522	91.62
502.739	93.62
502.956	88.62
503.172	104.62
503.389	108.62
503.606	95.62
503.823	95.62
504.04	92.62
504.256	90.62
504.473	86.62
504.69	91.62
504.907	93.62
505.123	87.62
505.34	91.62
505.557	99.62
505.773	85.62
505.99	92.62
506.207	86.62
506.423	88.62
506.64	100.62
506.856	82.62
507.073	82.62
507.289	101.62
507.506	99.62
507.722	91.62
507.939	101.62
508.155	89.62
508.372	86.62
508.588	87.62
508.805	104.62
509.021	94.62
509.238	91.62
509.454	88.62
509.67	93.62
509.887	100.62
510.103	125.62
510.319	173.62
510.536	564.62
510.752	1733.62
510.968	487.62
511.184	143.62
511.401	92.62
511.617	100.62
511.833	80.62
512.049	90.62
512.265	91.62
512.481	94.62
512.698	98.62
512.914	99.62
513.13	93.62
513.346	90.62
513.562	81.62
513.778	85.62
513.994	98.62
514.21	108.62
514.426	108.62
514.642	97.62
514.858	104.62
515.074	132.62
515.29	314.62
515.506	1025.62
515.721	389.62
515.937	129.62
516.153	98.62
516.369	99.62
516.585	95.62
516.801	101.62
