Data from Uncirc_1980_H10_HRD10591_00063.txt Node
Date: Wed Jan 03 12:37:08 EST 2024
User: Yrep
Spectrometer: HR+D1059
Trigger mode: 1
Integration Time (sec): 1.000000E-1
Scans to average: 1
Electric dark correction enabled: true
Nonlinearity correction enabled: false
Boxcar width: 0
XAxis mode: Wavelengths
Number of Pixels in Spectrum: 2048
>>>>>Begin Spectral Data<<<<<
223.165	-8.75
223.4	-8.75
223.635	-8.75
223.869	-25.75
224.104	-21.75
224.338	-17.75
224.573	-14.75
224.808	-4.75
225.042	-13.75
225.277	-15.75
225.511	1.25
225.746	-4.75
225.98	3.25
226.215	14.25
226.449	20.25
226.683	18.25
226.918	32.25
227.152	38.25
227.387	23.25
227.621	45.25
227.856	52.25
228.09	50.25
228.324	47.25
228.559	50.25
228.793	46.25
229.027	57.25
229.262	60.25
229.496	63.25
229.73	75.25
229.964	88.25
230.199	62.25
230.433	66.25
230.667	72.25
230.901	82.25
231.136	66.25
231.37	72.25
231.604	82.25
231.838	82.25
232.072	79.25
232.306	75.25
232.541	75.25
232.775	86.25
233.009	78.25
233.243	72.25
233.477	59.25
233.711	74.25
233.945	75.25
234.179	86.25
234.413	78.25
234.647	87.25
234.881	70.25
235.115	73.25
235.349	96.25
235.583	89.25
235.817	76.25
236.051	67.25
236.285	82.25
236.519	68.25
236.753	70.25
236.987	72.25
237.221	68.25
237.455	75.25
237.689	75.25
237.922	75.25
238.156	74.25
238.39	84.25
238.624	84.25
238.858	74.25
239.091	55.25
239.325	67.25
239.559	84.25
239.793	85.25
240.027	74.25
240.26	80.25
240.494	91.25
240.728	82.25
240.961	69.25
241.195	84.25
241.429	80.25
241.662	78.25
241.896	70.25
242.13	61.25
242.363	68.25
242.597	71.25
242.83	71.25
243.064	84.25
243.298	72.25
243.531	62.25
243.765	56.25
243.998	80.25
244.232	94.25
244.465	87.25
244.699	82.25
244.932	78.25
245.166	82.25
245.399	70.25
245.633	64.25
245.866	83.25
246.099	51.25
246.333	69.25
246.566	73.25
246.8	72.25
247.033	74.25
247.266	81.25
247.5	78.25
247.733	66.25
247.966	74.25
248.2	86.25
248.433	87.25
248.666	70.25
248.899	80.25
249.133	67.25
249.366	95.25
249.599	86.25
249.832	75.25
250.066	97.25
250.299	68.25
250.532	94.25
250.765	78.25
250.998	75.25
251.231	90.25
251.465	84.25
251.698	64.25
251.931	72.25
252.164	85.25
252.397	64.25
252.63	68.25
252.863	84.25
253.096	76.25
253.329	91.25
253.562	75.25
253.795	74.25
254.028	80.25
254.261	75.25
254.494	83.25
254.727	92.25
254.96	87.25
255.193	74.25
255.426	70.25
255.659	78.25
255.892	88.25
256.124	73.25
256.357	71.25
256.59	80.25
256.823	74.25
257.056	88.25
257.289	86.25
257.521	70.25
257.754	73.25
257.987	64.25
258.22	70.25
258.452	79.25
258.685	82.25
258.918	88.25
259.151	82.25
259.383	81.25
259.616	76.25
259.849	78.25
260.081	91.25
260.314	68.25
260.547	86.25
260.779	89.25
261.012	70.25
261.244	82.25
261.477	90.25
261.71	88.25
261.942	90.25
262.175	107.25
262.407	80.25
262.64	79.25
262.872	90.25
263.105	84.25
263.337	102.25
263.57	78.25
263.802	81.25
264.035	66.25
264.267	90.25
264.499	68.25
264.732	76.25
264.964	95.25
265.197	70.25
265.429	75.25
265.661	81.25
265.894	94.25
266.126	86.25
266.358	86.25
266.591	78.25
266.823	74.25
267.055	74.25
267.287	82.25
267.52	66.25
267.752	90.25
267.984	80.25
268.216	75.25
268.448	90.25
268.681	72.25
268.913	71.25
269.145	85.25
269.377	76.25
269.609	83.25
269.841	94.25
270.073	76.25
270.306	82.25
270.538	89.25
270.77	73.25
271.002	76.25
271.234	64.25
271.466	85.25
271.698	55.25
271.93	78.25
272.162	81.25
272.394	92.25
272.626	90.25
272.858	80.25
273.09	85.25
273.322	84.25
273.553	82.25
273.785	81.25
274.017	92.25
274.249	95.25
274.481	79.25
274.713	81.25
274.945	88.25
275.176	92.25
275.408	85.25
275.64	81.25
275.872	80.25
276.104	82.25
276.335	74.25
276.567	81.25
276.799	100.25
277.031	103.25
277.262	75.25
277.494	71.25
277.726	82.25
277.957	73.25
278.189	74.25
278.421	90.25
278.652	68.25
278.884	87.25
279.115	88.25
279.347	79.25
279.579	82.25
279.81	70.25
280.042	73.25
280.273	71.25
280.505	79.25
280.736	77.25
280.968	82.25
281.199	91.25
281.431	72.25
281.662	79.25
281.894	84.25
282.125	105.25
282.356	97.25
282.588	120.25
282.819	82.25
283.051	90.25
283.282	84.25
283.513	65.25
283.745	76.25
283.976	81.25
284.207	90.25
284.439	94.25
284.67	80.25
284.901	68.25
285.132	82.25
285.364	83.25
285.595	91.25
285.826	90.25
286.057	101.25
286.288	79.25
286.52	70.25
286.751	65.25
286.982	70.25
287.213	78.25
287.444	79.25
287.675	70.25
287.906	88.25
288.138	86.25
288.369	96.25
288.6	105.25
288.831	95.25
289.062	102.25
289.293	73.25
289.524	82.25
289.755	73.25
289.986	80.25
290.217	76.25
290.448	82.25
290.679	94.25
290.91	79.25
291.141	83.25
291.371	89.25
291.602	84.25
291.833	91.25
292.064	75.25
292.295	76.25
292.526	99.25
292.757	90.25
292.987	78.25
293.218	73.25
293.449	99.25
293.68	86.25
293.91	99.25
294.141	88.25
294.372	82.25
294.603	81.25
294.833	82.25
295.064	79.25
295.295	92.25
295.525	94.25
295.756	94.25
295.987	112.25
296.217	118.25
296.448	107.25
296.679	90.25
296.909	86.25
297.14	100.25
297.37	83.25
297.601	84.25
297.831	72.25
298.062	74.25
298.292	83.25
298.523	82.25
298.753	80.25
298.984	91.25
299.214	91.25
299.445	88.25
299.675	87.25
299.905	101.25
300.136	79.25
300.366	75.25
300.597	77.25
300.827	84.25
301.057	96.25
301.288	99.25
301.518	100.25
301.748	86.25
301.979	86.25
302.209	82.25
302.439	85.25
302.669	83.25
302.9	94.25
303.13	80.25
303.36	87.25
303.59	89.25
303.82	84.25
304.051	91.25
304.281	86.25
304.511	81.25
304.741	80.25
304.971	80.25
305.201	70.25
305.431	98.25
305.661	92.25
305.891	69.25
306.121	78.25
306.352	100.25
306.582	122.25
306.812	82.25
307.042	83.25
307.272	100.25
307.502	85.25
307.731	85.25
307.961	98.25
308.191	92.25
308.421	84.25
308.651	86.25
308.881	90.25
309.111	87.25
309.341	100.25
309.571	89.25
309.8	91.25
310.03	92.25
310.26	87.25
310.49	88.25
310.72	93.25
310.949	94.25
311.179	106.25
311.409	87.25
311.639	86.25
311.868	106.25
312.098	95.25
312.328	73.25
312.557	99.25
312.787	95.25
313.017	102.25
313.246	87.25
313.476	79.25
313.706	90.25
313.935	85.25
314.165	91.25
314.394	79.25
314.624	105.25
314.853	96.25
315.083	87.25
315.312	85.25
315.542	92.25
315.771	108.25
316.001	88.25
316.23	85.25
316.46	92.25
316.689	91.25
316.919	85.25
317.148	88.25
317.377	96.25
317.607	92.25
317.836	95.25
318.065	96.25
318.295	83.25
318.524	75.25
318.753	88.25
318.983	93.25
319.212	90.25
319.441	98.25
319.67	96.25
319.9	100.25
320.129	96.25
320.358	93.25
320.587	97.25
320.816	80.25
321.046	106.25
321.275	88.25
321.504	90.25
321.733	95.25
321.962	96.25
322.191	96.25
322.42	100.25
322.649	96.25
322.878	106.25
323.108	107.25
323.337	114.25
323.566	116.25
323.795	131.25
324.024	172.25
324.253	316.25
324.482	612.25
324.71	1291.25
324.939	1764.25
325.168	646.25
325.397	208.25
325.626	126.25
325.855	128.25
326.084	123.25
326.313	125.25
326.542	130.25
326.77	185.25
326.999	357.25
327.228	720.25
327.457	1344.25
327.686	1103.25
327.914	316.25
328.143	170.25
328.372	144.25
328.6	119.25
328.829	111.25
329.058	98.25
329.287	116.25
329.515	105.25
329.744	106.25
329.972	96.25
330.201	116.25
330.43	127.25
330.658	119.25
330.887	119.25
331.115	106.25
331.344	102.25
331.572	90.25
331.801	107.25
332.03	91.25
332.258	100.25
332.486	82.25
332.715	85.25
332.943	93.25
333.172	99.25
333.4	82.25
333.629	86.25
333.857	103.25
334.085	108.25
334.314	104.25
334.542	123.25
334.771	118.25
334.999	84.25
335.227	82.25
335.455	71.25
335.684	87.25
335.912	75.25
336.14	102.25
336.369	87.25
336.597	75.25
336.825	98.25
337.053	96.25
337.281	87.25
337.51	81.25
337.738	87.25
337.966	106.25
338.194	95.25
338.422	101.25
338.65	82.25
338.878	92.25
339.106	82.25
339.334	80.25
339.562	91.25
339.79	98.25
340.018	86.25
340.246	90.25
340.474	86.25
340.702	85.25
340.93	79.25
341.158	85.25
341.386	90.25
341.614	103.25
341.842	89.25
342.07	88.25
342.298	89.25
342.526	93.25
342.754	92.25
342.981	80.25
343.209	74.25
343.437	96.25
343.665	94.25
343.893	70.25
344.12	84.25
344.348	86.25
344.576	92.25
344.804	92.25
345.031	92.25
345.259	91.25
345.487	95.25
345.714	89.25
345.942	85.25
346.17	88.25
346.397	88.25
346.625	99.25
346.853	82.25
347.08	87.25
347.308	77.25
347.535	94.25
347.763	90.25
347.99	89.25
348.218	108.25
348.445	100.25
348.673	80.25
348.9	87.25
349.128	102.25
349.355	84.25
349.583	82.25
349.81	86.25
350.037	96.25
350.265	88.25
350.492	96.25
350.72	97.25
350.947	92.25
351.174	97.25
351.402	99.25
351.629	103.25
351.856	102.25
352.083	95.25
352.311	100.25
352.538	89.25
352.765	101.25
352.992	114.25
353.22	104.25
353.447	99.25
353.674	104.25
353.901	92.25
354.128	96.25
354.355	99.25
354.583	100.25
354.81	83.25
355.037	91.25
355.264	90.25
355.491	90.25
355.718	99.25
355.945	98.25
356.172	78.25
356.399	102.25
356.626	94.25
356.853	92.25
357.08	86.25
357.307	95.25
357.534	93.25
357.761	84.25
357.988	94.25
358.215	91.25
358.441	86.25
358.668	80.25
358.895	108.25
359.122	82.25
359.349	96.25
359.576	84.25
359.802	91.25
360.029	84.25
360.256	106.25
360.483	97.25
360.709	92.25
360.936	87.25
361.163	98.25
361.39	101.25
361.616	103.25
361.843	104.25
362.07	107.25
362.296	96.25
362.523	83.25
362.749	98.25
362.976	102.25
363.203	84.25
363.429	78.25
363.656	90.25
363.882	90.25
364.109	81.25
364.335	97.25
364.562	90.25
364.788	83.25
365.015	90.25
365.241	100.25
365.468	82.25
365.694	102.25
365.92	89.25
366.147	86.25
366.373	87.25
366.599	91.25
366.826	84.25
367.052	91.25
367.278	85.25
367.505	83.25
367.731	84.25
367.957	90.25
368.184	81.25
368.41	89.25
368.636	111.25
368.862	104.25
369.089	96.25
369.315	95.25
369.541	95.25
369.767	75.25
369.993	92.25
370.219	92.25
370.445	86.25
370.672	94.25
370.898	94.25
371.124	87.25
371.35	97.25
371.576	84.25
371.802	89.25
372.028	85.25
372.254	82.25
372.48	92.25
372.706	80.25
372.932	82.25
373.158	87.25
373.384	68.25
373.61	84.25
373.835	92.25
374.061	94.25
374.287	89.25
374.513	102.25
374.739	96.25
374.965	98.25
375.191	83.25
375.416	101.25
375.642	87.25
375.868	87.25
376.094	84.25
376.319	78.25
376.545	88.25
376.771	96.25
376.997	98.25
377.222	96.25
377.448	92.25
377.674	91.25
377.899	91.25
378.125	84.25
378.35	95.25
378.576	107.25
378.802	94.25
379.027	90.25
379.253	79.25
379.478	85.25
379.704	81.25
379.929	89.25
380.155	96.25
380.38	92.25
380.606	97.25
380.831	100.25
381.057	106.25
381.282	88.25
381.507	97.25
381.733	102.25
381.958	90.25
382.184	90.25
382.409	92.25
382.634	106.25
382.86	105.25
383.085	118.25
383.31	97.25
383.535	95.25
383.761	100.25
383.986	101.25
384.211	94.25
384.436	111.25
384.662	93.25
384.887	106.25
385.112	100.25
385.337	97.25
385.562	98.25
385.787	98.25
386.013	114.25
386.238	119.25
386.463	96.25
386.688	112.25
386.913	107.25
387.138	99.25
387.363	100.25
387.588	108.25
387.813	113.25
388.038	106.25
388.263	97.25
388.488	121.25
388.713	83.25
388.938	91.25
389.163	110.25
389.387	78.25
389.612	98.25
389.837	90.25
390.062	88.25
390.287	79.25
390.512	94.25
390.736	86.25
390.961	85.25
391.186	90.25
391.411	84.25
391.636	80.25
391.86	81.25
392.085	91.25
392.31	90.25
392.534	87.25
392.759	83.25
392.984	91.25
393.208	60.25
393.433	75.25
393.658	75.25
393.882	81.25
394.107	91.25
394.331	82.25
394.556	79.25
394.78	81.25
395.005	87.25
395.229	69.25
395.454	75.25
395.678	72.25
395.903	91.25
396.127	86.25
396.352	88.25
396.576	88.25
396.801	89.25
397.025	90.25
397.249	78.25
397.474	81.25
397.698	89.25
397.922	94.25
398.147	82.25
398.371	93.25
398.595	82.25
398.82	81.25
399.044	63.25
399.268	95.25
399.492	90.25
399.717	81.25
399.941	89.25
400.165	88.25
400.389	86.25
400.613	83.25
400.837	73.25
401.062	82.25
401.286	90.25
401.51	73.25
401.734	86.25
401.958	104.25
402.182	109.25
402.406	123.25
402.63	106.25
402.854	81.25
403.078	99.25
403.302	90.25
403.526	96.25
403.75	90.25
403.974	82.25
404.198	84.25
404.422	84.25
404.645	94.25
404.869	87.25
405.093	75.25
405.317	100.25
405.541	101.25
405.765	88.25
405.988	109.25
406.212	147.25
406.436	179.25
406.66	124.25
406.883	103.25
407.107	89.25
407.331	102.25
407.555	90.25
407.778	94.25
408.002	81.25
408.226	85.25
408.449	95.25
408.673	89.25
408.896	74.25
409.12	76.25
409.344	82.25
409.567	87.25
409.791	89.25
410.014	101.25
410.238	89.25
410.461	96.25
410.685	98.25
410.908	109.25
411.132	94.25
411.355	99.25
411.578	89.25
411.802	86.25
412.025	82.25
412.249	92.25
412.472	88.25
412.695	76.25
412.919	90.25
413.142	81.25
413.365	90.25
413.589	99.25
413.812	95.25
414.035	94.25
414.258	97.25
414.482	86.25
414.705	91.25
414.928	78.25
415.151	86.25
415.374	100.25
415.597	99.25
415.821	84.25
416.044	92.25
416.267	84.25
416.49	91.25
416.713	77.25
416.936	100.25
417.159	78.25
417.382	78.25
417.605	80.25
417.828	93.25
418.051	86.25
418.274	74.25
418.497	94.25
418.72	99.25
418.943	91.25
419.166	84.25
419.389	91.25
419.611	81.25
419.834	91.25
420.057	78.25
420.28	72.25
420.503	73.25
420.726	96.25
420.948	82.25
421.171	94.25
421.394	82.25
421.617	87.25
421.839	90.25
422.062	88.25
422.285	96.25
422.507	82.25
422.73	102.25
422.953	82.25
423.175	87.25
423.398	82.25
423.621	90.25
423.843	92.25
424.066	81.25
424.288	87.25
424.511	86.25
424.733	83.25
424.956	105.25
425.178	83.25
425.401	94.25
425.623	103.25
425.846	79.25
426.068	74.25
426.291	80.25
426.513	84.25
426.735	92.25
426.958	101.25
427.18	102.25
427.402	129.25
427.625	133.25
427.847	111.25
428.069	88.25
428.292	93.25
428.514	86.25
428.736	78.25
428.958	86.25
429.181	78.25
429.403	86.25
429.625	92.25
429.847	94.25
430.069	95.25
430.292	85.25
430.514	75.25
430.736	59.25
430.958	79.25
431.18	82.25
431.402	87.25
431.624	98.25
431.846	80.25
432.068	88.25
432.29	81.25
432.512	87.25
432.734	69.25
432.956	83.25
433.178	88.25
433.4	104.25
433.622	97.25
433.844	92.25
434.066	85.25
434.287	84.25
434.509	75.25
434.731	59.25
434.953	88.25
435.175	85.25
435.397	97.25
435.618	80.25
435.84	89.25
436.062	113.25
436.284	116.25
436.505	103.25
436.727	100.25
436.949	101.25
437.17	79.25
437.392	82.25
437.614	96.25
437.835	106.25
438.057	105.25
438.278	92.25
438.5	97.25
438.721	122.25
438.943	86.25
439.165	92.25
439.386	72.25
439.608	75.25
439.829	100.25
440.05	107.25
440.272	118.25
440.493	89.25
440.715	88.25
440.936	82.25
441.158	84.25
441.379	81.25
441.6	68.25
441.822	86.25
442.043	89.25
442.264	86.25
442.486	86.25
442.707	71.25
442.928	99.25
443.149	96.25
443.371	103.25
443.592	96.25
443.813	83.25
444.034	98.25
444.255	71.25
444.476	82.25
444.698	73.25
444.919	76.25
445.14	142.25
445.361	117.25
445.582	95.25
445.803	122.25
446.024	123.25
446.245	123.25
446.466	102.25
446.687	90.25
446.908	88.25
447.129	79.25
447.35	82.25
447.571	94.25
447.792	88.25
448.013	92.25
448.234	107.25
448.455	100.25
448.675	113.25
448.896	118.25
449.117	92.25
449.338	98.25
449.559	118.25
449.779	121.25
450	96.25
450.221	70.25
450.442	83.25
450.662	88.25
450.883	91.25
451.104	106.25
451.324	89.25
451.545	79.25
451.766	80.25
451.986	92.25
452.207	85.25
452.428	96.25
452.648	96.25
452.869	94.25
453.089	96.25
453.31	114.25
453.53	93.25
453.751	87.25
453.971	102.25
454.192	112.25
454.412	80.25
454.633	86.25
454.853	70.25
455.073	92.25
455.294	92.25
455.514	99.25
455.734	76.25
455.955	74.25
456.175	70.25
456.395	72.25
456.616	83.25
456.836	75.25
457.056	76.25
457.276	78.25
457.497	80.25
457.717	83.25
457.937	75.25
458.157	91.25
458.377	102.25
458.598	91.25
458.818	127.25
459.038	139.25
459.258	105.25
459.478	100.25
459.698	73.25
459.918	88.25
460.138	69.25
460.358	73.25
460.578	79.25
460.798	86.25
461.018	87.25
461.238	91.25
461.458	85.25
461.678	90.25
461.898	89.25
462.118	105.25
462.338	73.25
462.558	83.25
462.777	84.25
462.997	79.25
463.217	82.25
463.437	94.25
463.657	72.25
463.876	85.25
464.096	88.25
464.316	85.25
464.536	85.25
464.755	76.25
464.975	99.25
465.195	164.25
465.414	138.25
465.634	90.25
465.854	89.25
466.073	77.25
466.293	88.25
466.512	89.25
466.732	95.25
466.951	84.25
467.171	90.25
467.391	87.25
467.61	91.25
467.829	87.25
468.049	106.25
468.268	86.25
468.488	78.25
468.707	92.25
468.927	80.25
469.146	93.25
469.365	88.25
469.585	90.25
469.804	87.25
470.023	104.25
470.243	88.25
470.462	83.25
470.681	100.25
470.901	89.25
471.12	90.25
471.339	82.25
471.558	87.25
471.777	88.25
471.997	82.25
472.216	98.25
472.435	121.25
472.654	99.25
472.873	76.25
473.092	81.25
473.311	88.25
473.53	72.25
473.749	92.25
473.968	86.25
474.187	90.25
474.406	90.25
474.625	73.25
474.844	91.25
475.063	90.25
475.282	79.25
475.501	92.25
475.72	90.25
475.939	72.25
476.158	86.25
476.377	88.25
476.596	99.25
476.814	99.25
477.033	91.25
477.252	85.25
477.471	69.25
477.69	82.25
477.908	91.25
478.127	75.25
478.346	90.25
478.564	97.25
478.783	93.25
479.002	95.25
479.22	103.25
479.439	88.25
479.658	95.25
479.876	86.25
480.095	91.25
480.313	84.25
480.532	83.25
480.751	86.25
480.969	115.25
481.188	193.25
481.406	134.25
481.624	92.25
481.843	78.25
482.061	94.25
482.28	100.25
482.498	90.25
482.717	89.25
482.935	90.25
483.153	81.25
483.372	78.25
483.59	84.25
483.808	67.25
484.027	89.25
484.245	91.25
484.463	86.25
484.681	105.25
484.9	85.25
485.118	92.25
485.336	71.25
485.554	89.25
485.772	92.25
485.99	101.25
486.209	93.25
486.427	96.25
486.645	80.25
486.863	106.25
487.081	88.25
487.299	92.25
487.517	87.25
487.735	97.25
487.953	100.25
488.171	92.25
488.389	85.25
488.607	96.25
488.825	99.25
489.043	93.25
489.261	82.25
489.479	84.25
489.696	74.25
489.914	77.25
490.132	87.25
490.35	91.25
490.568	69.25
490.786	88.25
491.003	89.25
491.221	80.25
491.439	82.25
491.657	107.25
491.874	81.25
492.092	100.25
492.31	81.25
492.527	83.25
492.745	71.25
492.963	80.25
493.18	80.25
493.398	83.25
493.615	99.25
493.833	89.25
494.05	84.25
494.268	86.25
494.485	91.25
494.703	63.25
494.92	86.25
495.138	68.25
495.355	71.25
495.573	86.25
495.79	78.25
496.008	91.25
496.225	89.25
496.442	70.25
496.66	75.25
496.877	95.25
497.094	82.25
497.312	80.25
497.529	90.25
497.746	92.25
497.963	83.25
498.181	84.25
498.398	98.25
498.615	90.25
498.832	104.25
499.049	98.25
499.267	99.25
499.484	85.25
499.701	90.25
499.918	84.25
500.135	84.25
500.352	86.25
500.569	96.25
500.786	94.25
501.003	93.25
501.22	89.25
501.437	94.25
501.654	91.25
501.871	100.25
502.088	82.25
502.305	88.25
502.522	85.25
502.739	86.25
502.956	74.25
503.172	88.25
503.389	91.25
503.606	106.25
503.823	84.25
504.04	90.25
504.256	96.25
504.473	78.25
504.69	105.25
504.907	74.25
505.123	88.25
505.34	91.25
505.557	90.25
505.773	94.25
505.99	84.25
506.207	95.25
506.423	68.25
506.64	79.25
506.856	94.25
507.073	79.25
507.289	90.25
507.506	92.25
507.722	105.25
507.939	110.25
508.155	100.25
508.372	85.25
508.588	100.25
508.805	94.25
509.021	83.25
509.238	87.25
509.454	90.25
509.67	96.25
509.887	97.25
510.103	103.25
510.319	185.25
510.536	636.25
510.752	1957.25
510.968	541.25
511.184	142.25
511.401	128.25
511.617	104.25
511.833	74.25
512.049	98.25
512.265	84.25
512.481	84.25
512.698	101.25
512.914	80.25
513.13	95.25
513.346	92.25
513.562	105.25
513.778	86.25
513.994	94.25
514.21	92.25
514.426	113.25
514.642	111.25
514.858	120.25
515.074	151.25
515.29	373.25
515.506	1184.25
515.721	425.25
515.937	135.25
516.153	111.25
516.369	99.25
516.585	92.25
516.801	84.25
