Data from Uncirc_1980_H10_HRD10591_00036.txt Node
Date: Wed Jan 03 12:37:02 EST 2024
User: Yrep
Spectrometer: HR+D1059
Trigger mode: 1
Integration Time (sec): 1.000000E-1
Scans to average: 1
Electric dark correction enabled: true
Nonlinearity correction enabled: false
Boxcar width: 0
XAxis mode: Wavelengths
Number of Pixels in Spectrum: 2048
>>>>>Begin Spectral Data<<<<<
223.165	-21.88
223.4	-21.88
223.635	-21.88
223.869	-26.88
224.104	-23.88
224.338	-10.88
224.573	-19.88
224.808	-18.88
225.042	-2.88
225.277	-1.88
225.511	-3.88
225.746	23.12
225.98	10.12
226.215	12.12
226.449	15.12
226.683	18.12
226.918	27.12
227.152	25.12
227.387	36.12
227.621	39.12
227.856	29.12
228.09	40.12
228.324	45.12
228.559	46.12
228.793	44.12
229.027	56.12
229.262	81.12
229.496	73.12
229.73	78.12
229.964	78.12
230.199	75.12
230.433	72.12
230.667	73.12
230.901	77.12
231.136	84.12
231.37	94.12
231.604	83.12
231.838	74.12
232.072	68.12
232.306	75.12
232.541	78.12
232.775	76.12
233.009	72.12
233.243	81.12
233.477	91.12
233.711	76.12
233.945	86.12
234.179	94.12
234.413	91.12
234.647	85.12
234.881	79.12
235.115	75.12
235.349	94.12
235.583	74.12
235.817	85.12
236.051	70.12
236.285	68.12
236.519	79.12
236.753	78.12
236.987	75.12
237.221	85.12
237.455	72.12
237.689	66.12
237.922	74.12
238.156	79.12
238.39	89.12
238.624	74.12
238.858	71.12
239.091	78.12
239.325	67.12
239.559	87.12
239.793	80.12
240.027	86.12
240.26	84.12
240.494	71.12
240.728	71.12
240.961	85.12
241.195	73.12
241.429	74.12
241.662	85.12
241.896	77.12
242.13	92.12
242.363	69.12
242.597	81.12
242.83	86.12
243.064	78.12
243.298	55.12
243.531	73.12
243.765	74.12
243.998	85.12
244.232	82.12
244.465	76.12
244.699	75.12
244.932	72.12
245.166	81.12
245.399	74.12
245.633	68.12
245.866	83.12
246.099	74.12
246.333	80.12
246.566	76.12
246.8	77.12
247.033	81.12
247.266	85.12
247.5	69.12
247.733	86.12
247.966	94.12
248.2	75.12
248.433	75.12
248.666	75.12
248.899	70.12
249.133	66.12
249.366	92.12
249.599	93.12
249.832	87.12
250.066	92.12
250.299	93.12
250.532	93.12
250.765	77.12
250.998	66.12
251.231	78.12
251.465	91.12
251.698	72.12
251.931	76.12
252.164	79.12
252.397	85.12
252.63	87.12
252.863	74.12
253.096	83.12
253.329	76.12
253.562	87.12
253.795	83.12
254.028	86.12
254.261	81.12
254.494	74.12
254.727	89.12
254.96	78.12
255.193	82.12
255.426	93.12
255.659	75.12
255.892	81.12
256.124	100.12
256.357	83.12
256.59	73.12
256.823	76.12
257.056	73.12
257.289	79.12
257.521	74.12
257.754	81.12
257.987	94.12
258.22	79.12
258.452	84.12
258.685	91.12
258.918	79.12
259.151	84.12
259.383	76.12
259.616	82.12
259.849	60.12
260.081	89.12
260.314	103.12
260.547	87.12
260.779	81.12
261.012	84.12
261.244	76.12
261.477	86.12
261.71	89.12
261.942	104.12
262.175	103.12
262.407	85.12
262.64	88.12
262.872	81.12
263.105	77.12
263.337	75.12
263.57	83.12
263.802	91.12
264.035	86.12
264.267	65.12
264.499	85.12
264.732	83.12
264.964	71.12
265.197	81.12
265.429	80.12
265.661	66.12
265.894	80.12
266.126	94.12
266.358	95.12
266.591	88.12
266.823	74.12
267.055	83.12
267.287	89.12
267.52	76.12
267.752	76.12
267.984	91.12
268.216	75.12
268.448	74.12
268.681	83.12
268.913	87.12
269.145	85.12
269.377	71.12
269.609	83.12
269.841	75.12
270.073	83.12
270.306	93.12
270.538	79.12
270.77	97.12
271.002	74.12
271.234	76.12
271.466	73.12
271.698	82.12
271.93	91.12
272.162	85.12
272.394	103.12
272.626	76.12
272.858	100.12
273.09	97.12
273.322	86.12
273.553	70.12
273.785	84.12
274.017	86.12
274.249	85.12
274.481	88.12
274.713	81.12
274.945	92.12
275.176	85.12
275.408	88.12
275.64	91.12
275.872	94.12
276.104	84.12
276.335	83.12
276.567	92.12
276.799	112.12
277.031	85.12
277.262	104.12
277.494	86.12
277.726	95.12
277.957	90.12
278.189	87.12
278.421	95.12
278.652	96.12
278.884	89.12
279.115	81.12
279.347	90.12
279.579	90.12
279.81	80.12
280.042	77.12
280.273	77.12
280.505	89.12
280.736	71.12
280.968	84.12
281.199	94.12
281.431	84.12
281.662	75.12
281.894	99.12
282.125	111.12
282.356	100.12
282.588	127.12
282.819	116.12
283.051	103.12
283.282	81.12
283.513	93.12
283.745	88.12
283.976	91.12
284.207	93.12
284.439	88.12
284.67	81.12
284.901	84.12
285.132	85.12
285.364	87.12
285.595	91.12
285.826	85.12
286.057	87.12
286.288	81.12
286.52	81.12
286.751	81.12
286.982	93.12
287.213	82.12
287.444	97.12
287.675	91.12
287.906	97.12
288.138	94.12
288.369	97.12
288.6	78.12
288.831	98.12
289.062	97.12
289.293	91.12
289.524	90.12
289.755	86.12
289.986	86.12
290.217	89.12
290.448	97.12
290.679	84.12
290.91	86.12
291.141	84.12
291.371	95.12
291.602	100.12
291.833	77.12
292.064	83.12
292.295	83.12
292.526	88.12
292.757	87.12
292.987	85.12
293.218	79.12
293.449	85.12
293.68	81.12
293.91	82.12
294.141	87.12
294.372	94.12
294.603	85.12
294.833	93.12
295.064	91.12
295.295	93.12
295.525	99.12
295.756	98.12
295.987	123.12
296.217	123.12
296.448	114.12
296.679	109.12
296.909	81.12
297.14	78.12
297.37	87.12
297.601	78.12
297.831	84.12
298.062	93.12
298.292	74.12
298.523	91.12
298.753	99.12
298.984	97.12
299.214	106.12
299.445	89.12
299.675	91.12
299.905	89.12
300.136	75.12
300.366	90.12
300.597	91.12
300.827	99.12
301.057	101.12
301.288	91.12
301.518	93.12
301.748	77.12
301.979	89.12
302.209	85.12
302.439	97.12
302.669	91.12
302.9	94.12
303.13	84.12
303.36	86.12
303.59	94.12
303.82	109.12
304.051	88.12
304.281	98.12
304.511	74.12
304.741	86.12
304.971	83.12
305.201	82.12
305.431	82.12
305.661	91.12
305.891	94.12
306.121	94.12
306.352	102.12
306.582	87.12
306.812	79.12
307.042	97.12
307.272	87.12
307.502	85.12
307.731	98.12
307.961	85.12
308.191	81.12
308.421	82.12
308.651	86.12
308.881	94.12
309.111	86.12
309.341	98.12
309.571	86.12
309.8	90.12
310.03	92.12
310.26	102.12
310.49	86.12
310.72	100.12
310.949	91.12
311.179	103.12
311.409	100.12
311.639	101.12
311.868	93.12
312.098	94.12
312.328	93.12
312.557	79.12
312.787	101.12
313.017	89.12
313.246	91.12
313.476	84.12
313.706	78.12
313.935	103.12
314.165	95.12
314.394	97.12
314.624	77.12
314.853	86.12
315.083	95.12
315.312	88.12
315.542	102.12
315.771	95.12
316.001	102.12
316.23	88.12
316.46	94.12
316.689	71.12
316.919	105.12
317.148	90.12
317.377	95.12
317.607	89.12
317.836	103.12
318.065	94.12
318.295	75.12
318.524	92.12
318.753	92.12
318.983	82.12
319.212	93.12
319.441	100.12
319.67	101.12
319.9	92.12
320.129	90.12
320.358	98.12
320.587	89.12
320.816	90.12
321.046	90.12
321.275	98.12
321.504	107.12
321.733	99.12
321.962	88.12
322.191	100.12
322.42	93.12
322.649	99.12
322.878	115.12
323.108	109.12
323.337	99.12
323.566	114.12
323.795	123.12
324.024	169.12
324.253	303.12
324.482	631.12
324.71	1289.12
324.939	1745.12
325.168	651.12
325.397	204.12
325.626	134.12
325.855	118.12
326.084	106.12
326.313	131.12
326.542	130.12
326.77	198.12
326.999	364.12
327.228	739.12
327.457	1316.12
327.686	1096.12
327.914	303.12
328.143	161.12
328.372	132.12
328.6	108.12
328.829	107.12
329.058	118.12
329.287	120.12
329.515	103.12
329.744	115.12
329.972	95.12
330.201	89.12
330.43	118.12
330.658	97.12
330.887	131.12
331.115	113.12
331.344	87.12
331.572	112.12
331.801	105.12
332.03	101.12
332.258	83.12
332.486	92.12
332.715	97.12
332.943	83.12
333.172	98.12
333.4	92.12
333.629	88.12
333.857	111.12
334.085	111.12
334.314	125.12
334.542	118.12
334.771	109.12
334.999	97.12
335.227	87.12
335.455	89.12
335.684	106.12
335.912	95.12
336.14	98.12
336.369	91.12
336.597	89.12
336.825	81.12
337.053	79.12
337.281	93.12
337.51	96.12
337.738	88.12
337.966	90.12
338.194	90.12
338.422	93.12
338.65	105.12
338.878	97.12
339.106	75.12
339.334	87.12
339.562	84.12
339.79	105.12
340.018	86.12
340.246	89.12
340.474	93.12
340.702	96.12
340.93	75.12
341.158	84.12
341.386	89.12
341.614	98.12
341.842	111.12
342.07	90.12
342.298	96.12
342.526	98.12
342.754	92.12
342.981	87.12
343.209	79.12
343.437	100.12
343.665	93.12
343.893	85.12
344.12	86.12
344.348	102.12
344.576	90.12
344.804	98.12
345.031	95.12
345.259	90.12
345.487	93.12
345.714	101.12
345.942	92.12
346.17	109.12
346.397	91.12
346.625	104.12
346.853	99.12
347.08	103.12
347.308	110.12
347.535	103.12
347.763	87.12
347.99	96.12
348.218	108.12
348.445	101.12
348.673	97.12
348.9	94.12
349.128	86.12
349.355	93.12
349.583	74.12
349.81	99.12
350.037	101.12
350.265	91.12
350.492	82.12
350.72	88.12
350.947	96.12
351.174	107.12
351.402	97.12
351.629	108.12
351.856	86.12
352.083	99.12
352.311	105.12
352.538	95.12
352.765	99.12
352.992	110.12
353.22	108.12
353.447	95.12
353.674	104.12
353.901	95.12
354.128	112.12
354.355	115.12
354.583	104.12
354.81	102.12
355.037	93.12
355.264	86.12
355.491	81.12
355.718	83.12
355.945	102.12
356.172	89.12
356.399	94.12
356.626	88.12
356.853	78.12
357.08	103.12
357.307	108.12
357.534	102.12
357.761	96.12
357.988	99.12
358.215	102.12
358.441	104.12
358.668	91.12
358.895	90.12
359.122	95.12
359.349	92.12
359.576	85.12
359.802	93.12
360.029	99.12
360.256	87.12
360.483	106.12
360.709	78.12
360.936	103.12
361.163	83.12
361.39	89.12
361.616	96.12
361.843	100.12
362.07	102.12
362.296	90.12
362.523	82.12
362.749	81.12
362.976	63.12
363.203	88.12
363.429	72.12
363.656	95.12
363.882	93.12
364.109	94.12
364.335	91.12
364.562	80.12
364.788	99.12
365.015	90.12
365.241	93.12
365.468	99.12
365.694	93.12
365.92	90.12
366.147	90.12
366.373	86.12
366.599	84.12
366.826	85.12
367.052	82.12
367.278	89.12
367.505	70.12
367.731	82.12
367.957	101.12
368.184	98.12
368.41	91.12
368.636	99.12
368.862	112.12
369.089	103.12
369.315	105.12
369.541	82.12
369.767	95.12
369.993	87.12
370.219	88.12
370.445	96.12
370.672	85.12
370.898	95.12
371.124	79.12
371.35	75.12
371.576	81.12
371.802	89.12
372.028	92.12
372.254	102.12
372.48	85.12
372.706	98.12
372.932	84.12
373.158	85.12
373.384	93.12
373.61	84.12
373.835	99.12
374.061	82.12
374.287	81.12
374.513	85.12
374.739	100.12
374.965	90.12
375.191	104.12
375.416	86.12
375.642	83.12
375.868	95.12
376.094	105.12
376.319	89.12
376.545	75.12
376.771	91.12
376.997	91.12
377.222	79.12
377.448	84.12
377.674	101.12
377.899	89.12
378.125	102.12
378.35	89.12
378.576	94.12
378.802	86.12
379.027	85.12
379.253	94.12
379.478	100.12
379.704	90.12
379.929	97.12
380.155	99.12
380.38	107.12
380.606	94.12
380.831	93.12
381.057	92.12
381.282	96.12
381.507	89.12
381.733	103.12
381.958	101.12
382.184	93.12
382.409	98.12
382.634	111.12
382.86	97.12
383.085	98.12
383.31	104.12
383.535	102.12
383.761	91.12
383.986	97.12
384.211	91.12
384.436	99.12
384.662	95.12
384.887	101.12
385.112	98.12
385.337	99.12
385.562	104.12
385.787	117.12
386.013	102.12
386.238	126.12
386.463	107.12
386.688	113.12
386.913	109.12
387.138	102.12
387.363	109.12
387.588	110.12
387.813	113.12
388.038	108.12
388.263	111.12
388.488	118.12
388.713	100.12
388.938	93.12
389.163	86.12
389.387	92.12
389.612	89.12
389.837	86.12
390.062	85.12
390.287	88.12
390.512	98.12
390.736	91.12
390.961	93.12
391.186	110.12
391.411	116.12
391.636	96.12
391.86	97.12
392.085	95.12
392.31	97.12
392.534	85.12
392.759	87.12
392.984	86.12
393.208	89.12
393.433	86.12
393.658	86.12
393.882	88.12
394.107	87.12
394.331	68.12
394.556	78.12
394.78	88.12
395.005	93.12
395.229	84.12
395.454	95.12
395.678	94.12
395.903	81.12
396.127	90.12
396.352	89.12
396.576	74.12
396.801	89.12
397.025	81.12
397.249	82.12
397.474	74.12
397.698	87.12
397.922	101.12
398.147	95.12
398.371	82.12
398.595	94.12
398.82	80.12
399.044	92.12
399.268	78.12
399.492	79.12
399.717	88.12
399.941	94.12
400.165	93.12
400.389	84.12
400.613	95.12
400.837	74.12
401.062	78.12
401.286	85.12
401.51	97.12
401.734	84.12
401.958	109.12
402.182	113.12
402.406	136.12
402.63	123.12
402.854	87.12
403.078	84.12
403.302	78.12
403.526	77.12
403.75	88.12
403.974	85.12
404.198	83.12
404.422	81.12
404.645	78.12
404.869	88.12
405.093	90.12
405.317	98.12
405.541	106.12
405.765	106.12
405.988	104.12
406.212	143.12
406.436	180.12
406.66	125.12
406.883	99.12
407.107	88.12
407.331	90.12
407.555	88.12
407.778	96.12
408.002	90.12
408.226	84.12
408.449	98.12
408.673	98.12
408.896	86.12
409.12	87.12
409.344	107.12
409.567	93.12
409.791	89.12
410.014	88.12
410.238	95.12
410.461	104.12
410.685	92.12
410.908	109.12
411.132	100.12
411.355	102.12
411.578	89.12
411.802	91.12
412.025	91.12
412.249	99.12
412.472	96.12
412.695	93.12
412.919	84.12
413.142	97.12
413.365	88.12
413.589	87.12
413.812	85.12
414.035	97.12
414.258	85.12
414.482	93.12
414.705	90.12
414.928	93.12
415.151	89.12
415.374	91.12
415.597	80.12
415.821	90.12
416.044	87.12
416.267	87.12
416.49	106.12
416.713	82.12
416.936	91.12
417.159	87.12
417.382	85.12
417.605	90.12
417.828	85.12
418.051	105.12
418.274	98.12
418.497	79.12
418.72	80.12
418.943	76.12
419.166	86.12
419.389	86.12
419.611	87.12
419.834	85.12
420.057	89.12
420.28	79.12
420.503	97.12
420.726	94.12
420.948	89.12
421.171	87.12
421.394	105.12
421.617	93.12
421.839	92.12
422.062	93.12
422.285	101.12
422.507	103.12
422.73	113.12
422.953	97.12
423.175	97.12
423.398	76.12
423.621	87.12
423.843	85.12
424.066	79.12
424.288	81.12
424.511	81.12
424.733	90.12
424.956	83.12
425.178	100.12
425.401	98.12
425.623	94.12
425.846	86.12
426.068	85.12
426.291	110.12
426.513	82.12
426.735	82.12
426.958	82.12
427.18	105.12
427.402	121.12
427.625	140.12
427.847	117.12
428.069	99.12
428.292	89.12
428.514	83.12
428.736	90.12
428.958	95.12
429.181	81.12
429.403	81.12
429.625	81.12
429.847	98.12
430.069	100.12
430.292	90.12
430.514	76.12
430.736	82.12
430.958	87.12
431.18	88.12
431.402	89.12
431.624	72.12
431.846	75.12
432.068	90.12
432.29	85.12
432.512	85.12
432.734	85.12
432.956	94.12
433.178	90.12
433.4	100.12
433.622	86.12
433.844	78.12
434.066	78.12
434.287	87.12
434.509	92.12
434.731	82.12
434.953	96.12
435.175	89.12
435.397	95.12
435.618	104.12
435.84	100.12
436.062	123.12
436.284	103.12
436.505	88.12
436.727	94.12
436.949	94.12
437.17	79.12
437.392	94.12
437.614	81.12
437.835	101.12
438.057	97.12
438.278	100.12
438.5	94.12
438.721	123.12
438.943	96.12
439.165	98.12
439.386	93.12
439.608	97.12
439.829	103.12
440.05	111.12
440.272	115.12
440.493	75.12
440.715	87.12
440.936	83.12
441.158	91.12
441.379	83.12
441.6	72.12
441.822	81.12
442.043	78.12
442.264	81.12
442.486	97.12
442.707	82.12
442.928	94.12
443.149	105.12
443.371	133.12
443.592	108.12
443.813	103.12
444.034	125.12
444.255	77.12
444.476	88.12
444.698	83.12
444.919	91.12
445.14	141.12
445.361	129.12
445.582	93.12
445.803	114.12
446.024	113.12
446.245	121.12
446.466	95.12
446.687	91.12
446.908	85.12
447.129	91.12
447.35	83.12
447.571	104.12
447.792	92.12
448.013	100.12
448.234	88.12
448.455	104.12
448.675	103.12
448.896	93.12
449.117	91.12
449.338	102.12
449.559	118.12
449.779	129.12
450	83.12
450.221	85.12
450.442	83.12
450.662	96.12
450.883	100.12
451.104	94.12
451.324	111.12
451.545	79.12
451.766	87.12
451.986	91.12
452.207	87.12
452.428	93.12
452.648	95.12
452.869	97.12
453.089	96.12
453.31	117.12
453.53	94.12
453.751	83.12
453.971	98.12
454.192	110.12
454.412	82.12
454.633	97.12
454.853	82.12
455.073	65.12
455.294	81.12
455.514	86.12
455.734	90.12
455.955	94.12
456.175	95.12
456.395	79.12
456.616	76.12
456.836	75.12
457.056	87.12
457.276	89.12
457.497	84.12
457.717	76.12
457.937	93.12
458.157	75.12
458.377	102.12
458.598	107.12
458.818	124.12
459.038	127.12
459.258	103.12
459.478	85.12
459.698	80.12
459.918	86.12
460.138	81.12
460.358	78.12
460.578	89.12
460.798	74.12
461.018	91.12
461.238	82.12
461.458	82.12
461.678	91.12
461.898	87.12
462.118	84.12
462.338	91.12
462.558	77.12
462.777	93.12
462.997	89.12
463.217	85.12
463.437	92.12
463.657	91.12
463.876	77.12
464.096	82.12
464.316	83.12
464.536	93.12
464.755	80.12
464.975	93.12
465.195	126.12
465.414	152.12
465.634	105.12
465.854	91.12
466.073	92.12
466.293	103.12
466.512	93.12
466.732	89.12
466.951	78.12
467.171	97.12
467.391	109.12
467.61	85.12
467.829	95.12
468.049	110.12
468.268	97.12
468.488	89.12
468.707	66.12
468.927	105.12
469.146	89.12
469.365	97.12
469.585	83.12
469.804	87.12
470.023	91.12
470.243	91.12
470.462	88.12
470.681	106.12
470.901	103.12
471.12	85.12
471.339	84.12
471.558	99.12
471.777	92.12
471.997	85.12
472.216	121.12
472.435	123.12
472.654	93.12
472.873	95.12
473.092	94.12
473.311	76.12
473.53	84.12
473.749	88.12
473.968	102.12
474.187	110.12
474.406	95.12
474.625	84.12
474.844	82.12
475.063	67.12
475.282	91.12
475.501	95.12
475.72	77.12
475.939	81.12
476.158	93.12
476.377	79.12
476.596	67.12
476.814	102.12
477.033	84.12
477.252	89.12
477.471	81.12
477.69	87.12
477.908	106.12
478.127	85.12
478.346	107.12
478.564	106.12
478.783	84.12
479.002	75.12
479.22	89.12
479.439	98.12
479.658	96.12
479.876	97.12
480.095	83.12
480.313	91.12
480.532	107.12
480.751	93.12
480.969	104.12
481.188	170.12
481.406	132.12
481.624	99.12
481.843	89.12
482.061	90.12
482.28	90.12
482.498	88.12
482.717	83.12
482.935	86.12
483.153	86.12
483.372	83.12
483.59	83.12
483.808	94.12
484.027	86.12
484.245	98.12
484.463	95.12
484.681	93.12
484.9	95.12
485.118	95.12
485.336	94.12
485.554	104.12
485.772	91.12
485.99	93.12
486.209	107.12
486.427	96.12
486.645	110.12
486.863	102.12
487.081	100.12
487.299	104.12
487.517	93.12
487.735	99.12
487.953	92.12
488.171	88.12
488.389	93.12
488.607	90.12
488.825	73.12
489.043	83.12
489.261	91.12
489.479	97.12
489.696	101.12
489.914	97.12
490.132	70.12
490.35	89.12
490.568	77.12
490.786	88.12
491.003	93.12
491.221	108.12
491.439	89.12
491.657	95.12
491.874	98.12
492.092	81.12
492.31	101.12
492.527	95.12
492.745	87.12
492.963	92.12
493.18	98.12
493.398	96.12
493.615	98.12
493.833	94.12
494.05	89.12
494.268	81.12
494.485	94.12
494.703	98.12
494.92	94.12
495.138	81.12
495.355	89.12
495.573	90.12
495.79	102.12
496.008	100.12
496.225	87.12
496.442	96.12
496.66	79.12
496.877	91.12
497.094	87.12
497.312	100.12
497.529	100.12
497.746	91.12
497.963	88.12
498.181	91.12
498.398	84.12
498.615	106.12
498.832	95.12
499.049	106.12
499.267	94.12
499.484	105.12
499.701	97.12
499.918	103.12
500.135	81.12
500.352	88.12
500.569	86.12
500.786	103.12
501.003	93.12
501.22	98.12
501.437	86.12
501.654	92.12
501.871	101.12
502.088	78.12
502.305	86.12
502.522	102.12
502.739	78.12
502.956	90.12
503.172	99.12
503.389	90.12
503.606	95.12
503.823	93.12
504.04	73.12
504.256	92.12
504.473	95.12
504.69	85.12
504.907	103.12
505.123	92.12
505.34	76.12
505.557	101.12
505.773	99.12
505.99	83.12
506.207	86.12
506.423	84.12
506.64	86.12
506.856	95.12
507.073	101.12
507.289	93.12
507.506	107.12
507.722	100.12
507.939	95.12
508.155	86.12
508.372	88.12
508.588	89.12
508.805	103.12
509.021	92.12
509.238	91.12
509.454	110.12
509.67	109.12
509.887	100.12
510.103	122.12
510.319	194.12
510.536	594.12
510.752	1886.12
510.968	529.12
511.184	129.12
511.401	108.12
511.617	94.12
511.833	87.12
512.049	90.12
512.265	86.12
512.481	94.12
512.698	92.12
512.914	92.12
513.13	86.12
513.346	94.12
513.562	85.12
513.778	91.12
513.994	84.12
514.21	92.12
514.426	108.12
514.642	111.12
514.858	120.12
515.074	144.12
515.29	328.12
515.506	1117.12
515.721	408.12
515.937	140.12
