Data from Uncirc_1980_H10_HRD10591_00053.txt Node
Date: Wed Jan 03 12:37:06 EST 2024
User: Yrep
Spectrometer: HR+D1059
Trigger mode: 1
Integration Time (sec): 1.000000E-1
Scans to average: 1
Electric dark correction enabled: true
Nonlinearity correction enabled: false
Boxcar width: 0
XAxis mode: Wavelengths
Number of Pixels in Spectrum: 2048
>>>>>Begin Spectral Data<<<<<
223.165	-21.5
223.4	-21.5
223.635	-21.5
223.869	-25.5
224.104	-18.5
224.338	-28.5
224.573	-8.5
224.808	-11.5
225.042	-4.5
225.277	2.5
225.511	1.5
225.746	2.5
225.98	7.5
226.215	3.5
226.449	18.5
226.683	19.5
226.918	33.5
227.152	29.5
227.387	32.5
227.621	39.5
227.856	46.5
228.09	63.5
228.324	60.5
228.559	60.5
228.793	47.5
229.027	46.5
229.262	66.5
229.496	78.5
229.73	104.5
229.964	77.5
230.199	59.5
230.433	74.5
230.667	90.5
230.901	70.5
231.136	74.5
231.37	86.5
231.604	75.5
231.838	81.5
232.072	82.5
232.306	92.5
232.541	91.5
232.775	79.5
233.009	67.5
233.243	75.5
233.477	62.5
233.711	89.5
233.945	77.5
234.179	80.5
234.413	86.5
234.647	74.5
234.881	84.5
235.115	84.5
235.349	82.5
235.583	61.5
235.817	94.5
236.051	78.5
236.285	79.5
236.519	75.5
236.753	81.5
236.987	81.5
237.221	74.5
237.455	76.5
237.689	85.5
237.922	68.5
238.156	74.5
238.39	69.5
238.624	72.5
238.858	69.5
239.091	75.5
239.325	74.5
239.559	91.5
239.793	75.5
240.027	70.5
240.26	75.5
240.494	91.5
240.728	69.5
240.961	74.5
241.195	68.5
241.429	75.5
241.662	63.5
241.896	73.5
242.13	75.5
242.363	80.5
242.597	82.5
242.83	65.5
243.064	89.5
243.298	77.5
243.531	71.5
243.765	63.5
243.998	68.5
244.232	81.5
244.465	84.5
244.699	76.5
244.932	84.5
245.166	76.5
245.399	75.5
245.633	69.5
245.866	87.5
246.099	85.5
246.333	86.5
246.566	77.5
246.8	74.5
247.033	67.5
247.266	93.5
247.5	76.5
247.733	84.5
247.966	78.5
248.2	84.5
248.433	78.5
248.666	80.5
248.899	89.5
249.133	78.5
249.366	95.5
249.599	88.5
249.832	106.5
250.066	80.5
250.299	95.5
250.532	85.5
250.765	76.5
250.998	69.5
251.231	75.5
251.465	81.5
251.698	83.5
251.931	72.5
252.164	92.5
252.397	85.5
252.63	84.5
252.863	85.5
253.096	84.5
253.329	89.5
253.562	76.5
253.795	75.5
254.028	81.5
254.261	74.5
254.494	78.5
254.727	97.5
254.96	85.5
255.193	84.5
255.426	76.5
255.659	72.5
255.892	87.5
256.124	79.5
256.357	92.5
256.59	86.5
256.823	88.5
257.056	72.5
257.289	87.5
257.521	83.5
257.754	81.5
257.987	76.5
258.22	78.5
258.452	77.5
258.685	89.5
258.918	77.5
259.151	72.5
259.383	82.5
259.616	85.5
259.849	83.5
260.081	84.5
260.314	92.5
260.547	79.5
260.779	91.5
261.012	76.5
261.244	77.5
261.477	84.5
261.71	84.5
261.942	102.5
262.175	107.5
262.407	84.5
262.64	87.5
262.872	88.5
263.105	86.5
263.337	93.5
263.57	85.5
263.802	83.5
264.035	89.5
264.267	87.5
264.499	73.5
264.732	85.5
264.964	85.5
265.197	86.5
265.429	77.5
265.661	87.5
265.894	76.5
266.126	84.5
266.358	96.5
266.591	103.5
266.823	84.5
267.055	94.5
267.287	85.5
267.52	69.5
267.752	74.5
267.984	105.5
268.216	71.5
268.448	77.5
268.681	85.5
268.913	93.5
269.145	85.5
269.377	71.5
269.609	73.5
269.841	84.5
270.073	87.5
270.306	90.5
270.538	91.5
270.77	90.5
271.002	73.5
271.234	88.5
271.466	87.5
271.698	75.5
271.93	93.5
272.162	78.5
272.394	84.5
272.626	85.5
272.858	72.5
273.09	72.5
273.322	90.5
273.553	88.5
273.785	93.5
274.017	85.5
274.249	85.5
274.481	75.5
274.713	81.5
274.945	88.5
275.176	96.5
275.408	83.5
275.64	100.5
275.872	90.5
276.104	89.5
276.335	85.5
276.567	82.5
276.799	83.5
277.031	92.5
277.262	89.5
277.494	101.5
277.726	92.5
277.957	82.5
278.189	87.5
278.421	76.5
278.652	66.5
278.884	102.5
279.115	75.5
279.347	89.5
279.579	89.5
279.81	94.5
280.042	75.5
280.273	94.5
280.505	91.5
280.736	91.5
280.968	87.5
281.199	85.5
281.431	92.5
281.662	87.5
281.894	100.5
282.125	101.5
282.356	107.5
282.588	118.5
282.819	103.5
283.051	85.5
283.282	78.5
283.513	109.5
283.745	88.5
283.976	88.5
284.207	83.5
284.439	104.5
284.67	93.5
284.901	79.5
285.132	83.5
285.364	88.5
285.595	91.5
285.826	102.5
286.057	93.5
286.288	92.5
286.52	86.5
286.751	78.5
286.982	93.5
287.213	88.5
287.444	99.5
287.675	74.5
287.906	91.5
288.138	90.5
288.369	90.5
288.6	85.5
288.831	77.5
289.062	75.5
289.293	92.5
289.524	89.5
289.755	91.5
289.986	76.5
290.217	86.5
290.448	97.5
290.679	79.5
290.91	90.5
291.141	78.5
291.371	88.5
291.602	82.5
291.833	80.5
292.064	82.5
292.295	92.5
292.526	93.5
292.757	87.5
292.987	85.5
293.218	90.5
293.449	78.5
293.68	82.5
293.91	91.5
294.141	94.5
294.372	84.5
294.603	75.5
294.833	83.5
295.064	81.5
295.295	77.5
295.525	82.5
295.756	99.5
295.987	108.5
296.217	114.5
296.448	106.5
296.679	95.5
296.909	85.5
297.14	86.5
297.37	70.5
297.601	83.5
297.831	87.5
298.062	98.5
298.292	89.5
298.523	107.5
298.753	93.5
298.984	81.5
299.214	86.5
299.445	96.5
299.675	89.5
299.905	94.5
300.136	97.5
300.366	87.5
300.597	91.5
300.827	105.5
301.057	98.5
301.288	101.5
301.518	89.5
301.748	101.5
301.979	94.5
302.209	101.5
302.439	89.5
302.669	100.5
302.9	96.5
303.13	101.5
303.36	90.5
303.59	100.5
303.82	101.5
304.051	92.5
304.281	86.5
304.511	89.5
304.741	99.5
304.971	81.5
305.201	85.5
305.431	87.5
305.661	94.5
305.891	85.5
306.121	95.5
306.352	96.5
306.582	89.5
306.812	99.5
307.042	78.5
307.272	89.5
307.502	81.5
307.731	84.5
307.961	81.5
308.191	100.5
308.421	93.5
308.651	83.5
308.881	95.5
309.111	86.5
309.341	89.5
309.571	90.5
309.8	85.5
310.03	97.5
310.26	93.5
310.49	86.5
310.72	95.5
310.949	96.5
311.179	105.5
311.409	90.5
311.639	113.5
311.868	89.5
312.098	85.5
312.328	91.5
312.557	101.5
312.787	105.5
313.017	95.5
313.246	97.5
313.476	93.5
313.706	85.5
313.935	91.5
314.165	106.5
314.394	96.5
314.624	95.5
314.853	102.5
315.083	74.5
315.312	74.5
315.542	88.5
315.771	99.5
316.001	94.5
316.23	98.5
316.46	93.5
316.689	107.5
316.919	95.5
317.148	106.5
317.377	85.5
317.607	100.5
317.836	103.5
318.065	95.5
318.295	88.5
318.524	99.5
318.753	93.5
318.983	89.5
319.212	85.5
319.441	111.5
319.67	99.5
319.9	92.5
320.129	101.5
320.358	97.5
320.587	97.5
320.816	99.5
321.046	104.5
321.275	93.5
321.504	91.5
321.733	93.5
321.962	87.5
322.191	94.5
322.42	99.5
322.649	93.5
322.878	112.5
323.108	111.5
323.337	106.5
323.566	113.5
323.795	141.5
324.024	178.5
324.253	312.5
324.482	612.5
324.71	1243.5
324.939	1663.5
325.168	623.5
325.397	202.5
325.626	123.5
325.855	107.5
326.084	106.5
326.313	127.5
326.542	128.5
326.77	189.5
326.999	357.5
327.228	715.5
327.457	1289.5
327.686	1029.5
327.914	300.5
328.143	159.5
328.372	138.5
328.6	107.5
328.829	113.5
329.058	118.5
329.287	116.5
329.515	100.5
329.744	91.5
329.972	98.5
330.201	99.5
330.43	117.5
330.658	127.5
330.887	129.5
331.115	108.5
331.344	115.5
331.572	101.5
331.801	102.5
332.03	98.5
332.258	86.5
332.486	87.5
332.715	96.5
332.943	100.5
333.172	102.5
333.4	95.5
333.629	108.5
333.857	105.5
334.085	102.5
334.314	111.5
334.542	131.5
334.771	118.5
334.999	112.5
335.227	82.5
335.455	96.5
335.684	107.5
335.912	103.5
336.14	91.5
336.369	88.5
336.597	108.5
336.825	102.5
337.053	89.5
337.281	97.5
337.51	95.5
337.738	101.5
337.966	97.5
338.194	88.5
338.422	94.5
338.65	100.5
338.878	107.5
339.106	83.5
339.334	97.5
339.562	90.5
339.79	89.5
340.018	86.5
340.246	76.5
340.474	96.5
340.702	93.5
340.93	102.5
341.158	93.5
341.386	91.5
341.614	88.5
341.842	105.5
342.07	84.5
342.298	92.5
342.526	85.5
342.754	72.5
342.981	82.5
343.209	93.5
343.437	91.5
343.665	89.5
343.893	92.5
344.12	92.5
344.348	85.5
344.576	100.5
344.804	85.5
345.031	96.5
345.259	93.5
345.487	85.5
345.714	99.5
345.942	88.5
346.17	97.5
346.397	82.5
346.625	95.5
346.853	90.5
347.08	95.5
347.308	100.5
347.535	90.5
347.763	108.5
347.99	104.5
348.218	99.5
348.445	91.5
348.673	110.5
348.9	97.5
349.128	104.5
349.355	98.5
349.583	85.5
349.81	100.5
350.037	98.5
350.265	95.5
350.492	102.5
350.72	93.5
350.947	90.5
351.174	116.5
351.402	106.5
351.629	91.5
351.856	98.5
352.083	97.5
352.311	96.5
352.538	86.5
352.765	115.5
352.992	91.5
353.22	96.5
353.447	97.5
353.674	107.5
353.901	93.5
354.128	92.5
354.355	97.5
354.583	103.5
354.81	97.5
355.037	91.5
355.264	101.5
355.491	103.5
355.718	101.5
355.945	98.5
356.172	95.5
356.399	99.5
356.626	87.5
356.853	93.5
357.08	85.5
357.307	95.5
357.534	85.5
357.761	92.5
357.988	77.5
358.215	101.5
358.441	92.5
358.668	88.5
358.895	85.5
359.122	75.5
359.349	88.5
359.576	93.5
359.802	91.5
360.029	96.5
360.256	92.5
360.483	103.5
360.709	87.5
360.936	102.5
361.163	96.5
361.39	100.5
361.616	106.5
361.843	91.5
362.07	83.5
362.296	76.5
362.523	91.5
362.749	89.5
362.976	100.5
363.203	109.5
363.429	87.5
363.656	85.5
363.882	97.5
364.109	96.5
364.335	78.5
364.562	85.5
364.788	103.5
365.015	90.5
365.241	93.5
365.468	88.5
365.694	95.5
365.92	78.5
366.147	81.5
366.373	69.5
366.599	92.5
366.826	98.5
367.052	87.5
367.278	85.5
367.505	86.5
367.731	94.5
367.957	78.5
368.184	83.5
368.41	105.5
368.636	107.5
368.862	107.5
369.089	97.5
369.315	93.5
369.541	96.5
369.767	85.5
369.993	79.5
370.219	63.5
370.445	85.5
370.672	83.5
370.898	86.5
371.124	100.5
371.35	85.5
371.576	95.5
371.802	102.5
372.028	89.5
372.254	87.5
372.48	79.5
372.706	92.5
372.932	98.5
373.158	83.5
373.384	87.5
373.61	84.5
373.835	106.5
374.061	76.5
374.287	86.5
374.513	97.5
374.739	84.5
374.965	90.5
375.191	94.5
375.416	89.5
375.642	99.5
375.868	89.5
376.094	87.5
376.319	92.5
376.545	84.5
376.771	84.5
376.997	91.5
377.222	89.5
377.448	84.5
377.674	69.5
377.899	93.5
378.125	87.5
378.35	98.5
378.576	97.5
378.802	83.5
379.027	102.5
379.253	81.5
379.478	87.5
379.704	89.5
379.929	99.5
380.155	96.5
380.38	84.5
380.606	91.5
380.831	106.5
381.057	88.5
381.282	93.5
381.507	92.5
381.733	98.5
381.958	111.5
382.184	115.5
382.409	109.5
382.634	104.5
382.86	93.5
383.085	97.5
383.31	105.5
383.535	94.5
383.761	107.5
383.986	87.5
384.211	101.5
384.436	92.5
384.662	98.5
384.887	100.5
385.112	110.5
385.337	103.5
385.562	105.5
385.787	115.5
386.013	101.5
386.238	105.5
386.463	102.5
386.688	99.5
386.913	107.5
387.138	101.5
387.363	107.5
387.588	102.5
387.813	118.5
388.038	119.5
388.263	118.5
388.488	102.5
388.713	106.5
388.938	94.5
389.163	87.5
389.387	87.5
389.612	88.5
389.837	89.5
390.062	97.5
390.287	90.5
390.512	93.5
390.736	89.5
390.961	90.5
391.186	84.5
391.411	87.5
391.636	100.5
391.86	84.5
392.085	86.5
392.31	82.5
392.534	83.5
392.759	78.5
392.984	93.5
393.208	95.5
393.433	86.5
393.658	83.5
393.882	101.5
394.107	86.5
394.331	87.5
394.556	88.5
394.78	92.5
395.005	99.5
395.229	76.5
395.454	77.5
395.678	69.5
395.903	86.5
396.127	85.5
396.352	77.5
396.576	93.5
396.801	80.5
397.025	102.5
397.249	86.5
397.474	98.5
397.698	80.5
397.922	98.5
398.147	88.5
398.371	76.5
398.595	88.5
398.82	91.5
399.044	77.5
399.268	85.5
399.492	84.5
399.717	89.5
399.941	87.5
400.165	96.5
400.389	77.5
400.613	93.5
400.837	84.5
401.062	83.5
401.286	91.5
401.51	84.5
401.734	91.5
401.958	96.5
402.182	99.5
402.406	119.5
402.63	102.5
402.854	84.5
403.078	87.5
403.302	84.5
403.526	82.5
403.75	81.5
403.974	107.5
404.198	83.5
404.422	96.5
404.645	82.5
404.869	98.5
405.093	89.5
405.317	81.5
405.541	100.5
405.765	96.5
405.988	107.5
406.212	151.5
406.436	180.5
406.66	121.5
406.883	109.5
407.107	88.5
407.331	93.5
407.555	97.5
407.778	86.5
408.002	90.5
408.226	92.5
408.449	85.5
408.673	85.5
408.896	94.5
409.12	95.5
409.344	95.5
409.567	85.5
409.791	91.5
410.014	93.5
410.238	88.5
410.461	99.5
410.685	90.5
410.908	85.5
411.132	98.5
411.355	99.5
411.578	88.5
411.802	85.5
412.025	79.5
412.249	83.5
412.472	91.5
412.695	91.5
412.919	91.5
413.142	92.5
413.365	71.5
413.589	89.5
413.812	89.5
414.035	87.5
414.258	90.5
414.482	89.5
414.705	99.5
414.928	94.5
415.151	95.5
415.374	93.5
415.597	89.5
415.821	93.5
416.044	98.5
416.267	104.5
416.49	76.5
416.713	97.5
416.936	91.5
417.159	85.5
417.382	83.5
417.605	94.5
417.828	106.5
418.051	85.5
418.274	90.5
418.497	92.5
418.72	91.5
418.943	83.5
419.166	73.5
419.389	81.5
419.611	81.5
419.834	90.5
420.057	95.5
420.28	89.5
420.503	87.5
420.726	96.5
420.948	96.5
421.171	81.5
421.394	86.5
421.617	99.5
421.839	103.5
422.062	81.5
422.285	89.5
422.507	100.5
422.73	101.5
422.953	81.5
423.175	77.5
423.398	85.5
423.621	89.5
423.843	85.5
424.066	85.5
424.288	94.5
424.511	101.5
424.733	92.5
424.956	110.5
425.178	86.5
425.401	81.5
425.623	100.5
425.846	85.5
426.068	78.5
426.291	98.5
426.513	78.5
426.735	88.5
426.958	93.5
427.18	105.5
427.402	115.5
427.625	146.5
427.847	112.5
428.069	105.5
428.292	92.5
428.514	79.5
428.736	85.5
428.958	83.5
429.181	74.5
429.403	88.5
429.625	66.5
429.847	79.5
430.069	103.5
430.292	98.5
430.514	85.5
430.736	97.5
430.958	86.5
431.18	78.5
431.402	94.5
431.624	85.5
431.846	74.5
432.068	91.5
432.29	86.5
432.512	94.5
432.734	100.5
432.956	94.5
433.178	93.5
433.4	87.5
433.622	90.5
433.844	91.5
434.066	96.5
434.287	98.5
434.509	76.5
434.731	81.5
434.953	74.5
435.175	86.5
435.397	94.5
435.618	78.5
435.84	89.5
436.062	89.5
436.284	101.5
436.505	110.5
436.727	96.5
436.949	95.5
437.17	72.5
437.392	89.5
437.614	101.5
437.835	100.5
438.057	97.5
438.278	116.5
438.5	103.5
438.721	107.5
438.943	85.5
439.165	79.5
439.386	89.5
439.608	86.5
439.829	93.5
440.05	93.5
440.272	122.5
440.493	83.5
440.715	97.5
440.936	87.5
441.158	89.5
441.379	70.5
441.6	100.5
441.822	82.5
442.043	115.5
442.264	103.5
442.486	103.5
442.707	77.5
442.928	98.5
443.149	103.5
443.371	109.5
443.592	90.5
443.813	115.5
444.034	102.5
444.255	88.5
444.476	92.5
444.698	90.5
444.919	89.5
445.14	131.5
445.361	116.5
445.582	100.5
445.803	131.5
446.024	115.5
446.245	121.5
446.466	106.5
446.687	86.5
446.908	93.5
447.129	94.5
447.35	86.5
447.571	107.5
447.792	85.5
448.013	77.5
448.234	94.5
448.455	95.5
448.675	104.5
448.896	118.5
449.117	102.5
449.338	100.5
449.559	127.5
449.779	106.5
450	91.5
450.221	73.5
450.442	70.5
450.662	71.5
450.883	91.5
451.104	98.5
451.324	95.5
451.545	97.5
451.766	90.5
451.986	89.5
452.207	84.5
452.428	107.5
452.648	89.5
452.869	115.5
453.089	105.5
453.31	92.5
453.53	90.5
453.751	83.5
453.971	87.5
454.192	94.5
454.412	97.5
454.633	73.5
454.853	90.5
455.073	78.5
455.294	86.5
455.514	105.5
455.734	86.5
455.955	90.5
456.175	73.5
456.395	85.5
456.616	87.5
456.836	108.5
457.056	83.5
457.276	89.5
457.497	78.5
457.717	88.5
457.937	83.5
458.157	85.5
458.377	85.5
458.598	98.5
458.818	125.5
459.038	122.5
459.258	100.5
459.478	101.5
459.698	79.5
459.918	89.5
460.138	95.5
460.358	82.5
460.578	81.5
460.798	88.5
461.018	89.5
461.238	85.5
461.458	91.5
461.678	85.5
461.898	92.5
462.118	93.5
462.338	90.5
462.558	88.5
462.777	94.5
462.997	101.5
463.217	78.5
463.437	89.5
463.657	101.5
463.876	96.5
464.096	102.5
464.316	101.5
464.536	83.5
464.755	77.5
464.975	94.5
465.195	134.5
465.414	136.5
465.634	92.5
465.854	79.5
466.073	85.5
466.293	86.5
466.512	87.5
466.732	90.5
466.951	99.5
467.171	101.5
467.391	86.5
467.61	85.5
467.829	77.5
468.049	101.5
468.268	95.5
468.488	90.5
468.707	82.5
468.927	85.5
469.146	85.5
469.365	85.5
469.585	87.5
469.804	85.5
470.023	76.5
470.243	95.5
470.462	85.5
470.681	106.5
470.901	83.5
471.12	91.5
471.339	100.5
471.558	91.5
471.777	90.5
471.997	89.5
472.216	106.5
472.435	105.5
472.654	91.5
472.873	77.5
473.092	86.5
473.311	81.5
473.53	87.5
473.749	92.5
473.968	92.5
474.187	95.5
474.406	89.5
474.625	72.5
474.844	78.5
475.063	91.5
475.282	90.5
475.501	91.5
475.72	104.5
475.939	87.5
476.158	100.5
476.377	89.5
476.596	99.5
476.814	85.5
477.033	91.5
477.252	100.5
477.471	82.5
477.69	87.5
477.908	93.5
478.127	95.5
478.346	85.5
478.564	86.5
478.783	98.5
479.002	79.5
479.22	87.5
479.439	96.5
479.658	88.5
479.876	100.5
480.095	93.5
480.313	81.5
480.532	84.5
480.751	83.5
480.969	99.5
481.188	172.5
481.406	125.5
481.624	97.5
481.843	99.5
482.061	87.5
482.28	93.5
482.498	85.5
482.717	91.5
482.935	84.5
483.153	71.5
483.372	97.5
483.59	97.5
483.808	94.5
484.027	91.5
484.245	101.5
484.463	98.5
484.681	97.5
484.9	105.5
485.118	97.5
485.336	92.5
485.554	103.5
485.772	94.5
485.99	93.5
486.209	98.5
486.427	96.5
486.645	113.5
486.863	104.5
487.081	97.5
487.299	87.5
487.517	107.5
487.735	114.5
487.953	93.5
488.171	94.5
488.389	86.5
488.607	93.5
488.825	96.5
489.043	105.5
489.261	99.5
489.479	84.5
489.696	89.5
489.914	93.5
490.132	93.5
490.35	83.5
490.568	91.5
490.786	84.5
491.003	81.5
491.221	96.5
491.439	96.5
491.657	81.5
491.874	91.5
492.092	92.5
492.31	100.5
492.527	81.5
492.745	88.5
492.963	69.5
493.18	93.5
493.398	88.5
493.615	100.5
493.833	79.5
494.05	89.5
494.268	77.5
494.485	76.5
494.703	94.5
494.92	69.5
495.138	95.5
495.355	86.5
495.573	80.5
495.79	85.5
496.008	83.5
496.225	85.5
496.442	79.5
496.66	95.5
496.877	96.5
497.094	87.5
497.312	93.5
497.529	95.5
497.746	78.5
497.963	93.5
498.181	93.5
498.398	107.5
498.615	110.5
498.832	85.5
499.049	68.5
499.267	77.5
499.484	93.5
499.701	83.5
499.918	98.5
500.135	93.5
500.352	88.5
500.569	79.5
500.786	102.5
501.003	89.5
501.22	87.5
501.437	97.5
501.654	97.5
501.871	91.5
502.088	81.5
502.305	100.5
502.522	94.5
502.739	92.5
502.956	69.5
503.172	85.5
503.389	102.5
503.606	108.5
503.823	93.5
504.04	107.5
504.256	83.5
504.473	89.5
504.69	93.5
504.907	93.5
505.123	92.5
505.34	94.5
505.557	95.5
505.773	87.5
505.99	77.5
506.207	77.5
506.423	87.5
506.64	91.5
506.856	96.5
507.073	91.5
507.289	89.5
507.506	99.5
507.722	107.5
507.939	110.5
508.155	102.5
508.372	83.5
508.588	86.5
508.805	87.5
509.021	93.5
509.238	93.5
509.454	86.5
509.67	97.5
509.887	91.5
510.103	129.5
510.319	185.5
510.536	598.5
510.752	1739.5
510.968	505.5
511.184	132.5
511.401	99.5
511.617	103.5
511.833	100.5
512.049	86.5
512.265	95.5
512.481	99.5
512.698	90.5
512.914	84.5
513.13	97.5
513.346	85.5
513.562	106.5
513.778	90.5
513.994	102.5
514.21	85.5
514.426	113.5
514.642	107.5
514.858	110.5
515.074	138.5
515.29	330.5
515.506	1034.5
515.721	402.5
515.937	123.5
516.153	97.5
516.369	94.5
516.585	92.5
516.801	91.5
517.016	95.5
517.232	102.5
517.448	84.5
517.664	85.5
517.879	93.5
518.095	75.5
518.311	102.5
518.527	94.5
518.742	84.5
518.958	78.5
519.173	97.5
519.389	108.5
519.605	105.5
519.82	108.5
520.036	100.5
520.251	114.5
520.467	101.5
520.682	89.5
520.898	96.5
521.113	104.5
521.329	114.5
521.544	158.5
521.76	429.5
521.975	1697.5
522.19	987.5
522.406	239.5
522.621	122.5
522.836	97.5
523.052	90.5
523.267	99.5
523.482	86.5
523.698	84.5
523.913	112.5
524.128	98.5
524.343	84.5
524.559	90.5
524.774	93.5
524.989	106.5
525.204	93.5
525.419	91.5
525.634	86.5
525.849	85.5
526.064	83.5
526.28	97.5
526.495	89.5
526.71	88.5
526.925	72.5
527.14	80.5
527.355	85.5
527.57	84.5
527.785	85.5
527.999	85.5
528.214	98.5
528.429	106.5
528.644	100.5
528.859	93.5
529.074	101.5
529.289	117.5
529.503	145.5
529.718	98.5
529.933	97.5
530.148	87.5
530.363	82.5
530.577	89.5
530.792	104.5
531.007	87.5
531.221	105.5
531.436	97.5
531.651	93.5
531.865	97.5
532.08	108.5
532.295	89.5
532.509	95.5
532.724	91.5
532.938	85.5
533.153	91.5
533.367	93.5
533.582	100.5
533.796	86.5
534.011	82.5
534.225	90.5
534.44	93.5
534.654	94.5
534.868	91.5
535.083	89.5
535.297	78.5
535.511	103.5
535.726	87.5
535.94	82.5
