Data from Uncirc_1980_H10_HRD10591_00033.txt Node
Date: Wed Jan 03 12:37:02 EST 2024
User: Yrep
Spectrometer: HR+D1059
Trigger mode: 1
Integration Time (sec): 1.000000E-1
Scans to average: 1
Electric dark correction enabled: true
Nonlinearity correction enabled: false
Boxcar width: 0
XAxis mode: Wavelengths
Number of Pixels in Spectrum: 2048
>>>>>Begin Spectral Data<<<<<
223.165	-29.25
223.4	-29.25
223.635	-29.25
223.869	-0.25
224.104	-18.25
224.338	0.75
224.573	-26.25
224.808	-15.25
225.042	-5.25
225.277	-4.25
225.511	5.75
225.746	-1.25
225.98	10.75
226.215	7.75
226.449	6.75
226.683	16.75
226.918	29.75
227.152	21.75
227.387	23.75
227.621	31.75
227.856	36.75
228.09	46.75
228.324	49.75
228.559	55.75
228.793	38.75
229.027	60.75
229.262	53.75
229.496	51.75
229.73	81.75
229.964	73.75
230.199	73.75
230.433	81.75
230.667	78.75
230.901	68.75
231.136	84.75
231.37	75.75
231.604	68.75
231.838	84.75
232.072	88.75
232.306	74.75
232.541	75.75
232.775	79.75
233.009	80.75
233.243	66.75
233.477	75.75
233.711	89.75
233.945	94.75
234.179	93.75
234.413	89.75
234.647	81.75
234.881	87.75
235.115	71.75
235.349	74.75
235.583	76.75
235.817	70.75
236.051	76.75
236.285	71.75
236.519	78.75
236.753	74.75
236.987	70.75
237.221	68.75
237.455	85.75
237.689	82.75
237.922	69.75
238.156	82.75
238.39	66.75
238.624	68.75
238.858	71.75
239.091	78.75
239.325	69.75
239.559	74.75
239.793	81.75
240.027	70.75
240.26	78.75
240.494	90.75
240.728	79.75
240.961	76.75
241.195	70.75
241.429	82.75
241.662	82.75
241.896	78.75
242.13	67.75
242.363	67.75
242.597	69.75
242.83	86.75
243.064	70.75
243.298	72.75
243.531	67.75
243.765	71.75
243.998	54.75
244.232	80.75
244.465	80.75
244.699	81.75
244.932	77.75
245.166	80.75
245.399	78.75
245.633	78.75
245.866	65.75
246.099	65.75
246.333	70.75
246.566	69.75
246.8	80.75
247.033	65.75
247.266	88.75
247.5	77.75
247.733	74.75
247.966	84.75
248.2	78.75
248.433	70.75
248.666	67.75
248.899	71.75
249.133	90.75
249.366	82.75
249.599	84.75
249.832	79.75
250.066	84.75
250.299	71.75
250.532	73.75
250.765	77.75
250.998	72.75
251.231	71.75
251.465	74.75
251.698	69.75
251.931	78.75
252.164	79.75
252.397	75.75
252.63	81.75
252.863	61.75
253.096	66.75
253.329	80.75
253.562	68.75
253.795	79.75
254.028	90.75
254.261	86.75
254.494	86.75
254.727	71.75
254.96	70.75
255.193	77.75
255.426	74.75
255.659	76.75
255.892	81.75
256.124	89.75
256.357	91.75
256.59	78.75
256.823	93.75
257.056	79.75
257.289	71.75
257.521	94.75
257.754	75.75
257.987	54.75
258.22	79.75
258.452	72.75
258.685	70.75
258.918	70.75
259.151	80.75
259.383	72.75
259.616	87.75
259.849	94.75
260.081	81.75
260.314	71.75
260.547	86.75
260.779	82.75
261.012	86.75
261.244	74.75
261.477	84.75
261.71	93.75
261.942	92.75
262.175	108.75
262.407	71.75
262.64	82.75
262.872	80.75
263.105	83.75
263.337	85.75
263.57	83.75
263.802	72.75
264.035	82.75
264.267	78.75
264.499	84.75
264.732	89.75
264.964	73.75
265.197	73.75
265.429	85.75
265.661	73.75
265.894	64.75
266.126	82.75
266.358	92.75
266.591	66.75
266.823	69.75
267.055	78.75
267.287	87.75
267.52	83.75
267.752	85.75
267.984	70.75
268.216	79.75
268.448	88.75
268.681	76.75
268.913	80.75
269.145	81.75
269.377	74.75
269.609	88.75
269.841	92.75
270.073	84.75
270.306	71.75
270.538	80.75
270.77	67.75
271.002	83.75
271.234	90.75
271.466	89.75
271.698	76.75
271.93	86.75
272.162	83.75
272.394	98.75
272.626	58.75
272.858	72.75
273.09	87.75
273.322	90.75
273.553	80.75
273.785	67.75
274.017	80.75
274.249	87.75
274.481	87.75
274.713	94.75
274.945	88.75
275.176	81.75
275.408	79.75
275.64	80.75
275.872	94.75
276.104	78.75
276.335	82.75
276.567	95.75
276.799	90.75
277.031	90.75
277.262	83.75
277.494	81.75
277.726	91.75
277.957	93.75
278.189	80.75
278.421	90.75
278.652	75.75
278.884	72.75
279.115	79.75
279.347	87.75
279.579	80.75
279.81	77.75
280.042	89.75
280.273	88.75
280.505	79.75
280.736	82.75
280.968	92.75
281.199	90.75
281.431	80.75
281.662	93.75
281.894	83.75
282.125	92.75
282.356	94.75
282.588	110.75
282.819	108.75
283.051	90.75
283.282	77.75
283.513	88.75
283.745	75.75
283.976	93.75
284.207	82.75
284.439	83.75
284.67	75.75
284.901	82.75
285.132	73.75
285.364	84.75
285.595	92.75
285.826	71.75
286.057	92.75
286.288	90.75
286.52	82.75
286.751	80.75
286.982	76.75
287.213	78.75
287.444	92.75
287.675	89.75
287.906	96.75
288.138	90.75
288.369	102.75
288.6	83.75
288.831	76.75
289.062	90.75
289.293	85.75
289.524	82.75
289.755	83.75
289.986	80.75
290.217	89.75
290.448	78.75
290.679	101.75
290.91	95.75
291.141	73.75
291.371	86.75
291.602	86.75
291.833	82.75
292.064	93.75
292.295	96.75
292.526	104.75
292.757	95.75
292.987	84.75
293.218	76.75
293.449	82.75
293.68	78.75
293.91	84.75
294.141	99.75
294.372	75.75
294.603	78.75
294.833	83.75
295.064	87.75
295.295	83.75
295.525	80.75
295.756	91.75
295.987	95.75
296.217	104.75
296.448	101.75
296.679	82.75
296.909	98.75
297.14	96.75
297.37	88.75
297.601	91.75
297.831	89.75
298.062	74.75
298.292	97.75
298.523	88.75
298.753	78.75
298.984	79.75
299.214	80.75
299.445	81.75
299.675	90.75
299.905	90.75
300.136	75.75
300.366	76.75
300.597	83.75
300.827	100.75
301.057	95.75
301.288	92.75
301.518	78.75
301.748	78.75
301.979	93.75
302.209	84.75
302.439	78.75
302.669	81.75
302.9	82.75
303.13	81.75
303.36	99.75
303.59	90.75
303.82	87.75
304.051	91.75
304.281	81.75
304.511	80.75
304.741	75.75
304.971	99.75
305.201	88.75
305.431	94.75
305.661	85.75
305.891	91.75
306.121	84.75
306.352	107.75
306.582	105.75
306.812	89.75
307.042	72.75
307.272	94.75
307.502	98.75
307.731	86.75
307.961	85.75
308.191	87.75
308.421	87.75
308.651	92.75
308.881	82.75
309.111	84.75
309.341	84.75
309.571	101.75
309.8	79.75
310.03	78.75
310.26	85.75
310.49	82.75
310.72	97.75
310.949	88.75
311.179	82.75
311.409	88.75
311.639	94.75
311.868	94.75
312.098	98.75
312.328	79.75
312.557	87.75
312.787	102.75
313.017	100.75
313.246	88.75
313.476	80.75
313.706	86.75
313.935	94.75
314.165	86.75
314.394	83.75
314.624	99.75
314.853	84.75
315.083	90.75
315.312	85.75
315.542	68.75
315.771	76.75
316.001	100.75
316.23	92.75
316.46	91.75
316.689	94.75
316.919	79.75
317.148	76.75
317.377	93.75
317.607	97.75
317.836	103.75
318.065	84.75
318.295	80.75
318.524	86.75
318.753	84.75
318.983	96.75
319.212	91.75
319.441	97.75
319.67	88.75
319.9	96.75
320.129	98.75
320.358	90.75
320.587	100.75
320.816	79.75
321.046	89.75
321.275	90.75
321.504	100.75
321.733	89.75
321.962	95.75
322.191	96.75
322.42	91.75
322.649	101.75
322.878	94.75
323.108	99.75
323.337	105.75
323.566	116.75
323.795	134.75
324.024	161.75
324.253	282.75
324.482	539.75
324.71	1088.75
324.939	1440.75
325.168	538.75
325.397	195.75
325.626	116.75
325.855	117.75
326.084	105.75
326.313	123.75
326.542	112.75
326.77	164.75
326.999	327.75
327.228	619.75
327.457	1130.75
327.686	924.75
327.914	256.75
328.143	147.75
328.372	131.75
328.6	106.75
328.829	117.75
329.058	108.75
329.287	97.75
329.515	111.75
329.744	84.75
329.972	96.75
330.201	89.75
330.43	113.75
330.658	98.75
330.887	109.75
331.115	97.75
331.344	96.75
331.572	96.75
331.801	103.75
332.03	91.75
332.258	96.75
332.486	94.75
332.715	85.75
332.943	85.75
333.172	91.75
333.4	81.75
333.629	98.75
333.857	91.75
334.085	113.75
334.314	116.75
334.542	109.75
334.771	103.75
334.999	88.75
335.227	92.75
335.455	87.75
335.684	97.75
335.912	91.75
336.14	87.75
336.369	99.75
336.597	91.75
336.825	95.75
337.053	98.75
337.281	84.75
337.51	94.75
337.738	98.75
337.966	89.75
338.194	88.75
338.422	88.75
338.65	75.75
338.878	82.75
339.106	85.75
339.334	89.75
339.562	88.75
339.79	88.75
340.018	83.75
340.246	85.75
340.474	95.75
340.702	74.75
340.93	82.75
341.158	87.75
341.386	70.75
341.614	86.75
341.842	89.75
342.07	84.75
342.298	98.75
342.526	87.75
342.754	84.75
342.981	83.75
343.209	81.75
343.437	95.75
343.665	88.75
343.893	88.75
344.12	73.75
344.348	96.75
344.576	94.75
344.804	97.75
345.031	83.75
345.259	98.75
345.487	84.75
345.714	69.75
345.942	76.75
346.17	86.75
346.397	82.75
346.625	89.75
346.853	86.75
347.08	97.75
347.308	88.75
347.535	98.75
347.763	98.75
347.99	91.75
348.218	90.75
348.445	99.75
348.673	87.75
348.9	86.75
349.128	82.75
349.355	91.75
349.583	99.75
349.81	90.75
350.037	90.75
350.265	93.75
350.492	90.75
350.72	88.75
350.947	94.75
351.174	92.75
351.402	91.75
351.629	90.75
351.856	85.75
352.083	95.75
352.311	97.75
352.538	104.75
352.765	84.75
352.992	104.75
353.22	93.75
353.447	110.75
353.674	92.75
353.901	92.75
354.128	86.75
354.355	78.75
354.583	97.75
354.81	88.75
355.037	96.75
355.264	95.75
355.491	106.75
355.718	91.75
355.945	91.75
356.172	94.75
356.399	103.75
356.626	82.75
356.853	95.75
357.08	89.75
357.307	86.75
357.534	91.75
357.761	89.75
357.988	95.75
358.215	93.75
358.441	99.75
358.668	95.75
358.895	96.75
359.122	90.75
359.349	82.75
359.576	79.75
359.802	71.75
360.029	91.75
360.256	90.75
360.483	82.75
360.709	99.75
360.936	90.75
361.163	95.75
361.39	86.75
361.616	80.75
361.843	87.75
362.07	91.75
362.296	91.75
362.523	89.75
362.749	81.75
362.976	85.75
363.203	87.75
363.429	87.75
363.656	90.75
363.882	77.75
364.109	102.75
364.335	86.75
364.562	90.75
364.788	88.75
365.015	80.75
365.241	94.75
365.468	104.75
365.694	90.75
365.92	88.75
366.147	70.75
366.373	80.75
366.599	89.75
366.826	89.75
367.052	95.75
367.278	79.75
367.505	87.75
367.731	92.75
367.957	72.75
368.184	95.75
368.41	98.75
368.636	107.75
368.862	103.75
369.089	84.75
369.315	82.75
369.541	80.75
369.767	83.75
369.993	89.75
370.219	95.75
370.445	104.75
370.672	72.75
370.898	95.75
371.124	87.75
371.35	88.75
371.576	75.75
371.802	90.75
372.028	88.75
372.254	86.75
372.48	66.75
372.706	89.75
372.932	78.75
373.158	86.75
373.384	84.75
373.61	92.75
373.835	97.75
374.061	78.75
374.287	84.75
374.513	91.75
374.739	83.75
374.965	82.75
375.191	98.75
375.416	95.75
375.642	95.75
375.868	95.75
376.094	98.75
376.319	73.75
376.545	79.75
376.771	80.75
376.997	82.75
377.222	81.75
377.448	83.75
377.674	84.75
377.899	91.75
378.125	85.75
378.35	83.75
378.576	98.75
378.802	79.75
379.027	88.75
379.253	96.75
379.478	102.75
379.704	97.75
379.929	97.75
380.155	84.75
380.38	92.75
380.606	93.75
380.831	90.75
381.057	101.75
381.282	104.75
381.507	86.75
381.733	110.75
381.958	87.75
382.184	102.75
382.409	105.75
382.634	97.75
382.86	115.75
383.085	112.75
383.31	111.75
383.535	111.75
383.761	87.75
383.986	114.75
384.211	114.75
384.436	99.75
384.662	105.75
384.887	102.75
385.112	114.75
385.337	115.75
385.562	103.75
385.787	95.75
386.013	104.75
386.238	102.75
386.463	103.75
386.688	107.75
386.913	108.75
387.138	115.75
387.363	107.75
387.588	109.75
387.813	110.75
388.038	110.75
388.263	117.75
388.488	105.75
388.713	84.75
388.938	92.75
389.163	92.75
389.387	84.75
389.612	92.75
389.837	67.75
390.062	85.75
390.287	82.75
390.512	82.75
390.736	86.75
390.961	93.75
391.186	94.75
391.411	96.75
391.636	92.75
391.86	73.75
392.085	89.75
392.31	92.75
392.534	90.75
392.759	103.75
392.984	78.75
393.208	90.75
393.433	97.75
393.658	81.75
393.882	88.75
394.107	84.75
394.331	84.75
394.556	89.75
394.78	85.75
395.005	80.75
395.229	92.75
395.454	71.75
395.678	86.75
395.903	71.75
396.127	71.75
396.352	99.75
396.576	87.75
396.801	95.75
397.025	79.75
397.249	70.75
397.474	109.75
397.698	81.75
397.922	80.75
398.147	82.75
398.371	85.75
398.595	83.75
398.82	90.75
399.044	78.75
399.268	95.75
399.492	90.75
399.717	80.75
399.941	93.75
400.165	80.75
400.389	74.75
400.613	74.75
400.837	87.75
401.062	84.75
401.286	83.75
401.51	85.75
401.734	72.75
401.958	86.75
402.182	95.75
402.406	116.75
402.63	98.75
402.854	83.75
403.078	91.75
403.302	85.75
403.526	69.75
403.75	80.75
403.974	78.75
404.198	78.75
404.422	78.75
404.645	88.75
404.869	75.75
405.093	97.75
405.317	88.75
405.541	90.75
405.765	83.75
405.988	107.75
406.212	131.75
406.436	153.75
406.66	120.75
406.883	87.75
407.107	83.75
407.331	90.75
407.555	96.75
407.778	83.75
408.002	81.75
408.226	85.75
408.449	88.75
408.673	78.75
408.896	78.75
409.12	89.75
409.344	76.75
409.567	73.75
409.791	78.75
410.014	86.75
410.238	83.75
410.461	93.75
410.685	69.75
410.908	92.75
411.132	96.75
411.355	83.75
411.578	69.75
411.802	69.75
412.025	89.75
412.249	68.75
412.472	87.75
412.695	95.75
412.919	66.75
413.142	83.75
413.365	89.75
413.589	89.75
413.812	81.75
414.035	93.75
414.258	84.75
414.482	81.75
414.705	94.75
414.928	94.75
415.151	93.75
415.374	83.75
415.597	84.75
415.821	69.75
416.044	98.75
416.267	78.75
416.49	97.75
416.713	79.75
416.936	85.75
417.159	74.75
417.382	88.75
417.605	102.75
417.828	88.75
418.051	86.75
418.274	91.75
418.497	68.75
418.72	78.75
418.943	93.75
419.166	97.75
419.389	97.75
419.611	80.75
419.834	83.75
420.057	91.75
420.28	85.75
420.503	79.75
420.726	84.75
420.948	92.75
421.171	83.75
421.394	73.75
421.617	90.75
421.839	86.75
422.062	82.75
422.285	85.75
422.507	96.75
422.73	91.75
422.953	75.75
423.175	90.75
423.398	86.75
423.621	64.75
423.843	82.75
424.066	62.75
424.288	94.75
424.511	88.75
424.733	79.75
424.956	103.75
425.178	94.75
425.401	94.75
425.623	88.75
425.846	84.75
426.068	71.75
426.291	74.75
426.513	81.75
426.735	89.75
426.958	93.75
427.18	93.75
427.402	119.75
427.625	104.75
427.847	108.75
428.069	101.75
428.292	88.75
428.514	75.75
428.736	96.75
428.958	83.75
429.181	89.75
429.403	87.75
429.625	89.75
429.847	84.75
430.069	81.75
430.292	80.75
430.514	88.75
430.736	73.75
430.958	68.75
431.18	78.75
431.402	92.75
431.624	94.75
431.846	68.75
432.068	85.75
432.29	83.75
432.512	82.75
432.734	86.75
432.956	87.75
433.178	106.75
433.4	86.75
433.622	98.75
433.844	88.75
434.066	86.75
434.287	84.75
434.509	81.75
434.731	92.75
434.953	91.75
435.175	79.75
435.397	87.75
435.618	94.75
435.84	96.75
436.062	96.75
436.284	104.75
436.505	89.75
436.727	88.75
436.949	93.75
437.17	82.75
437.392	85.75
437.614	82.75
437.835	99.75
438.057	88.75
438.278	86.75
438.5	89.75
438.721	86.75
438.943	98.75
439.165	96.75
439.386	71.75
439.608	78.75
439.829	82.75
440.05	104.75
440.272	108.75
440.493	83.75
440.715	80.75
440.936	95.75
441.158	87.75
441.379	63.75
441.6	87.75
441.822	96.75
442.043	88.75
442.264	91.75
442.486	87.75
442.707	73.75
442.928	76.75
443.149	100.75
443.371	112.75
443.592	104.75
443.813	100.75
444.034	92.75
444.255	75.75
444.476	66.75
444.698	94.75
444.919	82.75
445.14	117.75
445.361	103.75
445.582	97.75
445.803	116.75
446.024	115.75
446.245	100.75
446.466	90.75
446.687	90.75
446.908	94.75
447.129	69.75
447.35	72.75
447.571	78.75
447.792	85.75
448.013	93.75
448.234	87.75
448.455	95.75
448.675	92.75
448.896	103.75
449.117	92.75
449.338	97.75
449.559	111.75
449.779	88.75
450	73.75
450.221	85.75
450.442	94.75
450.662	76.75
450.883	91.75
451.104	99.75
451.324	87.75
451.545	81.75
451.766	94.75
451.986	77.75
452.207	93.75
452.428	93.75
452.648	98.75
452.869	111.75
453.089	84.75
453.31	97.75
453.53	90.75
453.751	82.75
453.971	92.75
454.192	95.75
454.412	97.75
454.633	72.75
454.853	96.75
455.073	82.75
455.294	76.75
455.514	85.75
455.734	79.75
455.955	64.75
456.175	89.75
456.395	82.75
456.616	88.75
456.836	85.75
457.056	82.75
457.276	66.75
457.497	87.75
457.717	90.75
457.937	92.75
458.157	78.75
458.377	80.75
458.598	95.75
458.818	120.75
459.038	114.75
459.258	83.75
459.478	78.75
459.698	78.75
459.918	84.75
460.138	98.75
460.358	80.75
460.578	83.75
460.798	82.75
461.018	88.75
461.238	79.75
461.458	98.75
461.678	70.75
461.898	83.75
462.118	96.75
462.338	69.75
462.558	82.75
462.777	83.75
462.997	68.75
463.217	83.75
463.437	78.75
463.657	81.75
463.876	90.75
464.096	88.75
464.316	76.75
464.536	83.75
464.755	94.75
464.975	104.75
465.195	125.75
465.414	124.75
465.634	94.75
465.854	86.75
466.073	84.75
466.293	83.75
466.512	82.75
466.732	67.75
466.951	84.75
467.171	94.75
467.391	86.75
467.61	82.75
467.829	84.75
468.049	97.75
468.268	92.75
468.488	84.75
468.707	89.75
468.927	87.75
469.146	80.75
469.365	87.75
469.585	85.75
469.804	83.75
470.023	84.75
470.243	78.75
470.462	94.75
470.681	101.75
470.901	82.75
471.12	62.75
471.339	90.75
471.558	86.75
471.777	81.75
471.997	92.75
472.216	85.75
472.435	123.75
472.654	91.75
472.873	86.75
473.092	92.75
473.311	73.75
473.53	105.75
473.749	72.75
473.968	86.75
474.187	102.75
474.406	87.75
474.625	81.75
474.844	87.75
475.063	82.75
475.282	82.75
475.501	63.75
475.72	78.75
475.939	76.75
476.158	75.75
476.377	87.75
476.596	90.75
476.814	86.75
477.033	81.75
477.252	87.75
477.471	93.75
477.69	98.75
477.908	69.75
478.127	91.75
478.346	68.75
478.564	87.75
478.783	90.75
479.002	86.75
479.22	91.75
479.439	100.75
479.658	85.75
479.876	76.75
480.095	79.75
480.313	78.75
480.532	74.75
480.751	86.75
480.969	94.75
481.188	154.75
481.406	133.75
481.624	86.75
481.843	83.75
482.061	85.75
482.28	80.75
482.498	84.75
482.717	65.75
482.935	102.75
483.153	82.75
483.372	91.75
483.59	84.75
483.808	68.75
484.027	76.75
484.245	82.75
484.463	88.75
484.681	79.75
484.9	76.75
485.118	84.75
485.336	101.75
485.554	99.75
485.772	90.75
485.99	96.75
486.209	95.75
486.427	99.75
486.645	103.75
486.863	104.75
487.081	79.75
487.299	92.75
487.517	91.75
487.735	92.75
487.953	86.75
488.171	103.75
488.389	78.75
488.607	88.75
488.825	83.75
489.043	88.75
489.261	89.75
489.479	95.75
489.696	84.75
489.914	77.75
490.132	96.75
490.35	82.75
490.568	98.75
490.786	83.75
491.003	74.75
491.221	87.75
491.439	81.75
491.657	94.75
491.874	80.75
492.092	89.75
492.31	79.75
492.527	94.75
492.745	87.75
492.963	79.75
493.18	84.75
493.398	80.75
493.615	87.75
493.833	86.75
494.05	78.75
494.268	70.75
494.485	88.75
494.703	84.75
494.92	96.75
495.138	85.75
495.355	96.75
495.573	90.75
495.79	83.75
496.008	84.75
496.225	88.75
496.442	85.75
496.66	88.75
496.877	91.75
497.094	90.75
497.312	91.75
497.529	95.75
497.746	86.75
497.963	91.75
498.181	90.75
498.398	77.75
498.615	91.75
498.832	94.75
499.049	94.75
499.267	80.75
499.484	83.75
499.701	85.75
499.918	81.75
500.135	88.75
500.352	86.75
500.569	90.75
500.786	88.75
501.003	79.75
501.22	96.75
501.437	82.75
501.654	87.75
501.871	98.75
502.088	85.75
502.305	98.75
502.522	90.75
502.739	84.75
502.956	69.75
503.172	96.75
503.389	76.75
503.606	98.75
503.823	84.75
504.04	74.75
504.256	80.75
504.473	80.75
504.69	93.75
504.907	82.75
505.123	96.75
505.34	93.75
505.557	87.75
505.773	85.75
505.99	91.75
506.207	69.75
506.423	73.75
506.64	92.75
506.856	88.75
507.073	90.75
507.289	95.75
507.506	86.75
507.722	99.75
507.939	103.75
508.155	83.75
508.372	76.75
508.588	82.75
508.805	70.75
509.021	90.75
509.238	94.75
509.454	94.75
509.67	87.75
509.887	108.75
510.103	114.75
510.319	189.75
510.536	562.75
510.752	1650.75
510.968	463.75
511.184	122.75
511.401	82.75
511.617	104.75
511.833	90.75
512.049	96.75
512.265	89.75
512.481	93.75
512.698	85.75
512.914	79.75
513.13	86.75
513.346	98.75
513.562	86.75
513.778	98.75
513.994	102.75
514.21	100.75
514.426	104.75
514.642	126.75
514.858	97.75
515.074	119.75
515.29	298.75
515.506	932.75
515.721	345.75
515.937	137.75
516.153	109.75
516.369	93.75
516.585	76.75
516.801	82.75
517.016	90.75
517.232	91.75
517.448	105.75
517.664	86.75
517.879	90.75
