Data from Uncirc_1980_H10_HRD10591_00059.txt Node
Date: Wed Jan 03 12:37:07 EST 2024
User: Yrep
Spectrometer: HR+D1059
Trigger mode: 1
Integration Time (sec): 1.000000E-1
Scans to average: 1
Electric dark correction enabled: true
Nonlinearity correction enabled: false
Boxcar width: 0
XAxis mode: Wavelengths
Number of Pixels in Spectrum: 2048
>>>>>Begin Spectral Data<<<<<
223.165	-20.5
223.4	-20.5
223.635	-20.5
223.869	-14.5
224.104	-35.5
224.338	-16.5
224.573	-3.5
224.808	-22.5
225.042	-11.5
225.277	-1.5
225.511	-2.5
225.746	-2.5
225.98	13.5
226.215	11.5
226.449	22.5
226.683	22.5
226.918	30.5
227.152	30.5
227.387	34.5
227.621	35.5
227.856	56.5
228.09	56.5
228.324	41.5
228.559	56.5
228.793	69.5
229.027	63.5
229.262	69.5
229.496	69.5
229.73	84.5
229.964	84.5
230.199	84.5
230.433	76.5
230.667	68.5
230.901	92.5
231.136	71.5
231.37	75.5
231.604	72.5
231.838	77.5
232.072	91.5
232.306	80.5
232.541	93.5
232.775	96.5
233.009	89.5
233.243	83.5
233.477	84.5
233.711	83.5
233.945	91.5
234.179	72.5
234.413	87.5
234.647	82.5
234.881	92.5
235.115	90.5
235.349	83.5
235.583	76.5
235.817	79.5
236.051	90.5
236.285	73.5
236.519	83.5
236.753	70.5
236.987	89.5
237.221	78.5
237.455	80.5
237.689	83.5
237.922	70.5
238.156	66.5
238.39	73.5
238.624	75.5
238.858	83.5
239.091	91.5
239.325	85.5
239.559	81.5
239.793	82.5
240.027	91.5
240.26	69.5
240.494	71.5
240.728	91.5
240.961	69.5
241.195	82.5
241.429	63.5
241.662	67.5
241.896	61.5
242.13	76.5
242.363	68.5
242.597	81.5
242.83	87.5
243.064	85.5
243.298	80.5
243.531	77.5
243.765	79.5
243.998	89.5
244.232	84.5
244.465	80.5
244.699	95.5
244.932	87.5
245.166	74.5
245.399	91.5
245.633	75.5
245.866	85.5
246.099	76.5
246.333	87.5
246.566	71.5
246.8	69.5
247.033	78.5
247.266	73.5
247.5	83.5
247.733	85.5
247.966	87.5
248.2	73.5
248.433	70.5
248.666	83.5
248.899	80.5
249.133	68.5
249.366	87.5
249.599	86.5
249.832	78.5
250.066	79.5
250.299	77.5
250.532	78.5
250.765	90.5
250.998	96.5
251.231	90.5
251.465	88.5
251.698	81.5
251.931	76.5
252.164	78.5
252.397	83.5
252.63	77.5
252.863	83.5
253.096	85.5
253.329	83.5
253.562	70.5
253.795	78.5
254.028	81.5
254.261	83.5
254.494	69.5
254.727	89.5
254.96	75.5
255.193	83.5
255.426	80.5
255.659	91.5
255.892	85.5
256.124	85.5
256.357	81.5
256.59	68.5
256.823	80.5
257.056	88.5
257.289	80.5
257.521	88.5
257.754	79.5
257.987	78.5
258.22	86.5
258.452	72.5
258.685	89.5
258.918	78.5
259.151	81.5
259.383	89.5
259.616	94.5
259.849	91.5
260.081	82.5
260.314	83.5
260.547	84.5
260.779	91.5
261.012	86.5
261.244	85.5
261.477	83.5
261.71	94.5
261.942	94.5
262.175	110.5
262.407	91.5
262.64	90.5
262.872	85.5
263.105	81.5
263.337	87.5
263.57	89.5
263.802	92.5
264.035	93.5
264.267	89.5
264.499	91.5
264.732	93.5
264.964	78.5
265.197	89.5
265.429	81.5
265.661	87.5
265.894	86.5
266.126	78.5
266.358	70.5
266.591	72.5
266.823	80.5
267.055	85.5
267.287	85.5
267.52	86.5
267.752	82.5
267.984	91.5
268.216	77.5
268.448	84.5
268.681	80.5
268.913	91.5
269.145	87.5
269.377	89.5
269.609	78.5
269.841	87.5
270.073	94.5
270.306	86.5
270.538	87.5
270.77	71.5
271.002	76.5
271.234	86.5
271.466	89.5
271.698	71.5
271.93	91.5
272.162	81.5
272.394	87.5
272.626	80.5
272.858	83.5
273.09	78.5
273.322	74.5
273.553	80.5
273.785	83.5
274.017	84.5
274.249	78.5
274.481	76.5
274.713	93.5
274.945	85.5
275.176	79.5
275.408	99.5
275.64	91.5
275.872	87.5
276.104	95.5
276.335	104.5
276.567	90.5
276.799	111.5
277.031	96.5
277.262	86.5
277.494	103.5
277.726	87.5
277.957	89.5
278.189	76.5
278.421	94.5
278.652	85.5
278.884	85.5
279.115	73.5
279.347	86.5
279.579	89.5
279.81	85.5
280.042	100.5
280.273	102.5
280.505	94.5
280.736	85.5
280.968	74.5
281.199	93.5
281.431	91.5
281.662	83.5
281.894	89.5
282.125	88.5
282.356	101.5
282.588	107.5
282.819	107.5
283.051	87.5
283.282	83.5
283.513	79.5
283.745	87.5
283.976	77.5
284.207	78.5
284.439	80.5
284.67	83.5
284.901	78.5
285.132	83.5
285.364	85.5
285.595	71.5
285.826	78.5
286.057	84.5
286.288	96.5
286.52	102.5
286.751	73.5
286.982	83.5
287.213	93.5
287.444	104.5
287.675	72.5
287.906	83.5
288.138	84.5
288.369	102.5
288.6	98.5
288.831	84.5
289.062	85.5
289.293	98.5
289.524	89.5
289.755	73.5
289.986	81.5
290.217	74.5
290.448	95.5
290.679	80.5
290.91	95.5
291.141	88.5
291.371	92.5
291.602	100.5
291.833	83.5
292.064	97.5
292.295	86.5
292.526	75.5
292.757	95.5
292.987	83.5
293.218	88.5
293.449	71.5
293.68	83.5
293.91	82.5
294.141	96.5
294.372	93.5
294.603	92.5
294.833	85.5
295.064	106.5
295.295	93.5
295.525	93.5
295.756	95.5
295.987	99.5
296.217	127.5
296.448	118.5
296.679	103.5
296.909	78.5
297.14	88.5
297.37	85.5
297.601	93.5
297.831	78.5
298.062	91.5
298.292	80.5
298.523	85.5
298.753	88.5
298.984	92.5
299.214	80.5
299.445	91.5
299.675	89.5
299.905	87.5
300.136	93.5
300.366	92.5
300.597	91.5
300.827	91.5
301.057	95.5
301.288	97.5
301.518	91.5
301.748	93.5
301.979	97.5
302.209	83.5
302.439	91.5
302.669	102.5
302.9	86.5
303.13	89.5
303.36	106.5
303.59	101.5
303.82	100.5
304.051	100.5
304.281	93.5
304.511	87.5
304.741	95.5
304.971	78.5
305.201	81.5
305.431	97.5
305.661	83.5
305.891	93.5
306.121	101.5
306.352	94.5
306.582	111.5
306.812	85.5
307.042	104.5
307.272	103.5
307.502	99.5
307.731	110.5
307.961	92.5
308.191	86.5
308.421	79.5
308.651	101.5
308.881	108.5
309.111	101.5
309.341	83.5
309.571	88.5
309.8	96.5
310.03	84.5
310.26	105.5
310.49	112.5
310.72	85.5
310.949	95.5
311.179	99.5
311.409	89.5
311.639	91.5
311.868	94.5
312.098	102.5
312.328	96.5
312.557	93.5
312.787	108.5
313.017	92.5
313.246	99.5
313.476	92.5
313.706	85.5
313.935	89.5
314.165	91.5
314.394	104.5
314.624	102.5
314.853	97.5
315.083	87.5
315.312	93.5
315.542	101.5
315.771	102.5
316.001	94.5
316.23	99.5
316.46	92.5
316.689	70.5
316.919	96.5
317.148	89.5
317.377	96.5
317.607	92.5
317.836	93.5
318.065	94.5
318.295	97.5
318.524	96.5
318.753	95.5
318.983	90.5
319.212	109.5
319.441	110.5
319.67	99.5
319.9	102.5
320.129	90.5
320.358	80.5
320.587	97.5
320.816	107.5
321.046	118.5
321.275	106.5
321.504	98.5
321.733	96.5
321.962	109.5
322.191	85.5
322.42	85.5
322.649	106.5
322.878	104.5
323.108	103.5
323.337	110.5
323.566	120.5
323.795	113.5
324.024	161.5
324.253	267.5
324.482	560.5
324.71	1073.5
324.939	1434.5
325.168	566.5
325.397	182.5
325.626	125.5
325.855	133.5
326.084	111.5
326.313	124.5
326.542	127.5
326.77	188.5
326.999	309.5
327.228	643.5
327.457	1119.5
327.686	899.5
327.914	272.5
328.143	163.5
328.372	125.5
328.6	108.5
328.829	101.5
329.058	112.5
329.287	111.5
329.515	107.5
329.744	95.5
329.972	119.5
330.201	110.5
330.43	108.5
330.658	119.5
330.887	112.5
331.115	120.5
331.344	102.5
331.572	88.5
331.801	106.5
332.03	88.5
332.258	106.5
332.486	91.5
332.715	109.5
332.943	96.5
333.172	108.5
333.4	107.5
333.629	101.5
333.857	101.5
334.085	93.5
334.314	96.5
334.542	125.5
334.771	133.5
334.999	96.5
335.227	104.5
335.455	92.5
335.684	100.5
335.912	100.5
336.14	100.5
336.369	85.5
336.597	97.5
336.825	92.5
337.053	101.5
337.281	93.5
337.51	84.5
337.738	107.5
337.966	86.5
338.194	88.5
338.422	85.5
338.65	101.5
338.878	101.5
339.106	87.5
339.334	108.5
339.562	83.5
339.79	83.5
340.018	86.5
340.246	93.5
340.474	105.5
340.702	88.5
340.93	102.5
341.158	84.5
341.386	80.5
341.614	89.5
341.842	77.5
342.07	70.5
342.298	95.5
342.526	96.5
342.754	87.5
342.981	98.5
343.209	85.5
343.437	93.5
343.665	112.5
343.893	92.5
344.12	97.5
344.348	87.5
344.576	91.5
344.804	94.5
345.031	107.5
345.259	90.5
345.487	88.5
345.714	92.5
345.942	93.5
346.17	101.5
346.397	99.5
346.625	94.5
346.853	93.5
347.08	89.5
347.308	87.5
347.535	92.5
347.763	101.5
347.99	103.5
348.218	109.5
348.445	94.5
348.673	94.5
348.9	97.5
349.128	103.5
349.355	96.5
349.583	94.5
349.81	97.5
350.037	86.5
350.265	95.5
350.492	72.5
350.72	96.5
350.947	105.5
351.174	115.5
351.402	121.5
351.629	113.5
351.856	92.5
352.083	99.5
352.311	114.5
352.538	123.5
352.765	112.5
352.992	122.5
353.22	110.5
353.447	95.5
353.674	89.5
353.901	110.5
354.128	95.5
354.355	96.5
354.583	104.5
354.81	107.5
355.037	93.5
355.264	104.5
355.491	97.5
355.718	111.5
355.945	83.5
356.172	87.5
356.399	92.5
356.626	102.5
356.853	91.5
357.08	76.5
357.307	97.5
357.534	95.5
357.761	89.5
357.988	91.5
358.215	83.5
358.441	111.5
358.668	99.5
358.895	93.5
359.122	90.5
359.349	85.5
359.576	95.5
359.802	90.5
360.029	111.5
360.256	96.5
360.483	85.5
360.709	89.5
360.936	95.5
361.163	87.5
361.39	100.5
361.616	97.5
361.843	106.5
362.07	83.5
362.296	100.5
362.523	104.5
362.749	99.5
362.976	88.5
363.203	96.5
363.429	86.5
363.656	113.5
363.882	83.5
364.109	92.5
364.335	85.5
364.562	85.5
364.788	91.5
365.015	97.5
365.241	107.5
365.468	108.5
365.694	94.5
365.92	90.5
366.147	88.5
366.373	93.5
366.599	83.5
366.826	94.5
367.052	99.5
367.278	90.5
367.505	106.5
367.731	90.5
367.957	100.5
368.184	92.5
368.41	100.5
368.636	96.5
368.862	93.5
369.089	110.5
369.315	93.5
369.541	84.5
369.767	94.5
369.993	89.5
370.219	82.5
370.445	74.5
370.672	86.5
370.898	89.5
371.124	90.5
371.35	99.5
371.576	89.5
371.802	89.5
372.028	89.5
372.254	94.5
372.48	72.5
372.706	81.5
372.932	79.5
373.158	89.5
373.384	86.5
373.61	94.5
373.835	85.5
374.061	83.5
374.287	100.5
374.513	70.5
374.739	81.5
374.965	83.5
375.191	77.5
375.416	96.5
375.642	89.5
375.868	99.5
376.094	100.5
376.319	87.5
376.545	84.5
376.771	75.5
376.997	95.5
377.222	113.5
377.448	94.5
377.674	100.5
377.899	97.5
378.125	93.5
378.35	99.5
378.576	100.5
378.802	81.5
379.027	85.5
379.253	94.5
379.478	86.5
379.704	89.5
379.929	91.5
380.155	89.5
380.38	95.5
380.606	102.5
380.831	101.5
381.057	108.5
381.282	101.5
381.507	109.5
381.733	95.5
381.958	99.5
382.184	91.5
382.409	111.5
382.634	104.5
382.86	102.5
383.085	100.5
383.31	97.5
383.535	109.5
383.761	111.5
383.986	104.5
384.211	102.5
384.436	98.5
384.662	104.5
384.887	93.5
385.112	94.5
385.337	110.5
385.562	112.5
385.787	109.5
386.013	105.5
386.238	116.5
386.463	102.5
386.688	112.5
386.913	117.5
387.138	110.5
387.363	103.5
387.588	113.5
387.813	103.5
388.038	110.5
388.263	106.5
388.488	109.5
388.713	105.5
388.938	88.5
389.163	89.5
389.387	88.5
389.612	94.5
389.837	108.5
390.062	104.5
390.287	95.5
390.512	107.5
390.736	94.5
390.961	103.5
391.186	98.5
391.411	96.5
391.636	95.5
391.86	86.5
392.085	66.5
392.31	92.5
392.534	76.5
392.759	100.5
392.984	91.5
393.208	87.5
393.433	106.5
393.658	89.5
393.882	86.5
394.107	93.5
394.331	87.5
394.556	91.5
394.78	92.5
395.005	80.5
395.229	88.5
395.454	83.5
395.678	85.5
395.903	78.5
396.127	89.5
396.352	87.5
396.576	85.5
396.801	103.5
397.025	78.5
397.249	85.5
397.474	100.5
397.698	86.5
397.922	85.5
398.147	86.5
398.371	80.5
398.595	97.5
398.82	83.5
399.044	96.5
399.268	79.5
399.492	99.5
399.717	78.5
399.941	94.5
400.165	96.5
400.389	79.5
400.613	78.5
400.837	100.5
401.062	97.5
401.286	87.5
401.51	92.5
401.734	89.5
401.958	91.5
402.182	111.5
402.406	133.5
402.63	110.5
402.854	91.5
403.078	99.5
403.302	80.5
403.526	83.5
403.75	83.5
403.974	96.5
404.198	85.5
404.422	89.5
404.645	87.5
404.869	97.5
405.093	108.5
405.317	94.5
405.541	86.5
405.765	98.5
405.988	95.5
406.212	156.5
406.436	178.5
406.66	123.5
406.883	102.5
407.107	84.5
407.331	100.5
407.555	92.5
407.778	109.5
408.002	90.5
408.226	88.5
408.449	89.5
408.673	94.5
408.896	95.5
409.12	99.5
409.344	75.5
409.567	92.5
409.791	102.5
410.014	99.5
410.238	101.5
410.461	103.5
410.685	84.5
410.908	88.5
411.132	93.5
411.355	104.5
411.578	117.5
411.802	91.5
412.025	96.5
412.249	85.5
412.472	105.5
412.695	107.5
412.919	100.5
413.142	109.5
413.365	89.5
413.589	84.5
413.812	77.5
414.035	77.5
414.258	91.5
414.482	91.5
414.705	101.5
414.928	98.5
415.151	98.5
415.374	102.5
415.597	78.5
415.821	83.5
416.044	96.5
416.267	96.5
416.49	92.5
416.713	83.5
416.936	96.5
417.159	83.5
417.382	80.5
417.605	85.5
417.828	80.5
418.051	89.5
418.274	107.5
418.497	103.5
418.72	101.5
418.943	89.5
419.166	75.5
419.389	83.5
419.611	97.5
419.834	88.5
420.057	99.5
420.28	89.5
420.503	92.5
420.726	97.5
420.948	96.5
421.171	83.5
421.394	86.5
421.617	94.5
421.839	99.5
422.062	85.5
422.285	81.5
422.507	100.5
422.73	92.5
422.953	88.5
423.175	86.5
423.398	92.5
423.621	101.5
423.843	91.5
424.066	99.5
424.288	96.5
424.511	104.5
424.733	90.5
424.956	91.5
425.178	94.5
425.401	106.5
425.623	103.5
425.846	96.5
426.068	89.5
426.291	80.5
426.513	94.5
426.735	103.5
426.958	93.5
427.18	102.5
427.402	125.5
427.625	138.5
427.847	109.5
428.069	105.5
428.292	91.5
428.514	80.5
428.736	101.5
428.958	83.5
429.181	75.5
429.403	87.5
429.625	88.5
429.847	86.5
430.069	89.5
430.292	94.5
430.514	87.5
430.736	88.5
430.958	93.5
431.18	85.5
431.402	87.5
431.624	88.5
431.846	88.5
432.068	90.5
432.29	86.5
432.512	91.5
432.734	81.5
432.956	100.5
433.178	90.5
433.4	93.5
433.622	109.5
433.844	84.5
434.066	97.5
434.287	84.5
434.509	78.5
434.731	106.5
434.953	92.5
435.175	73.5
435.397	79.5
435.618	90.5
435.84	106.5
436.062	120.5
436.284	108.5
436.505	102.5
436.727	100.5
436.949	89.5
437.17	90.5
437.392	85.5
437.614	99.5
437.835	91.5
438.057	96.5
438.278	102.5
438.5	94.5
438.721	112.5
438.943	102.5
439.165	80.5
439.386	70.5
439.608	82.5
439.829	94.5
440.05	105.5
440.272	124.5
440.493	100.5
440.715	97.5
440.936	109.5
441.158	100.5
441.379	91.5
441.6	98.5
441.822	89.5
442.043	83.5
442.264	89.5
442.486	94.5
442.707	90.5
442.928	98.5
443.149	107.5
443.371	117.5
443.592	92.5
443.813	99.5
444.034	96.5
444.255	87.5
444.476	87.5
444.698	91.5
444.919	92.5
445.14	130.5
445.361	123.5
445.582	117.5
445.803	111.5
446.024	110.5
446.245	120.5
446.466	108.5
446.687	91.5
446.908	100.5
447.129	87.5
447.35	106.5
447.571	80.5
447.792	87.5
448.013	79.5
448.234	107.5
448.455	84.5
448.675	99.5
448.896	93.5
449.117	87.5
449.338	89.5
449.559	112.5
449.779	116.5
450	92.5
450.221	97.5
450.442	100.5
450.662	94.5
450.883	100.5
451.104	103.5
451.324	89.5
451.545	105.5
451.766	88.5
451.986	89.5
452.207	94.5
452.428	95.5
452.648	87.5
452.869	96.5
453.089	108.5
453.31	113.5
453.53	92.5
453.751	93.5
453.971	96.5
454.192	102.5
454.412	99.5
454.633	80.5
454.853	92.5
455.073	101.5
455.294	91.5
455.514	100.5
455.734	92.5
455.955	93.5
456.175	102.5
456.395	87.5
456.616	86.5
456.836	98.5
457.056	80.5
457.276	89.5
457.497	95.5
457.717	82.5
457.937	90.5
458.157	86.5
458.377	108.5
458.598	99.5
458.818	124.5
459.038	140.5
459.258	113.5
459.478	101.5
459.698	99.5
459.918	83.5
460.138	88.5
460.358	79.5
460.578	83.5
460.798	83.5
461.018	94.5
461.238	83.5
461.458	85.5
461.678	93.5
461.898	88.5
462.118	103.5
462.338	87.5
462.558	85.5
462.777	93.5
462.997	88.5
463.217	80.5
463.437	88.5
463.657	77.5
463.876	87.5
464.096	89.5
464.316	87.5
464.536	88.5
464.755	79.5
464.975	103.5
465.195	118.5
465.414	139.5
465.634	91.5
465.854	93.5
466.073	89.5
466.293	91.5
466.512	93.5
466.732	98.5
466.951	95.5
467.171	90.5
467.391	87.5
467.61	87.5
467.829	93.5
468.049	87.5
468.268	97.5
468.488	82.5
468.707	92.5
468.927	89.5
469.146	83.5
469.365	94.5
469.585	94.5
469.804	96.5
470.023	95.5
470.243	89.5
470.462	89.5
470.681	97.5
470.901	93.5
471.12	86.5
471.339	93.5
471.558	83.5
471.777	76.5
471.997	92.5
472.216	113.5
472.435	135.5
472.654	96.5
472.873	92.5
473.092	88.5
473.311	91.5
473.53	89.5
473.749	78.5
473.968	82.5
474.187	106.5
474.406	93.5
474.625	95.5
474.844	101.5
475.063	85.5
475.282	83.5
475.501	104.5
475.72	97.5
475.939	90.5
476.158	87.5
476.377	90.5
476.596	83.5
476.814	97.5
477.033	87.5
477.252	94.5
477.471	87.5
477.69	106.5
477.908	82.5
478.127	102.5
478.346	85.5
478.564	85.5
478.783	81.5
479.002	92.5
479.22	87.5
479.439	96.5
479.658	93.5
479.876	85.5
480.095	89.5
480.313	89.5
480.532	96.5
480.751	102.5
480.969	105.5
481.188	175.5
481.406	136.5
481.624	95.5
481.843	88.5
482.061	95.5
482.28	90.5
482.498	82.5
482.717	87.5
482.935	90.5
483.153	80.5
483.372	99.5
483.59	90.5
483.808	93.5
484.027	96.5
484.245	92.5
484.463	88.5
484.681	87.5
484.9	92.5
485.118	100.5
485.336	96.5
485.554	87.5
485.772	87.5
485.99	91.5
486.209	96.5
486.427	114.5
486.645	108.5
486.863	112.5
487.081	100.5
487.299	96.5
487.517	98.5
487.735	91.5
487.953	89.5
488.171	92.5
488.389	99.5
488.607	111.5
488.825	95.5
489.043	93.5
489.261	95.5
489.479	97.5
489.696	77.5
489.914	87.5
490.132	97.5
490.35	88.5
490.568	110.5
490.786	87.5
491.003	91.5
491.221	94.5
491.439	110.5
491.657	96.5
491.874	89.5
492.092	98.5
492.31	93.5
492.527	91.5
492.745	96.5
492.963	99.5
493.18	88.5
493.398	90.5
493.615	92.5
493.833	95.5
494.05	84.5
494.268	83.5
494.485	95.5
494.703	118.5
494.92	101.5
495.138	86.5
495.355	110.5
495.573	84.5
495.79	99.5
496.008	98.5
496.225	76.5
496.442	79.5
496.66	76.5
496.877	81.5
497.094	90.5
497.312	86.5
497.529	72.5
497.746	104.5
497.963	91.5
498.181	106.5
498.398	99.5
498.615	101.5
498.832	107.5
499.049	80.5
499.267	101.5
499.484	83.5
499.701	87.5
499.918	101.5
500.135	88.5
500.352	87.5
500.569	88.5
500.786	83.5
501.003	96.5
501.22	94.5
501.437	106.5
501.654	89.5
501.871	104.5
502.088	96.5
502.305	91.5
502.522	105.5
502.739	95.5
502.956	100.5
503.172	93.5
503.389	100.5
503.606	94.5
503.823	95.5
504.04	101.5
504.256	102.5
504.473	92.5
504.69	88.5
504.907	90.5
505.123	91.5
505.34	83.5
505.557	91.5
505.773	99.5
505.99	95.5
506.207	86.5
506.423	103.5
506.64	73.5
506.856	80.5
507.073	102.5
507.289	86.5
507.506	97.5
507.722	105.5
507.939	94.5
508.155	96.5
508.372	95.5
508.588	97.5
508.805	95.5
509.021	89.5
509.238	97.5
509.454	84.5
509.67	93.5
509.887	90.5
510.103	117.5
510.319	190.5
510.536	567.5
510.752	1686.5
510.968	479.5
511.184	142.5
511.401	119.5
511.617	93.5
511.833	107.5
512.049	91.5
512.265	94.5
512.481	89.5
512.698	83.5
512.914	95.5
513.13	91.5
513.346	94.5
513.562	98.5
513.778	103.5
513.994	103.5
514.21	100.5
514.426	105.5
514.642	119.5
514.858	112.5
515.074	144.5
515.29	306.5
515.506	963.5
515.721	363.5
515.937	122.5
516.153	107.5
516.369	89.5
516.585	99.5
516.801	85.5
517.016	91.5
517.232	99.5
517.448	92.5
517.664	91.5
517.879	96.5
518.095	103.5
518.311	88.5
518.527	91.5
518.742	106.5
518.958	83.5
519.173	103.5
519.389	99.5
519.605	104.5
519.82	103.5
520.036	101.5
520.251	115.5
520.467	100.5
520.682	102.5
520.898	118.5
521.113	132.5
521.329	138.5
521.544	167.5
521.76	407.5
521.975	1546.5
522.19	957.5
522.406	222.5
522.621	117.5
522.836	91.5
523.052	100.5
523.267	109.5
523.482	81.5
523.698	104.5
523.913	96.5
524.128	104.5
524.343	87.5
524.559	88.5
524.774	88.5
524.989	90.5
525.204	97.5
525.419	92.5
525.634	103.5
525.849	83.5
526.064	80.5
526.28	100.5
526.495	94.5
526.71	92.5
526.925	93.5
527.14	88.5
527.355	93.5
527.57	86.5
527.785	92.5
527.999	84.5
528.214	95.5
528.429	91.5
528.644	91.5
528.859	89.5
529.074	89.5
529.289	118.5
529.503	151.5
529.718	102.5
529.933	105.5
530.148	81.5
530.363	91.5
530.577	91.5
530.792	104.5
531.007	104.5
531.221	87.5
531.436	90.5
531.651	88.5
531.865	105.5
532.08	78.5
532.295	95.5
532.509	85.5
532.724	80.5
532.938	92.5
533.153	99.5
533.367	102.5
533.582	109.5
533.796	91.5
534.011	97.5
534.225	93.5
534.44	99.5
534.654	108.5
534.868	113.5
