Data from Uncirc_1980_H10_HRD10591_00003.txt Node
Date: Wed Jan 03 12:36:56 EST 2024
User: Yrep
Spectrometer: HR+D1059
Trigger mode: 1
Integration Time (sec): 1.000000E-1
Scans to average: 1
Electric dark correction enabled: true
Nonlinearity correction enabled: false
Boxcar width: 0
XAxis mode: Wavelengths
Number of Pixels in Spectrum: 2048
>>>>>Begin Spectral Data<<<<<
223.165	-8.75
223.4	-8.75
223.635	-8.75
223.869	-26.75
224.104	-7.75
224.338	-15.75
224.573	-17.75
224.808	-19.75
225.042	-1.75
225.277	5.25
225.511	-13.75
225.746	-5.75
225.98	-1.75
226.215	21.25
226.449	19.25
226.683	33.25
226.918	20.25
227.152	20.25
227.387	44.25
227.621	43.25
227.856	38.25
228.09	44.25
228.324	52.25
228.559	58.25
228.793	47.25
229.027	52.25
229.262	68.25
229.496	67.25
229.73	76.25
229.964	70.25
230.199	70.25
230.433	70.25
230.667	68.25
230.901	78.25
231.136	83.25
231.37	73.25
231.604	78.25
231.838	74.25
232.072	70.25
232.306	70.25
232.541	73.25
232.775	69.25
233.009	75.25
233.243	79.25
233.477	86.25
233.711	93.25
233.945	78.25
234.179	77.25
234.413	81.25
234.647	77.25
234.881	77.25
235.115	75.25
235.349	63.25
235.583	82.25
235.817	86.25
236.051	73.25
236.285	57.25
236.519	76.25
236.753	84.25
236.987	68.25
237.221	74.25
237.455	73.25
237.689	89.25
237.922	68.25
238.156	84.25
238.39	79.25
238.624	69.25
238.858	69.25
239.091	70.25
239.325	79.25
239.559	67.25
239.793	60.25
240.027	85.25
240.26	87.25
240.494	79.25
240.728	73.25
240.961	67.25
241.195	47.25
241.429	61.25
241.662	64.25
241.896	72.25
242.13	61.25
242.363	66.25
242.597	72.25
242.83	71.25
243.064	85.25
243.298	74.25
243.531	81.25
243.765	67.25
243.998	70.25
244.232	69.25
244.465	78.25
244.699	69.25
244.932	82.25
245.166	80.25
245.399	61.25
245.633	75.25
245.866	78.25
246.099	76.25
246.333	66.25
246.566	61.25
246.8	68.25
247.033	78.25
247.266	72.25
247.5	86.25
247.733	68.25
247.966	76.25
248.2	76.25
248.433	72.25
248.666	72.25
248.899	68.25
249.133	69.25
249.366	99.25
249.599	85.25
249.832	87.25
250.066	78.25
250.299	92.25
250.532	60.25
250.765	83.25
250.998	68.25
251.231	70.25
251.465	80.25
251.698	69.25
251.931	80.25
252.164	74.25
252.397	93.25
252.63	81.25
252.863	75.25
253.096	78.25
253.329	77.25
253.562	78.25
253.795	78.25
254.028	70.25
254.261	81.25
254.494	80.25
254.727	78.25
254.96	74.25
255.193	82.25
255.426	67.25
255.659	78.25
255.892	70.25
256.124	72.25
256.357	75.25
256.59	86.25
256.823	67.25
257.056	78.25
257.289	71.25
257.521	68.25
257.754	73.25
257.987	80.25
258.22	81.25
258.452	87.25
258.685	77.25
258.918	83.25
259.151	81.25
259.383	77.25
259.616	78.25
259.849	72.25
260.081	76.25
260.314	72.25
260.547	78.25
260.779	87.25
261.012	76.25
261.244	90.25
261.477	85.25
261.71	87.25
261.942	89.25
262.175	93.25
262.407	80.25
262.64	76.25
262.872	79.25
263.105	90.25
263.337	88.25
263.57	72.25
263.802	75.25
264.035	92.25
264.267	70.25
264.499	72.25
264.732	73.25
264.964	81.25
265.197	74.25
265.429	81.25
265.661	92.25
265.894	72.25
266.126	85.25
266.358	66.25
266.591	68.25
266.823	78.25
267.055	78.25
267.287	82.25
267.52	82.25
267.752	79.25
267.984	93.25
268.216	72.25
268.448	74.25
268.681	65.25
268.913	81.25
269.145	80.25
269.377	80.25
269.609	77.25
269.841	87.25
270.073	88.25
270.306	72.25
270.538	82.25
270.77	74.25
271.002	70.25
271.234	95.25
271.466	72.25
271.698	84.25
271.93	83.25
272.162	73.25
272.394	78.25
272.626	85.25
272.858	78.25
273.09	72.25
273.322	74.25
273.553	77.25
273.785	84.25
274.017	88.25
274.249	74.25
274.481	77.25
274.713	80.25
274.945	90.25
275.176	76.25
275.408	84.25
275.64	72.25
275.872	72.25
276.104	81.25
276.335	73.25
276.567	81.25
276.799	93.25
277.031	101.25
277.262	92.25
277.494	90.25
277.726	92.25
277.957	84.25
278.189	88.25
278.421	94.25
278.652	89.25
278.884	89.25
279.115	74.25
279.347	77.25
279.579	92.25
279.81	80.25
280.042	83.25
280.273	71.25
280.505	73.25
280.736	82.25
280.968	70.25
281.199	85.25
281.431	74.25
281.662	84.25
281.894	88.25
282.125	84.25
282.356	93.25
282.588	91.25
282.819	77.25
283.051	94.25
283.282	84.25
283.513	89.25
283.745	95.25
283.976	84.25
284.207	82.25
284.439	82.25
284.67	87.25
284.901	74.25
285.132	78.25
285.364	88.25
285.595	93.25
285.826	78.25
286.057	84.25
286.288	83.25
286.52	89.25
286.751	88.25
286.982	88.25
287.213	103.25
287.444	89.25
287.675	84.25
287.906	81.25
288.138	88.25
288.369	81.25
288.6	74.25
288.831	73.25
289.062	82.25
289.293	90.25
289.524	85.25
289.755	92.25
289.986	85.25
290.217	93.25
290.448	88.25
290.679	86.25
290.91	91.25
291.141	85.25
291.371	89.25
291.602	79.25
291.833	96.25
292.064	78.25
292.295	95.25
292.526	80.25
292.757	97.25
292.987	69.25
293.218	81.25
293.449	80.25
293.68	76.25
293.91	85.25
294.141	95.25
294.372	90.25
294.603	86.25
294.833	78.25
295.064	73.25
295.295	83.25
295.525	100.25
295.756	87.25
295.987	106.25
296.217	109.25
296.448	110.25
296.679	82.25
296.909	88.25
297.14	90.25
297.37	80.25
297.601	66.25
297.831	78.25
298.062	92.25
298.292	76.25
298.523	86.25
298.753	86.25
298.984	86.25
299.214	89.25
299.445	96.25
299.675	100.25
299.905	85.25
300.136	82.25
300.366	71.25
300.597	88.25
300.827	93.25
301.057	86.25
301.288	102.25
301.518	96.25
301.748	82.25
301.979	107.25
302.209	94.25
302.439	90.25
302.669	72.25
302.9	78.25
303.13	70.25
303.36	81.25
303.59	83.25
303.82	97.25
304.051	86.25
304.281	80.25
304.511	85.25
304.741	94.25
304.971	84.25
305.201	93.25
305.431	79.25
305.661	92.25
305.891	96.25
306.121	83.25
306.352	102.25
306.582	84.25
306.812	78.25
307.042	78.25
307.272	84.25
307.502	80.25
307.731	98.25
307.961	86.25
308.191	88.25
308.421	98.25
308.651	72.25
308.881	83.25
309.111	105.25
309.341	73.25
309.571	97.25
309.8	95.25
310.03	88.25
310.26	96.25
310.49	88.25
310.72	93.25
310.949	81.25
311.179	87.25
311.409	84.25
311.639	87.25
311.868	96.25
312.098	81.25
312.328	84.25
312.557	88.25
312.787	105.25
313.017	105.25
313.246	96.25
313.476	78.25
313.706	78.25
313.935	87.25
314.165	86.25
314.394	88.25
314.624	97.25
314.853	88.25
315.083	93.25
315.312	80.25
315.542	81.25
315.771	88.25
316.001	105.25
316.23	83.25
316.46	86.25
316.689	80.25
316.919	81.25
317.148	87.25
317.377	80.25
317.607	81.25
317.836	89.25
318.065	97.25
318.295	84.25
318.524	89.25
318.753	93.25
318.983	86.25
319.212	91.25
319.441	102.25
319.67	81.25
319.9	82.25
320.129	85.25
320.358	75.25
320.587	85.25
320.816	93.25
321.046	80.25
321.275	91.25
321.504	82.25
321.733	96.25
321.962	84.25
322.191	89.25
322.42	84.25
322.649	97.25
322.878	103.25
323.108	88.25
323.337	103.25
323.566	108.25
323.795	117.25
324.024	156.25
324.253	264.25
324.482	577.25
324.71	1162.25
324.939	1543.25
325.168	574.25
325.397	184.25
325.626	130.25
325.855	112.25
326.084	120.25
326.313	120.25
326.542	113.25
326.77	167.25
326.999	312.25
327.228	665.25
327.457	1193.25
327.686	946.25
327.914	278.25
328.143	154.25
328.372	127.25
328.6	88.25
328.829	104.25
329.058	106.25
329.287	99.25
329.515	78.25
329.744	86.25
329.972	96.25
330.201	99.25
330.43	110.25
330.658	107.25
330.887	111.25
331.115	97.25
331.344	88.25
331.572	99.25
331.801	96.25
332.03	80.25
332.258	98.25
332.486	87.25
332.715	88.25
332.943	83.25
333.172	105.25
333.4	95.25
333.629	96.25
333.857	110.25
334.085	81.25
334.314	98.25
334.542	106.25
334.771	119.25
334.999	83.25
335.227	108.25
335.455	88.25
335.684	96.25
335.912	95.25
336.14	80.25
336.369	90.25
336.597	93.25
336.825	108.25
337.053	80.25
337.281	77.25
337.51	84.25
337.738	85.25
337.966	93.25
338.194	104.25
338.422	99.25
338.65	95.25
338.878	92.25
339.106	90.25
339.334	82.25
339.562	76.25
339.79	73.25
340.018	81.25
340.246	82.25
340.474	86.25
340.702	85.25
340.93	72.25
341.158	82.25
341.386	96.25
341.614	82.25
341.842	81.25
342.07	80.25
342.298	87.25
342.526	89.25
342.754	80.25
342.981	84.25
343.209	107.25
343.437	85.25
343.665	87.25
343.893	95.25
344.12	94.25
344.348	89.25
344.576	88.25
344.804	78.25
345.031	85.25
345.259	93.25
345.487	96.25
345.714	98.25
345.942	86.25
346.17	95.25
346.397	95.25
346.625	97.25
346.853	101.25
347.08	88.25
347.308	97.25
347.535	93.25
347.763	116.25
347.99	97.25
348.218	99.25
348.445	85.25
348.673	94.25
348.9	89.25
349.128	92.25
349.355	81.25
349.583	80.25
349.81	90.25
350.037	85.25
350.265	84.25
350.492	102.25
350.72	88.25
350.947	89.25
351.174	99.25
351.402	107.25
351.629	89.25
351.856	85.25
352.083	79.25
352.311	108.25
352.538	88.25
352.765	92.25
352.992	95.25
353.22	102.25
353.447	98.25
353.674	105.25
353.901	97.25
354.128	98.25
354.355	82.25
354.583	85.25
354.81	90.25
355.037	81.25
355.264	85.25
355.491	93.25
355.718	110.25
355.945	81.25
356.172	104.25
356.399	96.25
356.626	100.25
356.853	74.25
357.08	82.25
357.307	78.25
357.534	85.25
357.761	102.25
357.988	95.25
358.215	112.25
358.441	101.25
358.668	98.25
358.895	96.25
359.122	92.25
359.349	104.25
359.576	84.25
359.802	85.25
360.029	97.25
360.256	94.25
360.483	88.25
360.709	83.25
360.936	90.25
361.163	81.25
361.39	76.25
361.616	87.25
361.843	103.25
362.07	99.25
362.296	93.25
362.523	84.25
362.749	84.25
362.976	88.25
363.203	88.25
363.429	81.25
363.656	83.25
363.882	88.25
364.109	95.25
364.335	97.25
364.562	85.25
364.788	95.25
365.015	79.25
365.241	88.25
365.468	89.25
365.694	93.25
365.92	79.25
366.147	71.25
366.373	78.25
366.599	91.25
366.826	94.25
367.052	79.25
367.278	83.25
367.505	77.25
367.731	90.25
367.957	81.25
368.184	88.25
368.41	73.25
368.636	100.25
368.862	83.25
369.089	92.25
369.315	78.25
369.541	79.25
369.767	82.25
369.993	91.25
370.219	84.25
370.445	87.25
370.672	83.25
370.898	78.25
371.124	81.25
371.35	82.25
371.576	87.25
371.802	82.25
372.028	98.25
372.254	75.25
372.48	79.25
372.706	82.25
372.932	91.25
373.158	92.25
373.384	106.25
373.61	92.25
373.835	105.25
374.061	94.25
374.287	80.25
374.513	90.25
374.739	100.25
374.965	97.25
375.191	98.25
375.416	94.25
375.642	82.25
375.868	106.25
376.094	89.25
376.319	96.25
376.545	107.25
376.771	88.25
376.997	74.25
377.222	79.25
377.448	101.25
377.674	91.25
377.899	98.25
378.125	93.25
378.35	78.25
378.576	85.25
378.802	76.25
379.027	82.25
379.253	99.25
379.478	87.25
379.704	92.25
379.929	104.25
380.155	99.25
380.38	98.25
380.606	99.25
380.831	102.25
381.057	104.25
381.282	103.25
381.507	97.25
381.733	122.25
381.958	109.25
382.184	124.25
382.409	127.25
382.634	121.25
382.86	118.25
383.085	106.25
383.31	125.25
383.535	109.25
383.761	122.25
383.986	131.25
384.211	116.25
384.436	114.25
384.662	145.25
384.887	142.25
385.112	160.25
385.337	131.25
385.562	143.25
385.787	152.25
386.013	145.25
386.238	160.25
386.463	148.25
386.688	140.25
386.913	141.25
387.138	159.25
387.363	142.25
387.588	124.25
387.813	136.25
388.038	141.25
388.263	167.25
388.488	147.25
388.713	110.25
388.938	92.25
389.163	100.25
389.387	99.25
389.612	94.25
389.837	73.25
390.062	71.25
390.287	87.25
390.512	97.25
390.736	83.25
390.961	88.25
391.186	97.25
391.411	103.25
391.636	92.25
391.86	87.25
392.085	77.25
392.31	84.25
392.534	85.25
392.759	70.25
392.984	77.25
393.208	101.25
393.433	111.25
393.658	100.25
393.882	60.25
394.107	80.25
394.331	82.25
394.556	80.25
394.78	82.25
395.005	79.25
395.229	70.25
395.454	72.25
395.678	76.25
395.903	77.25
396.127	94.25
396.352	87.25
396.576	81.25
396.801	83.25
397.025	74.25
397.249	80.25
397.474	79.25
397.698	77.25
397.922	84.25
398.147	78.25
398.371	73.25
398.595	71.25
398.82	80.25
399.044	91.25
399.268	71.25
399.492	73.25
399.717	85.25
399.941	82.25
400.165	79.25
400.389	85.25
400.613	71.25
400.837	69.25
401.062	87.25
401.286	78.25
401.51	87.25
401.734	81.25
401.958	91.25
402.182	101.25
402.406	118.25
402.63	102.25
402.854	86.25
403.078	85.25
403.302	87.25
403.526	80.25
403.75	84.25
403.974	73.25
404.198	78.25
404.422	90.25
404.645	80.25
404.869	90.25
405.093	69.25
405.317	87.25
405.541	88.25
405.765	96.25
405.988	91.25
406.212	130.25
406.436	151.25
406.66	125.25
406.883	84.25
407.107	84.25
407.331	84.25
407.555	83.25
407.778	80.25
408.002	77.25
408.226	88.25
408.449	82.25
408.673	87.25
408.896	76.25
409.12	96.25
409.344	73.25
409.567	85.25
409.791	85.25
410.014	77.25
410.238	83.25
410.461	79.25
410.685	93.25
410.908	88.25
411.132	109.25
411.355	92.25
411.578	84.25
411.802	80.25
412.025	73.25
412.249	97.25
412.472	79.25
412.695	94.25
412.919	85.25
413.142	102.25
413.365	88.25
413.589	78.25
413.812	97.25
414.035	84.25
414.258	88.25
414.482	95.25
414.705	93.25
414.928	91.25
415.151	93.25
415.374	109.25
415.597	91.25
415.821	93.25
416.044	94.25
416.267	93.25
416.49	91.25
416.713	86.25
416.936	85.25
417.159	95.25
417.382	80.25
417.605	89.25
417.828	88.25
418.051	83.25
418.274	87.25
418.497	63.25
418.72	86.25
418.943	86.25
419.166	99.25
419.389	77.25
419.611	86.25
419.834	88.25
420.057	87.25
420.28	97.25
420.503	79.25
420.726	97.25
420.948	87.25
421.171	69.25
421.394	89.25
421.617	83.25
421.839	85.25
422.062	89.25
422.285	71.25
422.507	86.25
422.73	107.25
422.953	105.25
423.175	93.25
423.398	101.25
423.621	107.25
423.843	80.25
424.066	84.25
424.288	64.25
424.511	78.25
424.733	88.25
424.956	82.25
425.178	86.25
425.401	81.25
425.623	82.25
425.846	77.25
426.068	93.25
426.291	77.25
426.513	74.25
426.735	78.25
426.958	77.25
427.18	108.25
427.402	104.25
427.625	128.25
427.847	105.25
428.069	98.25
428.292	86.25
428.514	102.25
428.736	73.25
428.958	71.25
429.181	80.25
429.403	73.25
429.625	89.25
429.847	96.25
430.069	88.25
430.292	81.25
430.514	72.25
430.736	86.25
430.958	78.25
431.18	79.25
431.402	64.25
431.624	80.25
431.846	78.25
432.068	78.25
432.29	79.25
432.512	96.25
432.734	93.25
432.956	80.25
433.178	92.25
433.4	93.25
433.622	92.25
433.844	79.25
434.066	77.25
434.287	92.25
434.509	95.25
434.731	75.25
434.953	76.25
435.175	77.25
435.397	92.25
435.618	66.25
435.84	84.25
436.062	96.25
436.284	103.25
436.505	73.25
436.727	93.25
436.949	82.25
437.17	65.25
437.392	76.25
437.614	89.25
437.835	87.25
438.057	101.25
438.278	100.25
438.5	94.25
438.721	83.25
438.943	86.25
439.165	77.25
439.386	84.25
439.608	90.25
439.829	94.25
440.05	102.25
440.272	108.25
440.493	94.25
440.715	80.25
440.936	95.25
441.158	87.25
441.379	84.25
441.6	89.25
441.822	94.25
442.043	80.25
442.264	87.25
442.486	77.25
442.707	85.25
442.928	94.25
443.149	112.25
443.371	109.25
443.592	90.25
443.813	96.25
444.034	97.25
444.255	96.25
444.476	68.25
444.698	83.25
444.919	91.25
445.14	126.25
445.361	106.25
445.582	104.25
445.803	102.25
446.024	112.25
446.245	125.25
446.466	86.25
446.687	88.25
446.908	77.25
447.129	104.25
447.35	79.25
447.571	87.25
447.792	81.25
448.013	99.25
448.234	98.25
448.455	72.25
448.675	105.25
448.896	101.25
449.117	97.25
449.338	89.25
449.559	100.25
449.779	116.25
450	86.25
450.221	86.25
450.442	78.25
450.662	95.25
450.883	96.25
451.104	109.25
451.324	92.25
451.545	81.25
451.766	103.25
451.986	77.25
452.207	87.25
452.428	78.25
452.648	98.25
452.869	86.25
453.089	96.25
453.31	95.25
453.53	96.25
453.751	85.25
453.971	88.25
454.192	76.25
454.412	83.25
454.633	88.25
454.853	98.25
455.073	80.25
455.294	76.25
455.514	90.25
455.734	88.25
455.955	78.25
456.175	78.25
456.395	78.25
456.616	80.25
456.836	91.25
457.056	78.25
457.276	74.25
457.497	69.25
457.717	80.25
457.937	88.25
458.157	81.25
458.377	80.25
458.598	80.25
458.818	104.25
459.038	119.25
459.258	96.25
459.478	92.25
459.698	72.25
459.918	63.25
460.138	70.25
460.358	98.25
460.578	89.25
460.798	97.25
461.018	89.25
461.238	80.25
461.458	83.25
461.678	80.25
461.898	76.25
462.118	86.25
462.338	70.25
462.558	77.25
462.777	86.25
462.997	84.25
463.217	80.25
463.437	69.25
463.657	77.25
463.876	78.25
464.096	94.25
464.316	72.25
464.536	85.25
464.755	84.25
464.975	82.25
465.195	122.25
465.414	113.25
465.634	81.25
465.854	73.25
466.073	89.25
466.293	77.25
466.512	86.25
466.732	87.25
466.951	72.25
467.171	93.25
467.391	88.25
467.61	82.25
467.829	84.25
468.049	95.25
468.268	98.25
468.488	77.25
468.707	78.25
468.927	83.25
469.146	99.25
469.365	77.25
469.585	90.25
469.804	89.25
470.023	83.25
470.243	94.25
470.462	86.25
470.681	100.25
470.901	74.25
471.12	88.25
471.339	84.25
471.558	77.25
471.777	86.25
471.997	92.25
472.216	96.25
472.435	117.25
472.654	95.25
472.873	78.25
473.092	78.25
473.311	82.25
473.53	85.25
473.749	77.25
473.968	80.25
474.187	86.25
474.406	77.25
474.625	77.25
474.844	87.25
475.063	88.25
475.282	83.25
475.501	82.25
475.72	82.25
475.939	92.25
476.158	85.25
476.377	76.25
476.596	89.25
476.814	77.25
477.033	85.25
477.252	68.25
477.471	93.25
477.69	76.25
477.908	70.25
478.127	82.25
478.346	83.25
478.564	73.25
478.783	78.25
479.002	84.25
479.22	79.25
479.439	85.25
479.658	99.25
479.876	80.25
480.095	87.25
480.313	86.25
480.532	76.25
480.751	83.25
480.969	102.25
481.188	138.25
481.406	124.25
481.624	80.25
481.843	76.25
482.061	65.25
482.28	87.25
482.498	78.25
482.717	81.25
482.935	87.25
483.153	83.25
483.372	102.25
483.59	99.25
483.808	88.25
484.027	82.25
484.245	94.25
484.463	88.25
484.681	83.25
484.9	75.25
485.118	97.25
485.336	86.25
485.554	91.25
485.772	103.25
485.99	109.25
486.209	99.25
486.427	78.25
486.645	114.25
486.863	83.25
487.081	88.25
487.299	98.25
487.517	92.25
487.735	71.25
487.953	80.25
488.171	95.25
488.389	80.25
488.607	92.25
488.825	74.25
489.043	86.25
489.261	98.25
489.479	86.25
489.696	94.25
489.914	78.25
490.132	92.25
490.35	79.25
490.568	80.25
490.786	76.25
491.003	87.25
491.221	96.25
491.439	93.25
491.657	85.25
491.874	80.25
492.092	78.25
492.31	85.25
492.527	90.25
492.745	92.25
492.963	86.25
493.18	91.25
493.398	95.25
493.615	84.25
493.833	90.25
494.05	81.25
494.268	83.25
494.485	94.25
494.703	94.25
494.92	90.25
495.138	93.25
495.355	92.25
495.573	82.25
495.79	105.25
496.008	96.25
496.225	86.25
496.442	73.25
496.66	88.25
496.877	88.25
497.094	77.25
497.312	102.25
497.529	91.25
497.746	94.25
497.963	96.25
498.181	95.25
498.398	94.25
498.615	95.25
498.832	94.25
499.049	94.25
499.267	82.25
499.484	86.25
499.701	89.25
499.918	87.25
500.135	76.25
500.352	90.25
500.569	66.25
500.786	81.25
501.003	98.25
501.22	86.25
501.437	90.25
501.654	89.25
501.871	85.25
502.088	84.25
502.305	67.25
502.522	65.25
502.739	82.25
502.956	89.25
503.172	88.25
503.389	111.25
503.606	98.25
503.823	86.25
504.04	85.25
504.256	84.25
504.473	87.25
504.69	82.25
504.907	100.25
505.123	79.25
505.34	84.25
505.557	77.25
505.773	96.25
505.99	91.25
506.207	87.25
506.423	77.25
506.64	85.25
506.856	81.25
507.073	88.25
507.289	76.25
507.506	73.25
507.722	108.25
507.939	86.25
508.155	85.25
508.372	71.25
508.588	72.25
508.805	85.25
509.021	76.25
509.238	96.25
509.454	90.25
509.67	91.25
509.887	96.25
510.103	114.25
510.319	154.25
510.536	515.25
510.752	1564.25
510.968	454.25
511.184	126.25
511.401	105.25
511.617	98.25
511.833	78.25
512.049	86.25
512.265	89.25
512.481	82.25
512.698	85.25
512.914	83.25
513.13	80.25
513.346	98.25
513.562	86.25
513.778	92.25
513.994	97.25
514.21	103.25
514.426	101.25
514.642	114.25
514.858	80.25
515.074	144.25
515.29	303.25
515.506	851.25
515.721	322.25
515.937	114.25
516.153	96.25
516.369	80.25
516.585	90.25
516.801	87.25
517.016	90.25
517.232	97.25
517.448	75.25
