Data from Uncirc_1980_H10_HRD10591_00015.txt Node
Date: Wed Jan 03 12:36:58 EST 2024
User: Yrep
Spectrometer: HR+D1059
Trigger mode: 1
Integration Time (sec): 1.000000E-1
Scans to average: 1
Electric dark correction enabled: true
Nonlinearity correction enabled: false
Boxcar width: 0
XAxis mode: Wavelengths
Number of Pixels in Spectrum: 2048
>>>>>Begin Spectral Data<<<<<
223.165	-9.38
223.4	-9.38
223.635	-9.38
223.869	-9.38
224.104	-22.38
224.338	-22.38
224.573	-11.38
224.808	-21.38
225.042	-18.38
225.277	3.62
225.511	1.62
225.746	-4.38
225.98	9.62
226.215	19.62
226.449	9.62
226.683	20.62
226.918	22.62
227.152	31.62
227.387	46.62
227.621	40.62
227.856	52.62
228.09	47.62
228.324	61.62
228.559	65.62
228.793	64.62
229.027	74.62
229.262	70.62
229.496	56.62
229.73	76.62
229.964	93.62
230.199	68.62
230.433	89.62
230.667	77.62
230.901	81.62
231.136	87.62
231.37	99.62
231.604	86.62
231.838	85.62
232.072	80.62
232.306	85.62
232.541	87.62
232.775	65.62
233.009	85.62
233.243	79.62
233.477	71.62
233.711	79.62
233.945	80.62
234.179	87.62
234.413	76.62
234.647	90.62
234.881	81.62
235.115	93.62
235.349	83.62
235.583	71.62
235.817	72.62
236.051	80.62
236.285	71.62
236.519	73.62
236.753	71.62
236.987	69.62
237.221	77.62
237.455	78.62
237.689	72.62
237.922	80.62
238.156	71.62
238.39	77.62
238.624	70.62
238.858	71.62
239.091	87.62
239.325	70.62
239.559	66.62
239.793	83.62
240.027	87.62
240.26	71.62
240.494	83.62
240.728	73.62
240.961	70.62
241.195	73.62
241.429	68.62
241.662	68.62
241.896	80.62
242.13	76.62
242.363	91.62
242.597	80.62
242.83	75.62
243.064	68.62
243.298	67.62
243.531	84.62
243.765	79.62
243.998	91.62
244.232	86.62
244.465	86.62
244.699	73.62
244.932	80.62
245.166	78.62
245.399	71.62
245.633	83.62
245.866	79.62
246.099	83.62
246.333	72.62
246.566	75.62
246.8	72.62
247.033	88.62
247.266	89.62
247.5	76.62
247.733	71.62
247.966	75.62
248.2	80.62
248.433	91.62
248.666	87.62
248.899	103.62
249.133	92.62
249.366	90.62
249.599	84.62
249.832	97.62
250.066	69.62
250.299	68.62
250.532	80.62
250.765	87.62
250.998	80.62
251.231	73.62
251.465	71.62
251.698	86.62
251.931	83.62
252.164	86.62
252.397	71.62
252.63	78.62
252.863	93.62
253.096	73.62
253.329	79.62
253.562	81.62
253.795	73.62
254.028	80.62
254.261	84.62
254.494	71.62
254.727	93.62
254.96	83.62
255.193	82.62
255.426	73.62
255.659	71.62
255.892	90.62
256.124	82.62
256.357	87.62
256.59	67.62
256.823	104.62
257.056	92.62
257.289	87.62
257.521	88.62
257.754	89.62
257.987	77.62
258.22	67.62
258.452	79.62
258.685	82.62
258.918	81.62
259.151	89.62
259.383	78.62
259.616	87.62
259.849	79.62
260.081	85.62
260.314	87.62
260.547	70.62
260.779	78.62
261.012	80.62
261.244	91.62
261.477	91.62
261.71	97.62
261.942	86.62
262.175	85.62
262.407	79.62
262.64	79.62
262.872	94.62
263.105	75.62
263.337	79.62
263.57	87.62
263.802	92.62
264.035	87.62
264.267	94.62
264.499	81.62
264.732	76.62
264.964	76.62
265.197	93.62
265.429	81.62
265.661	85.62
265.894	93.62
266.126	87.62
266.358	81.62
266.591	79.62
266.823	92.62
267.055	75.62
267.287	91.62
267.52	88.62
267.752	108.62
267.984	90.62
268.216	91.62
268.448	79.62
268.681	81.62
268.913	79.62
269.145	87.62
269.377	85.62
269.609	84.62
269.841	79.62
270.073	81.62
270.306	88.62
270.538	92.62
270.77	84.62
271.002	89.62
271.234	87.62
271.466	73.62
271.698	81.62
271.93	64.62
272.162	95.62
272.394	88.62
272.626	79.62
272.858	78.62
273.09	89.62
273.322	99.62
273.553	75.62
273.785	97.62
274.017	83.62
274.249	79.62
274.481	79.62
274.713	80.62
274.945	103.62
275.176	85.62
275.408	86.62
275.64	91.62
275.872	94.62
276.104	75.62
276.335	78.62
276.567	99.62
276.799	96.62
277.031	92.62
277.262	96.62
277.494	89.62
277.726	78.62
277.957	85.62
278.189	79.62
278.421	85.62
278.652	83.62
278.884	84.62
279.115	92.62
279.347	100.62
279.579	95.62
279.81	86.62
280.042	97.62
280.273	96.62
280.505	86.62
280.736	84.62
280.968	70.62
281.199	83.62
281.431	89.62
281.662	106.62
281.894	98.62
282.125	105.62
282.356	119.62
282.588	107.62
282.819	103.62
283.051	100.62
283.282	85.62
283.513	94.62
283.745	99.62
283.976	85.62
284.207	80.62
284.439	79.62
284.67	76.62
284.901	99.62
285.132	87.62
285.364	91.62
285.595	92.62
285.826	84.62
286.057	92.62
286.288	86.62
286.52	89.62
286.751	95.62
286.982	97.62
287.213	88.62
287.444	88.62
287.675	100.62
287.906	81.62
288.138	99.62
288.369	90.62
288.6	78.62
288.831	75.62
289.062	80.62
289.293	94.62
289.524	79.62
289.755	89.62
289.986	83.62
290.217	70.62
290.448	87.62
290.679	101.62
290.91	76.62
291.141	81.62
291.371	95.62
291.602	95.62
291.833	87.62
292.064	85.62
292.295	96.62
292.526	96.62
292.757	76.62
292.987	85.62
293.218	88.62
293.449	100.62
293.68	90.62
293.91	87.62
294.141	76.62
294.372	77.62
294.603	88.62
294.833	88.62
295.064	97.62
295.295	91.62
295.525	71.62
295.756	89.62
295.987	108.62
296.217	112.62
296.448	115.62
296.679	104.62
296.909	81.62
297.14	96.62
297.37	101.62
297.601	99.62
297.831	76.62
298.062	84.62
298.292	88.62
298.523	86.62
298.753	92.62
298.984	78.62
299.214	94.62
299.445	99.62
299.675	90.62
299.905	97.62
300.136	95.62
300.366	86.62
300.597	111.62
300.827	85.62
301.057	84.62
301.288	95.62
301.518	90.62
301.748	93.62
301.979	96.62
302.209	94.62
302.439	84.62
302.669	88.62
302.9	97.62
303.13	85.62
303.36	91.62
303.59	103.62
303.82	96.62
304.051	95.62
304.281	83.62
304.511	93.62
304.741	82.62
304.971	95.62
305.201	93.62
305.431	93.62
305.661	96.62
305.891	91.62
306.121	88.62
306.352	98.62
306.582	98.62
306.812	100.62
307.042	94.62
307.272	91.62
307.502	84.62
307.731	81.62
307.961	83.62
308.191	91.62
308.421	91.62
308.651	92.62
308.881	80.62
309.111	97.62
309.341	108.62
309.571	111.62
309.8	88.62
310.03	89.62
310.26	99.62
310.49	89.62
310.72	93.62
310.949	106.62
311.179	86.62
311.409	102.62
311.639	79.62
311.868	87.62
312.098	100.62
312.328	96.62
312.557	89.62
312.787	89.62
313.017	102.62
313.246	91.62
313.476	99.62
313.706	86.62
313.935	87.62
314.165	95.62
314.394	102.62
314.624	96.62
314.853	88.62
315.083	88.62
315.312	99.62
315.542	89.62
315.771	91.62
316.001	91.62
316.23	97.62
316.46	88.62
316.689	83.62
316.919	86.62
317.148	98.62
317.377	91.62
317.607	107.62
317.836	83.62
318.065	91.62
318.295	94.62
318.524	88.62
318.753	93.62
318.983	89.62
319.212	95.62
319.441	88.62
319.67	100.62
319.9	97.62
320.129	103.62
320.358	105.62
320.587	89.62
320.816	97.62
321.046	101.62
321.275	99.62
321.504	99.62
321.733	95.62
321.962	96.62
322.191	101.62
322.42	98.62
322.649	102.62
322.878	110.62
323.108	102.62
323.337	116.62
323.566	119.62
323.795	129.62
324.024	153.62
324.253	285.62
324.482	545.62
324.71	1049.62
324.939	1359.62
325.168	524.62
325.397	188.62
325.626	126.62
325.855	128.62
326.084	108.62
326.313	113.62
326.542	121.62
326.77	192.62
326.999	322.62
327.228	606.62
327.457	1065.62
327.686	879.62
327.914	261.62
328.143	149.62
328.372	124.62
328.6	114.62
328.829	113.62
329.058	117.62
329.287	116.62
329.515	98.62
329.744	99.62
329.972	102.62
330.201	113.62
330.43	122.62
330.658	118.62
330.887	109.62
331.115	107.62
331.344	85.62
331.572	87.62
331.801	119.62
332.03	96.62
332.258	99.62
332.486	93.62
332.715	97.62
332.943	91.62
333.172	96.62
333.4	87.62
333.629	113.62
333.857	106.62
334.085	105.62
334.314	119.62
334.542	123.62
334.771	103.62
334.999	106.62
335.227	94.62
335.455	100.62
335.684	89.62
335.912	108.62
336.14	113.62
336.369	105.62
336.597	96.62
336.825	84.62
337.053	109.62
337.281	93.62
337.51	98.62
337.738	104.62
337.966	94.62
338.194	104.62
338.422	109.62
338.65	93.62
338.878	85.62
339.106	91.62
339.334	95.62
339.562	100.62
339.79	83.62
340.018	91.62
340.246	91.62
340.474	90.62
340.702	92.62
340.93	96.62
341.158	67.62
341.386	94.62
341.614	105.62
341.842	73.62
342.07	87.62
342.298	83.62
342.526	92.62
342.754	93.62
342.981	107.62
343.209	87.62
343.437	102.62
343.665	86.62
343.893	89.62
344.12	103.62
344.348	110.62
344.576	74.62
344.804	95.62
345.031	91.62
345.259	103.62
345.487	103.62
345.714	97.62
345.942	83.62
346.17	88.62
346.397	97.62
346.625	78.62
346.853	106.62
347.08	106.62
347.308	91.62
347.535	107.62
347.763	85.62
347.99	88.62
348.218	100.62
348.445	93.62
348.673	101.62
348.9	117.62
349.128	101.62
349.355	92.62
349.583	91.62
349.81	85.62
350.037	106.62
350.265	87.62
350.492	100.62
350.72	91.62
350.947	96.62
351.174	117.62
351.402	99.62
351.629	104.62
351.856	88.62
352.083	112.62
352.311	97.62
352.538	103.62
352.765	113.62
352.992	104.62
353.22	112.62
353.447	111.62
353.674	97.62
353.901	97.62
354.128	93.62
354.355	92.62
354.583	107.62
354.81	98.62
355.037	96.62
355.264	93.62
355.491	97.62
355.718	92.62
355.945	95.62
356.172	99.62
356.399	99.62
356.626	103.62
356.853	93.62
357.08	93.62
357.307	71.62
357.534	103.62
357.761	100.62
357.988	105.62
358.215	95.62
358.441	114.62
358.668	99.62
358.895	97.62
359.122	95.62
359.349	87.62
359.576	81.62
359.802	89.62
360.029	110.62
360.256	99.62
360.483	93.62
360.709	100.62
360.936	93.62
361.163	95.62
361.39	99.62
361.616	99.62
361.843	101.62
362.07	92.62
362.296	95.62
362.523	91.62
362.749	105.62
362.976	94.62
363.203	99.62
363.429	109.62
363.656	76.62
363.882	96.62
364.109	98.62
364.335	107.62
364.562	93.62
364.788	102.62
365.015	95.62
365.241	107.62
365.468	104.62
365.694	83.62
365.92	87.62
366.147	89.62
366.373	83.62
366.599	88.62
366.826	101.62
367.052	108.62
367.278	73.62
367.505	96.62
367.731	91.62
367.957	91.62
368.184	88.62
368.41	104.62
368.636	108.62
368.862	110.62
369.089	88.62
369.315	87.62
369.541	94.62
369.767	87.62
369.993	85.62
370.219	87.62
370.445	85.62
370.672	102.62
370.898	90.62
371.124	99.62
371.35	94.62
371.576	84.62
371.802	96.62
372.028	100.62
372.254	102.62
372.48	103.62
372.706	94.62
372.932	88.62
373.158	93.62
373.384	84.62
373.61	104.62
373.835	75.62
374.061	91.62
374.287	98.62
374.513	89.62
374.739	103.62
374.965	101.62
375.191	104.62
375.416	89.62
375.642	103.62
375.868	108.62
376.094	97.62
376.319	88.62
376.545	100.62
376.771	90.62
376.997	94.62
377.222	83.62
377.448	96.62
377.674	94.62
377.899	89.62
378.125	105.62
378.35	96.62
378.576	90.62
378.802	94.62
379.027	86.62
379.253	92.62
379.478	81.62
379.704	99.62
379.929	105.62
380.155	92.62
380.38	108.62
380.606	88.62
380.831	100.62
381.057	124.62
381.282	124.62
381.507	91.62
381.733	102.62
381.958	102.62
382.184	108.62
382.409	114.62
382.634	105.62
382.86	112.62
383.085	119.62
383.31	107.62
383.535	119.62
383.761	118.62
383.986	111.62
384.211	108.62
384.436	106.62
384.662	122.62
384.887	123.62
385.112	134.62
385.337	123.62
385.562	130.62
385.787	117.62
386.013	132.62
386.238	127.62
386.463	127.62
386.688	132.62
386.913	140.62
387.138	121.62
387.363	139.62
387.588	118.62
387.813	111.62
388.038	148.62
388.263	158.62
388.488	142.62
388.713	115.62
388.938	108.62
389.163	96.62
389.387	100.62
389.612	87.62
389.837	84.62
390.062	104.62
390.287	80.62
390.512	95.62
390.736	91.62
390.961	96.62
391.186	90.62
391.411	90.62
391.636	104.62
391.86	91.62
392.085	88.62
392.31	88.62
392.534	81.62
392.759	90.62
392.984	91.62
393.208	85.62
393.433	83.62
393.658	93.62
393.882	95.62
394.107	98.62
394.331	89.62
394.556	100.62
394.78	96.62
395.005	88.62
395.229	92.62
395.454	83.62
395.678	73.62
395.903	101.62
396.127	74.62
396.352	63.62
396.576	98.62
396.801	104.62
397.025	97.62
397.249	90.62
397.474	92.62
397.698	80.62
397.922	92.62
398.147	82.62
398.371	84.62
398.595	107.62
398.82	105.62
399.044	89.62
399.268	101.62
399.492	92.62
399.717	76.62
399.941	91.62
400.165	104.62
400.389	95.62
400.613	88.62
400.837	97.62
401.062	87.62
401.286	83.62
401.51	86.62
401.734	97.62
401.958	89.62
402.182	101.62
402.406	132.62
402.63	89.62
402.854	79.62
403.078	96.62
403.302	91.62
403.526	95.62
403.75	93.62
403.974	96.62
404.198	94.62
404.422	89.62
404.645	89.62
404.869	98.62
405.093	88.62
405.317	85.62
405.541	103.62
405.765	98.62
405.988	107.62
406.212	140.62
406.436	151.62
406.66	116.62
406.883	97.62
407.107	93.62
407.331	76.62
407.555	96.62
407.778	92.62
408.002	94.62
408.226	87.62
408.449	83.62
408.673	78.62
408.896	89.62
409.12	91.62
409.344	97.62
409.567	88.62
409.791	102.62
410.014	106.62
410.238	101.62
410.461	95.62
410.685	99.62
410.908	98.62
411.132	102.62
411.355	96.62
411.578	87.62
411.802	95.62
412.025	104.62
412.249	102.62
412.472	100.62
412.695	90.62
412.919	88.62
413.142	83.62
413.365	91.62
413.589	100.62
413.812	84.62
414.035	99.62
414.258	83.62
414.482	99.62
414.705	102.62
414.928	105.62
415.151	85.62
415.374	103.62
415.597	97.62
415.821	88.62
416.044	104.62
416.267	103.62
416.49	105.62
416.713	90.62
416.936	92.62
417.159	101.62
417.382	87.62
417.605	100.62
417.828	93.62
418.051	84.62
418.274	97.62
418.497	87.62
418.72	94.62
418.943	91.62
419.166	80.62
419.389	101.62
419.611	86.62
419.834	89.62
420.057	98.62
420.28	81.62
420.503	96.62
420.726	85.62
420.948	80.62
421.171	89.62
421.394	95.62
421.617	100.62
421.839	91.62
422.062	87.62
422.285	83.62
422.507	105.62
422.73	97.62
422.953	97.62
423.175	83.62
423.398	89.62
423.621	83.62
423.843	103.62
424.066	94.62
424.288	83.62
424.511	80.62
424.733	93.62
424.956	101.62
425.178	88.62
425.401	109.62
425.623	91.62
425.846	97.62
426.068	79.62
426.291	88.62
426.513	89.62
426.735	92.62
426.958	77.62
427.18	99.62
427.402	114.62
427.625	130.62
427.847	110.62
428.069	107.62
428.292	88.62
428.514	100.62
428.736	88.62
428.958	83.62
429.181	76.62
429.403	93.62
429.625	81.62
429.847	100.62
430.069	97.62
430.292	102.62
430.514	94.62
430.736	87.62
430.958	87.62
431.18	85.62
431.402	88.62
431.624	95.62
431.846	88.62
432.068	83.62
432.29	94.62
432.512	94.62
432.734	86.62
432.956	87.62
433.178	83.62
433.4	98.62
433.622	81.62
433.844	93.62
434.066	93.62
434.287	93.62
434.509	97.62
434.731	105.62
434.953	94.62
435.175	85.62
435.397	91.62
435.618	91.62
435.84	98.62
436.062	110.62
436.284	111.62
436.505	93.62
436.727	105.62
436.949	80.62
437.17	106.62
437.392	84.62
437.614	99.62
437.835	106.62
438.057	103.62
438.278	107.62
438.5	96.62
438.721	120.62
438.943	113.62
439.165	109.62
439.386	65.62
439.608	87.62
439.829	89.62
440.05	109.62
440.272	106.62
440.493	91.62
440.715	97.62
440.936	94.62
441.158	89.62
441.379	87.62
441.6	86.62
441.822	89.62
442.043	89.62
442.264	94.62
442.486	93.62
442.707	90.62
442.928	98.62
443.149	102.62
443.371	106.62
443.592	96.62
443.813	97.62
444.034	97.62
444.255	97.62
444.476	89.62
444.698	87.62
444.919	89.62
445.14	134.62
445.361	123.62
445.582	103.62
445.803	114.62
446.024	103.62
446.245	108.62
446.466	95.62
446.687	78.62
446.908	72.62
447.129	89.62
447.35	84.62
447.571	105.62
447.792	96.62
448.013	97.62
448.234	87.62
448.455	92.62
448.675	101.62
448.896	101.62
449.117	95.62
449.338	107.62
449.559	103.62
449.779	104.62
450	85.62
450.221	81.62
450.442	85.62
450.662	87.62
450.883	103.62
451.104	94.62
451.324	80.62
451.545	89.62
451.766	81.62
451.986	104.62
452.207	87.62
452.428	102.62
452.648	104.62
452.869	101.62
453.089	100.62
453.31	100.62
453.53	83.62
453.751	92.62
453.971	85.62
454.192	99.62
454.412	69.62
454.633	95.62
454.853	78.62
455.073	94.62
455.294	99.62
455.514	103.62
455.734	83.62
455.955	82.62
456.175	79.62
456.395	83.62
456.616	96.62
456.836	89.62
457.056	101.62
457.276	89.62
457.497	87.62
457.717	84.62
457.937	92.62
458.157	100.62
458.377	87.62
458.598	100.62
458.818	119.62
459.038	118.62
459.258	95.62
459.478	85.62
459.698	93.62
459.918	87.62
460.138	88.62
460.358	89.62
460.578	80.62
460.798	88.62
461.018	88.62
461.238	89.62
461.458	73.62
461.678	87.62
461.898	91.62
462.118	76.62
462.338	93.62
462.558	85.62
462.777	85.62
462.997	83.62
463.217	100.62
463.437	89.62
463.657	97.62
463.876	101.62
464.096	92.62
464.316	101.62
464.536	93.62
464.755	92.62
464.975	98.62
465.195	130.62
465.414	117.62
465.634	83.62
465.854	85.62
466.073	95.62
466.293	101.62
466.512	87.62
466.732	94.62
466.951	93.62
467.171	91.62
467.391	93.62
467.61	98.62
467.829	97.62
468.049	97.62
468.268	100.62
468.488	85.62
468.707	90.62
468.927	91.62
469.146	78.62
469.365	89.62
469.585	91.62
469.804	96.62
470.023	95.62
470.243	92.62
470.462	80.62
470.681	103.62
470.901	87.62
471.12	87.62
471.339	102.62
471.558	88.62
471.777	67.62
471.997	91.62
472.216	110.62
472.435	118.62
472.654	99.62
472.873	92.62
473.092	98.62
473.311	80.62
473.53	89.62
473.749	97.62
473.968	79.62
474.187	102.62
474.406	94.62
474.625	85.62
474.844	80.62
475.063	88.62
475.282	90.62
475.501	84.62
475.72	102.62
475.939	89.62
476.158	86.62
476.377	80.62
476.596	83.62
476.814	83.62
477.033	94.62
477.252	95.62
477.471	78.62
477.69	91.62
477.908	79.62
478.127	95.62
478.346	105.62
478.564	91.62
478.783	96.62
479.002	93.62
479.22	99.62
479.439	94.62
479.658	91.62
479.876	96.62
480.095	99.62
480.313	85.62
480.532	93.62
480.751	86.62
480.969	108.62
481.188	151.62
481.406	130.62
481.624	111.62
481.843	94.62
482.061	95.62
482.28	91.62
482.498	102.62
482.717	89.62
482.935	76.62
483.153	95.62
483.372	101.62
483.59	88.62
483.808	88.62
484.027	87.62
484.245	86.62
484.463	86.62
484.681	91.62
484.9	99.62
485.118	108.62
485.336	103.62
485.554	100.62
485.772	98.62
485.99	100.62
486.209	114.62
486.427	104.62
486.645	108.62
486.863	87.62
487.081	94.62
487.299	85.62
487.517	97.62
487.735	96.62
487.953	92.62
488.171	90.62
488.389	100.62
488.607	88.62
488.825	89.62
489.043	95.62
489.261	99.62
489.479	90.62
489.696	87.62
489.914	100.62
490.132	91.62
490.35	86.62
490.568	92.62
490.786	78.62
491.003	95.62
491.221	86.62
491.439	87.62
491.657	90.62
491.874	83.62
492.092	88.62
492.31	105.62
492.527	100.62
492.745	101.62
492.963	93.62
493.18	87.62
493.398	101.62
493.615	106.62
493.833	99.62
494.05	85.62
494.268	87.62
494.485	85.62
494.703	92.62
494.92	95.62
495.138	91.62
495.355	80.62
495.573	88.62
495.79	100.62
496.008	99.62
496.225	84.62
496.442	96.62
496.66	101.62
496.877	95.62
497.094	98.62
497.312	89.62
497.529	92.62
497.746	94.62
497.963	85.62
498.181	105.62
498.398	96.62
498.615	95.62
498.832	88.62
499.049	90.62
499.267	104.62
499.484	96.62
499.701	100.62
499.918	95.62
500.135	102.62
500.352	87.62
500.569	80.62
500.786	87.62
501.003	98.62
501.22	93.62
501.437	97.62
501.654	102.62
501.871	87.62
502.088	83.62
502.305	92.62
502.522	95.62
502.739	91.62
502.956	87.62
503.172	88.62
503.389	89.62
503.606	96.62
503.823	105.62
504.04	97.62
504.256	87.62
504.473	84.62
504.69	87.62
504.907	96.62
505.123	101.62
505.34	99.62
505.557	85.62
505.773	91.62
505.99	84.62
506.207	91.62
506.423	106.62
506.64	82.62
506.856	95.62
507.073	82.62
507.289	106.62
507.506	105.62
507.722	105.62
507.939	102.62
508.155	90.62
508.372	95.62
508.588	95.62
508.805	94.62
509.021	96.62
509.238	112.62
509.454	88.62
509.67	119.62
509.887	108.62
510.103	109.62
510.319	185.62
510.536	510.62
510.752	1496.62
510.968	420.62
511.184	129.62
511.401	109.62
511.617	87.62
511.833	101.62
512.049	103.62
512.265	81.62
512.481	103.62
512.698	90.62
512.914	80.62
513.13	100.62
513.346	86.62
513.562	98.62
513.778	97.62
513.994	91.62
514.21	97.62
514.426	93.62
514.642	113.62
514.858	110.62
515.074	104.62
515.29	273.62
