Data from Uncirc_1980_H10_HRD10591_00088.txt Node
Date: Wed Jan 03 12:37:13 EST 2024
User: Yrep
Spectrometer: HR+D1059
Trigger mode: 1
Integration Time (sec): 1.000000E-1
Scans to average: 1
Electric dark correction enabled: true
Nonlinearity correction enabled: false
Boxcar width: 0
XAxis mode: Wavelengths
Number of Pixels in Spectrum: 2048
>>>>>Begin Spectral Data<<<<<
223.165	-22.25
223.4	-22.25
223.635	-22.25
223.869	-18.25
224.104	-12.25
224.338	-8.25
224.573	-20.25
224.808	-10.25
225.042	-5.25
225.277	-11.25
225.511	4.75
225.746	-1.25
225.98	19.75
226.215	17.75
226.449	10.75
226.683	13.75
226.918	8.75
227.152	33.75
227.387	35.75
227.621	46.75
227.856	44.75
228.09	59.75
228.324	50.75
228.559	39.75
228.793	48.75
229.027	61.75
229.262	63.75
229.496	57.75
229.73	86.75
229.964	75.75
230.199	71.75
230.433	68.75
230.667	78.75
230.901	67.75
231.136	78.75
231.37	73.75
231.604	81.75
231.838	86.75
232.072	73.75
232.306	83.75
232.541	87.75
232.775	66.75
233.009	86.75
233.243	78.75
233.477	77.75
233.711	84.75
233.945	81.75
234.179	93.75
234.413	73.75
234.647	73.75
234.881	85.75
235.115	81.75
235.349	94.75
235.583	84.75
235.817	71.75
236.051	75.75
236.285	75.75
236.519	72.75
236.753	74.75
236.987	87.75
237.221	86.75
237.455	71.75
237.689	82.75
237.922	68.75
238.156	85.75
238.39	85.75
238.624	71.75
238.858	85.75
239.091	76.75
239.325	73.75
239.559	71.75
239.793	85.75
240.027	90.75
240.26	73.75
240.494	68.75
240.728	70.75
240.961	87.75
241.195	80.75
241.429	75.75
241.662	78.75
241.896	79.75
242.13	71.75
242.363	69.75
242.597	70.75
242.83	83.75
243.064	69.75
243.298	79.75
243.531	73.75
243.765	70.75
243.998	87.75
244.232	85.75
244.465	78.75
244.699	81.75
244.932	70.75
245.166	81.75
245.399	69.75
245.633	76.75
245.866	82.75
246.099	69.75
246.333	87.75
246.566	84.75
246.8	90.75
247.033	91.75
247.266	79.75
247.5	72.75
247.733	72.75
247.966	79.75
248.2	77.75
248.433	83.75
248.666	68.75
248.899	71.75
249.133	76.75
249.366	89.75
249.599	98.75
249.832	96.75
250.066	86.75
250.299	85.75
250.532	84.75
250.765	82.75
250.998	83.75
251.231	80.75
251.465	87.75
251.698	84.75
251.931	69.75
252.164	70.75
252.397	70.75
252.63	77.75
252.863	86.75
253.096	73.75
253.329	69.75
253.562	75.75
253.795	71.75
254.028	79.75
254.261	86.75
254.494	79.75
254.727	86.75
254.96	80.75
255.193	78.75
255.426	77.75
255.659	82.75
255.892	83.75
256.124	84.75
256.357	82.75
256.59	86.75
256.823	65.75
257.056	90.75
257.289	96.75
257.521	86.75
257.754	82.75
257.987	94.75
258.22	86.75
258.452	88.75
258.685	78.75
258.918	89.75
259.151	74.75
259.383	70.75
259.616	82.75
259.849	83.75
260.081	89.75
260.314	79.75
260.547	86.75
260.779	94.75
261.012	78.75
261.244	89.75
261.477	85.75
261.71	90.75
261.942	118.75
262.175	94.75
262.407	73.75
262.64	87.75
262.872	95.75
263.105	86.75
263.337	84.75
263.57	68.75
263.802	78.75
264.035	70.75
264.267	78.75
264.499	78.75
264.732	69.75
264.964	79.75
265.197	85.75
265.429	82.75
265.661	68.75
265.894	75.75
266.126	77.75
266.358	84.75
266.591	90.75
266.823	74.75
267.055	95.75
267.287	97.75
267.52	93.75
267.752	85.75
267.984	80.75
268.216	80.75
268.448	86.75
268.681	83.75
268.913	99.75
269.145	85.75
269.377	93.75
269.609	81.75
269.841	85.75
270.073	73.75
270.306	80.75
270.538	95.75
270.77	90.75
271.002	76.75
271.234	76.75
271.466	82.75
271.698	85.75
271.93	93.75
272.162	92.75
272.394	82.75
272.626	75.75
272.858	85.75
273.09	89.75
273.322	87.75
273.553	73.75
273.785	77.75
274.017	95.75
274.249	85.75
274.481	72.75
274.713	83.75
274.945	80.75
275.176	85.75
275.408	94.75
275.64	99.75
275.872	83.75
276.104	93.75
276.335	89.75
276.567	87.75
276.799	111.75
277.031	103.75
277.262	96.75
277.494	99.75
277.726	90.75
277.957	79.75
278.189	76.75
278.421	86.75
278.652	95.75
278.884	84.75
279.115	85.75
279.347	93.75
279.579	86.75
279.81	86.75
280.042	94.75
280.273	94.75
280.505	98.75
280.736	76.75
280.968	93.75
281.199	79.75
281.431	104.75
281.662	94.75
281.894	78.75
282.125	81.75
282.356	98.75
282.588	126.75
282.819	99.75
283.051	97.75
283.282	89.75
283.513	85.75
283.745	89.75
283.976	78.75
284.207	87.75
284.439	93.75
284.67	73.75
284.901	83.75
285.132	108.75
285.364	87.75
285.595	88.75
285.826	97.75
286.057	95.75
286.288	76.75
286.52	94.75
286.751	81.75
286.982	88.75
287.213	80.75
287.444	82.75
287.675	91.75
287.906	83.75
288.138	84.75
288.369	83.75
288.6	87.75
288.831	94.75
289.062	89.75
289.293	89.75
289.524	82.75
289.755	75.75
289.986	81.75
290.217	85.75
290.448	93.75
290.679	109.75
290.91	88.75
291.141	79.75
291.371	89.75
291.602	98.75
291.833	81.75
292.064	93.75
292.295	90.75
292.526	82.75
292.757	109.75
292.987	99.75
293.218	82.75
293.449	67.75
293.68	93.75
293.91	84.75
294.141	83.75
294.372	83.75
294.603	91.75
294.833	88.75
295.064	87.75
295.295	94.75
295.525	91.75
295.756	114.75
295.987	102.75
296.217	124.75
296.448	115.75
296.679	87.75
296.909	88.75
297.14	88.75
297.37	82.75
297.601	86.75
297.831	81.75
298.062	95.75
298.292	91.75
298.523	98.75
298.753	109.75
298.984	79.75
299.214	86.75
299.445	83.75
299.675	85.75
299.905	85.75
300.136	75.75
300.366	85.75
300.597	85.75
300.827	94.75
301.057	103.75
301.288	98.75
301.518	99.75
301.748	79.75
301.979	106.75
302.209	96.75
302.439	91.75
302.669	93.75
302.9	72.75
303.13	89.75
303.36	93.75
303.59	105.75
303.82	92.75
304.051	94.75
304.281	97.75
304.511	93.75
304.741	84.75
304.971	84.75
305.201	85.75
305.431	82.75
305.661	96.75
305.891	91.75
306.121	89.75
306.352	100.75
306.582	109.75
306.812	96.75
307.042	97.75
307.272	81.75
307.502	97.75
307.731	81.75
307.961	86.75
308.191	103.75
308.421	93.75
308.651	85.75
308.881	91.75
309.111	89.75
309.341	86.75
309.571	89.75
309.8	95.75
310.03	87.75
310.26	81.75
310.49	101.75
310.72	87.75
310.949	101.75
311.179	95.75
311.409	95.75
311.639	92.75
311.868	98.75
312.098	91.75
312.328	92.75
312.557	84.75
312.787	90.75
313.017	82.75
313.246	91.75
313.476	99.75
313.706	91.75
313.935	75.75
314.165	91.75
314.394	107.75
314.624	91.75
314.853	99.75
315.083	91.75
315.312	103.75
315.542	93.75
315.771	88.75
316.001	93.75
316.23	87.75
316.46	85.75
316.689	85.75
316.919	80.75
317.148	91.75
317.377	88.75
317.607	92.75
317.836	96.75
318.065	100.75
318.295	78.75
318.524	82.75
318.753	92.75
318.983	94.75
319.212	94.75
319.441	109.75
319.67	111.75
319.9	99.75
320.129	86.75
320.358	103.75
320.587	90.75
320.816	110.75
321.046	106.75
321.275	99.75
321.504	89.75
321.733	89.75
321.962	103.75
322.191	99.75
322.42	90.75
322.649	109.75
322.878	100.75
323.108	114.75
323.337	122.75
323.566	118.75
323.795	146.75
324.024	167.75
324.253	314.75
324.482	665.75
324.71	1330.75
324.939	1767.75
325.168	688.75
325.397	194.75
325.626	141.75
325.855	121.75
326.084	106.75
326.313	131.75
326.542	126.75
326.77	200.75
326.999	383.75
327.228	757.75
327.457	1377.75
327.686	1090.75
327.914	332.75
328.143	177.75
328.372	139.75
328.6	124.75
328.829	103.75
329.058	103.75
329.287	100.75
329.515	104.75
329.744	107.75
329.972	98.75
330.201	117.75
330.43	122.75
330.658	119.75
330.887	117.75
331.115	108.75
331.344	90.75
331.572	86.75
331.801	105.75
332.03	100.75
332.258	96.75
332.486	102.75
332.715	99.75
332.943	97.75
333.172	95.75
333.4	97.75
333.629	116.75
333.857	114.75
334.085	101.75
334.314	109.75
334.542	125.75
334.771	109.75
334.999	93.75
335.227	95.75
335.455	96.75
335.684	81.75
335.912	91.75
336.14	96.75
336.369	98.75
336.597	104.75
336.825	79.75
337.053	93.75
337.281	86.75
337.51	88.75
337.738	89.75
337.966	81.75
338.194	91.75
338.422	113.75
338.65	102.75
338.878	95.75
339.106	78.75
339.334	103.75
339.562	93.75
339.79	81.75
340.018	89.75
340.246	99.75
340.474	85.75
340.702	73.75
340.93	93.75
341.158	82.75
341.386	93.75
341.614	90.75
341.842	85.75
342.07	84.75
342.298	97.75
342.526	83.75
342.754	81.75
342.981	74.75
343.209	89.75
343.437	93.75
343.665	91.75
343.893	85.75
344.12	102.75
344.348	88.75
344.576	94.75
344.804	88.75
345.031	91.75
345.259	91.75
345.487	94.75
345.714	91.75
345.942	83.75
346.17	79.75
346.397	74.75
346.625	86.75
346.853	89.75
347.08	95.75
347.308	92.75
347.535	86.75
347.763	98.75
347.99	95.75
348.218	113.75
348.445	100.75
348.673	93.75
348.9	93.75
349.128	94.75
349.355	87.75
349.583	81.75
349.81	95.75
350.037	88.75
350.265	92.75
350.492	92.75
350.72	81.75
350.947	92.75
351.174	109.75
351.402	101.75
351.629	91.75
351.856	90.75
352.083	98.75
352.311	99.75
352.538	101.75
352.765	101.75
352.992	104.75
353.22	105.75
353.447	83.75
353.674	91.75
353.901	94.75
354.128	108.75
354.355	82.75
354.583	98.75
354.81	81.75
355.037	93.75
355.264	89.75
355.491	82.75
355.718	74.75
355.945	86.75
356.172	94.75
356.399	104.75
356.626	105.75
356.853	93.75
357.08	98.75
357.307	108.75
357.534	88.75
357.761	96.75
357.988	83.75
358.215	78.75
358.441	87.75
358.668	100.75
358.895	77.75
359.122	95.75
359.349	105.75
359.576	88.75
359.802	82.75
360.029	116.75
360.256	106.75
360.483	95.75
360.709	97.75
360.936	92.75
361.163	83.75
361.39	94.75
361.616	95.75
361.843	91.75
362.07	82.75
362.296	94.75
362.523	77.75
362.749	86.75
362.976	90.75
363.203	76.75
363.429	78.75
363.656	87.75
363.882	78.75
364.109	88.75
364.335	94.75
364.562	92.75
364.788	80.75
365.015	96.75
365.241	89.75
365.468	99.75
365.694	97.75
365.92	86.75
366.147	93.75
366.373	81.75
366.599	92.75
366.826	66.75
367.052	90.75
367.278	97.75
367.505	84.75
367.731	94.75
367.957	98.75
368.184	84.75
368.41	92.75
368.636	93.75
368.862	121.75
369.089	104.75
369.315	84.75
369.541	105.75
369.767	86.75
369.993	93.75
370.219	86.75
370.445	84.75
370.672	93.75
370.898	83.75
371.124	93.75
371.35	87.75
371.576	92.75
371.802	95.75
372.028	88.75
372.254	81.75
372.48	99.75
372.706	86.75
372.932	86.75
373.158	101.75
373.384	92.75
373.61	96.75
373.835	77.75
374.061	96.75
374.287	85.75
374.513	83.75
374.739	86.75
374.965	92.75
375.191	88.75
375.416	86.75
375.642	96.75
375.868	69.75
376.094	95.75
376.319	68.75
376.545	107.75
376.771	83.75
376.997	81.75
377.222	95.75
377.448	93.75
377.674	79.75
377.899	103.75
378.125	76.75
378.35	91.75
378.576	89.75
378.802	93.75
379.027	97.75
379.253	104.75
379.478	84.75
379.704	87.75
379.929	74.75
380.155	94.75
380.38	105.75
380.606	89.75
380.831	83.75
381.057	101.75
381.282	94.75
381.507	100.75
381.733	87.75
381.958	108.75
382.184	97.75
382.409	89.75
382.634	104.75
382.86	88.75
383.085	91.75
383.31	104.75
383.535	100.75
383.761	111.75
383.986	93.75
384.211	83.75
384.436	109.75
384.662	92.75
384.887	93.75
385.112	101.75
385.337	99.75
385.562	103.75
385.787	106.75
386.013	110.75
386.238	98.75
386.463	101.75
386.688	116.75
386.913	102.75
387.138	86.75
387.363	91.75
387.588	83.75
387.813	101.75
388.038	101.75
388.263	102.75
388.488	99.75
388.713	96.75
388.938	99.75
389.163	88.75
389.387	102.75
389.612	90.75
389.837	84.75
390.062	91.75
390.287	97.75
390.512	90.75
390.736	92.75
390.961	85.75
391.186	87.75
391.411	97.75
391.636	96.75
391.86	86.75
392.085	91.75
392.31	76.75
392.534	91.75
392.759	97.75
392.984	70.75
393.208	77.75
393.433	86.75
393.658	85.75
393.882	81.75
394.107	95.75
394.331	92.75
394.556	77.75
394.78	82.75
395.005	78.75
395.229	95.75
395.454	85.75
395.678	88.75
395.903	89.75
396.127	86.75
396.352	90.75
396.576	85.75
396.801	100.75
397.025	81.75
397.249	93.75
397.474	106.75
397.698	108.75
397.922	82.75
398.147	83.75
398.371	87.75
398.595	94.75
398.82	74.75
399.044	85.75
399.268	72.75
399.492	78.75
399.717	86.75
399.941	97.75
400.165	87.75
400.389	106.75
400.613	86.75
400.837	83.75
401.062	69.75
401.286	74.75
401.51	89.75
401.734	103.75
401.958	90.75
402.182	117.75
402.406	134.75
402.63	118.75
402.854	88.75
403.078	86.75
403.302	75.75
403.526	83.75
403.75	77.75
403.974	83.75
404.198	97.75
404.422	95.75
404.645	83.75
404.869	86.75
405.093	81.75
405.317	87.75
405.541	93.75
405.765	103.75
405.988	109.75
406.212	147.75
406.436	188.75
406.66	135.75
406.883	111.75
407.107	100.75
407.331	93.75
407.555	99.75
407.778	109.75
408.002	94.75
408.226	83.75
408.449	79.75
408.673	88.75
408.896	85.75
409.12	87.75
409.344	86.75
409.567	92.75
409.791	83.75
410.014	88.75
410.238	81.75
410.461	84.75
410.685	116.75
410.908	96.75
411.132	115.75
411.355	94.75
411.578	89.75
411.802	91.75
412.025	76.75
412.249	89.75
412.472	89.75
412.695	82.75
412.919	78.75
413.142	99.75
413.365	83.75
413.589	89.75
413.812	93.75
414.035	104.75
414.258	92.75
414.482	78.75
414.705	80.75
414.928	84.75
415.151	85.75
415.374	93.75
415.597	105.75
415.821	81.75
416.044	83.75
416.267	86.75
416.49	89.75
416.713	90.75
416.936	85.75
417.159	85.75
417.382	87.75
417.605	94.75
417.828	98.75
418.051	98.75
418.274	84.75
418.497	90.75
418.72	90.75
418.943	96.75
419.166	109.75
419.389	91.75
419.611	82.75
419.834	102.75
420.057	79.75
420.28	92.75
420.503	83.75
420.726	84.75
420.948	80.75
421.171	84.75
421.394	90.75
421.617	99.75
421.839	97.75
422.062	94.75
422.285	93.75
422.507	87.75
422.73	90.75
422.953	76.75
423.175	97.75
423.398	84.75
423.621	87.75
423.843	90.75
424.066	85.75
424.288	92.75
424.511	87.75
424.733	85.75
424.956	87.75
425.178	94.75
425.401	93.75
425.623	88.75
425.846	91.75
426.068	86.75
426.291	98.75
426.513	93.75
426.735	90.75
426.958	109.75
427.18	106.75
427.402	127.75
427.625	131.75
427.847	113.75
428.069	113.75
428.292	89.75
428.514	86.75
428.736	89.75
428.958	81.75
429.181	84.75
429.403	88.75
429.625	72.75
429.847	82.75
430.069	90.75
430.292	86.75
430.514	87.75
430.736	92.75
430.958	77.75
431.18	89.75
431.402	86.75
431.624	87.75
431.846	99.75
432.068	78.75
432.29	106.75
432.512	71.75
432.734	85.75
432.956	89.75
433.178	83.75
433.4	87.75
433.622	88.75
433.844	82.75
434.066	93.75
434.287	94.75
434.509	82.75
434.731	91.75
434.953	78.75
435.175	93.75
435.397	97.75
435.618	99.75
435.84	92.75
436.062	99.75
436.284	108.75
436.505	89.75
436.727	88.75
436.949	96.75
437.17	99.75
437.392	90.75
437.614	97.75
437.835	96.75
438.057	107.75
438.278	111.75
438.5	100.75
438.721	103.75
438.943	109.75
439.165	95.75
439.386	87.75
439.608	105.75
439.829	93.75
440.05	113.75
440.272	133.75
440.493	94.75
440.715	88.75
440.936	85.75
441.158	78.75
441.379	87.75
441.6	73.75
441.822	97.75
442.043	90.75
442.264	116.75
442.486	89.75
442.707	92.75
442.928	102.75
443.149	107.75
443.371	116.75
443.592	99.75
443.813	93.75
444.034	93.75
444.255	102.75
444.476	88.75
444.698	86.75
444.919	95.75
445.14	129.75
445.361	106.75
445.582	109.75
445.803	116.75
446.024	123.75
446.245	126.75
446.466	100.75
446.687	94.75
446.908	96.75
447.129	91.75
447.35	90.75
447.571	107.75
447.792	88.75
448.013	98.75
448.234	95.75
448.455	111.75
448.675	101.75
448.896	119.75
449.117	83.75
449.338	87.75
449.559	126.75
449.779	118.75
450	84.75
450.221	84.75
450.442	67.75
450.662	77.75
450.883	93.75
451.104	111.75
451.324	96.75
451.545	84.75
451.766	78.75
451.986	93.75
452.207	91.75
452.428	89.75
452.648	100.75
452.869	104.75
453.089	108.75
453.31	108.75
453.53	88.75
453.751	75.75
453.971	95.75
454.192	103.75
454.412	102.75
454.633	84.75
454.853	90.75
455.073	87.75
455.294	92.75
455.514	99.75
455.734	67.75
455.955	81.75
456.175	73.75
456.395	98.75
456.616	93.75
456.836	96.75
457.056	83.75
457.276	80.75
457.497	87.75
457.717	85.75
457.937	77.75
458.157	97.75
458.377	87.75
458.598	101.75
458.818	143.75
459.038	138.75
459.258	114.75
459.478	101.75
459.698	83.75
459.918	87.75
460.138	94.75
460.358	73.75
460.578	88.75
460.798	89.75
461.018	88.75
461.238	83.75
461.458	92.75
461.678	87.75
461.898	86.75
462.118	71.75
462.338	89.75
462.558	89.75
462.777	97.75
462.997	85.75
463.217	92.75
463.437	105.75
463.657	84.75
463.876	71.75
464.096	88.75
464.316	86.75
464.536	103.75
464.755	100.75
464.975	104.75
465.195	133.75
465.414	129.75
465.634	100.75
465.854	91.75
466.073	78.75
466.293	93.75
466.512	87.75
466.732	70.75
466.951	94.75
467.171	88.75
467.391	85.75
467.61	106.75
467.829	89.75
468.049	104.75
468.268	92.75
468.488	93.75
468.707	86.75
468.927	85.75
469.146	83.75
469.365	78.75
469.585	71.75
469.804	103.75
470.023	92.75
470.243	80.75
470.462	102.75
470.681	90.75
470.901	79.75
471.12	81.75
471.339	75.75
471.558	77.75
471.777	91.75
471.997	86.75
472.216	123.75
472.435	133.75
472.654	93.75
472.873	92.75
473.092	78.75
473.311	95.75
473.53	86.75
473.749	94.75
473.968	92.75
474.187	109.75
474.406	77.75
474.625	86.75
474.844	79.75
475.063	90.75
475.282	83.75
475.501	87.75
475.72	82.75
475.939	80.75
476.158	84.75
476.377	94.75
476.596	106.75
476.814	97.75
477.033	91.75
477.252	95.75
477.471	90.75
477.69	95.75
477.908	77.75
478.127	82.75
478.346	99.75
478.564	89.75
478.783	88.75
479.002	91.75
479.22	87.75
479.439	85.75
479.658	101.75
479.876	91.75
480.095	87.75
480.313	95.75
480.532	81.75
480.751	93.75
480.969	99.75
481.188	182.75
481.406	140.75
481.624	87.75
481.843	79.75
482.061	79.75
482.28	94.75
482.498	84.75
482.717	88.75
482.935	90.75
483.153	86.75
483.372	95.75
483.59	98.75
483.808	93.75
484.027	89.75
484.245	81.75
484.463	82.75
484.681	81.75
484.9	81.75
485.118	78.75
485.336	89.75
485.554	90.75
485.772	97.75
485.99	106.75
486.209	105.75
486.427	102.75
486.645	105.75
486.863	103.75
487.081	94.75
487.299	95.75
487.517	81.75
487.735	90.75
487.953	97.75
488.171	85.75
488.389	85.75
488.607	97.75
488.825	88.75
489.043	84.75
489.261	90.75
489.479	84.75
489.696	98.75
489.914	81.75
490.132	93.75
490.35	91.75
490.568	94.75
490.786	91.75
491.003	93.75
491.221	99.75
491.439	92.75
491.657	99.75
491.874	95.75
492.092	84.75
492.31	93.75
492.527	95.75
492.745	98.75
492.963	77.75
493.18	93.75
493.398	95.75
493.615	93.75
493.833	105.75
494.05	85.75
494.268	97.75
494.485	87.75
494.703	87.75
494.92	84.75
495.138	92.75
495.355	92.75
495.573	73.75
495.79	79.75
496.008	101.75
496.225	102.75
496.442	87.75
496.66	85.75
496.877	96.75
497.094	96.75
497.312	92.75
497.529	74.75
497.746	96.75
497.963	116.75
498.181	77.75
498.398	104.75
498.615	108.75
498.832	82.75
499.049	93.75
499.267	105.75
499.484	90.75
499.701	81.75
499.918	94.75
500.135	89.75
500.352	91.75
500.569	77.75
500.786	78.75
501.003	79.75
501.22	85.75
501.437	87.75
501.654	98.75
501.871	94.75
502.088	85.75
502.305	89.75
502.522	81.75
502.739	93.75
502.956	88.75
503.172	95.75
503.389	93.75
503.606	102.75
503.823	94.75
504.04	83.75
504.256	92.75
504.473	83.75
504.69	78.75
504.907	93.75
505.123	117.75
505.34	84.75
505.557	91.75
505.773	91.75
505.99	85.75
506.207	74.75
506.423	68.75
506.64	108.75
506.856	90.75
507.073	89.75
507.289	89.75
507.506	100.75
507.722	107.75
507.939	102.75
508.155	94.75
508.372	87.75
508.588	82.75
508.805	103.75
509.021	101.75
509.238	87.75
509.454	98.75
509.67	98.75
509.887	113.75
510.103	108.75
510.319	177.75
510.536	661.75
510.752	2045.75
510.968	563.75
511.184	149.75
511.401	110.75
511.617	115.75
511.833	89.75
512.049	97.75
512.265	96.75
512.481	95.75
512.698	101.75
512.914	99.75
513.13	99.75
513.346	90.75
513.562	95.75
513.778	85.75
513.994	98.75
514.21	89.75
514.426	101.75
514.642	125.75
514.858	109.75
515.074	148.75
515.29	358.75
515.506	1190.75
515.721	456.75
515.937	137.75
516.153	91.75
516.369	108.75
516.585	80.75
