Data from Uncirc_1980_H10_HRD10591_00022.txt Node
Date: Wed Jan 03 12:36:59 EST 2024
User: Yrep
Spectrometer: HR+D1059
Trigger mode: 1
Integration Time (sec): 1.000000E-1
Scans to average: 1
Electric dark correction enabled: true
Nonlinearity correction enabled: false
Boxcar width: 0
XAxis mode: Wavelengths
Number of Pixels in Spectrum: 2048
>>>>>Begin Spectral Data<<<<<
223.165	-14.69
223.4	-14.69
223.635	-14.69
223.869	-16.69
224.104	-10.69
224.338	-15.69
224.573	-19.69
224.808	-20.69
225.042	-12.69
225.277	-8.69
225.511	-2.69
225.746	-3.69
225.98	17.31
226.215	10.31
226.449	12.31
226.683	22.31
226.918	32.31
227.152	31.31
227.387	7.31
227.621	32.31
227.856	53.31
228.09	59.31
228.324	70.31
228.559	46.31
228.793	57.31
229.027	69.31
229.262	79.31
229.496	70.31
229.73	72.31
229.964	88.31
230.199	74.31
230.433	91.31
230.667	78.31
230.901	85.31
231.136	68.31
231.37	83.31
231.604	75.31
231.838	86.31
232.072	81.31
232.306	71.31
232.541	69.31
232.775	85.31
233.009	79.31
233.243	88.31
233.477	83.31
233.711	84.31
233.945	69.31
234.179	69.31
234.413	81.31
234.647	92.31
234.881	76.31
235.115	84.31
235.349	66.31
235.583	89.31
235.817	75.31
236.051	70.31
236.285	73.31
236.519	80.31
236.753	92.31
236.987	77.31
237.221	85.31
237.455	84.31
237.689	70.31
237.922	76.31
238.156	87.31
238.39	78.31
238.624	78.31
238.858	87.31
239.091	80.31
239.325	76.31
239.559	85.31
239.793	85.31
240.027	80.31
240.26	87.31
240.494	81.31
240.728	94.31
240.961	76.31
241.195	90.31
241.429	67.31
241.662	81.31
241.896	71.31
242.13	83.31
242.363	71.31
242.597	80.31
242.83	82.31
243.064	86.31
243.298	76.31
243.531	86.31
243.765	79.31
243.998	87.31
244.232	81.31
244.465	68.31
244.699	75.31
244.932	73.31
245.166	77.31
245.399	77.31
245.633	88.31
245.866	88.31
246.099	85.31
246.333	78.31
246.566	76.31
246.8	78.31
247.033	70.31
247.266	59.31
247.5	85.31
247.733	70.31
247.966	76.31
248.2	81.31
248.433	87.31
248.666	75.31
248.899	77.31
249.133	70.31
249.366	102.31
249.599	87.31
249.832	76.31
250.066	81.31
250.299	88.31
250.532	89.31
250.765	77.31
250.998	98.31
251.231	94.31
251.465	69.31
251.698	83.31
251.931	83.31
252.164	78.31
252.397	83.31
252.63	89.31
252.863	73.31
253.096	69.31
253.329	87.31
253.562	74.31
253.795	88.31
254.028	71.31
254.261	82.31
254.494	79.31
254.727	81.31
254.96	75.31
255.193	84.31
255.426	87.31
255.659	72.31
255.892	91.31
256.124	75.31
256.357	87.31
256.59	79.31
256.823	90.31
257.056	75.31
257.289	85.31
257.521	83.31
257.754	86.31
257.987	77.31
258.22	80.31
258.452	76.31
258.685	76.31
258.918	86.31
259.151	79.31
259.383	87.31
259.616	84.31
259.849	87.31
260.081	67.31
260.314	91.31
260.547	76.31
260.779	85.31
261.012	77.31
261.244	60.31
261.477	88.31
261.71	92.31
261.942	102.31
262.175	102.31
262.407	93.31
262.64	73.31
262.872	83.31
263.105	83.31
263.337	95.31
263.57	77.31
263.802	83.31
264.035	87.31
264.267	77.31
264.499	77.31
264.732	80.31
264.964	92.31
265.197	86.31
265.429	71.31
265.661	76.31
265.894	88.31
266.126	98.31
266.358	85.31
266.591	84.31
266.823	86.31
267.055	79.31
267.287	81.31
267.52	89.31
267.752	94.31
267.984	95.31
268.216	78.31
268.448	88.31
268.681	93.31
268.913	81.31
269.145	87.31
269.377	93.31
269.609	89.31
269.841	74.31
270.073	89.31
270.306	83.31
270.538	77.31
270.77	87.31
271.002	95.31
271.234	96.31
271.466	88.31
271.698	94.31
271.93	89.31
272.162	91.31
272.394	91.31
272.626	86.31
272.858	90.31
273.09	79.31
273.322	81.31
273.553	96.31
273.785	96.31
274.017	91.31
274.249	88.31
274.481	84.31
274.713	85.31
274.945	69.31
275.176	68.31
275.408	89.31
275.64	93.31
275.872	104.31
276.104	103.31
276.335	69.31
276.567	103.31
276.799	93.31
277.031	97.31
277.262	86.31
277.494	109.31
277.726	99.31
277.957	83.31
278.189	72.31
278.421	84.31
278.652	81.31
278.884	79.31
279.115	87.31
279.347	85.31
279.579	87.31
279.81	77.31
280.042	83.31
280.273	99.31
280.505	86.31
280.736	103.31
280.968	91.31
281.199	92.31
281.431	99.31
281.662	95.31
281.894	81.31
282.125	80.31
282.356	112.31
282.588	125.31
282.819	110.31
283.051	94.31
283.282	102.31
283.513	88.31
283.745	78.31
283.976	96.31
284.207	72.31
284.439	93.31
284.67	89.31
284.901	94.31
285.132	76.31
285.364	90.31
285.595	101.31
285.826	83.31
286.057	99.31
286.288	94.31
286.52	80.31
286.751	83.31
286.982	93.31
287.213	92.31
287.444	85.31
287.675	103.31
287.906	90.31
288.138	88.31
288.369	91.31
288.6	91.31
288.831	85.31
289.062	83.31
289.293	95.31
289.524	75.31
289.755	95.31
289.986	104.31
290.217	85.31
290.448	94.31
290.679	74.31
290.91	74.31
291.141	96.31
291.371	94.31
291.602	85.31
291.833	87.31
292.064	80.31
292.295	97.31
292.526	87.31
292.757	80.31
292.987	86.31
293.218	87.31
293.449	87.31
293.68	89.31
293.91	81.31
294.141	74.31
294.372	96.31
294.603	97.31
294.833	85.31
295.064	102.31
295.295	100.31
295.525	99.31
295.756	106.31
295.987	110.31
296.217	130.31
296.448	94.31
296.679	93.31
296.909	86.31
297.14	107.31
297.37	83.31
297.601	89.31
297.831	90.31
298.062	107.31
298.292	85.31
298.523	92.31
298.753	103.31
298.984	85.31
299.214	95.31
299.445	96.31
299.675	94.31
299.905	92.31
300.136	90.31
300.366	90.31
300.597	86.31
300.827	100.31
301.057	108.31
301.288	101.31
301.518	94.31
301.748	93.31
301.979	101.31
302.209	89.31
302.439	87.31
302.669	84.31
302.9	94.31
303.13	88.31
303.36	97.31
303.59	108.31
303.82	112.31
304.051	95.31
304.281	97.31
304.511	101.31
304.741	83.31
304.971	85.31
305.201	99.31
305.431	80.31
305.661	93.31
305.891	98.31
306.121	101.31
306.352	99.31
306.582	112.31
306.812	84.31
307.042	88.31
307.272	94.31
307.502	97.31
307.731	99.31
307.961	98.31
308.191	95.31
308.421	102.31
308.651	105.31
308.881	83.31
309.111	88.31
309.341	95.31
309.571	103.31
309.8	99.31
310.03	93.31
310.26	98.31
310.49	93.31
310.72	96.31
310.949	98.31
311.179	107.31
311.409	79.31
311.639	99.31
311.868	103.31
312.098	87.31
312.328	91.31
312.557	100.31
312.787	97.31
313.017	94.31
313.246	91.31
313.476	90.31
313.706	106.31
313.935	93.31
314.165	109.31
314.394	101.31
314.624	88.31
314.853	93.31
315.083	97.31
315.312	96.31
315.542	85.31
315.771	83.31
316.001	89.31
316.23	100.31
316.46	86.31
316.689	89.31
316.919	93.31
317.148	96.31
317.377	108.31
317.607	92.31
317.836	96.31
318.065	100.31
318.295	81.31
318.524	89.31
318.753	97.31
318.983	104.31
319.212	101.31
319.441	97.31
319.67	100.31
319.9	93.31
320.129	87.31
320.358	100.31
320.587	100.31
320.816	93.31
321.046	97.31
321.275	84.31
321.504	95.31
321.733	76.31
321.962	81.31
322.191	85.31
322.42	95.31
322.649	108.31
322.878	111.31
323.108	108.31
323.337	114.31
323.566	136.31
323.795	144.31
324.024	179.31
324.253	344.31
324.482	685.31
324.71	1404.31
324.939	1900.31
325.168	712.31
325.397	223.31
325.626	124.31
325.855	124.31
326.084	128.31
326.313	127.31
326.542	133.31
326.77	200.31
326.999	386.31
327.228	778.31
327.457	1463.31
327.686	1193.31
327.914	335.31
328.143	182.31
328.372	153.31
328.6	135.31
328.829	126.31
329.058	126.31
329.287	116.31
329.515	102.31
329.744	112.31
329.972	112.31
330.201	111.31
330.43	110.31
330.658	135.31
330.887	136.31
331.115	126.31
331.344	96.31
331.572	99.31
331.801	103.31
332.03	97.31
332.258	102.31
332.486	93.31
332.715	95.31
332.943	95.31
333.172	86.31
333.4	94.31
333.629	89.31
333.857	107.31
334.085	115.31
334.314	117.31
334.542	117.31
334.771	136.31
334.999	97.31
335.227	102.31
335.455	105.31
335.684	93.31
335.912	97.31
336.14	105.31
336.369	102.31
336.597	84.31
336.825	92.31
337.053	91.31
337.281	88.31
337.51	91.31
337.738	108.31
337.966	95.31
338.194	83.31
338.422	105.31
338.65	83.31
338.878	93.31
339.106	90.31
339.334	93.31
339.562	98.31
339.79	99.31
340.018	86.31
340.246	96.31
340.474	107.31
340.702	99.31
340.93	92.31
341.158	95.31
341.386	87.31
341.614	96.31
341.842	95.31
342.07	88.31
342.298	82.31
342.526	98.31
342.754	84.31
342.981	89.31
343.209	100.31
343.437	101.31
343.665	87.31
343.893	87.31
344.12	102.31
344.348	95.31
344.576	97.31
344.804	96.31
345.031	96.31
345.259	101.31
345.487	106.31
345.714	87.31
345.942	80.31
346.17	90.31
346.397	87.31
346.625	93.31
346.853	92.31
347.08	98.31
347.308	87.31
347.535	87.31
347.763	99.31
347.99	95.31
348.218	95.31
348.445	105.31
348.673	106.31
348.9	109.31
349.128	90.31
349.355	104.31
349.583	100.31
349.81	105.31
350.037	91.31
350.265	95.31
350.492	100.31
350.72	115.31
350.947	103.31
351.174	120.31
351.402	119.31
351.629	109.31
351.856	98.31
352.083	103.31
352.311	107.31
352.538	97.31
352.765	108.31
352.992	108.31
353.22	113.31
353.447	102.31
353.674	88.31
353.901	79.31
354.128	103.31
354.355	75.31
354.583	100.31
354.81	103.31
355.037	91.31
355.264	95.31
355.491	103.31
355.718	87.31
355.945	94.31
356.172	99.31
356.399	87.31
356.626	94.31
356.853	92.31
357.08	95.31
357.307	80.31
357.534	88.31
357.761	91.31
357.988	107.31
358.215	116.31
358.441	91.31
358.668	109.31
358.895	98.31
359.122	89.31
359.349	93.31
359.576	98.31
359.802	103.31
360.029	107.31
360.256	116.31
360.483	100.31
360.709	93.31
360.936	93.31
361.163	97.31
361.39	86.31
361.616	95.31
361.843	93.31
362.07	96.31
362.296	104.31
362.523	107.31
362.749	79.31
362.976	78.31
363.203	108.31
363.429	91.31
363.656	93.31
363.882	91.31
364.109	96.31
364.335	84.31
364.562	90.31
364.788	93.31
365.015	89.31
365.241	102.31
365.468	103.31
365.694	94.31
365.92	101.31
366.147	97.31
366.373	81.31
366.599	110.31
366.826	94.31
367.052	95.31
367.278	95.31
367.505	85.31
367.731	101.31
367.957	98.31
368.184	85.31
368.41	100.31
368.636	93.31
368.862	120.31
369.089	96.31
369.315	100.31
369.541	104.31
369.767	93.31
369.993	101.31
370.219	83.31
370.445	99.31
370.672	89.31
370.898	99.31
371.124	79.31
371.35	87.31
371.576	87.31
371.802	96.31
372.028	108.31
372.254	100.31
372.48	89.31
372.706	92.31
372.932	94.31
373.158	87.31
373.384	91.31
373.61	89.31
373.835	92.31
374.061	87.31
374.287	95.31
374.513	102.31
374.739	94.31
374.965	74.31
375.191	105.31
375.416	97.31
375.642	92.31
375.868	86.31
376.094	91.31
376.319	76.31
376.545	104.31
376.771	95.31
376.997	92.31
377.222	86.31
377.448	101.31
377.674	91.31
377.899	89.31
378.125	110.31
378.35	99.31
378.576	101.31
378.802	88.31
379.027	94.31
379.253	94.31
379.478	91.31
379.704	99.31
379.929	99.31
380.155	98.31
380.38	100.31
380.606	95.31
380.831	100.31
381.057	115.31
381.282	102.31
381.507	101.31
381.733	95.31
381.958	104.31
382.184	105.31
382.409	114.31
382.634	110.31
382.86	111.31
383.085	116.31
383.31	84.31
383.535	113.31
383.761	107.31
383.986	110.31
384.211	101.31
384.436	105.31
384.662	117.31
384.887	110.31
385.112	117.31
385.337	128.31
385.562	117.31
385.787	117.31
386.013	109.31
386.238	133.31
386.463	117.31
386.688	129.31
386.913	126.31
387.138	128.31
387.363	100.31
387.588	112.31
387.813	130.31
388.038	138.31
388.263	141.31
388.488	117.31
388.713	113.31
388.938	100.31
389.163	107.31
389.387	100.31
389.612	93.31
389.837	103.31
390.062	109.31
390.287	105.31
390.512	80.31
390.736	91.31
390.961	100.31
391.186	95.31
391.411	93.31
391.636	96.31
391.86	92.31
392.085	88.31
392.31	83.31
392.534	69.31
392.759	86.31
392.984	94.31
393.208	113.31
393.433	77.31
393.658	104.31
393.882	87.31
394.107	64.31
394.331	92.31
394.556	95.31
394.78	81.31
395.005	80.31
395.229	93.31
395.454	91.31
395.678	80.31
395.903	95.31
396.127	86.31
396.352	89.31
396.576	84.31
396.801	87.31
397.025	99.31
397.249	94.31
397.474	88.31
397.698	85.31
397.922	94.31
398.147	87.31
398.371	90.31
398.595	101.31
398.82	101.31
399.044	92.31
399.268	86.31
399.492	93.31
399.717	96.31
399.941	92.31
400.165	103.31
400.389	108.31
400.613	84.31
400.837	98.31
401.062	85.31
401.286	95.31
401.51	80.31
401.734	91.31
401.958	99.31
402.182	109.31
402.406	139.31
402.63	108.31
402.854	84.31
403.078	88.31
403.302	88.31
403.526	97.31
403.75	86.31
403.974	87.31
404.198	87.31
404.422	101.31
404.645	94.31
404.869	91.31
405.093	83.31
405.317	102.31
405.541	87.31
405.765	95.31
405.988	102.31
406.212	136.31
406.436	212.31
406.66	149.31
406.883	94.31
407.107	87.31
407.331	94.31
407.555	103.31
407.778	110.31
408.002	95.31
408.226	93.31
408.449	99.31
408.673	91.31
408.896	88.31
409.12	78.31
409.344	100.31
409.567	99.31
409.791	99.31
410.014	93.31
410.238	107.31
410.461	88.31
410.685	93.31
410.908	104.31
411.132	99.31
411.355	113.31
411.578	93.31
411.802	102.31
412.025	71.31
412.249	81.31
412.472	83.31
412.695	107.31
412.919	86.31
413.142	83.31
413.365	93.31
413.589	92.31
413.812	90.31
414.035	106.31
414.258	90.31
414.482	96.31
414.705	78.31
414.928	102.31
415.151	100.31
415.374	98.31
415.597	78.31
415.821	103.31
416.044	105.31
416.267	104.31
416.49	91.31
416.713	87.31
416.936	95.31
417.159	91.31
417.382	95.31
417.605	83.31
417.828	95.31
418.051	102.31
418.274	98.31
418.497	73.31
418.72	86.31
418.943	86.31
419.166	86.31
419.389	87.31
419.611	76.31
419.834	101.31
420.057	83.31
420.28	100.31
420.503	96.31
420.726	78.31
420.948	74.31
421.171	95.31
421.394	95.31
421.617	80.31
421.839	104.31
422.062	97.31
422.285	92.31
422.507	106.31
422.73	87.31
422.953	106.31
423.175	105.31
423.398	83.31
423.621	86.31
423.843	80.31
424.066	80.31
424.288	95.31
424.511	94.31
424.733	88.31
424.956	107.31
425.178	92.31
425.401	103.31
425.623	103.31
425.846	116.31
426.068	113.31
426.291	100.31
426.513	91.31
426.735	91.31
426.958	91.31
427.18	105.31
427.402	151.31
427.625	160.31
427.847	127.31
428.069	107.31
428.292	108.31
428.514	86.31
428.736	93.31
428.958	82.31
429.181	88.31
429.403	93.31
429.625	84.31
429.847	100.31
430.069	108.31
430.292	98.31
430.514	96.31
430.736	110.31
430.958	99.31
431.18	87.31
431.402	80.31
431.624	89.31
431.846	93.31
432.068	90.31
432.29	95.31
432.512	84.31
432.734	95.31
432.956	88.31
433.178	89.31
433.4	108.31
433.622	86.31
433.844	100.31
434.066	95.31
434.287	113.31
434.509	83.31
434.731	91.31
434.953	91.31
435.175	84.31
435.397	102.31
435.618	95.31
435.84	109.31
436.062	139.31
436.284	117.31
436.505	114.31
436.727	95.31
436.949	91.31
437.17	95.31
437.392	88.31
437.614	97.31
437.835	103.31
438.057	106.31
438.278	112.31
438.5	101.31
438.721	120.31
438.943	112.31
439.165	70.31
439.386	84.31
439.608	89.31
439.829	104.31
440.05	110.31
440.272	123.31
440.493	95.31
440.715	93.31
440.936	72.31
441.158	95.31
441.379	87.31
441.6	99.31
441.822	94.31
442.043	88.31
442.264	112.31
442.486	107.31
442.707	93.31
442.928	98.31
443.149	130.31
443.371	124.31
443.592	108.31
443.813	108.31
444.034	104.31
444.255	90.31
444.476	86.31
444.698	91.31
444.919	100.31
445.14	138.31
445.361	120.31
445.582	112.31
445.803	136.31
446.024	139.31
446.245	131.31
446.466	115.31
446.687	93.31
446.908	91.31
447.129	84.31
447.35	76.31
447.571	93.31
447.792	102.31
448.013	92.31
448.234	105.31
448.455	96.31
448.675	108.31
448.896	112.31
449.117	99.31
449.338	82.31
449.559	113.31
449.779	125.31
450	101.31
450.221	74.31
450.442	103.31
450.662	106.31
450.883	103.31
451.104	125.31
451.324	102.31
451.545	101.31
451.766	88.31
451.986	94.31
452.207	91.31
452.428	90.31
452.648	94.31
452.869	105.31
453.089	115.31
453.31	109.31
453.53	96.31
453.751	99.31
453.971	104.31
454.192	104.31
454.412	78.31
454.633	79.31
454.853	89.31
455.073	87.31
455.294	94.31
455.514	103.31
455.734	84.31
455.955	91.31
456.175	77.31
456.395	105.31
456.616	100.31
456.836	79.31
457.056	94.31
457.276	85.31
457.497	90.31
457.717	86.31
457.937	81.31
458.157	94.31
458.377	91.31
458.598	93.31
458.818	128.31
459.038	137.31
459.258	120.31
459.478	85.31
459.698	87.31
459.918	85.31
460.138	76.31
460.358	83.31
460.578	85.31
460.798	104.31
461.018	85.31
461.238	94.31
461.458	87.31
461.678	88.31
461.898	89.31
462.118	101.31
462.338	87.31
462.558	98.31
462.777	93.31
462.997	92.31
463.217	91.31
463.437	91.31
463.657	99.31
463.876	94.31
464.096	89.31
464.316	100.31
464.536	85.31
464.755	104.31
464.975	100.31
465.195	156.31
465.414	145.31
465.634	97.31
465.854	109.31
466.073	102.31
466.293	86.31
466.512	85.31
466.732	87.31
466.951	82.31
467.171	89.31
467.391	80.31
467.61	107.31
467.829	96.31
468.049	96.31
468.268	91.31
468.488	90.31
468.707	86.31
468.927	82.31
469.146	76.31
469.365	97.31
469.585	87.31
469.804	97.31
470.023	90.31
470.243	93.31
470.462	106.31
470.681	103.31
470.901	90.31
471.12	73.31
471.339	95.31
471.558	83.31
471.777	81.31
471.997	97.31
472.216	108.31
472.435	131.31
472.654	91.31
472.873	105.31
473.092	90.31
473.311	95.31
473.53	97.31
473.749	94.31
473.968	91.31
474.187	110.31
474.406	103.31
474.625	101.31
474.844	88.31
475.063	103.31
475.282	85.31
475.501	101.31
475.72	99.31
475.939	83.31
476.158	91.31
476.377	79.31
476.596	100.31
476.814	92.31
477.033	100.31
477.252	102.31
477.471	85.31
477.69	78.31
477.908	85.31
478.127	92.31
478.346	106.31
478.564	100.31
478.783	102.31
479.002	111.31
479.22	91.31
479.439	97.31
479.658	106.31
479.876	101.31
480.095	103.31
480.313	103.31
480.532	90.31
480.751	93.31
480.969	112.31
481.188	177.31
481.406	130.31
481.624	91.31
481.843	72.31
482.061	80.31
482.28	88.31
482.498	90.31
482.717	75.31
482.935	83.31
483.153	89.31
483.372	88.31
483.59	88.31
483.808	93.31
484.027	101.31
484.245	89.31
484.463	89.31
484.681	100.31
484.9	91.31
485.118	103.31
485.336	93.31
485.554	73.31
485.772	95.31
485.99	97.31
486.209	107.31
486.427	112.31
486.645	103.31
486.863	107.31
487.081	77.31
487.299	96.31
487.517	89.31
487.735	88.31
487.953	92.31
488.171	101.31
488.389	97.31
488.607	101.31
488.825	89.31
489.043	92.31
489.261	89.31
489.479	90.31
489.696	86.31
489.914	91.31
490.132	86.31
490.35	95.31
490.568	96.31
490.786	91.31
491.003	98.31
491.221	91.31
491.439	84.31
491.657	84.31
491.874	94.31
492.092	84.31
492.31	97.31
492.527	108.31
492.745	89.31
492.963	101.31
493.18	102.31
493.398	107.31
493.615	102.31
493.833	100.31
494.05	102.31
494.268	116.31
494.485	93.31
494.703	101.31
494.92	88.31
495.138	94.31
495.355	97.31
495.573	99.31
495.79	95.31
496.008	94.31
496.225	96.31
496.442	86.31
496.66	106.31
496.877	82.31
497.094	90.31
497.312	87.31
497.529	92.31
497.746	83.31
497.963	103.31
498.181	109.31
498.398	85.31
498.615	113.31
498.832	116.31
499.049	87.31
499.267	90.31
499.484	93.31
499.701	85.31
499.918	92.31
500.135	100.31
500.352	70.31
500.569	84.31
500.786	96.31
501.003	92.31
501.22	92.31
501.437	90.31
501.654	89.31
501.871	111.31
502.088	86.31
502.305	111.31
502.522	86.31
502.739	92.31
502.956	86.31
503.172	90.31
503.389	84.31
503.606	106.31
503.823	95.31
504.04	103.31
504.256	97.31
504.473	85.31
504.69	77.31
504.907	98.31
505.123	94.31
505.34	85.31
505.557	94.31
505.773	87.31
505.99	103.31
506.207	95.31
506.423	94.31
506.64	92.31
506.856	82.31
507.073	98.31
507.289	92.31
507.506	105.31
507.722	115.31
507.939	100.31
508.155	104.31
508.372	100.31
508.588	93.31
508.805	97.31
509.021	104.31
509.238	110.31
509.454	111.31
509.67	99.31
509.887	105.31
510.103	131.31
510.319	190.31
510.536	628.31
510.752	1979.31
510.968	561.31
511.184	149.31
511.401	99.31
511.617	112.31
511.833	85.31
512.049	103.31
512.265	97.31
512.481	90.31
512.698	101.31
512.914	91.31
513.13	91.31
513.346	97.31
513.562	106.31
513.778	91.31
513.994	91.31
514.21	90.31
514.426	91.31
