Data from Uncirc_1980_H10_HRD10591_00028.txt Node
Date: Wed Jan 03 12:37:01 EST 2024
User: Yrep
Spectrometer: HR+D1059
Trigger mode: 1
Integration Time (sec): 1.000000E-1
Scans to average: 1
Electric dark correction enabled: true
Nonlinearity correction enabled: false
Boxcar width: 0
XAxis mode: Wavelengths
Number of Pixels in Spectrum: 2048
>>>>>Begin Spectral Data<<<<<
223.165	-21.81
223.4	-21.81
223.635	-21.81
223.869	-2.81
224.104	-13.81
224.338	-17.81
224.573	-12.81
224.808	-16.81
225.042	-8.81
225.277	8.19
225.511	-1.81
225.746	-5.81
225.98	17.19
226.215	7.19
226.449	4.19
226.683	14.19
226.918	23.19
227.152	28.19
227.387	27.19
227.621	47.19
227.856	48.19
228.09	58.19
228.324	42.19
228.559	48.19
228.793	61.19
229.027	57.19
229.262	81.19
229.496	75.19
229.73	71.19
229.964	66.19
230.199	87.19
230.433	54.19
230.667	86.19
230.901	72.19
231.136	81.19
231.37	80.19
231.604	88.19
231.838	83.19
232.072	89.19
232.306	82.19
232.541	88.19
232.775	78.19
233.009	83.19
233.243	87.19
233.477	81.19
233.711	85.19
233.945	91.19
234.179	78.19
234.413	82.19
234.647	85.19
234.881	71.19
235.115	81.19
235.349	76.19
235.583	80.19
235.817	83.19
236.051	76.19
236.285	83.19
236.519	82.19
236.753	77.19
236.987	83.19
237.221	81.19
237.455	85.19
237.689	76.19
237.922	86.19
238.156	75.19
238.39	81.19
238.624	77.19
238.858	78.19
239.091	78.19
239.325	82.19
239.559	77.19
239.793	87.19
240.027	82.19
240.26	83.19
240.494	93.19
240.728	67.19
240.961	71.19
241.195	85.19
241.429	87.19
241.662	71.19
241.896	77.19
242.13	85.19
242.363	78.19
242.597	70.19
242.83	78.19
243.064	83.19
243.298	74.19
243.531	65.19
243.765	85.19
243.998	86.19
244.232	80.19
244.465	96.19
244.699	93.19
244.932	75.19
245.166	78.19
245.399	85.19
245.633	82.19
245.866	78.19
246.099	62.19
246.333	85.19
246.566	90.19
246.8	81.19
247.033	96.19
247.266	87.19
247.5	99.19
247.733	76.19
247.966	71.19
248.2	80.19
248.433	93.19
248.666	71.19
248.899	88.19
249.133	74.19
249.366	90.19
249.599	94.19
249.832	96.19
250.066	78.19
250.299	93.19
250.532	93.19
250.765	82.19
250.998	83.19
251.231	82.19
251.465	85.19
251.698	74.19
251.931	83.19
252.164	80.19
252.397	78.19
252.63	77.19
252.863	95.19
253.096	83.19
253.329	100.19
253.562	89.19
253.795	90.19
254.028	76.19
254.261	91.19
254.494	94.19
254.727	91.19
254.96	89.19
255.193	84.19
255.426	73.19
255.659	78.19
255.892	93.19
256.124	79.19
256.357	93.19
256.59	81.19
256.823	85.19
257.056	82.19
257.289	91.19
257.521	93.19
257.754	86.19
257.987	78.19
258.22	89.19
258.452	86.19
258.685	74.19
258.918	78.19
259.151	76.19
259.383	86.19
259.616	107.19
259.849	88.19
260.081	89.19
260.314	78.19
260.547	81.19
260.779	82.19
261.012	85.19
261.244	81.19
261.477	89.19
261.71	91.19
261.942	97.19
262.175	114.19
262.407	103.19
262.64	89.19
262.872	97.19
263.105	88.19
263.337	80.19
263.57	89.19
263.802	82.19
264.035	90.19
264.267	98.19
264.499	83.19
264.732	73.19
264.964	82.19
265.197	86.19
265.429	85.19
265.661	80.19
265.894	87.19
266.126	96.19
266.358	80.19
266.591	92.19
266.823	98.19
267.055	79.19
267.287	82.19
267.52	79.19
267.752	78.19
267.984	81.19
268.216	75.19
268.448	91.19
268.681	92.19
268.913	74.19
269.145	89.19
269.377	95.19
269.609	94.19
269.841	101.19
270.073	82.19
270.306	90.19
270.538	77.19
270.77	93.19
271.002	87.19
271.234	98.19
271.466	86.19
271.698	92.19
271.93	73.19
272.162	85.19
272.394	88.19
272.626	87.19
272.858	79.19
273.09	81.19
273.322	81.19
273.553	86.19
273.785	85.19
274.017	72.19
274.249	79.19
274.481	98.19
274.713	77.19
274.945	85.19
275.176	80.19
275.408	101.19
275.64	89.19
275.872	86.19
276.104	86.19
276.335	86.19
276.567	82.19
276.799	96.19
277.031	103.19
277.262	99.19
277.494	102.19
277.726	95.19
277.957	93.19
278.189	89.19
278.421	76.19
278.652	90.19
278.884	79.19
279.115	79.19
279.347	84.19
279.579	98.19
279.81	78.19
280.042	89.19
280.273	88.19
280.505	88.19
280.736	81.19
280.968	86.19
281.199	79.19
281.431	78.19
281.662	93.19
281.894	97.19
282.125	105.19
282.356	102.19
282.588	115.19
282.819	91.19
283.051	99.19
283.282	94.19
283.513	93.19
283.745	88.19
283.976	95.19
284.207	95.19
284.439	94.19
284.67	83.19
284.901	102.19
285.132	79.19
285.364	88.19
285.595	86.19
285.826	100.19
286.057	84.19
286.288	91.19
286.52	84.19
286.751	83.19
286.982	76.19
287.213	93.19
287.444	87.19
287.675	85.19
287.906	90.19
288.138	89.19
288.369	109.19
288.6	100.19
288.831	104.19
289.062	96.19
289.293	78.19
289.524	91.19
289.755	79.19
289.986	94.19
290.217	101.19
290.448	95.19
290.679	88.19
290.91	99.19
291.141	98.19
291.371	89.19
291.602	71.19
291.833	90.19
292.064	98.19
292.295	94.19
292.526	91.19
292.757	91.19
292.987	80.19
293.218	96.19
293.449	92.19
293.68	98.19
293.91	80.19
294.141	91.19
294.372	68.19
294.603	81.19
294.833	85.19
295.064	95.19
295.295	81.19
295.525	86.19
295.756	91.19
295.987	93.19
296.217	108.19
296.448	101.19
296.679	90.19
296.909	94.19
297.14	98.19
297.37	97.19
297.601	98.19
297.831	98.19
298.062	105.19
298.292	100.19
298.523	62.19
298.753	109.19
298.984	71.19
299.214	107.19
299.445	89.19
299.675	91.19
299.905	90.19
300.136	99.19
300.366	89.19
300.597	80.19
300.827	93.19
301.057	100.19
301.288	107.19
301.518	96.19
301.748	93.19
301.979	90.19
302.209	95.19
302.439	85.19
302.669	107.19
302.9	101.19
303.13	106.19
303.36	86.19
303.59	102.19
303.82	97.19
304.051	94.19
304.281	91.19
304.511	103.19
304.741	78.19
304.971	92.19
305.201	86.19
305.431	90.19
305.661	84.19
305.891	96.19
306.121	94.19
306.352	95.19
306.582	96.19
306.812	97.19
307.042	92.19
307.272	90.19
307.502	85.19
307.731	79.19
307.961	99.19
308.191	83.19
308.421	99.19
308.651	97.19
308.881	91.19
309.111	95.19
309.341	95.19
309.571	95.19
309.8	93.19
310.03	102.19
310.26	88.19
310.49	97.19
310.72	93.19
310.949	95.19
311.179	74.19
311.409	96.19
311.639	97.19
311.868	100.19
312.098	99.19
312.328	82.19
312.557	104.19
312.787	105.19
313.017	90.19
313.246	108.19
313.476	87.19
313.706	99.19
313.935	94.19
314.165	109.19
314.394	93.19
314.624	104.19
314.853	103.19
315.083	87.19
315.312	112.19
315.542	95.19
315.771	100.19
316.001	79.19
316.23	89.19
316.46	91.19
316.689	78.19
316.919	96.19
317.148	82.19
317.377	82.19
317.607	88.19
317.836	97.19
318.065	92.19
318.295	97.19
318.524	93.19
318.753	81.19
318.983	101.19
319.212	87.19
319.441	96.19
319.67	110.19
319.9	88.19
320.129	104.19
320.358	104.19
320.587	101.19
320.816	85.19
321.046	87.19
321.275	92.19
321.504	96.19
321.733	95.19
321.962	103.19
322.191	90.19
322.42	94.19
322.649	101.19
322.878	98.19
323.108	101.19
323.337	113.19
323.566	130.19
323.795	129.19
324.024	170.19
324.253	271.19
324.482	544.19
324.71	1074.19
324.939	1390.19
325.168	545.19
325.397	197.19
325.626	130.19
325.855	119.19
326.084	119.19
326.313	113.19
326.542	134.19
326.77	184.19
326.999	312.19
327.228	624.19
327.457	1099.19
327.686	887.19
327.914	258.19
328.143	147.19
328.372	122.19
328.6	119.19
328.829	99.19
329.058	115.19
329.287	115.19
329.515	93.19
329.744	107.19
329.972	102.19
330.201	97.19
330.43	115.19
330.658	96.19
330.887	118.19
331.115	112.19
331.344	90.19
331.572	83.19
331.801	83.19
332.03	87.19
332.258	100.19
332.486	92.19
332.715	105.19
332.943	88.19
333.172	95.19
333.4	96.19
333.629	110.19
333.857	108.19
334.085	109.19
334.314	112.19
334.542	120.19
334.771	111.19
334.999	93.19
335.227	92.19
335.455	104.19
335.684	100.19
335.912	98.19
336.14	93.19
336.369	90.19
336.597	101.19
336.825	94.19
337.053	97.19
337.281	94.19
337.51	74.19
337.738	97.19
337.966	98.19
338.194	99.19
338.422	100.19
338.65	97.19
338.878	94.19
339.106	99.19
339.334	82.19
339.562	94.19
339.79	90.19
340.018	94.19
340.246	94.19
340.474	102.19
340.702	96.19
340.93	108.19
341.158	98.19
341.386	97.19
341.614	86.19
341.842	104.19
342.07	77.19
342.298	88.19
342.526	91.19
342.754	98.19
342.981	97.19
343.209	82.19
343.437	116.19
343.665	97.19
343.893	81.19
344.12	98.19
344.348	87.19
344.576	94.19
344.804	86.19
345.031	104.19
345.259	93.19
345.487	107.19
345.714	99.19
345.942	94.19
346.17	102.19
346.397	115.19
346.625	109.19
346.853	99.19
347.08	89.19
347.308	106.19
347.535	107.19
347.763	89.19
347.99	109.19
348.218	108.19
348.445	105.19
348.673	85.19
348.9	88.19
349.128	94.19
349.355	90.19
349.583	98.19
349.81	106.19
350.037	87.19
350.265	93.19
350.492	101.19
350.72	96.19
350.947	90.19
351.174	94.19
351.402	107.19
351.629	99.19
351.856	98.19
352.083	89.19
352.311	106.19
352.538	104.19
352.765	99.19
352.992	106.19
353.22	102.19
353.447	102.19
353.674	105.19
353.901	106.19
354.128	100.19
354.355	116.19
354.583	89.19
354.81	106.19
355.037	96.19
355.264	89.19
355.491	96.19
355.718	90.19
355.945	105.19
356.172	112.19
356.399	102.19
356.626	88.19
356.853	85.19
357.08	99.19
357.307	96.19
357.534	91.19
357.761	102.19
357.988	103.19
358.215	104.19
358.441	87.19
358.668	104.19
358.895	91.19
359.122	88.19
359.349	102.19
359.576	97.19
359.802	97.19
360.029	89.19
360.256	103.19
360.483	97.19
360.709	93.19
360.936	96.19
361.163	93.19
361.39	101.19
361.616	96.19
361.843	80.19
362.07	98.19
362.296	96.19
362.523	94.19
362.749	96.19
362.976	96.19
363.203	101.19
363.429	89.19
363.656	84.19
363.882	89.19
364.109	113.19
364.335	89.19
364.562	94.19
364.788	94.19
365.015	92.19
365.241	98.19
365.468	97.19
365.694	114.19
365.92	95.19
366.147	79.19
366.373	85.19
366.599	79.19
366.826	76.19
367.052	94.19
367.278	106.19
367.505	87.19
367.731	87.19
367.957	91.19
368.184	97.19
368.41	100.19
368.636	106.19
368.862	106.19
369.089	89.19
369.315	100.19
369.541	97.19
369.767	97.19
369.993	91.19
370.219	90.19
370.445	80.19
370.672	94.19
370.898	85.19
371.124	99.19
371.35	95.19
371.576	96.19
371.802	89.19
372.028	74.19
372.254	81.19
372.48	97.19
372.706	96.19
372.932	79.19
373.158	84.19
373.384	87.19
373.61	82.19
373.835	90.19
374.061	80.19
374.287	94.19
374.513	85.19
374.739	100.19
374.965	95.19
375.191	91.19
375.416	102.19
375.642	81.19
375.868	94.19
376.094	86.19
376.319	92.19
376.545	94.19
376.771	84.19
376.997	90.19
377.222	91.19
377.448	89.19
377.674	95.19
377.899	112.19
378.125	92.19
378.35	101.19
378.576	97.19
378.802	90.19
379.027	104.19
379.253	91.19
379.478	93.19
379.704	104.19
379.929	91.19
380.155	79.19
380.38	97.19
380.606	105.19
380.831	75.19
381.057	106.19
381.282	101.19
381.507	106.19
381.733	112.19
381.958	111.19
382.184	99.19
382.409	102.19
382.634	98.19
382.86	110.19
383.085	111.19
383.31	92.19
383.535	105.19
383.761	106.19
383.986	115.19
384.211	90.19
384.436	101.19
384.662	109.19
384.887	109.19
385.112	123.19
385.337	106.19
385.562	122.19
385.787	115.19
386.013	129.19
386.238	126.19
386.463	103.19
386.688	116.19
386.913	116.19
387.138	102.19
387.363	111.19
387.588	113.19
387.813	108.19
388.038	127.19
388.263	129.19
388.488	127.19
388.713	101.19
388.938	79.19
389.163	102.19
389.387	97.19
389.612	101.19
389.837	98.19
390.062	89.19
390.287	105.19
390.512	102.19
390.736	103.19
390.961	98.19
391.186	106.19
391.411	95.19
391.636	87.19
391.86	81.19
392.085	91.19
392.31	91.19
392.534	91.19
392.759	107.19
392.984	81.19
393.208	100.19
393.433	101.19
393.658	94.19
393.882	102.19
394.107	90.19
394.331	99.19
394.556	85.19
394.78	94.19
395.005	89.19
395.229	93.19
395.454	86.19
395.678	88.19
395.903	78.19
396.127	93.19
396.352	102.19
396.576	87.19
396.801	94.19
397.025	88.19
397.249	88.19
397.474	93.19
397.698	76.19
397.922	85.19
398.147	94.19
398.371	91.19
398.595	92.19
398.82	100.19
399.044	98.19
399.268	95.19
399.492	85.19
399.717	91.19
399.941	80.19
400.165	83.19
400.389	102.19
400.613	100.19
400.837	102.19
401.062	96.19
401.286	92.19
401.51	89.19
401.734	90.19
401.958	94.19
402.182	110.19
402.406	128.19
402.63	112.19
402.854	91.19
403.078	82.19
403.302	77.19
403.526	98.19
403.75	89.19
403.974	74.19
404.198	93.19
404.422	101.19
404.645	90.19
404.869	96.19
405.093	96.19
405.317	95.19
405.541	89.19
405.765	89.19
405.988	103.19
406.212	130.19
406.436	165.19
406.66	126.19
406.883	95.19
407.107	88.19
407.331	89.19
407.555	77.19
407.778	79.19
408.002	93.19
408.226	96.19
408.449	86.19
408.673	105.19
408.896	104.19
409.12	99.19
409.344	99.19
409.567	93.19
409.791	77.19
410.014	91.19
410.238	94.19
410.461	93.19
410.685	97.19
410.908	95.19
411.132	95.19
411.355	99.19
411.578	89.19
411.802	103.19
412.025	89.19
412.249	86.19
412.472	82.19
412.695	92.19
412.919	92.19
413.142	90.19
413.365	82.19
413.589	92.19
413.812	93.19
414.035	97.19
414.258	106.19
414.482	81.19
414.705	78.19
414.928	89.19
415.151	96.19
415.374	96.19
415.597	87.19
415.821	95.19
416.044	97.19
416.267	98.19
416.49	94.19
416.713	99.19
416.936	94.19
417.159	92.19
417.382	93.19
417.605	94.19
417.828	100.19
418.051	103.19
418.274	89.19
418.497	103.19
418.72	89.19
418.943	89.19
419.166	80.19
419.389	94.19
419.611	96.19
419.834	90.19
420.057	80.19
420.28	88.19
420.503	94.19
420.726	82.19
420.948	89.19
421.171	101.19
421.394	96.19
421.617	88.19
421.839	99.19
422.062	109.19
422.285	102.19
422.507	101.19
422.73	105.19
422.953	89.19
423.175	99.19
423.398	86.19
423.621	90.19
423.843	92.19
424.066	87.19
424.288	92.19
424.511	89.19
424.733	93.19
424.956	109.19
425.178	104.19
425.401	98.19
425.623	104.19
425.846	90.19
426.068	95.19
426.291	93.19
426.513	97.19
426.735	80.19
426.958	90.19
427.18	96.19
427.402	128.19
427.625	134.19
427.847	108.19
428.069	96.19
428.292	92.19
428.514	88.19
428.736	93.19
428.958	98.19
429.181	86.19
429.403	76.19
429.625	92.19
429.847	88.19
430.069	96.19
430.292	90.19
430.514	93.19
430.736	69.19
430.958	90.19
431.18	88.19
431.402	88.19
431.624	91.19
431.846	90.19
432.068	86.19
432.29	82.19
432.512	83.19
432.734	74.19
432.956	86.19
433.178	97.19
433.4	90.19
433.622	91.19
433.844	85.19
434.066	87.19
434.287	90.19
434.509	88.19
434.731	77.19
434.953	84.19
435.175	93.19
435.397	93.19
435.618	107.19
435.84	97.19
436.062	115.19
436.284	97.19
436.505	96.19
436.727	97.19
436.949	111.19
437.17	98.19
437.392	95.19
437.614	91.19
437.835	97.19
438.057	113.19
438.278	106.19
438.5	89.19
438.721	98.19
438.943	106.19
439.165	78.19
439.386	86.19
439.608	87.19
439.829	95.19
440.05	107.19
440.272	101.19
440.493	97.19
440.715	92.19
440.936	87.19
441.158	90.19
441.379	89.19
441.6	88.19
441.822	93.19
442.043	95.19
442.264	95.19
442.486	94.19
442.707	78.19
442.928	106.19
443.149	105.19
443.371	123.19
443.592	96.19
443.813	102.19
444.034	104.19
444.255	94.19
444.476	85.19
444.698	92.19
444.919	80.19
445.14	155.19
445.361	130.19
445.582	108.19
445.803	109.19
446.024	118.19
446.245	101.19
446.466	110.19
446.687	103.19
446.908	97.19
447.129	102.19
447.35	85.19
447.571	88.19
447.792	83.19
448.013	88.19
448.234	105.19
448.455	87.19
448.675	102.19
448.896	102.19
449.117	114.19
449.338	102.19
449.559	107.19
449.779	124.19
450	105.19
450.221	74.19
450.442	92.19
450.662	82.19
450.883	104.19
451.104	105.19
451.324	108.19
451.545	82.19
451.766	87.19
451.986	99.19
452.207	97.19
452.428	107.19
452.648	101.19
452.869	101.19
453.089	87.19
453.31	113.19
453.53	96.19
453.751	106.19
453.971	96.19
454.192	95.19
454.412	89.19
454.633	84.19
454.853	82.19
455.073	86.19
455.294	86.19
455.514	96.19
455.734	88.19
455.955	90.19
456.175	94.19
456.395	91.19
456.616	91.19
456.836	87.19
457.056	82.19
457.276	78.19
457.497	85.19
457.717	87.19
457.937	85.19
458.157	91.19
458.377	91.19
458.598	101.19
458.818	125.19
459.038	128.19
459.258	97.19
459.478	78.19
459.698	90.19
459.918	79.19
460.138	85.19
460.358	89.19
460.578	87.19
460.798	111.19
461.018	102.19
461.238	79.19
461.458	85.19
461.678	76.19
461.898	79.19
462.118	82.19
462.338	91.19
462.558	97.19
462.777	86.19
462.997	90.19
463.217	93.19
463.437	94.19
463.657	93.19
463.876	80.19
464.096	81.19
464.316	92.19
464.536	96.19
464.755	89.19
464.975	97.19
465.195	115.19
465.414	134.19
465.634	99.19
465.854	96.19
466.073	94.19
466.293	81.19
466.512	93.19
466.732	86.19
466.951	94.19
467.171	94.19
467.391	108.19
467.61	93.19
467.829	91.19
468.049	93.19
468.268	106.19
468.488	89.19
468.707	79.19
468.927	93.19
469.146	95.19
469.365	86.19
469.585	95.19
469.804	109.19
470.023	95.19
470.243	92.19
470.462	86.19
470.681	96.19
470.901	87.19
471.12	91.19
471.339	75.19
471.558	82.19
471.777	72.19
471.997	72.19
472.216	110.19
472.435	125.19
472.654	86.19
472.873	85.19
473.092	105.19
473.311	84.19
473.53	91.19
473.749	102.19
473.968	91.19
474.187	95.19
474.406	99.19
474.625	87.19
474.844	94.19
475.063	89.19
475.282	90.19
475.501	65.19
475.72	93.19
475.939	95.19
476.158	97.19
476.377	92.19
476.596	92.19
476.814	94.19
477.033	98.19
477.252	90.19
477.471	75.19
477.69	97.19
477.908	87.19
478.127	91.19
478.346	93.19
478.564	88.19
478.783	82.19
479.002	74.19
479.22	85.19
479.439	85.19
479.658	96.19
479.876	85.19
480.095	97.19
480.313	109.19
480.532	104.19
480.751	99.19
480.969	104.19
481.188	163.19
481.406	138.19
481.624	87.19
481.843	102.19
482.061	90.19
482.28	78.19
482.498	76.19
482.717	102.19
482.935	92.19
483.153	95.19
483.372	87.19
483.59	97.19
483.808	94.19
484.027	96.19
484.245	97.19
484.463	92.19
484.681	107.19
484.9	106.19
485.118	87.19
485.336	92.19
485.554	88.19
485.772	101.19
485.99	95.19
486.209	124.19
486.427	115.19
486.645	103.19
486.863	114.19
487.081	104.19
487.299	91.19
487.517	92.19
487.735	78.19
487.953	98.19
488.171	112.19
488.389	107.19
488.607	95.19
488.825	91.19
489.043	87.19
489.261	99.19
489.479	92.19
489.696	81.19
489.914	82.19
490.132	93.19
490.35	94.19
490.568	70.19
490.786	89.19
491.003	91.19
491.221	93.19
491.439	91.19
491.657	92.19
491.874	94.19
492.092	94.19
492.31	108.19
492.527	87.19
492.745	80.19
492.963	89.19
493.18	87.19
493.398	114.19
493.615	101.19
493.833	110.19
494.05	90.19
494.268	96.19
494.485	88.19
494.703	92.19
494.92	80.19
495.138	82.19
495.355	104.19
495.573	95.19
495.79	98.19
496.008	105.19
496.225	93.19
496.442	84.19
496.66	73.19
496.877	88.19
497.094	87.19
497.312	94.19
497.529	87.19
497.746	93.19
497.963	79.19
498.181	92.19
498.398	93.19
498.615	107.19
498.832	85.19
499.049	85.19
499.267	97.19
499.484	83.19
499.701	93.19
499.918	98.19
500.135	99.19
500.352	83.19
500.569	79.19
500.786	97.19
501.003	88.19
501.22	100.19
501.437	94.19
501.654	87.19
501.871	97.19
502.088	103.19
502.305	89.19
502.522	98.19
502.739	87.19
502.956	98.19
503.172	89.19
503.389	86.19
503.606	101.19
503.823	105.19
504.04	99.19
504.256	95.19
504.473	96.19
504.69	79.19
504.907	88.19
505.123	82.19
505.34	87.19
505.557	83.19
505.773	95.19
505.99	98.19
506.207	98.19
506.423	97.19
506.64	75.19
506.856	87.19
507.073	96.19
507.289	97.19
507.506	106.19
507.722	93.19
507.939	98.19
508.155	91.19
508.372	96.19
508.588	97.19
508.805	93.19
509.021	97.19
509.238	99.19
509.454	97.19
509.67	96.19
509.887	109.19
510.103	121.19
510.319	152.19
510.536	540.19
510.752	1559.19
510.968	447.19
511.184	123.19
511.401	99.19
511.617	87.19
511.833	91.19
512.049	92.19
512.265	91.19
512.481	97.19
512.698	85.19
512.914	101.19
513.13	86.19
513.346	108.19
513.562	100.19
513.778	98.19
513.994	95.19
514.21	103.19
514.426	127.19
514.642	109.19
514.858	116.19
515.074	125.19
515.29	290.19
515.506	896.19
515.721	360.19
