Data from Uncirc_1980_H10_HRD10591_00094.txt Node
Date: Wed Jan 03 12:37:14 EST 2024
User: Yrep
Spectrometer: HR+D1059
Trigger mode: 1
Integration Time (sec): 1.000000E-1
Scans to average: 1
Electric dark correction enabled: true
Nonlinearity correction enabled: false
Boxcar width: 0
XAxis mode: Wavelengths
Number of Pixels in Spectrum: 2048
>>>>>Begin Spectral Data<<<<<
223.165	-14.5
223.4	-14.5
223.635	-14.5
223.869	-27.5
224.104	-17.5
224.338	-17.5
224.573	-1.5
224.808	-14.5
225.042	0.5
225.277	-2.5
225.511	1.5
225.746	-16.5
225.98	4.5
226.215	8.5
226.449	17.5
226.683	14.5
226.918	27.5
227.152	37.5
227.387	24.5
227.621	41.5
227.856	41.5
228.09	52.5
228.324	73.5
228.559	67.5
228.793	54.5
229.027	74.5
229.262	69.5
229.496	67.5
229.73	79.5
229.964	73.5
230.199	71.5
230.433	86.5
230.667	73.5
230.901	78.5
231.136	93.5
231.37	76.5
231.604	67.5
231.838	67.5
232.072	76.5
232.306	86.5
232.541	85.5
232.775	75.5
233.009	70.5
233.243	82.5
233.477	81.5
233.711	81.5
233.945	70.5
234.179	93.5
234.413	90.5
234.647	74.5
234.881	83.5
235.115	99.5
235.349	85.5
235.583	83.5
235.817	66.5
236.051	69.5
236.285	78.5
236.519	78.5
236.753	79.5
236.987	81.5
237.221	81.5
237.455	83.5
237.689	82.5
237.922	74.5
238.156	84.5
238.39	67.5
238.624	75.5
238.858	89.5
239.091	78.5
239.325	75.5
239.559	76.5
239.793	72.5
240.027	78.5
240.26	83.5
240.494	79.5
240.728	90.5
240.961	73.5
241.195	85.5
241.429	75.5
241.662	75.5
241.896	89.5
242.13	67.5
242.363	80.5
242.597	81.5
242.83	67.5
243.064	81.5
243.298	71.5
243.531	82.5
243.765	73.5
243.998	70.5
244.232	77.5
244.465	71.5
244.699	71.5
244.932	81.5
245.166	75.5
245.399	87.5
245.633	78.5
245.866	86.5
246.099	92.5
246.333	67.5
246.566	81.5
246.8	86.5
247.033	85.5
247.266	82.5
247.5	78.5
247.733	84.5
247.966	88.5
248.2	86.5
248.433	86.5
248.666	75.5
248.899	78.5
249.133	66.5
249.366	101.5
249.599	73.5
249.832	67.5
250.066	87.5
250.299	94.5
250.532	88.5
250.765	88.5
250.998	92.5
251.231	84.5
251.465	70.5
251.698	69.5
251.931	75.5
252.164	63.5
252.397	93.5
252.63	83.5
252.863	68.5
253.096	76.5
253.329	71.5
253.562	90.5
253.795	92.5
254.028	89.5
254.261	74.5
254.494	86.5
254.727	77.5
254.96	68.5
255.193	84.5
255.426	70.5
255.659	72.5
255.892	73.5
256.124	73.5
256.357	78.5
256.59	81.5
256.823	67.5
257.056	78.5
257.289	75.5
257.521	74.5
257.754	79.5
257.987	62.5
258.22	90.5
258.452	85.5
258.685	86.5
258.918	78.5
259.151	78.5
259.383	84.5
259.616	78.5
259.849	75.5
260.081	78.5
260.314	92.5
260.547	87.5
260.779	83.5
261.012	84.5
261.244	76.5
261.477	77.5
261.71	71.5
261.942	95.5
262.175	89.5
262.407	78.5
262.64	85.5
262.872	87.5
263.105	87.5
263.337	87.5
263.57	79.5
263.802	86.5
264.035	68.5
264.267	87.5
264.499	87.5
264.732	89.5
264.964	90.5
265.197	77.5
265.429	77.5
265.661	94.5
265.894	86.5
266.126	78.5
266.358	94.5
266.591	85.5
266.823	85.5
267.055	81.5
267.287	88.5
267.52	77.5
267.752	96.5
267.984	77.5
268.216	78.5
268.448	85.5
268.681	88.5
268.913	71.5
269.145	79.5
269.377	94.5
269.609	92.5
269.841	89.5
270.073	85.5
270.306	91.5
270.538	84.5
270.77	81.5
271.002	64.5
271.234	78.5
271.466	83.5
271.698	84.5
271.93	77.5
272.162	89.5
272.394	74.5
272.626	77.5
272.858	95.5
273.09	80.5
273.322	77.5
273.553	80.5
273.785	79.5
274.017	79.5
274.249	75.5
274.481	75.5
274.713	86.5
274.945	94.5
275.176	79.5
275.408	65.5
275.64	83.5
275.872	91.5
276.104	89.5
276.335	75.5
276.567	96.5
276.799	96.5
277.031	100.5
277.262	91.5
277.494	77.5
277.726	87.5
277.957	79.5
278.189	66.5
278.421	81.5
278.652	93.5
278.884	78.5
279.115	73.5
279.347	78.5
279.579	72.5
279.81	83.5
280.042	91.5
280.273	89.5
280.505	89.5
280.736	81.5
280.968	75.5
281.199	91.5
281.431	78.5
281.662	75.5
281.894	72.5
282.125	103.5
282.356	106.5
282.588	123.5
282.819	113.5
283.051	98.5
283.282	89.5
283.513	83.5
283.745	86.5
283.976	88.5
284.207	91.5
284.439	82.5
284.67	100.5
284.901	84.5
285.132	66.5
285.364	77.5
285.595	79.5
285.826	82.5
286.057	93.5
286.288	85.5
286.52	95.5
286.751	77.5
286.982	78.5
287.213	90.5
287.444	89.5
287.675	77.5
287.906	94.5
288.138	94.5
288.369	98.5
288.6	94.5
288.831	82.5
289.062	86.5
289.293	83.5
289.524	92.5
289.755	95.5
289.986	91.5
290.217	99.5
290.448	93.5
290.679	77.5
290.91	95.5
291.141	91.5
291.371	91.5
291.602	79.5
291.833	98.5
292.064	87.5
292.295	69.5
292.526	69.5
292.757	72.5
292.987	87.5
293.218	77.5
293.449	71.5
293.68	65.5
293.91	93.5
294.141	83.5
294.372	73.5
294.603	97.5
294.833	76.5
295.064	78.5
295.295	89.5
295.525	97.5
295.756	109.5
295.987	89.5
296.217	116.5
296.448	108.5
296.679	100.5
296.909	101.5
297.14	83.5
297.37	83.5
297.601	83.5
297.831	76.5
298.062	86.5
298.292	85.5
298.523	90.5
298.753	93.5
298.984	77.5
299.214	93.5
299.445	92.5
299.675	88.5
299.905	78.5
300.136	87.5
300.366	86.5
300.597	99.5
300.827	108.5
301.057	96.5
301.288	94.5
301.518	81.5
301.748	89.5
301.979	108.5
302.209	103.5
302.439	86.5
302.669	88.5
302.9	87.5
303.13	86.5
303.36	95.5
303.59	100.5
303.82	96.5
304.051	103.5
304.281	91.5
304.511	93.5
304.741	56.5
304.971	86.5
305.201	95.5
305.431	88.5
305.661	82.5
305.891	77.5
306.121	93.5
306.352	78.5
306.582	105.5
306.812	85.5
307.042	81.5
307.272	73.5
307.502	94.5
307.731	96.5
307.961	99.5
308.191	98.5
308.421	99.5
308.651	100.5
308.881	93.5
309.111	82.5
309.341	89.5
309.571	90.5
309.8	102.5
310.03	90.5
310.26	93.5
310.49	87.5
310.72	89.5
310.949	83.5
311.179	92.5
311.409	85.5
311.639	88.5
311.868	86.5
312.098	85.5
312.328	100.5
312.557	96.5
312.787	95.5
313.017	94.5
313.246	86.5
313.476	86.5
313.706	87.5
313.935	99.5
314.165	97.5
314.394	90.5
314.624	93.5
314.853	89.5
315.083	99.5
315.312	83.5
315.542	94.5
315.771	95.5
316.001	79.5
316.23	88.5
316.46	77.5
316.689	94.5
316.919	83.5
317.148	97.5
317.377	88.5
317.607	102.5
317.836	83.5
318.065	84.5
318.295	108.5
318.524	86.5
318.753	87.5
318.983	86.5
319.212	87.5
319.441	101.5
319.67	89.5
319.9	99.5
320.129	99.5
320.358	100.5
320.587	89.5
320.816	81.5
321.046	88.5
321.275	85.5
321.504	87.5
321.733	89.5
321.962	97.5
322.191	104.5
322.42	95.5
322.649	90.5
322.878	92.5
323.108	100.5
323.337	108.5
323.566	122.5
323.795	132.5
324.024	172.5
324.253	307.5
324.482	602.5
324.71	1207.5
324.939	1609.5
325.168	613.5
325.397	199.5
325.626	119.5
325.855	117.5
326.084	125.5
326.313	130.5
326.542	138.5
326.77	199.5
326.999	356.5
327.228	687.5
327.457	1228.5
327.686	986.5
327.914	287.5
328.143	174.5
328.372	121.5
328.6	110.5
328.829	106.5
329.058	109.5
329.287	117.5
329.515	108.5
329.744	102.5
329.972	107.5
330.201	109.5
330.43	122.5
330.658	99.5
330.887	122.5
331.115	98.5
331.344	100.5
331.572	109.5
331.801	100.5
332.03	96.5
332.258	87.5
332.486	91.5
332.715	106.5
332.943	89.5
333.172	91.5
333.4	96.5
333.629	117.5
333.857	99.5
334.085	101.5
334.314	103.5
334.542	137.5
334.771	117.5
334.999	104.5
335.227	106.5
335.455	93.5
335.684	86.5
335.912	91.5
336.14	101.5
336.369	94.5
336.597	94.5
336.825	94.5
337.053	79.5
337.281	90.5
337.51	95.5
337.738	93.5
337.966	73.5
338.194	85.5
338.422	102.5
338.65	85.5
338.878	77.5
339.106	93.5
339.334	92.5
339.562	93.5
339.79	89.5
340.018	89.5
340.246	85.5
340.474	102.5
340.702	99.5
340.93	98.5
341.158	97.5
341.386	86.5
341.614	90.5
341.842	96.5
342.07	95.5
342.298	91.5
342.526	96.5
342.754	94.5
342.981	99.5
343.209	93.5
343.437	97.5
343.665	94.5
343.893	83.5
344.12	85.5
344.348	92.5
344.576	80.5
344.804	83.5
345.031	95.5
345.259	89.5
345.487	78.5
345.714	102.5
345.942	88.5
346.17	86.5
346.397	77.5
346.625	95.5
346.853	97.5
347.08	99.5
347.308	95.5
347.535	92.5
347.763	101.5
347.99	108.5
348.218	91.5
348.445	104.5
348.673	96.5
348.9	100.5
349.128	100.5
349.355	97.5
349.583	101.5
349.81	81.5
350.037	89.5
350.265	92.5
350.492	87.5
350.72	99.5
350.947	101.5
351.174	100.5
351.402	97.5
351.629	95.5
351.856	90.5
352.083	101.5
352.311	98.5
352.538	94.5
352.765	114.5
352.992	104.5
353.22	113.5
353.447	103.5
353.674	92.5
353.901	97.5
354.128	107.5
354.355	112.5
354.583	101.5
354.81	97.5
355.037	94.5
355.264	95.5
355.491	92.5
355.718	91.5
355.945	86.5
356.172	92.5
356.399	104.5
356.626	100.5
356.853	118.5
357.08	89.5
357.307	75.5
357.534	89.5
357.761	89.5
357.988	100.5
358.215	97.5
358.441	98.5
358.668	85.5
358.895	94.5
359.122	86.5
359.349	87.5
359.576	91.5
359.802	87.5
360.029	104.5
360.256	121.5
360.483	102.5
360.709	91.5
360.936	91.5
361.163	88.5
361.39	89.5
361.616	88.5
361.843	90.5
362.07	85.5
362.296	101.5
362.523	96.5
362.749	88.5
362.976	84.5
363.203	96.5
363.429	89.5
363.656	93.5
363.882	89.5
364.109	90.5
364.335	87.5
364.562	95.5
364.788	98.5
365.015	101.5
365.241	100.5
365.468	93.5
365.694	96.5
365.92	93.5
366.147	91.5
366.373	90.5
366.599	96.5
366.826	87.5
367.052	109.5
367.278	89.5
367.505	69.5
367.731	83.5
367.957	78.5
368.184	89.5
368.41	106.5
368.636	102.5
368.862	107.5
369.089	99.5
369.315	95.5
369.541	84.5
369.767	95.5
369.993	88.5
370.219	92.5
370.445	101.5
370.672	79.5
370.898	86.5
371.124	90.5
371.35	89.5
371.576	92.5
371.802	93.5
372.028	88.5
372.254	85.5
372.48	85.5
372.706	91.5
372.932	97.5
373.158	93.5
373.384	103.5
373.61	85.5
373.835	98.5
374.061	97.5
374.287	104.5
374.513	93.5
374.739	95.5
374.965	97.5
375.191	105.5
375.416	87.5
375.642	93.5
375.868	96.5
376.094	92.5
376.319	105.5
376.545	94.5
376.771	89.5
376.997	73.5
377.222	82.5
377.448	85.5
377.674	93.5
377.899	81.5
378.125	91.5
378.35	99.5
378.576	92.5
378.802	96.5
379.027	95.5
379.253	93.5
379.478	102.5
379.704	94.5
379.929	85.5
380.155	101.5
380.38	90.5
380.606	105.5
380.831	85.5
381.057	111.5
381.282	86.5
381.507	97.5
381.733	86.5
381.958	102.5
382.184	91.5
382.409	87.5
382.634	98.5
382.86	98.5
383.085	95.5
383.31	98.5
383.535	110.5
383.761	89.5
383.986	106.5
384.211	83.5
384.436	100.5
384.662	90.5
384.887	104.5
385.112	101.5
385.337	85.5
385.562	102.5
385.787	116.5
386.013	99.5
386.238	111.5
386.463	101.5
386.688	110.5
386.913	86.5
387.138	107.5
387.363	99.5
387.588	92.5
387.813	107.5
388.038	109.5
388.263	108.5
388.488	106.5
388.713	87.5
388.938	82.5
389.163	106.5
389.387	98.5
389.612	89.5
389.837	99.5
390.062	88.5
390.287	92.5
390.512	90.5
390.736	92.5
390.961	99.5
391.186	101.5
391.411	100.5
391.636	82.5
391.86	88.5
392.085	93.5
392.31	74.5
392.534	95.5
392.759	74.5
392.984	85.5
393.208	88.5
393.433	92.5
393.658	93.5
393.882	94.5
394.107	78.5
394.331	81.5
394.556	89.5
394.78	84.5
395.005	105.5
395.229	92.5
395.454	83.5
395.678	91.5
395.903	94.5
396.127	89.5
396.352	91.5
396.576	85.5
396.801	82.5
397.025	85.5
397.249	93.5
397.474	90.5
397.698	93.5
397.922	95.5
398.147	88.5
398.371	92.5
398.595	92.5
398.82	96.5
399.044	83.5
399.268	86.5
399.492	90.5
399.717	84.5
399.941	86.5
400.165	95.5
400.389	94.5
400.613	100.5
400.837	83.5
401.062	77.5
401.286	84.5
401.51	71.5
401.734	84.5
401.958	97.5
402.182	102.5
402.406	124.5
402.63	107.5
402.854	97.5
403.078	102.5
403.302	85.5
403.526	72.5
403.75	83.5
403.974	87.5
404.198	76.5
404.422	89.5
404.645	93.5
404.869	90.5
405.093	70.5
405.317	98.5
405.541	101.5
405.765	82.5
405.988	103.5
406.212	150.5
406.436	183.5
406.66	134.5
406.883	73.5
407.107	103.5
407.331	103.5
407.555	93.5
407.778	89.5
408.002	97.5
408.226	86.5
408.449	78.5
408.673	93.5
408.896	82.5
409.12	75.5
409.344	79.5
409.567	76.5
409.791	100.5
410.014	91.5
410.238	95.5
410.461	92.5
410.685	103.5
410.908	105.5
411.132	98.5
411.355	102.5
411.578	90.5
411.802	98.5
412.025	91.5
412.249	93.5
412.472	85.5
412.695	93.5
412.919	84.5
413.142	89.5
413.365	80.5
413.589	94.5
413.812	88.5
414.035	94.5
414.258	92.5
414.482	90.5
414.705	86.5
414.928	103.5
415.151	81.5
415.374	93.5
415.597	90.5
415.821	77.5
416.044	90.5
416.267	94.5
416.49	103.5
416.713	89.5
416.936	108.5
417.159	88.5
417.382	94.5
417.605	92.5
417.828	87.5
418.051	98.5
418.274	78.5
418.497	82.5
418.72	79.5
418.943	83.5
419.166	73.5
419.389	89.5
419.611	94.5
419.834	97.5
420.057	84.5
420.28	89.5
420.503	81.5
420.726	91.5
420.948	94.5
421.171	84.5
421.394	88.5
421.617	101.5
421.839	95.5
422.062	75.5
422.285	90.5
422.507	93.5
422.73	90.5
422.953	96.5
423.175	100.5
423.398	75.5
423.621	67.5
423.843	82.5
424.066	75.5
424.288	99.5
424.511	96.5
424.733	96.5
424.956	102.5
425.178	90.5
425.401	80.5
425.623	91.5
425.846	89.5
426.068	90.5
426.291	96.5
426.513	73.5
426.735	78.5
426.958	92.5
427.18	106.5
427.402	116.5
427.625	138.5
427.847	119.5
428.069	108.5
428.292	87.5
428.514	82.5
428.736	86.5
428.958	77.5
429.181	92.5
429.403	71.5
429.625	86.5
429.847	92.5
430.069	101.5
430.292	101.5
430.514	92.5
430.736	86.5
430.958	91.5
431.18	75.5
431.402	100.5
431.624	97.5
431.846	93.5
432.068	81.5
432.29	88.5
432.512	98.5
432.734	92.5
432.956	83.5
433.178	92.5
433.4	90.5
433.622	93.5
433.844	86.5
434.066	87.5
434.287	87.5
434.509	91.5
434.731	85.5
434.953	77.5
435.175	93.5
435.397	99.5
435.618	77.5
435.84	107.5
436.062	113.5
436.284	95.5
436.505	106.5
436.727	87.5
436.949	90.5
437.17	91.5
437.392	84.5
437.614	97.5
437.835	107.5
438.057	130.5
438.278	108.5
438.5	110.5
438.721	121.5
438.943	90.5
439.165	82.5
439.386	90.5
439.608	97.5
439.829	89.5
440.05	121.5
440.272	112.5
440.493	102.5
440.715	86.5
440.936	69.5
441.158	88.5
441.379	85.5
441.6	81.5
441.822	91.5
442.043	97.5
442.264	104.5
442.486	100.5
442.707	83.5
442.928	89.5
443.149	95.5
443.371	113.5
443.592	89.5
443.813	100.5
444.034	101.5
444.255	86.5
444.476	76.5
444.698	92.5
444.919	94.5
445.14	131.5
445.361	113.5
445.582	114.5
445.803	111.5
446.024	126.5
446.245	121.5
446.466	96.5
446.687	81.5
446.908	101.5
447.129	89.5
447.35	90.5
447.571	100.5
447.792	95.5
448.013	85.5
448.234	109.5
448.455	92.5
448.675	88.5
448.896	109.5
449.117	111.5
449.338	94.5
449.559	103.5
449.779	123.5
450	95.5
450.221	88.5
450.442	100.5
450.662	91.5
450.883	90.5
451.104	104.5
451.324	104.5
451.545	95.5
451.766	79.5
451.986	89.5
452.207	82.5
452.428	91.5
452.648	100.5
452.869	101.5
453.089	107.5
453.31	101.5
453.53	89.5
453.751	100.5
453.971	95.5
454.192	104.5
454.412	87.5
454.633	99.5
454.853	74.5
455.073	78.5
455.294	87.5
455.514	95.5
455.734	94.5
455.955	89.5
456.175	75.5
456.395	87.5
456.616	81.5
456.836	85.5
457.056	78.5
457.276	85.5
457.497	85.5
457.717	94.5
457.937	94.5
458.157	83.5
458.377	79.5
458.598	98.5
458.818	103.5
459.038	114.5
459.258	104.5
459.478	90.5
459.698	68.5
459.918	83.5
460.138	83.5
460.358	74.5
460.578	78.5
460.798	88.5
461.018	81.5
461.238	89.5
461.458	70.5
461.678	83.5
461.898	102.5
462.118	86.5
462.338	68.5
462.558	81.5
462.777	91.5
462.997	78.5
463.217	74.5
463.437	79.5
463.657	88.5
463.876	79.5
464.096	85.5
464.316	91.5
464.536	81.5
464.755	88.5
464.975	90.5
465.195	127.5
465.414	108.5
465.634	85.5
465.854	89.5
466.073	83.5
466.293	97.5
466.512	92.5
466.732	83.5
466.951	78.5
467.171	85.5
467.391	81.5
467.61	95.5
467.829	91.5
468.049	86.5
468.268	88.5
468.488	95.5
468.707	85.5
468.927	78.5
469.146	86.5
469.365	61.5
469.585	77.5
469.804	98.5
470.023	89.5
470.243	106.5
470.462	104.5
470.681	100.5
470.901	98.5
471.12	85.5
471.339	85.5
471.558	87.5
471.777	101.5
471.997	93.5
472.216	101.5
472.435	148.5
472.654	90.5
472.873	105.5
473.092	90.5
473.311	98.5
473.53	93.5
473.749	91.5
473.968	90.5
474.187	92.5
474.406	95.5
474.625	95.5
474.844	82.5
475.063	81.5
475.282	77.5
475.501	100.5
475.72	83.5
475.939	89.5
476.158	109.5
476.377	89.5
476.596	91.5
476.814	88.5
477.033	88.5
477.252	87.5
477.471	104.5
477.69	75.5
477.908	94.5
478.127	91.5
478.346	90.5
478.564	102.5
478.783	94.5
479.002	84.5
479.22	78.5
479.439	88.5
479.658	97.5
479.876	101.5
480.095	75.5
480.313	78.5
480.532	96.5
480.751	77.5
480.969	107.5
481.188	180.5
481.406	148.5
481.624	118.5
481.843	83.5
482.061	85.5
482.28	85.5
482.498	87.5
482.717	89.5
482.935	98.5
483.153	95.5
483.372	85.5
483.59	90.5
483.808	88.5
484.027	93.5
484.245	100.5
484.463	83.5
484.681	103.5
484.9	91.5
485.118	97.5
485.336	95.5
485.554	90.5
485.772	97.5
485.99	116.5
486.209	108.5
486.427	110.5
486.645	111.5
486.863	114.5
487.081	93.5
487.299	96.5
487.517	94.5
487.735	92.5
487.953	76.5
488.171	89.5
488.389	93.5
488.607	88.5
488.825	87.5
489.043	101.5
489.261	105.5
489.479	101.5
489.696	97.5
489.914	87.5
490.132	98.5
490.35	97.5
490.568	85.5
490.786	92.5
491.003	87.5
491.221	93.5
491.439	89.5
491.657	94.5
491.874	103.5
492.092	81.5
492.31	78.5
492.527	99.5
492.745	89.5
492.963	110.5
493.18	84.5
493.398	75.5
493.615	99.5
493.833	89.5
494.05	87.5
494.268	87.5
494.485	78.5
494.703	99.5
494.92	78.5
495.138	94.5
495.355	114.5
495.573	90.5
495.79	89.5
496.008	88.5
496.225	86.5
496.442	81.5
496.66	99.5
496.877	89.5
497.094	101.5
497.312	81.5
497.529	83.5
497.746	87.5
497.963	86.5
498.181	85.5
498.398	84.5
498.615	95.5
498.832	103.5
499.049	89.5
499.267	94.5
499.484	97.5
499.701	89.5
499.918	88.5
500.135	88.5
500.352	94.5
500.569	91.5
500.786	93.5
501.003	92.5
501.22	84.5
501.437	84.5
501.654	94.5
501.871	91.5
502.088	87.5
502.305	89.5
502.522	95.5
502.739	83.5
502.956	99.5
503.172	77.5
503.389	83.5
503.606	107.5
503.823	90.5
504.04	91.5
504.256	108.5
504.473	82.5
504.69	93.5
504.907	87.5
505.123	89.5
505.34	89.5
505.557	82.5
505.773	97.5
505.99	98.5
506.207	84.5
506.423	87.5
506.64	87.5
506.856	85.5
507.073	101.5
507.289	88.5
507.506	87.5
507.722	108.5
507.939	94.5
508.155	89.5
508.372	90.5
508.588	98.5
508.805	100.5
509.021	106.5
509.238	97.5
509.454	99.5
509.67	98.5
509.887	109.5
510.103	119.5
510.319	192.5
510.536	584.5
510.752	1812.5
510.968	520.5
511.184	133.5
511.401	91.5
511.617	103.5
511.833	76.5
512.049	95.5
512.265	124.5
512.481	92.5
512.698	95.5
512.914	95.5
513.13	90.5
513.346	98.5
513.562	84.5
513.778	81.5
513.994	99.5
514.21	94.5
514.426	99.5
514.642	122.5
514.858	112.5
515.074	140.5
515.29	328.5
515.506	1053.5
515.721	385.5
515.937	128.5
516.153	108.5
516.369	96.5
516.585	91.5
516.801	97.5
517.016	105.5
517.232	93.5
517.448	105.5
517.664	97.5
517.879	97.5
518.095	83.5
518.311	90.5
518.527	90.5
518.742	93.5
518.958	85.5
519.173	101.5
519.389	106.5
519.605	85.5
519.82	114.5
520.036	104.5
520.251	111.5
520.467	116.5
520.682	92.5
520.898	86.5
521.113	100.5
521.329	122.5
521.544	166.5
521.76	405.5
521.975	1709.5
522.19	1046.5
522.406	257.5
522.621	120.5
522.836	100.5
523.052	95.5
523.267	101.5
523.482	91.5
523.698	97.5
523.913	110.5
524.128	99.5
524.343	87.5
524.559	107.5
524.774	102.5
524.989	90.5
525.204	99.5
525.419	99.5
525.634	85.5
525.849	93.5
526.064	78.5
526.28	90.5
526.495	99.5
526.71	106.5
526.925	87.5
527.14	95.5
527.355	86.5
527.57	78.5
527.785	93.5
527.999	93.5
528.214	90.5
528.429	81.5
528.644	84.5
528.859	96.5
529.074	97.5
529.289	94.5
529.503	143.5
529.718	102.5
529.933	96.5
530.148	93.5
530.363	95.5
530.577	83.5
530.792	75.5
531.007	92.5
531.221	83.5
531.436	88.5
531.651	99.5
531.865	90.5
532.08	88.5
532.295	86.5
532.509	88.5
532.724	93.5
532.938	87.5
533.153	85.5
533.367	100.5
533.582	101.5
533.796	100.5
534.011	70.5
534.225	81.5
534.44	81.5
534.654	86.5
534.868	92.5
535.083	92.5
535.297	77.5
535.511	103.5
535.726	102.5
535.94	91.5
