Data from Uncirc_1980_H10_HRD10591_00090.txt Node
Date: Wed Jan 03 12:37:13 EST 2024
User: Yrep
Spectrometer: HR+D1059
Trigger mode: 1
Integration Time (sec): 1.000000E-1
Scans to average: 1
Electric dark correction enabled: true
Nonlinearity correction enabled: false
Boxcar width: 0
XAxis mode: Wavelengths
Number of Pixels in Spectrum: 2048
>>>>>Begin Spectral Data<<<<<
223.165	-29.56
223.4	-29.56
223.635	-29.56
223.869	-23.56
224.104	-26.56
224.338	-16.56
224.573	-13.56
224.808	-17.56
225.042	-7.56
225.277	9.44
225.511	-1.56
225.746	-4.56
225.98	25.44
226.215	16.44
226.449	14.44
226.683	14.44
226.918	33.44
227.152	27.44
227.387	39.44
227.621	52.44
227.856	50.44
228.09	37.44
228.324	49.44
228.559	64.44
228.793	77.44
229.027	66.44
229.262	79.44
229.496	82.44
229.73	81.44
229.964	86.44
230.199	57.44
230.433	78.44
230.667	81.44
230.901	89.44
231.136	73.44
231.37	81.44
231.604	81.44
231.838	88.44
232.072	75.44
232.306	97.44
232.541	83.44
232.775	80.44
233.009	86.44
233.243	91.44
233.477	82.44
233.711	101.44
233.945	78.44
234.179	77.44
234.413	66.44
234.647	79.44
234.881	77.44
235.115	87.44
235.349	91.44
235.583	71.44
235.817	81.44
236.051	79.44
236.285	76.44
236.519	89.44
236.753	86.44
236.987	87.44
237.221	79.44
237.455	80.44
237.689	82.44
237.922	86.44
238.156	63.44
238.39	78.44
238.624	79.44
238.858	60.44
239.091	89.44
239.325	87.44
239.559	75.44
239.793	69.44
240.027	80.44
240.26	73.44
240.494	89.44
240.728	82.44
240.961	82.44
241.195	86.44
241.429	87.44
241.662	88.44
241.896	89.44
242.13	93.44
242.363	77.44
242.597	89.44
242.83	85.44
243.064	85.44
243.298	86.44
243.531	75.44
243.765	96.44
243.998	78.44
244.232	76.44
244.465	81.44
244.699	85.44
244.932	89.44
245.166	87.44
245.399	88.44
245.633	95.44
245.866	73.44
246.099	69.44
246.333	88.44
246.566	89.44
246.8	79.44
247.033	70.44
247.266	85.44
247.5	83.44
247.733	90.44
247.966	79.44
248.2	70.44
248.433	76.44
248.666	90.44
248.899	90.44
249.133	79.44
249.366	87.44
249.599	98.44
249.832	95.44
250.066	90.44
250.299	78.44
250.532	75.44
250.765	85.44
250.998	84.44
251.231	87.44
251.465	91.44
251.698	89.44
251.931	85.44
252.164	76.44
252.397	69.44
252.63	88.44
252.863	87.44
253.096	87.44
253.329	88.44
253.562	77.44
253.795	81.44
254.028	81.44
254.261	91.44
254.494	80.44
254.727	87.44
254.96	89.44
255.193	82.44
255.426	77.44
255.659	90.44
255.892	97.44
256.124	89.44
256.357	99.44
256.59	82.44
256.823	79.44
257.056	81.44
257.289	86.44
257.521	77.44
257.754	82.44
257.987	84.44
258.22	96.44
258.452	95.44
258.685	83.44
258.918	91.44
259.151	87.44
259.383	87.44
259.616	83.44
259.849	89.44
260.081	87.44
260.314	96.44
260.547	106.44
260.779	86.44
261.012	96.44
261.244	79.44
261.477	98.44
261.71	90.44
261.942	100.44
262.175	113.44
262.407	91.44
262.64	81.44
262.872	70.44
263.105	95.44
263.337	92.44
263.57	85.44
263.802	87.44
264.035	78.44
264.267	91.44
264.499	76.44
264.732	85.44
264.964	95.44
265.197	83.44
265.429	104.44
265.661	89.44
265.894	86.44
266.126	92.44
266.358	93.44
266.591	79.44
266.823	102.44
267.055	80.44
267.287	95.44
267.52	75.44
267.752	96.44
267.984	91.44
268.216	83.44
268.448	98.44
268.681	89.44
268.913	80.44
269.145	101.44
269.377	81.44
269.609	87.44
269.841	97.44
270.073	94.44
270.306	73.44
270.538	93.44
270.77	85.44
271.002	99.44
271.234	92.44
271.466	97.44
271.698	78.44
271.93	81.44
272.162	83.44
272.394	98.44
272.626	95.44
272.858	86.44
273.09	93.44
273.322	64.44
273.553	88.44
273.785	104.44
274.017	89.44
274.249	99.44
274.481	82.44
274.713	76.44
274.945	85.44
275.176	75.44
275.408	89.44
275.64	94.44
275.872	85.44
276.104	87.44
276.335	93.44
276.567	97.44
276.799	99.44
277.031	92.44
277.262	82.44
277.494	80.44
277.726	90.44
277.957	88.44
278.189	94.44
278.421	102.44
278.652	92.44
278.884	96.44
279.115	79.44
279.347	82.44
279.579	77.44
279.81	81.44
280.042	86.44
280.273	105.44
280.505	102.44
280.736	69.44
280.968	95.44
281.199	85.44
281.431	89.44
281.662	87.44
281.894	93.44
282.125	94.44
282.356	117.44
282.588	125.44
282.819	110.44
283.051	101.44
283.282	65.44
283.513	87.44
283.745	80.44
283.976	85.44
284.207	82.44
284.439	82.44
284.67	102.44
284.901	95.44
285.132	98.44
285.364	82.44
285.595	100.44
285.826	96.44
286.057	91.44
286.288	96.44
286.52	86.44
286.751	93.44
286.982	85.44
287.213	81.44
287.444	97.44
287.675	100.44
287.906	101.44
288.138	79.44
288.369	97.44
288.6	98.44
288.831	97.44
289.062	85.44
289.293	98.44
289.524	77.44
289.755	97.44
289.986	91.44
290.217	83.44
290.448	96.44
290.679	93.44
290.91	101.44
291.141	94.44
291.371	92.44
291.602	97.44
291.833	92.44
292.064	105.44
292.295	85.44
292.526	97.44
292.757	110.44
292.987	94.44
293.218	90.44
293.449	84.44
293.68	85.44
293.91	96.44
294.141	86.44
294.372	90.44
294.603	82.44
294.833	86.44
295.064	91.44
295.295	99.44
295.525	91.44
295.756	95.44
295.987	103.44
296.217	125.44
296.448	112.44
296.679	104.44
296.909	101.44
297.14	80.44
297.37	87.44
297.601	101.44
297.831	109.44
298.062	86.44
298.292	93.44
298.523	97.44
298.753	97.44
298.984	93.44
299.214	82.44
299.445	105.44
299.675	95.44
299.905	99.44
300.136	88.44
300.366	85.44
300.597	100.44
300.827	107.44
301.057	91.44
301.288	98.44
301.518	78.44
301.748	98.44
301.979	99.44
302.209	96.44
302.439	89.44
302.669	97.44
302.9	88.44
303.13	101.44
303.36	102.44
303.59	104.44
303.82	95.44
304.051	82.44
304.281	75.44
304.511	95.44
304.741	89.44
304.971	93.44
305.201	89.44
305.431	95.44
305.661	101.44
305.891	94.44
306.121	101.44
306.352	114.44
306.582	99.44
306.812	98.44
307.042	92.44
307.272	91.44
307.502	103.44
307.731	96.44
307.961	110.44
308.191	91.44
308.421	94.44
308.651	88.44
308.881	97.44
309.111	103.44
309.341	93.44
309.571	92.44
309.8	85.44
310.03	90.44
310.26	101.44
310.49	109.44
310.72	97.44
310.949	102.44
311.179	105.44
311.409	97.44
311.639	91.44
311.868	93.44
312.098	92.44
312.328	91.44
312.557	99.44
312.787	107.44
313.017	105.44
313.246	107.44
313.476	87.44
313.706	105.44
313.935	88.44
314.165	86.44
314.394	110.44
314.624	104.44
314.853	94.44
315.083	97.44
315.312	96.44
315.542	97.44
315.771	80.44
316.001	76.44
316.23	93.44
316.46	101.44
316.689	86.44
316.919	92.44
317.148	91.44
317.377	105.44
317.607	94.44
317.836	95.44
318.065	81.44
318.295	94.44
318.524	97.44
318.753	90.44
318.983	88.44
319.212	111.44
319.441	93.44
319.67	101.44
319.9	104.44
320.129	89.44
320.358	101.44
320.587	89.44
320.816	86.44
321.046	85.44
321.275	120.44
321.504	110.44
321.733	103.44
321.962	94.44
322.191	104.44
322.42	107.44
322.649	111.44
322.878	113.44
323.108	104.44
323.337	122.44
323.566	122.44
323.795	136.44
324.024	166.44
324.253	286.44
324.482	601.44
324.71	1111.44
324.939	1483.44
325.168	565.44
325.397	184.44
325.626	127.44
325.855	95.44
326.084	123.44
326.313	129.44
326.542	125.44
326.77	186.44
326.999	361.44
327.228	662.44
327.457	1135.44
327.686	933.44
327.914	289.44
328.143	158.44
328.372	137.44
328.6	119.44
328.829	121.44
329.058	106.44
329.287	115.44
329.515	101.44
329.744	89.44
329.972	114.44
330.201	101.44
330.43	127.44
330.658	117.44
330.887	113.44
331.115	111.44
331.344	111.44
331.572	97.44
331.801	104.44
332.03	108.44
332.258	92.44
332.486	76.44
332.715	103.44
332.943	98.44
333.172	95.44
333.4	105.44
333.629	111.44
333.857	118.44
334.085	113.44
334.314	105.44
334.542	130.44
334.771	130.44
334.999	109.44
335.227	106.44
335.455	109.44
335.684	93.44
335.912	101.44
336.14	93.44
336.369	102.44
336.597	114.44
336.825	101.44
337.053	95.44
337.281	88.44
337.51	110.44
337.738	91.44
337.966	95.44
338.194	90.44
338.422	100.44
338.65	102.44
338.878	101.44
339.106	90.44
339.334	83.44
339.562	75.44
339.79	82.44
340.018	92.44
340.246	86.44
340.474	75.44
340.702	103.44
340.93	93.44
341.158	91.44
341.386	95.44
341.614	105.44
341.842	87.44
342.07	96.44
342.298	82.44
342.526	95.44
342.754	94.44
342.981	110.44
343.209	98.44
343.437	98.44
343.665	95.44
343.893	101.44
344.12	96.44
344.348	79.44
344.576	91.44
344.804	85.44
345.031	87.44
345.259	112.44
345.487	95.44
345.714	94.44
345.942	81.44
346.17	102.44
346.397	90.44
346.625	95.44
346.853	97.44
347.08	90.44
347.308	89.44
347.535	103.44
347.763	91.44
347.99	97.44
348.218	107.44
348.445	97.44
348.673	108.44
348.9	104.44
349.128	95.44
349.355	97.44
349.583	107.44
349.81	87.44
350.037	99.44
350.265	114.44
350.492	104.44
350.72	98.44
350.947	106.44
351.174	112.44
351.402	99.44
351.629	94.44
351.856	94.44
352.083	71.44
352.311	116.44
352.538	111.44
352.765	120.44
352.992	117.44
353.22	111.44
353.447	109.44
353.674	113.44
353.901	99.44
354.128	86.44
354.355	105.44
354.583	103.44
354.81	95.44
355.037	106.44
355.264	90.44
355.491	94.44
355.718	96.44
355.945	97.44
356.172	83.44
356.399	90.44
356.626	101.44
356.853	94.44
357.08	102.44
357.307	91.44
357.534	89.44
357.761	93.44
357.988	96.44
358.215	83.44
358.441	98.44
358.668	91.44
358.895	97.44
359.122	97.44
359.349	96.44
359.576	101.44
359.802	97.44
360.029	99.44
360.256	104.44
360.483	96.44
360.709	96.44
360.936	106.44
361.163	94.44
361.39	111.44
361.616	98.44
361.843	85.44
362.07	87.44
362.296	93.44
362.523	88.44
362.749	89.44
362.976	92.44
363.203	101.44
363.429	102.44
363.656	95.44
363.882	90.44
364.109	89.44
364.335	96.44
364.562	97.44
364.788	81.44
365.015	95.44
365.241	97.44
365.468	106.44
365.694	94.44
365.92	82.44
366.147	93.44
366.373	85.44
366.599	86.44
366.826	106.44
367.052	97.44
367.278	99.44
367.505	97.44
367.731	97.44
367.957	86.44
368.184	91.44
368.41	99.44
368.636	100.44
368.862	113.44
369.089	97.44
369.315	93.44
369.541	97.44
369.767	91.44
369.993	86.44
370.219	90.44
370.445	86.44
370.672	102.44
370.898	89.44
371.124	79.44
371.35	94.44
371.576	93.44
371.802	75.44
372.028	81.44
372.254	85.44
372.48	85.44
372.706	76.44
372.932	91.44
373.158	89.44
373.384	95.44
373.61	94.44
373.835	98.44
374.061	98.44
374.287	105.44
374.513	91.44
374.739	86.44
374.965	89.44
375.191	87.44
375.416	98.44
375.642	99.44
375.868	97.44
376.094	88.44
376.319	93.44
376.545	85.44
376.771	77.44
376.997	89.44
377.222	96.44
377.448	92.44
377.674	89.44
377.899	95.44
378.125	93.44
378.35	90.44
378.576	90.44
378.802	96.44
379.027	105.44
379.253	111.44
379.478	102.44
379.704	94.44
379.929	98.44
380.155	87.44
380.38	108.44
380.606	99.44
380.831	92.44
381.057	87.44
381.282	94.44
381.507	91.44
381.733	107.44
381.958	82.44
382.184	91.44
382.409	102.44
382.634	108.44
382.86	110.44
383.085	110.44
383.31	95.44
383.535	91.44
383.761	119.44
383.986	99.44
384.211	102.44
384.436	96.44
384.662	95.44
384.887	97.44
385.112	99.44
385.337	105.44
385.562	87.44
385.787	98.44
386.013	112.44
386.238	99.44
386.463	95.44
386.688	103.44
386.913	92.44
387.138	99.44
387.363	102.44
387.588	92.44
387.813	96.44
388.038	103.44
388.263	105.44
388.488	118.44
388.713	96.44
388.938	88.44
389.163	94.44
389.387	104.44
389.612	103.44
389.837	94.44
390.062	95.44
390.287	86.44
390.512	90.44
390.736	106.44
390.961	104.44
391.186	90.44
391.411	106.44
391.636	90.44
391.86	90.44
392.085	102.44
392.31	89.44
392.534	89.44
392.759	104.44
392.984	109.44
393.208	91.44
393.433	95.44
393.658	82.44
393.882	82.44
394.107	82.44
394.331	77.44
394.556	88.44
394.78	108.44
395.005	89.44
395.229	88.44
395.454	94.44
395.678	104.44
395.903	87.44
396.127	81.44
396.352	94.44
396.576	93.44
396.801	80.44
397.025	105.44
397.249	83.44
397.474	96.44
397.698	95.44
397.922	78.44
398.147	86.44
398.371	99.44
398.595	99.44
398.82	97.44
399.044	87.44
399.268	93.44
399.492	90.44
399.717	95.44
399.941	99.44
400.165	99.44
400.389	107.44
400.613	80.44
400.837	103.44
401.062	110.44
401.286	91.44
401.51	89.44
401.734	81.44
401.958	98.44
402.182	121.44
402.406	121.44
402.63	101.44
402.854	93.44
403.078	97.44
403.302	98.44
403.526	96.44
403.75	97.44
403.974	94.44
404.198	85.44
404.422	95.44
404.645	87.44
404.869	85.44
405.093	98.44
405.317	94.44
405.541	96.44
405.765	103.44
405.988	106.44
406.212	125.44
406.436	187.44
406.66	124.44
406.883	102.44
407.107	92.44
407.331	91.44
407.555	93.44
407.778	92.44
408.002	98.44
408.226	94.44
408.449	93.44
408.673	101.44
408.896	90.44
409.12	89.44
409.344	97.44
409.567	89.44
409.791	94.44
410.014	93.44
410.238	108.44
410.461	89.44
410.685	107.44
410.908	91.44
411.132	111.44
411.355	113.44
411.578	103.44
411.802	95.44
412.025	87.44
412.249	94.44
412.472	106.44
412.695	114.44
412.919	101.44
413.142	97.44
413.365	93.44
413.589	98.44
413.812	93.44
414.035	109.44
414.258	86.44
414.482	94.44
414.705	89.44
414.928	99.44
415.151	96.44
415.374	103.44
415.597	95.44
415.821	90.44
416.044	105.44
416.267	75.44
416.49	102.44
416.713	94.44
416.936	94.44
417.159	91.44
417.382	100.44
417.605	87.44
417.828	79.44
418.051	103.44
418.274	81.44
418.497	82.44
418.72	98.44
418.943	88.44
419.166	102.44
419.389	91.44
419.611	86.44
419.834	88.44
420.057	76.44
420.28	80.44
420.503	98.44
420.726	95.44
420.948	96.44
421.171	85.44
421.394	107.44
421.617	88.44
421.839	98.44
422.062	94.44
422.285	87.44
422.507	107.44
422.73	105.44
422.953	82.44
423.175	106.44
423.398	93.44
423.621	100.44
423.843	92.44
424.066	79.44
424.288	95.44
424.511	86.44
424.733	97.44
424.956	96.44
425.178	98.44
425.401	121.44
425.623	89.44
425.846	86.44
426.068	93.44
426.291	93.44
426.513	77.44
426.735	90.44
426.958	98.44
427.18	110.44
427.402	115.44
427.625	140.44
427.847	121.44
428.069	119.44
428.292	87.44
428.514	91.44
428.736	78.44
428.958	85.44
429.181	89.44
429.403	86.44
429.625	79.44
429.847	109.44
430.069	96.44
430.292	82.44
430.514	82.44
430.736	93.44
430.958	86.44
431.18	86.44
431.402	94.44
431.624	79.44
431.846	80.44
432.068	99.44
432.29	83.44
432.512	97.44
432.734	88.44
432.956	79.44
433.178	103.44
433.4	91.44
433.622	102.44
433.844	87.44
434.066	97.44
434.287	99.44
434.509	98.44
434.731	90.44
434.953	93.44
435.175	90.44
435.397	91.44
435.618	91.44
435.84	98.44
436.062	106.44
436.284	113.44
436.505	97.44
436.727	93.44
436.949	93.44
437.17	79.44
437.392	91.44
437.614	104.44
437.835	98.44
438.057	104.44
438.278	102.44
438.5	104.44
438.721	105.44
438.943	112.44
439.165	82.44
439.386	82.44
439.608	97.44
439.829	99.44
440.05	118.44
440.272	133.44
440.493	90.44
440.715	89.44
440.936	95.44
441.158	76.44
441.379	85.44
441.6	93.44
441.822	97.44
442.043	85.44
442.264	97.44
442.486	82.44
442.707	90.44
442.928	89.44
443.149	100.44
443.371	105.44
443.592	103.44
443.813	103.44
444.034	90.44
444.255	105.44
444.476	98.44
444.698	81.44
444.919	97.44
445.14	139.44
445.361	110.44
445.582	123.44
445.803	131.44
446.024	105.44
446.245	112.44
446.466	87.44
446.687	91.44
446.908	99.44
447.129	89.44
447.35	90.44
447.571	105.44
447.792	98.44
448.013	103.44
448.234	95.44
448.455	98.44
448.675	108.44
448.896	106.44
449.117	108.44
449.338	113.44
449.559	104.44
449.779	115.44
450	96.44
450.221	93.44
450.442	94.44
450.662	86.44
450.883	106.44
451.104	112.44
451.324	104.44
451.545	97.44
451.766	90.44
451.986	87.44
452.207	77.44
452.428	88.44
452.648	94.44
452.869	93.44
453.089	103.44
453.31	96.44
453.53	91.44
453.751	99.44
453.971	90.44
454.192	86.44
454.412	102.44
454.633	99.44
454.853	82.44
455.073	79.44
455.294	82.44
455.514	82.44
455.734	73.44
455.955	82.44
456.175	95.44
456.395	101.44
456.616	92.44
456.836	91.44
457.056	95.44
457.276	106.44
457.497	85.44
457.717	77.44
457.937	96.44
458.157	98.44
458.377	82.44
458.598	106.44
458.818	107.44
459.038	118.44
459.258	106.44
459.478	88.44
459.698	82.44
459.918	100.44
460.138	98.44
460.358	75.44
460.578	99.44
460.798	87.44
461.018	95.44
461.238	86.44
461.458	98.44
461.678	80.44
461.898	90.44
462.118	93.44
462.338	91.44
462.558	81.44
462.777	92.44
462.997	87.44
463.217	86.44
463.437	85.44
463.657	85.44
463.876	92.44
464.096	81.44
464.316	110.44
464.536	87.44
464.755	93.44
464.975	110.44
465.195	136.44
465.414	132.44
465.634	112.44
465.854	86.44
466.073	93.44
466.293	91.44
466.512	81.44
466.732	87.44
466.951	85.44
467.171	96.44
467.391	105.44
467.61	88.44
467.829	94.44
468.049	116.44
468.268	98.44
468.488	83.44
468.707	75.44
468.927	81.44
469.146	99.44
469.365	80.44
469.585	102.44
469.804	93.44
470.023	85.44
470.243	92.44
470.462	101.44
470.681	92.44
470.901	103.44
471.12	90.44
471.339	85.44
471.558	95.44
471.777	82.44
471.997	88.44
472.216	125.44
472.435	132.44
472.654	94.44
472.873	96.44
473.092	88.44
473.311	89.44
473.53	78.44
473.749	100.44
473.968	96.44
474.187	111.44
474.406	87.44
474.625	104.44
474.844	93.44
475.063	92.44
475.282	104.44
475.501	82.44
475.72	102.44
475.939	80.44
476.158	99.44
476.377	81.44
476.596	85.44
476.814	78.44
477.033	74.44
477.252	87.44
477.471	92.44
477.69	88.44
477.908	93.44
478.127	77.44
478.346	86.44
478.564	88.44
478.783	94.44
479.002	82.44
479.22	81.44
479.439	93.44
479.658	97.44
479.876	95.44
480.095	82.44
480.313	91.44
480.532	107.44
480.751	104.44
480.969	103.44
481.188	173.44
481.406	142.44
481.624	87.44
481.843	81.44
482.061	92.44
482.28	95.44
482.498	75.44
482.717	97.44
482.935	96.44
483.153	90.44
483.372	91.44
483.59	95.44
483.808	101.44
484.027	91.44
484.245	98.44
484.463	98.44
484.681	102.44
484.9	102.44
485.118	88.44
485.336	92.44
485.554	111.44
485.772	95.44
485.99	112.44
486.209	105.44
486.427	115.44
486.645	114.44
486.863	112.44
487.081	94.44
487.299	94.44
487.517	92.44
487.735	55.44
487.953	105.44
488.171	87.44
488.389	95.44
488.607	94.44
488.825	106.44
489.043	97.44
489.261	99.44
489.479	90.44
489.696	104.44
489.914	100.44
490.132	95.44
490.35	90.44
490.568	89.44
490.786	94.44
491.003	91.44
491.221	90.44
491.439	104.44
491.657	85.44
491.874	97.44
492.092	92.44
492.31	95.44
492.527	89.44
492.745	98.44
492.963	104.44
493.18	86.44
493.398	105.44
493.615	97.44
493.833	96.44
494.05	93.44
494.268	81.44
494.485	98.44
494.703	95.44
494.92	89.44
495.138	96.44
495.355	95.44
495.573	79.44
495.79	89.44
496.008	89.44
496.225	95.44
496.442	83.44
496.66	89.44
496.877	103.44
497.094	94.44
497.312	102.44
497.529	93.44
497.746	96.44
497.963	80.44
498.181	91.44
498.398	93.44
498.615	108.44
498.832	94.44
499.049	89.44
499.267	77.44
499.484	97.44
499.701	96.44
499.918	93.44
500.135	86.44
500.352	96.44
500.569	88.44
500.786	92.44
501.003	104.44
501.22	87.44
501.437	100.44
501.654	86.44
501.871	99.44
502.088	89.44
502.305	96.44
502.522	75.44
502.739	93.44
502.956	75.44
503.172	93.44
503.389	98.44
503.606	86.44
503.823	97.44
504.04	103.44
504.256	82.44
504.473	90.44
504.69	78.44
504.907	85.44
505.123	93.44
505.34	94.44
505.557	92.44
505.773	85.44
505.99	85.44
506.207	73.44
506.423	106.44
506.64	99.44
506.856	88.44
507.073	97.44
507.289	104.44
507.506	112.44
507.722	101.44
507.939	101.44
508.155	111.44
508.372	97.44
508.588	95.44
508.805	83.44
509.021	98.44
509.238	91.44
509.454	107.44
509.67	103.44
509.887	109.44
510.103	107.44
510.319	203.44
510.536	597.44
510.752	1770.44
510.968	500.44
511.184	129.44
511.401	99.44
511.617	90.44
511.833	101.44
512.049	95.44
512.265	106.44
512.481	99.44
512.698	81.44
512.914	95.44
513.13	96.44
513.346	84.44
513.562	95.44
513.778	96.44
513.994	107.44
514.21	97.44
514.426	105.44
514.642	125.44
514.858	122.44
515.074	135.44
515.29	335.44
