Data from Uncirc_1980_H10_HRD10591_00004.txt Node
Date: Wed Jan 03 12:36:56 EST 2024
User: Yrep
Spectrometer: HR+D1059
Trigger mode: 1
Integration Time (sec): 1.000000E-1
Scans to average: 1
Electric dark correction enabled: true
Nonlinearity correction enabled: false
Boxcar width: 0
XAxis mode: Wavelengths
Number of Pixels in Spectrum: 2048
>>>>>Begin Spectral Data<<<<<
223.165	-19.56
223.4	-19.56
223.635	-19.56
223.869	-4.56
224.104	-14.56
224.338	-22.56
224.573	-19.56
224.808	-17.56
225.042	-6.56
225.277	-1.56
225.511	-1.56
225.746	-1.56
225.98	19.44
226.215	9.44
226.449	4.44
226.683	18.44
226.918	28.44
227.152	29.44
227.387	30.44
227.621	33.44
227.856	19.44
228.09	48.44
228.324	66.44
228.559	58.44
228.793	66.44
229.027	60.44
229.262	74.44
229.496	70.44
229.73	98.44
229.964	67.44
230.199	67.44
230.433	80.44
230.667	85.44
230.901	82.44
231.136	67.44
231.37	85.44
231.604	78.44
231.838	71.44
232.072	74.44
232.306	85.44
232.541	73.44
232.775	84.44
233.009	86.44
233.243	77.44
233.477	89.44
233.711	93.44
233.945	81.44
234.179	87.44
234.413	93.44
234.647	90.44
234.881	77.44
235.115	70.44
235.349	74.44
235.583	77.44
235.817	69.44
236.051	73.44
236.285	74.44
236.519	69.44
236.753	89.44
236.987	72.44
237.221	96.44
237.455	85.44
237.689	76.44
237.922	77.44
238.156	77.44
238.39	84.44
238.624	73.44
238.858	55.44
239.091	73.44
239.325	87.44
239.559	84.44
239.793	80.44
240.027	70.44
240.26	77.44
240.494	74.44
240.728	72.44
240.961	76.44
241.195	74.44
241.429	87.44
241.662	81.44
241.896	70.44
242.13	74.44
242.363	74.44
242.597	78.44
242.83	87.44
243.064	83.44
243.298	82.44
243.531	86.44
243.765	77.44
243.998	67.44
244.232	73.44
244.465	71.44
244.699	89.44
244.932	71.44
245.166	87.44
245.399	72.44
245.633	79.44
245.866	83.44
246.099	75.44
246.333	72.44
246.566	83.44
246.8	81.44
247.033	79.44
247.266	94.44
247.5	88.44
247.733	77.44
247.966	77.44
248.2	78.44
248.433	74.44
248.666	83.44
248.899	74.44
249.133	89.44
249.366	85.44
249.599	85.44
249.832	69.44
250.066	74.44
250.299	83.44
250.532	89.44
250.765	75.44
250.998	82.44
251.231	70.44
251.465	88.44
251.698	63.44
251.931	74.44
252.164	81.44
252.397	77.44
252.63	88.44
252.863	76.44
253.096	83.44
253.329	74.44
253.562	82.44
253.795	76.44
254.028	65.44
254.261	82.44
254.494	79.44
254.727	84.44
254.96	83.44
255.193	73.44
255.426	86.44
255.659	73.44
255.892	97.44
256.124	85.44
256.357	79.44
256.59	70.44
256.823	74.44
257.056	85.44
257.289	74.44
257.521	79.44
257.754	72.44
257.987	75.44
258.22	85.44
258.452	69.44
258.685	79.44
258.918	88.44
259.151	91.44
259.383	76.44
259.616	85.44
259.849	84.44
260.081	85.44
260.314	81.44
260.547	84.44
260.779	82.44
261.012	97.44
261.244	78.44
261.477	92.44
261.71	90.44
261.942	89.44
262.175	112.44
262.407	92.44
262.64	76.44
262.872	89.44
263.105	82.44
263.337	78.44
263.57	95.44
263.802	91.44
264.035	94.44
264.267	88.44
264.499	88.44
264.732	77.44
264.964	83.44
265.197	96.44
265.429	73.44
265.661	87.44
265.894	81.44
266.126	65.44
266.358	74.44
266.591	71.44
266.823	94.44
267.055	82.44
267.287	79.44
267.52	67.44
267.752	82.44
267.984	81.44
268.216	81.44
268.448	89.44
268.681	81.44
268.913	83.44
269.145	94.44
269.377	85.44
269.609	90.44
269.841	93.44
270.073	87.44
270.306	63.44
270.538	82.44
270.77	78.44
271.002	75.44
271.234	85.44
271.466	103.44
271.698	89.44
271.93	79.44
272.162	75.44
272.394	90.44
272.626	95.44
272.858	70.44
273.09	83.44
273.322	87.44
273.553	90.44
273.785	67.44
274.017	82.44
274.249	93.44
274.481	82.44
274.713	77.44
274.945	97.44
275.176	85.44
275.408	88.44
275.64	94.44
275.872	88.44
276.104	81.44
276.335	85.44
276.567	97.44
276.799	78.44
277.031	91.44
277.262	76.44
277.494	82.44
277.726	83.44
277.957	90.44
278.189	81.44
278.421	94.44
278.652	78.44
278.884	81.44
279.115	88.44
279.347	86.44
279.579	95.44
279.81	81.44
280.042	67.44
280.273	72.44
280.505	91.44
280.736	95.44
280.968	77.44
281.199	85.44
281.431	89.44
281.662	98.44
281.894	95.44
282.125	94.44
282.356	102.44
282.588	114.44
282.819	103.44
283.051	105.44
283.282	89.44
283.513	81.44
283.745	97.44
283.976	83.44
284.207	81.44
284.439	95.44
284.67	97.44
284.901	81.44
285.132	89.44
285.364	101.44
285.595	103.44
285.826	92.44
286.057	93.44
286.288	87.44
286.52	77.44
286.751	92.44
286.982	79.44
287.213	76.44
287.444	103.44
287.675	96.44
287.906	83.44
288.138	95.44
288.369	92.44
288.6	94.44
288.831	87.44
289.062	83.44
289.293	88.44
289.524	84.44
289.755	91.44
289.986	97.44
290.217	99.44
290.448	105.44
290.679	90.44
290.91	95.44
291.141	78.44
291.371	98.44
291.602	83.44
291.833	87.44
292.064	81.44
292.295	82.44
292.526	77.44
292.757	81.44
292.987	91.44
293.218	88.44
293.449	89.44
293.68	88.44
293.91	106.44
294.141	79.44
294.372	97.44
294.603	79.44
294.833	78.44
295.064	98.44
295.295	91.44
295.525	101.44
295.756	110.44
295.987	106.44
296.217	113.44
296.448	103.44
296.679	93.44
296.909	89.44
297.14	78.44
297.37	87.44
297.601	92.44
297.831	90.44
298.062	89.44
298.292	87.44
298.523	68.44
298.753	82.44
298.984	104.44
299.214	87.44
299.445	92.44
299.675	85.44
299.905	85.44
300.136	92.44
300.366	94.44
300.597	87.44
300.827	90.44
301.057	84.44
301.288	92.44
301.518	70.44
301.748	100.44
301.979	99.44
302.209	89.44
302.439	73.44
302.669	94.44
302.9	73.44
303.13	93.44
303.36	97.44
303.59	99.44
303.82	85.44
304.051	87.44
304.281	97.44
304.511	85.44
304.741	102.44
304.971	78.44
305.201	91.44
305.431	99.44
305.661	95.44
305.891	92.44
306.121	91.44
306.352	90.44
306.582	94.44
306.812	81.44
307.042	84.44
307.272	91.44
307.502	100.44
307.731	88.44
307.961	90.44
308.191	85.44
308.421	103.44
308.651	91.44
308.881	79.44
309.111	95.44
309.341	95.44
309.571	89.44
309.8	108.44
310.03	95.44
310.26	87.44
310.49	98.44
310.72	90.44
310.949	84.44
311.179	104.44
311.409	95.44
311.639	97.44
311.868	98.44
312.098	87.44
312.328	82.44
312.557	89.44
312.787	91.44
313.017	87.44
313.246	99.44
313.476	89.44
313.706	78.44
313.935	89.44
314.165	94.44
314.394	87.44
314.624	91.44
314.853	99.44
315.083	72.44
315.312	81.44
315.542	93.44
315.771	93.44
316.001	96.44
316.23	101.44
316.46	86.44
316.689	87.44
316.919	90.44
317.148	100.44
317.377	79.44
317.607	95.44
317.836	94.44
318.065	85.44
318.295	84.44
318.524	90.44
318.753	89.44
318.983	83.44
319.212	84.44
319.441	101.44
319.67	97.44
319.9	101.44
320.129	99.44
320.358	103.44
320.587	81.44
320.816	91.44
321.046	107.44
321.275	70.44
321.504	91.44
321.733	86.44
321.962	87.44
322.191	99.44
322.42	85.44
322.649	95.44
322.878	101.44
323.108	99.44
323.337	106.44
323.566	105.44
323.795	131.44
324.024	158.44
324.253	266.44
324.482	517.44
324.71	1069.44
324.939	1395.44
325.168	538.44
325.397	179.44
325.626	115.44
325.855	106.44
326.084	103.44
326.313	129.44
326.542	132.44
326.77	181.44
326.999	315.44
327.228	631.44
327.457	1118.44
327.686	878.44
327.914	268.44
328.143	154.44
328.372	122.44
328.6	101.44
328.829	97.44
329.058	115.44
329.287	113.44
329.515	94.44
329.744	97.44
329.972	95.44
330.201	114.44
330.43	101.44
330.658	102.44
330.887	108.44
331.115	102.44
331.344	103.44
331.572	95.44
331.801	89.44
332.03	102.44
332.258	89.44
332.486	83.44
332.715	84.44
332.943	86.44
333.172	92.44
333.4	92.44
333.629	82.44
333.857	82.44
334.085	94.44
334.314	103.44
334.542	109.44
334.771	106.44
334.999	114.44
335.227	87.44
335.455	93.44
335.684	98.44
335.912	89.44
336.14	98.44
336.369	90.44
336.597	105.44
336.825	93.44
337.053	81.44
337.281	99.44
337.51	76.44
337.738	85.44
337.966	96.44
338.194	89.44
338.422	85.44
338.65	97.44
338.878	86.44
339.106	81.44
339.334	89.44
339.562	81.44
339.79	108.44
340.018	85.44
340.246	95.44
340.474	89.44
340.702	87.44
340.93	82.44
341.158	79.44
341.386	87.44
341.614	87.44
341.842	97.44
342.07	93.44
342.298	95.44
342.526	101.44
342.754	93.44
342.981	96.44
343.209	90.44
343.437	101.44
343.665	106.44
343.893	81.44
344.12	95.44
344.348	93.44
344.576	87.44
344.804	81.44
345.031	100.44
345.259	103.44
345.487	100.44
345.714	91.44
345.942	99.44
346.17	78.44
346.397	87.44
346.625	84.44
346.853	93.44
347.08	93.44
347.308	95.44
347.535	95.44
347.763	90.44
347.99	94.44
348.218	106.44
348.445	106.44
348.673	92.44
348.9	108.44
349.128	108.44
349.355	92.44
349.583	95.44
349.81	84.44
350.037	93.44
350.265	92.44
350.492	102.44
350.72	72.44
350.947	108.44
351.174	108.44
351.402	93.44
351.629	86.44
351.856	100.44
352.083	96.44
352.311	95.44
352.538	99.44
352.765	111.44
352.992	112.44
353.22	120.44
353.447	103.44
353.674	94.44
353.901	86.44
354.128	85.44
354.355	105.44
354.583	111.44
354.81	106.44
355.037	99.44
355.264	95.44
355.491	94.44
355.718	91.44
355.945	100.44
356.172	98.44
356.399	94.44
356.626	102.44
356.853	102.44
357.08	101.44
357.307	98.44
357.534	92.44
357.761	101.44
357.988	97.44
358.215	120.44
358.441	110.44
358.668	102.44
358.895	113.44
359.122	96.44
359.349	83.44
359.576	88.44
359.802	100.44
360.029	96.44
360.256	98.44
360.483	111.44
360.709	74.44
360.936	91.44
361.163	87.44
361.39	86.44
361.616	98.44
361.843	90.44
362.07	82.44
362.296	89.44
362.523	92.44
362.749	74.44
362.976	95.44
363.203	89.44
363.429	86.44
363.656	98.44
363.882	103.44
364.109	91.44
364.335	92.44
364.562	92.44
364.788	106.44
365.015	91.44
365.241	89.44
365.468	90.44
365.694	97.44
365.92	89.44
366.147	93.44
366.373	97.44
366.599	96.44
366.826	98.44
367.052	81.44
367.278	95.44
367.505	90.44
367.731	104.44
367.957	95.44
368.184	85.44
368.41	100.44
368.636	110.44
368.862	98.44
369.089	82.44
369.315	85.44
369.541	97.44
369.767	108.44
369.993	107.44
370.219	103.44
370.445	87.44
370.672	89.44
370.898	82.44
371.124	81.44
371.35	86.44
371.576	86.44
371.802	95.44
372.028	94.44
372.254	89.44
372.48	82.44
372.706	99.44
372.932	89.44
373.158	73.44
373.384	94.44
373.61	97.44
373.835	93.44
374.061	86.44
374.287	91.44
374.513	85.44
374.739	99.44
374.965	93.44
375.191	82.44
375.416	100.44
375.642	83.44
375.868	93.44
376.094	98.44
376.319	92.44
376.545	101.44
376.771	90.44
376.997	81.44
377.222	89.44
377.448	101.44
377.674	94.44
377.899	93.44
378.125	103.44
378.35	95.44
378.576	94.44
378.802	98.44
379.027	102.44
379.253	103.44
379.478	94.44
379.704	103.44
379.929	103.44
380.155	113.44
380.38	107.44
380.606	125.44
380.831	108.44
381.057	118.44
381.282	99.44
381.507	110.44
381.733	111.44
381.958	145.44
382.184	129.44
382.409	116.44
382.634	127.44
382.86	111.44
383.085	110.44
383.31	126.44
383.535	115.44
383.761	124.44
383.986	123.44
384.211	121.44
384.436	136.44
384.662	122.44
384.887	145.44
385.112	166.44
385.337	147.44
385.562	154.44
385.787	133.44
386.013	153.44
386.238	175.44
386.463	141.44
386.688	170.44
386.913	154.44
387.138	162.44
387.363	141.44
387.588	115.44
387.813	142.44
388.038	143.44
388.263	170.44
388.488	166.44
388.713	107.44
388.938	93.44
389.163	95.44
389.387	80.44
389.612	96.44
389.837	91.44
390.062	96.44
390.287	97.44
390.512	100.44
390.736	74.44
390.961	95.44
391.186	98.44
391.411	93.44
391.636	89.44
391.86	84.44
392.085	84.44
392.31	85.44
392.534	83.44
392.759	87.44
392.984	95.44
393.208	92.44
393.433	86.44
393.658	97.44
393.882	84.44
394.107	83.44
394.331	91.44
394.556	93.44
394.78	74.44
395.005	101.44
395.229	85.44
395.454	95.44
395.678	74.44
395.903	87.44
396.127	83.44
396.352	81.44
396.576	90.44
396.801	97.44
397.025	91.44
397.249	92.44
397.474	93.44
397.698	84.44
397.922	90.44
398.147	85.44
398.371	86.44
398.595	86.44
398.82	81.44
399.044	73.44
399.268	90.44
399.492	90.44
399.717	95.44
399.941	94.44
400.165	88.44
400.389	76.44
400.613	90.44
400.837	85.44
401.062	77.44
401.286	83.44
401.51	83.44
401.734	92.44
401.958	99.44
402.182	113.44
402.406	107.44
402.63	100.44
402.854	86.44
403.078	88.44
403.302	91.44
403.526	91.44
403.75	93.44
403.974	79.44
404.198	96.44
404.422	81.44
404.645	89.44
404.869	97.44
405.093	89.44
405.317	97.44
405.541	86.44
405.765	98.44
405.988	117.44
406.212	158.44
406.436	172.44
406.66	119.44
406.883	96.44
407.107	87.44
407.331	76.44
407.555	90.44
407.778	92.44
408.002	99.44
408.226	81.44
408.449	89.44
408.673	92.44
408.896	86.44
409.12	101.44
409.344	89.44
409.567	87.44
409.791	93.44
410.014	98.44
410.238	94.44
410.461	85.44
410.685	93.44
410.908	89.44
411.132	103.44
411.355	89.44
411.578	94.44
411.802	97.44
412.025	78.44
412.249	89.44
412.472	76.44
412.695	87.44
412.919	95.44
413.142	89.44
413.365	82.44
413.589	78.44
413.812	87.44
414.035	97.44
414.258	91.44
414.482	97.44
414.705	95.44
414.928	99.44
415.151	102.44
415.374	97.44
415.597	99.44
415.821	90.44
416.044	102.44
416.267	88.44
416.49	90.44
416.713	87.44
416.936	93.44
417.159	94.44
417.382	89.44
417.605	100.44
417.828	92.44
418.051	102.44
418.274	97.44
418.497	99.44
418.72	85.44
418.943	76.44
419.166	97.44
419.389	97.44
419.611	91.44
419.834	95.44
420.057	75.44
420.28	77.44
420.503	77.44
420.726	91.44
420.948	76.44
421.171	107.44
421.394	93.44
421.617	102.44
421.839	91.44
422.062	94.44
422.285	92.44
422.507	110.44
422.73	118.44
422.953	92.44
423.175	89.44
423.398	85.44
423.621	81.44
423.843	73.44
424.066	78.44
424.288	93.44
424.511	89.44
424.733	76.44
424.956	89.44
425.178	91.44
425.401	85.44
425.623	77.44
425.846	78.44
426.068	84.44
426.291	93.44
426.513	99.44
426.735	93.44
426.958	90.44
427.18	99.44
427.402	109.44
427.625	113.44
427.847	101.44
428.069	109.44
428.292	92.44
428.514	87.44
428.736	84.44
428.958	83.44
429.181	95.44
429.403	88.44
429.625	99.44
429.847	96.44
430.069	92.44
430.292	88.44
430.514	88.44
430.736	73.44
430.958	66.44
431.18	86.44
431.402	89.44
431.624	96.44
431.846	86.44
432.068	79.44
432.29	81.44
432.512	94.44
432.734	84.44
432.956	88.44
433.178	89.44
433.4	95.44
433.622	97.44
433.844	96.44
434.066	94.44
434.287	73.44
434.509	95.44
434.731	88.44
434.953	86.44
435.175	93.44
435.397	80.44
435.618	100.44
435.84	99.44
436.062	101.44
436.284	106.44
436.505	86.44
436.727	86.44
436.949	82.44
437.17	91.44
437.392	86.44
437.614	103.44
437.835	84.44
438.057	94.44
438.278	111.44
438.5	107.44
438.721	123.44
438.943	102.44
439.165	100.44
439.386	88.44
439.608	95.44
439.829	85.44
440.05	95.44
440.272	129.44
440.493	77.44
440.715	86.44
440.936	83.44
441.158	89.44
441.379	88.44
441.6	77.44
441.822	83.44
442.043	91.44
442.264	96.44
442.486	101.44
442.707	70.44
442.928	87.44
443.149	107.44
443.371	114.44
443.592	108.44
443.813	92.44
444.034	99.44
444.255	101.44
444.476	84.44
444.698	91.44
444.919	84.44
445.14	128.44
445.361	122.44
445.582	105.44
445.803	118.44
446.024	110.44
446.245	114.44
446.466	98.44
446.687	90.44
446.908	91.44
447.129	93.44
447.35	79.44
447.571	92.44
447.792	106.44
448.013	97.44
448.234	94.44
448.455	97.44
448.675	110.44
448.896	93.44
449.117	109.44
449.338	99.44
449.559	105.44
449.779	124.44
450	92.44
450.221	82.44
450.442	93.44
450.662	69.44
450.883	92.44
451.104	101.44
451.324	89.44
451.545	77.44
451.766	94.44
451.986	87.44
452.207	79.44
452.428	90.44
452.648	87.44
452.869	82.44
453.089	109.44
453.31	106.44
453.53	97.44
453.751	94.44
453.971	86.44
454.192	84.44
454.412	95.44
454.633	95.44
454.853	84.44
455.073	84.44
455.294	83.44
455.514	93.44
455.734	81.44
455.955	84.44
456.175	79.44
456.395	72.44
456.616	91.44
456.836	86.44
457.056	86.44
457.276	90.44
457.497	85.44
457.717	85.44
457.937	86.44
458.157	79.44
458.377	72.44
458.598	101.44
458.818	124.44
459.038	120.44
459.258	97.44
459.478	93.44
459.698	72.44
459.918	77.44
460.138	76.44
460.358	91.44
460.578	83.44
460.798	89.44
461.018	85.44
461.238	93.44
461.458	62.44
461.678	80.44
461.898	87.44
462.118	79.44
462.338	89.44
462.558	85.44
462.777	90.44
462.997	81.44
463.217	81.44
463.437	79.44
463.657	84.44
463.876	85.44
464.096	101.44
464.316	87.44
464.536	93.44
464.755	86.44
464.975	81.44
465.195	114.44
465.414	118.44
465.634	81.44
465.854	88.44
466.073	78.44
466.293	85.44
466.512	93.44
466.732	71.44
466.951	93.44
467.171	93.44
467.391	88.44
467.61	91.44
467.829	101.44
468.049	88.44
468.268	99.44
468.488	84.44
468.707	95.44
468.927	73.44
469.146	77.44
469.365	90.44
469.585	97.44
469.804	81.44
470.023	91.44
470.243	78.44
470.462	75.44
470.681	103.44
470.901	76.44
471.12	84.44
471.339	79.44
471.558	71.44
471.777	94.44
471.997	80.44
472.216	115.44
472.435	111.44
472.654	99.44
472.873	70.44
473.092	84.44
473.311	89.44
473.53	90.44
473.749	95.44
473.968	107.44
474.187	100.44
474.406	100.44
474.625	84.44
474.844	101.44
475.063	87.44
475.282	90.44
475.501	70.44
475.72	78.44
475.939	89.44
476.158	87.44
476.377	86.44
476.596	94.44
476.814	92.44
477.033	89.44
477.252	92.44
477.471	77.44
477.69	87.44
477.908	82.44
478.127	75.44
478.346	78.44
478.564	89.44
478.783	92.44
479.002	81.44
479.22	85.44
479.439	78.44
479.658	92.44
479.876	92.44
480.095	85.44
480.313	87.44
480.532	97.44
480.751	75.44
480.969	108.44
481.188	150.44
481.406	106.44
481.624	107.44
481.843	75.44
482.061	103.44
482.28	81.44
482.498	103.44
482.717	88.44
482.935	78.44
483.153	88.44
483.372	85.44
483.59	81.44
483.808	76.44
484.027	96.44
484.245	86.44
484.463	108.44
484.681	89.44
484.9	97.44
485.118	87.44
485.336	93.44
485.554	90.44
485.772	101.44
485.99	106.44
486.209	103.44
486.427	94.44
486.645	124.44
486.863	108.44
487.081	95.44
487.299	95.44
487.517	98.44
487.735	89.44
487.953	104.44
488.171	91.44
488.389	99.44
488.607	90.44
488.825	93.44
489.043	95.44
489.261	76.44
489.479	89.44
489.696	94.44
489.914	86.44
490.132	93.44
490.35	96.44
490.568	105.44
490.786	98.44
491.003	88.44
491.221	89.44
491.439	81.44
491.657	97.44
491.874	93.44
492.092	88.44
492.31	92.44
492.527	101.44
492.745	76.44
492.963	90.44
493.18	98.44
493.398	97.44
493.615	105.44
493.833	91.44
494.05	97.44
494.268	98.44
494.485	94.44
494.703	93.44
494.92	88.44
495.138	97.44
495.355	79.44
495.573	119.44
495.79	109.44
496.008	97.44
496.225	93.44
496.442	84.44
496.66	67.44
496.877	105.44
497.094	79.44
497.312	94.44
497.529	97.44
497.746	83.44
497.963	82.44
498.181	90.44
498.398	84.44
498.615	98.44
498.832	96.44
499.049	85.44
499.267	78.44
499.484	83.44
499.701	85.44
499.918	104.44
500.135	81.44
500.352	74.44
500.569	82.44
500.786	90.44
501.003	88.44
501.22	91.44
501.437	89.44
501.654	87.44
501.871	100.44
502.088	89.44
502.305	89.44
502.522	89.44
502.739	90.44
502.956	97.44
503.172	86.44
503.389	85.44
503.606	108.44
503.823	73.44
504.04	102.44
504.256	97.44
504.473	76.44
504.69	91.44
504.907	92.44
505.123	97.44
505.34	94.44
505.557	105.44
505.773	82.44
505.99	93.44
506.207	94.44
506.423	81.44
506.64	94.44
506.856	83.44
507.073	95.44
507.289	87.44
507.506	98.44
507.722	105.44
507.939	98.44
508.155	89.44
508.372	90.44
508.588	98.44
508.805	82.44
509.021	90.44
509.238	91.44
509.454	83.44
509.67	84.44
509.887	81.44
510.103	117.44
510.319	156.44
510.536	486.44
510.752	1402.44
510.968	415.44
511.184	126.44
511.401	93.44
511.617	91.44
511.833	95.44
512.049	89.44
512.265	85.44
512.481	73.44
512.698	92.44
512.914	89.44
513.13	89.44
513.346	110.44
513.562	92.44
513.778	94.44
513.994	99.44
514.21	100.44
514.426	93.44
514.642	113.44
514.858	118.44
515.074	142.44
515.29	294.44
515.506	837.44
515.721	316.44
515.937	115.44
516.153	97.44
516.369	84.44
