Data from Uncirc_1980_H10_HRD10591_00080.txt Node
Date: Wed Jan 03 12:37:11 EST 2024
User: Yrep
Spectrometer: HR+D1059
Trigger mode: 1
Integration Time (sec): 1.000000E-1
Scans to average: 1
Electric dark correction enabled: true
Nonlinearity correction enabled: false
Boxcar width: 0
XAxis mode: Wavelengths
Number of Pixels in Spectrum: 2048
>>>>>Begin Spectral Data<<<<<
223.165	-9.19
223.4	-9.19
223.635	-9.19
223.869	-10.19
224.104	-27.19
224.338	-21.19
224.573	5.81
224.808	-22.19
225.042	-12.19
225.277	-17.19
225.511	0.81
225.746	13.81
225.98	7.81
226.215	5.81
226.449	11.81
226.683	21.81
226.918	23.81
227.152	27.81
227.387	42.81
227.621	44.81
227.856	43.81
228.09	52.81
228.324	37.81
228.559	54.81
228.793	62.81
229.027	57.81
229.262	54.81
229.496	69.81
229.73	65.81
229.964	63.81
230.199	67.81
230.433	63.81
230.667	73.81
230.901	84.81
231.136	60.81
231.37	71.81
231.604	81.81
231.838	75.81
232.072	72.81
232.306	75.81
232.541	79.81
232.775	89.81
233.009	80.81
233.243	64.81
233.477	74.81
233.711	81.81
233.945	79.81
234.179	70.81
234.413	95.81
234.647	75.81
234.881	60.81
235.115	77.81
235.349	65.81
235.583	74.81
235.817	64.81
236.051	73.81
236.285	80.81
236.519	79.81
236.753	74.81
236.987	96.81
237.221	72.81
237.455	62.81
237.689	77.81
237.922	70.81
238.156	74.81
238.39	74.81
238.624	79.81
238.858	77.81
239.091	72.81
239.325	63.81
239.559	66.81
239.793	82.81
240.027	72.81
240.26	77.81
240.494	72.81
240.728	67.81
240.961	71.81
241.195	74.81
241.429	77.81
241.662	64.81
241.896	68.81
242.13	68.81
242.363	57.81
242.597	62.81
242.83	83.81
243.064	79.81
243.298	63.81
243.531	71.81
243.765	72.81
243.998	72.81
244.232	72.81
244.465	81.81
244.699	81.81
244.932	81.81
245.166	79.81
245.399	70.81
245.633	75.81
245.866	69.81
246.099	63.81
246.333	68.81
246.566	57.81
246.8	65.81
247.033	68.81
247.266	64.81
247.5	81.81
247.733	81.81
247.966	64.81
248.2	68.81
248.433	78.81
248.666	72.81
248.899	71.81
249.133	85.81
249.366	92.81
249.599	90.81
249.832	82.81
250.066	72.81
250.299	83.81
250.532	85.81
250.765	82.81
250.998	68.81
251.231	79.81
251.465	69.81
251.698	75.81
251.931	66.81
252.164	78.81
252.397	75.81
252.63	84.81
252.863	74.81
253.096	74.81
253.329	87.81
253.562	77.81
253.795	65.81
254.028	77.81
254.261	82.81
254.494	79.81
254.727	92.81
254.96	67.81
255.193	72.81
255.426	75.81
255.659	71.81
255.892	68.81
256.124	61.81
256.357	81.81
256.59	71.81
256.823	79.81
257.056	82.81
257.289	78.81
257.521	81.81
257.754	83.81
257.987	65.81
258.22	89.81
258.452	81.81
258.685	86.81
258.918	80.81
259.151	70.81
259.383	74.81
259.616	90.81
259.849	69.81
260.081	84.81
260.314	71.81
260.547	81.81
260.779	68.81
261.012	69.81
261.244	78.81
261.477	78.81
261.71	79.81
261.942	80.81
262.175	88.81
262.407	78.81
262.64	73.81
262.872	72.81
263.105	81.81
263.337	77.81
263.57	71.81
263.802	88.81
264.035	67.81
264.267	101.81
264.499	74.81
264.732	64.81
264.964	84.81
265.197	87.81
265.429	72.81
265.661	82.81
265.894	93.81
266.126	75.81
266.358	79.81
266.591	61.81
266.823	79.81
267.055	81.81
267.287	80.81
267.52	80.81
267.752	77.81
267.984	82.81
268.216	71.81
268.448	72.81
268.681	61.81
268.913	87.81
269.145	93.81
269.377	79.81
269.609	93.81
269.841	83.81
270.073	82.81
270.306	78.81
270.538	84.81
270.77	77.81
271.002	70.81
271.234	79.81
271.466	93.81
271.698	77.81
271.93	90.81
272.162	90.81
272.394	88.81
272.626	83.81
272.858	90.81
273.09	75.81
273.322	69.81
273.553	73.81
273.785	80.81
274.017	73.81
274.249	74.81
274.481	79.81
274.713	78.81
274.945	90.81
275.176	86.81
275.408	90.81
275.64	85.81
275.872	79.81
276.104	81.81
276.335	78.81
276.567	81.81
276.799	93.81
277.031	81.81
277.262	78.81
277.494	77.81
277.726	94.81
277.957	87.81
278.189	78.81
278.421	75.81
278.652	80.81
278.884	89.81
279.115	86.81
279.347	96.81
279.579	89.81
279.81	77.81
280.042	81.81
280.273	86.81
280.505	88.81
280.736	82.81
280.968	81.81
281.199	92.81
281.431	94.81
281.662	77.81
281.894	79.81
282.125	83.81
282.356	100.81
282.588	105.81
282.819	105.81
283.051	87.81
283.282	71.81
283.513	82.81
283.745	83.81
283.976	82.81
284.207	78.81
284.439	82.81
284.67	81.81
284.901	82.81
285.132	87.81
285.364	86.81
285.595	73.81
285.826	77.81
286.057	84.81
286.288	78.81
286.52	78.81
286.751	82.81
286.982	95.81
287.213	96.81
287.444	85.81
287.675	70.81
287.906	84.81
288.138	84.81
288.369	91.81
288.6	79.81
288.831	79.81
289.062	85.81
289.293	86.81
289.524	85.81
289.755	84.81
289.986	84.81
290.217	86.81
290.448	70.81
290.679	79.81
290.91	85.81
291.141	78.81
291.371	71.81
291.602	73.81
291.833	84.81
292.064	60.81
292.295	88.81
292.526	100.81
292.757	94.81
292.987	68.81
293.218	83.81
293.449	87.81
293.68	85.81
293.91	98.81
294.141	79.81
294.372	70.81
294.603	69.81
294.833	68.81
295.064	81.81
295.295	93.81
295.525	85.81
295.756	88.81
295.987	93.81
296.217	116.81
296.448	113.81
296.679	98.81
296.909	90.81
297.14	72.81
297.37	82.81
297.601	72.81
297.831	81.81
298.062	93.81
298.292	74.81
298.523	93.81
298.753	77.81
298.984	72.81
299.214	69.81
299.445	97.81
299.675	90.81
299.905	95.81
300.136	75.81
300.366	87.81
300.597	74.81
300.827	81.81
301.057	91.81
301.288	95.81
301.518	95.81
301.748	84.81
301.979	97.81
302.209	92.81
302.439	73.81
302.669	87.81
302.9	82.81
303.13	80.81
303.36	89.81
303.59	89.81
303.82	81.81
304.051	81.81
304.281	88.81
304.511	94.81
304.741	88.81
304.971	66.81
305.201	85.81
305.431	90.81
305.661	85.81
305.891	89.81
306.121	101.81
306.352	106.81
306.582	101.81
306.812	93.81
307.042	70.81
307.272	83.81
307.502	98.81
307.731	87.81
307.961	91.81
308.191	89.81
308.421	90.81
308.651	74.81
308.881	94.81
309.111	102.81
309.341	94.81
309.571	79.81
309.8	89.81
310.03	88.81
310.26	94.81
310.49	77.81
310.72	96.81
310.949	99.81
311.179	86.81
311.409	88.81
311.639	82.81
311.868	94.81
312.098	92.81
312.328	92.81
312.557	89.81
312.787	84.81
313.017	90.81
313.246	101.81
313.476	100.81
313.706	85.81
313.935	93.81
314.165	87.81
314.394	88.81
314.624	79.81
314.853	91.81
315.083	96.81
315.312	93.81
315.542	86.81
315.771	90.81
316.001	87.81
316.23	95.81
316.46	95.81
316.689	94.81
316.919	95.81
317.148	87.81
317.377	90.81
317.607	96.81
317.836	91.81
318.065	91.81
318.295	90.81
318.524	86.81
318.753	86.81
318.983	71.81
319.212	97.81
319.441	89.81
319.67	104.81
319.9	87.81
320.129	95.81
320.358	97.81
320.587	86.81
320.816	86.81
321.046	81.81
321.275	95.81
321.504	73.81
321.733	96.81
321.962	102.81
322.191	93.81
322.42	97.81
322.649	93.81
322.878	105.81
323.108	92.81
323.337	104.81
323.566	121.81
323.795	125.81
324.024	152.81
324.253	294.81
324.482	571.81
324.71	1201.81
324.939	1553.81
325.168	586.81
325.397	189.81
325.626	130.81
325.855	114.81
326.084	120.81
326.313	122.81
326.542	120.81
326.77	177.81
326.999	338.81
327.228	661.81
327.457	1209.81
327.686	974.81
327.914	278.81
328.143	161.81
328.372	117.81
328.6	111.81
328.829	108.81
329.058	98.81
329.287	112.81
329.515	87.81
329.744	89.81
329.972	97.81
330.201	91.81
330.43	119.81
330.658	114.81
330.887	112.81
331.115	85.81
331.344	97.81
331.572	79.81
331.801	96.81
332.03	100.81
332.258	97.81
332.486	95.81
332.715	99.81
332.943	94.81
333.172	97.81
333.4	86.81
333.629	89.81
333.857	103.81
334.085	101.81
334.314	103.81
334.542	118.81
334.771	120.81
334.999	97.81
335.227	100.81
335.455	86.81
335.684	74.81
335.912	105.81
336.14	84.81
336.369	93.81
336.597	94.81
336.825	94.81
337.053	81.81
337.281	81.81
337.51	73.81
337.738	99.81
337.966	101.81
338.194	90.81
338.422	89.81
338.65	95.81
338.878	92.81
339.106	75.81
339.334	88.81
339.562	85.81
339.79	93.81
340.018	90.81
340.246	95.81
340.474	106.81
340.702	85.81
340.93	85.81
341.158	84.81
341.386	108.81
341.614	96.81
341.842	88.81
342.07	79.81
342.298	98.81
342.526	81.81
342.754	83.81
342.981	86.81
343.209	81.81
343.437	105.81
343.665	80.81
343.893	73.81
344.12	83.81
344.348	74.81
344.576	83.81
344.804	103.81
345.031	96.81
345.259	78.81
345.487	65.81
345.714	81.81
345.942	93.81
346.17	84.81
346.397	89.81
346.625	99.81
346.853	91.81
347.08	97.81
347.308	90.81
347.535	86.81
347.763	101.81
347.99	88.81
348.218	89.81
348.445	90.81
348.673	82.81
348.9	100.81
349.128	87.81
349.355	90.81
349.583	90.81
349.81	86.81
350.037	86.81
350.265	94.81
350.492	101.81
350.72	103.81
350.947	98.81
351.174	99.81
351.402	102.81
351.629	95.81
351.856	98.81
352.083	93.81
352.311	90.81
352.538	93.81
352.765	110.81
352.992	97.81
353.22	105.81
353.447	74.81
353.674	106.81
353.901	99.81
354.128	84.81
354.355	103.81
354.583	98.81
354.81	101.81
355.037	92.81
355.264	81.81
355.491	72.81
355.718	87.81
355.945	90.81
356.172	85.81
356.399	89.81
356.626	83.81
356.853	87.81
357.08	80.81
357.307	88.81
357.534	69.81
357.761	88.81
357.988	82.81
358.215	89.81
358.441	96.81
358.668	91.81
358.895	89.81
359.122	82.81
359.349	79.81
359.576	83.81
359.802	87.81
360.029	95.81
360.256	101.81
360.483	90.81
360.709	84.81
360.936	74.81
361.163	93.81
361.39	93.81
361.616	83.81
361.843	85.81
362.07	77.81
362.296	89.81
362.523	84.81
362.749	86.81
362.976	89.81
363.203	102.81
363.429	85.81
363.656	85.81
363.882	86.81
364.109	90.81
364.335	77.81
364.562	78.81
364.788	88.81
365.015	85.81
365.241	88.81
365.468	102.81
365.694	100.81
365.92	84.81
366.147	87.81
366.373	82.81
366.599	74.81
366.826	79.81
367.052	83.81
367.278	91.81
367.505	81.81
367.731	93.81
367.957	87.81
368.184	79.81
368.41	88.81
368.636	103.81
368.862	107.81
369.089	84.81
369.315	81.81
369.541	87.81
369.767	79.81
369.993	80.81
370.219	81.81
370.445	89.81
370.672	85.81
370.898	77.81
371.124	75.81
371.35	93.81
371.576	90.81
371.802	78.81
372.028	69.81
372.254	101.81
372.48	95.81
372.706	91.81
372.932	93.81
373.158	78.81
373.384	79.81
373.61	83.81
373.835	73.81
374.061	79.81
374.287	71.81
374.513	88.81
374.739	77.81
374.965	93.81
375.191	84.81
375.416	82.81
375.642	73.81
375.868	80.81
376.094	95.81
376.319	82.81
376.545	90.81
376.771	92.81
376.997	84.81
377.222	95.81
377.448	81.81
377.674	69.81
377.899	81.81
378.125	88.81
378.35	97.81
378.576	79.81
378.802	84.81
379.027	88.81
379.253	82.81
379.478	93.81
379.704	87.81
379.929	81.81
380.155	90.81
380.38	95.81
380.606	84.81
380.831	83.81
381.057	81.81
381.282	80.81
381.507	85.81
381.733	85.81
381.958	88.81
382.184	95.81
382.409	85.81
382.634	94.81
382.86	98.81
383.085	100.81
383.31	111.81
383.535	106.81
383.761	86.81
383.986	95.81
384.211	91.81
384.436	101.81
384.662	94.81
384.887	84.81
385.112	89.81
385.337	108.81
385.562	87.81
385.787	92.81
386.013	103.81
386.238	97.81
386.463	97.81
386.688	99.81
386.913	97.81
387.138	94.81
387.363	95.81
387.588	104.81
387.813	102.81
388.038	101.81
388.263	96.81
388.488	93.81
388.713	90.81
388.938	83.81
389.163	96.81
389.387	84.81
389.612	70.81
389.837	77.81
390.062	76.81
390.287	86.81
390.512	87.81
390.736	88.81
390.961	86.81
391.186	74.81
391.411	82.81
391.636	99.81
391.86	82.81
392.085	78.81
392.31	79.81
392.534	78.81
392.759	81.81
392.984	78.81
393.208	79.81
393.433	90.81
393.658	99.81
393.882	77.81
394.107	98.81
394.331	81.81
394.556	86.81
394.78	93.81
395.005	72.81
395.229	67.81
395.454	88.81
395.678	65.81
395.903	85.81
396.127	81.81
396.352	81.81
396.576	81.81
396.801	83.81
397.025	89.81
397.249	88.81
397.474	81.81
397.698	72.81
397.922	67.81
398.147	82.81
398.371	78.81
398.595	74.81
398.82	87.81
399.044	67.81
399.268	95.81
399.492	84.81
399.717	82.81
399.941	97.81
400.165	81.81
400.389	80.81
400.613	96.81
400.837	80.81
401.062	74.81
401.286	80.81
401.51	93.81
401.734	75.81
401.958	83.81
402.182	109.81
402.406	133.81
402.63	106.81
402.854	88.81
403.078	81.81
403.302	66.81
403.526	88.81
403.75	79.81
403.974	78.81
404.198	86.81
404.422	80.81
404.645	79.81
404.869	73.81
405.093	94.81
405.317	106.81
405.541	89.81
405.765	89.81
405.988	96.81
406.212	127.81
406.436	177.81
406.66	113.81
406.883	79.81
407.107	80.81
407.331	79.81
407.555	95.81
407.778	81.81
408.002	89.81
408.226	89.81
408.449	89.81
408.673	83.81
408.896	82.81
409.12	91.81
409.344	83.81
409.567	79.81
409.791	69.81
410.014	82.81
410.238	92.81
410.461	83.81
410.685	90.81
410.908	88.81
411.132	100.81
411.355	91.81
411.578	91.81
411.802	81.81
412.025	78.81
412.249	80.81
412.472	93.81
412.695	66.81
412.919	82.81
413.142	81.81
413.365	72.81
413.589	79.81
413.812	68.81
414.035	84.81
414.258	83.81
414.482	95.81
414.705	95.81
414.928	96.81
415.151	83.81
415.374	82.81
415.597	82.81
415.821	72.81
416.044	85.81
416.267	80.81
416.49	63.81
416.713	73.81
416.936	82.81
417.159	91.81
417.382	78.81
417.605	78.81
417.828	89.81
418.051	83.81
418.274	80.81
418.497	84.81
418.72	73.81
418.943	77.81
419.166	80.81
419.389	70.81
419.611	87.81
419.834	91.81
420.057	90.81
420.28	79.81
420.503	78.81
420.726	89.81
420.948	73.81
421.171	82.81
421.394	87.81
421.617	86.81
421.839	82.81
422.062	82.81
422.285	71.81
422.507	90.81
422.73	95.81
422.953	81.81
423.175	86.81
423.398	80.81
423.621	74.81
423.843	99.81
424.066	79.81
424.288	82.81
424.511	89.81
424.733	94.81
424.956	81.81
425.178	84.81
425.401	91.81
425.623	98.81
425.846	88.81
426.068	89.81
426.291	82.81
426.513	81.81
426.735	86.81
426.958	83.81
427.18	99.81
427.402	120.81
427.625	126.81
427.847	105.81
428.069	97.81
428.292	97.81
428.514	88.81
428.736	79.81
428.958	81.81
429.181	69.81
429.403	83.81
429.625	70.81
429.847	65.81
430.069	90.81
430.292	79.81
430.514	80.81
430.736	84.81
430.958	81.81
431.18	78.81
431.402	84.81
431.624	78.81
431.846	81.81
432.068	86.81
432.29	81.81
432.512	85.81
432.734	79.81
432.956	69.81
433.178	89.81
433.4	94.81
433.622	70.81
433.844	82.81
434.066	84.81
434.287	88.81
434.509	82.81
434.731	88.81
434.953	84.81
435.175	86.81
435.397	77.81
435.618	77.81
435.84	91.81
436.062	114.81
436.284	94.81
436.505	77.81
436.727	96.81
436.949	88.81
437.17	66.81
437.392	69.81
437.614	90.81
437.835	98.81
438.057	115.81
438.278	92.81
438.5	97.81
438.721	103.81
438.943	93.81
439.165	89.81
439.386	90.81
439.608	71.81
439.829	90.81
440.05	102.81
440.272	122.81
440.493	90.81
440.715	73.81
440.936	70.81
441.158	65.81
441.379	95.81
441.6	77.81
441.822	91.81
442.043	100.81
442.264	92.81
442.486	93.81
442.707	71.81
442.928	86.81
443.149	120.81
443.371	116.81
443.592	93.81
443.813	88.81
444.034	80.81
444.255	86.81
444.476	80.81
444.698	85.81
444.919	87.81
445.14	118.81
445.361	110.81
445.582	98.81
445.803	112.81
446.024	118.81
446.245	97.81
446.466	91.81
446.687	81.81
446.908	62.81
447.129	75.81
447.35	85.81
447.571	89.81
447.792	87.81
448.013	100.81
448.234	89.81
448.455	87.81
448.675	110.81
448.896	102.81
449.117	82.81
449.338	96.81
449.559	115.81
449.779	124.81
450	79.81
450.221	83.81
450.442	68.81
450.662	85.81
450.883	81.81
451.104	106.81
451.324	89.81
451.545	77.81
451.766	85.81
451.986	82.81
452.207	81.81
452.428	95.81
452.648	107.81
452.869	115.81
453.089	93.81
453.31	91.81
453.53	90.81
453.751	91.81
453.971	93.81
454.192	86.81
454.412	93.81
454.633	87.81
454.853	74.81
455.073	80.81
455.294	82.81
455.514	94.81
455.734	84.81
455.955	71.81
456.175	73.81
456.395	79.81
456.616	73.81
456.836	81.81
457.056	79.81
457.276	78.81
457.497	80.81
457.717	86.81
457.937	61.81
458.157	73.81
458.377	82.81
458.598	91.81
458.818	110.81
459.038	136.81
459.258	76.81
459.478	81.81
459.698	78.81
459.918	66.81
460.138	89.81
460.358	95.81
460.578	79.81
460.798	95.81
461.018	81.81
461.238	85.81
461.458	83.81
461.678	77.81
461.898	79.81
462.118	85.81
462.338	72.81
462.558	83.81
462.777	86.81
462.997	78.81
463.217	69.81
463.437	98.81
463.657	77.81
463.876	80.81
464.096	83.81
464.316	86.81
464.536	97.81
464.755	98.81
464.975	95.81
465.195	119.81
465.414	141.81
465.634	91.81
465.854	79.81
466.073	85.81
466.293	82.81
466.512	79.81
466.732	74.81
466.951	79.81
467.171	81.81
467.391	90.81
467.61	103.81
467.829	86.81
468.049	100.81
468.268	88.81
468.488	85.81
468.707	89.81
468.927	79.81
469.146	82.81
469.365	71.81
469.585	77.81
469.804	88.81
470.023	91.81
470.243	82.81
470.462	100.81
470.681	89.81
470.901	88.81
471.12	78.81
471.339	97.81
471.558	92.81
471.777	86.81
471.997	75.81
472.216	91.81
472.435	117.81
472.654	89.81
472.873	79.81
473.092	71.81
473.311	93.81
473.53	70.81
473.749	98.81
473.968	89.81
474.187	102.81
474.406	77.81
474.625	72.81
474.844	84.81
475.063	87.81
475.282	81.81
475.501	77.81
475.72	90.81
475.939	82.81
476.158	81.81
476.377	74.81
476.596	81.81
476.814	77.81
477.033	73.81
477.252	82.81
477.471	90.81
477.69	88.81
477.908	81.81
478.127	96.81
478.346	67.81
478.564	83.81
478.783	89.81
479.002	98.81
479.22	84.81
479.439	91.81
479.658	102.81
479.876	97.81
480.095	94.81
480.313	99.81
480.532	86.81
480.751	95.81
480.969	87.81
481.188	175.81
481.406	130.81
481.624	89.81
481.843	86.81
482.061	80.81
482.28	90.81
482.498	84.81
482.717	106.81
482.935	97.81
483.153	72.81
483.372	77.81
483.59	86.81
483.808	84.81
484.027	83.81
484.245	87.81
484.463	94.81
484.681	95.81
484.9	77.81
485.118	90.81
485.336	91.81
485.554	81.81
485.772	84.81
485.99	87.81
486.209	95.81
486.427	89.81
486.645	104.81
486.863	100.81
487.081	97.81
487.299	102.81
487.517	98.81
487.735	90.81
487.953	79.81
488.171	95.81
488.389	89.81
488.607	85.81
488.825	100.81
489.043	76.81
489.261	90.81
489.479	85.81
489.696	87.81
489.914	101.81
490.132	92.81
490.35	75.81
490.568	72.81
490.786	88.81
491.003	70.81
491.221	97.81
491.439	77.81
491.657	90.81
491.874	80.81
492.092	88.81
492.31	106.81
492.527	73.81
492.745	81.81
492.963	87.81
493.18	89.81
493.398	84.81
493.615	92.81
493.833	89.81
494.05	66.81
494.268	83.81
494.485	101.81
494.703	86.81
494.92	83.81
495.138	80.81
495.355	87.81
495.573	90.81
495.79	86.81
496.008	107.81
496.225	91.81
496.442	94.81
496.66	96.81
496.877	84.81
497.094	72.81
497.312	84.81
497.529	85.81
497.746	77.81
497.963	70.81
498.181	97.81
498.398	88.81
498.615	99.81
498.832	85.81
499.049	82.81
499.267	104.81
499.484	61.81
499.701	88.81
499.918	93.81
500.135	87.81
500.352	87.81
500.569	89.81
500.786	74.81
501.003	77.81
501.22	90.81
501.437	92.81
501.654	87.81
501.871	101.81
502.088	91.81
502.305	84.81
502.522	88.81
502.739	81.81
502.956	74.81
503.172	78.81
503.389	81.81
503.606	87.81
503.823	90.81
504.04	93.81
504.256	71.81
504.473	92.81
504.69	87.81
504.907	93.81
505.123	89.81
505.34	72.81
505.557	94.81
505.773	86.81
505.99	81.81
506.207	88.81
506.423	91.81
506.64	69.81
506.856	82.81
507.073	93.81
507.289	87.81
507.506	88.81
507.722	100.81
507.939	88.81
508.155	94.81
508.372	83.81
508.588	82.81
508.805	87.81
509.021	94.81
509.238	99.81
509.454	94.81
509.67	93.81
509.887	93.81
510.103	112.81
510.319	169.81
510.536	525.81
510.752	1675.81
510.968	490.81
511.184	125.81
511.401	91.81
511.617	97.81
511.833	87.81
512.049	91.81
512.265	89.81
512.481	90.81
512.698	82.81
512.914	80.81
513.13	100.81
513.346	91.81
513.562	82.81
513.778	85.81
513.994	90.81
514.21	89.81
514.426	91.81
514.642	106.81
514.858	88.81
515.074	114.81
515.29	317.81
515.506	1006.81
515.721	363.81
515.937	129.81
516.153	93.81
516.369	87.81
516.585	90.81
516.801	94.81
517.016	97.81
517.232	77.81
517.448	87.81
517.664	92.81
517.879	83.81
