Data from Uncirc_1980_H10_HRD10591_00026.txt Node
Date: Wed Jan 03 12:37:00 EST 2024
User: Yrep
Spectrometer: HR+D1059
Trigger mode: 1
Integration Time (sec): 1.000000E-1
Scans to average: 1
Electric dark correction enabled: true
Nonlinearity correction enabled: false
Boxcar width: 0
XAxis mode: Wavelengths
Number of Pixels in Spectrum: 2048
>>>>>Begin Spectral Data<<<<<
223.165	-21.94
223.4	-21.94
223.635	-21.94
223.869	-20.94
224.104	-31.94
224.338	-11.94
224.573	-4.94
224.808	-15.94
225.042	-1.94
225.277	-1.94
225.511	9.06
225.746	2.06
225.98	12.06
226.215	3.06
226.449	15.06
226.683	23.06
226.918	19.06
227.152	28.06
227.387	31.06
227.621	41.06
227.856	36.06
228.09	37.06
228.324	44.06
228.559	41.06
228.793	69.06
229.027	57.06
229.262	75.06
229.496	91.06
229.73	64.06
229.964	63.06
230.199	70.06
230.433	77.06
230.667	74.06
230.901	69.06
231.136	73.06
231.37	81.06
231.604	81.06
231.838	85.06
232.072	80.06
232.306	77.06
232.541	86.06
232.775	83.06
233.009	89.06
233.243	84.06
233.477	70.06
233.711	81.06
233.945	77.06
234.179	75.06
234.413	67.06
234.647	76.06
234.881	81.06
235.115	87.06
235.349	74.06
235.583	72.06
235.817	69.06
236.051	81.06
236.285	83.06
236.519	75.06
236.753	76.06
236.987	73.06
237.221	71.06
237.455	78.06
237.689	67.06
237.922	58.06
238.156	76.06
238.39	61.06
238.624	71.06
238.858	79.06
239.091	67.06
239.325	60.06
239.559	62.06
239.793	75.06
240.027	75.06
240.26	74.06
240.494	80.06
240.728	55.06
240.961	73.06
241.195	74.06
241.429	69.06
241.662	73.06
241.896	82.06
242.13	65.06
242.363	80.06
242.597	82.06
242.83	77.06
243.064	79.06
243.298	65.06
243.531	83.06
243.765	77.06
243.998	75.06
244.232	89.06
244.465	85.06
244.699	81.06
244.932	88.06
245.166	75.06
245.399	76.06
245.633	81.06
245.866	70.06
246.099	73.06
246.333	75.06
246.566	88.06
246.8	85.06
247.033	70.06
247.266	79.06
247.5	79.06
247.733	81.06
247.966	81.06
248.2	88.06
248.433	76.06
248.666	83.06
248.899	83.06
249.133	93.06
249.366	91.06
249.599	69.06
249.832	87.06
250.066	74.06
250.299	77.06
250.532	74.06
250.765	64.06
250.998	79.06
251.231	72.06
251.465	85.06
251.698	71.06
251.931	69.06
252.164	92.06
252.397	86.06
252.63	80.06
252.863	87.06
253.096	71.06
253.329	81.06
253.562	90.06
253.795	93.06
254.028	88.06
254.261	83.06
254.494	83.06
254.727	85.06
254.96	72.06
255.193	75.06
255.426	70.06
255.659	84.06
255.892	76.06
256.124	79.06
256.357	57.06
256.59	79.06
256.823	69.06
257.056	74.06
257.289	72.06
257.521	77.06
257.754	81.06
257.987	97.06
258.22	88.06
258.452	76.06
258.685	90.06
258.918	85.06
259.151	71.06
259.383	82.06
259.616	78.06
259.849	73.06
260.081	83.06
260.314	83.06
260.547	75.06
260.779	75.06
261.012	95.06
261.244	81.06
261.477	81.06
261.71	87.06
261.942	84.06
262.175	97.06
262.407	80.06
262.64	66.06
262.872	84.06
263.105	74.06
263.337	73.06
263.57	83.06
263.802	74.06
264.035	79.06
264.267	75.06
264.499	63.06
264.732	91.06
264.964	75.06
265.197	76.06
265.429	75.06
265.661	81.06
265.894	71.06
266.126	98.06
266.358	100.06
266.591	90.06
266.823	77.06
267.055	82.06
267.287	75.06
267.52	76.06
267.752	74.06
267.984	76.06
268.216	76.06
268.448	75.06
268.681	82.06
268.913	82.06
269.145	95.06
269.377	71.06
269.609	75.06
269.841	88.06
270.073	82.06
270.306	91.06
270.538	71.06
270.77	82.06
271.002	87.06
271.234	85.06
271.466	71.06
271.698	95.06
271.93	92.06
272.162	83.06
272.394	87.06
272.626	96.06
272.858	79.06
273.09	69.06
273.322	83.06
273.553	81.06
273.785	72.06
274.017	79.06
274.249	75.06
274.481	89.06
274.713	87.06
274.945	81.06
275.176	69.06
275.408	87.06
275.64	89.06
275.872	97.06
276.104	82.06
276.335	99.06
276.567	86.06
276.799	119.06
277.031	75.06
277.262	73.06
277.494	87.06
277.726	82.06
277.957	81.06
278.189	97.06
278.421	92.06
278.652	82.06
278.884	79.06
279.115	90.06
279.347	88.06
279.579	93.06
279.81	87.06
280.042	81.06
280.273	92.06
280.505	88.06
280.736	90.06
280.968	86.06
281.199	94.06
281.431	75.06
281.662	83.06
281.894	76.06
282.125	85.06
282.356	107.06
282.588	120.06
282.819	98.06
283.051	95.06
283.282	87.06
283.513	69.06
283.745	93.06
283.976	89.06
284.207	99.06
284.439	92.06
284.67	85.06
284.901	90.06
285.132	76.06
285.364	79.06
285.595	75.06
285.826	71.06
286.057	90.06
286.288	85.06
286.52	80.06
286.751	82.06
286.982	79.06
287.213	85.06
287.444	86.06
287.675	89.06
287.906	80.06
288.138	97.06
288.369	86.06
288.6	101.06
288.831	98.06
289.062	81.06
289.293	89.06
289.524	76.06
289.755	79.06
289.986	73.06
290.217	80.06
290.448	88.06
290.679	82.06
290.91	75.06
291.141	74.06
291.371	103.06
291.602	79.06
291.833	76.06
292.064	88.06
292.295	92.06
292.526	84.06
292.757	89.06
292.987	83.06
293.218	72.06
293.449	101.06
293.68	92.06
293.91	84.06
294.141	92.06
294.372	74.06
294.603	75.06
294.833	79.06
295.064	81.06
295.295	79.06
295.525	96.06
295.756	89.06
295.987	82.06
296.217	115.06
296.448	106.06
296.679	96.06
296.909	82.06
297.14	84.06
297.37	100.06
297.601	97.06
297.831	69.06
298.062	91.06
298.292	69.06
298.523	95.06
298.753	83.06
298.984	94.06
299.214	91.06
299.445	83.06
299.675	92.06
299.905	97.06
300.136	79.06
300.366	84.06
300.597	95.06
300.827	81.06
301.057	97.06
301.288	89.06
301.518	91.06
301.748	76.06
301.979	80.06
302.209	82.06
302.439	92.06
302.669	86.06
302.9	81.06
303.13	81.06
303.36	97.06
303.59	106.06
303.82	90.06
304.051	100.06
304.281	94.06
304.511	106.06
304.741	93.06
304.971	78.06
305.201	87.06
305.431	109.06
305.661	75.06
305.891	68.06
306.121	79.06
306.352	95.06
306.582	88.06
306.812	94.06
307.042	93.06
307.272	87.06
307.502	86.06
307.731	96.06
307.961	87.06
308.191	93.06
308.421	94.06
308.651	93.06
308.881	95.06
309.111	76.06
309.341	81.06
309.571	92.06
309.8	84.06
310.03	96.06
310.26	98.06
310.49	87.06
310.72	94.06
310.949	94.06
311.179	96.06
311.409	93.06
311.639	71.06
311.868	91.06
312.098	83.06
312.328	90.06
312.557	91.06
312.787	100.06
313.017	89.06
313.246	83.06
313.476	83.06
313.706	83.06
313.935	87.06
314.165	85.06
314.394	98.06
314.624	87.06
314.853	84.06
315.083	83.06
315.312	91.06
315.542	81.06
315.771	93.06
316.001	99.06
316.23	82.06
316.46	90.06
316.689	76.06
316.919	88.06
317.148	86.06
317.377	94.06
317.607	86.06
317.836	74.06
318.065	87.06
318.295	85.06
318.524	85.06
318.753	90.06
318.983	91.06
319.212	109.06
319.441	91.06
319.67	103.06
319.9	95.06
320.129	91.06
320.358	94.06
320.587	92.06
320.816	91.06
321.046	99.06
321.275	79.06
321.504	97.06
321.733	102.06
321.962	99.06
322.191	92.06
322.42	104.06
322.649	82.06
322.878	104.06
323.108	102.06
323.337	108.06
323.566	106.06
323.795	109.06
324.024	152.06
324.253	280.06
324.482	574.06
324.71	1116.06
324.939	1459.06
325.168	554.06
325.397	189.06
325.626	132.06
325.855	109.06
326.084	108.06
326.313	129.06
326.542	136.06
326.77	190.06
326.999	327.06
327.228	660.06
327.457	1151.06
327.686	895.06
327.914	268.06
328.143	145.06
328.372	127.06
328.6	121.06
328.829	121.06
329.058	103.06
329.287	107.06
329.515	96.06
329.744	100.06
329.972	97.06
330.201	112.06
330.43	115.06
330.658	118.06
330.887	104.06
331.115	116.06
331.344	95.06
331.572	108.06
331.801	97.06
332.03	96.06
332.258	113.06
332.486	84.06
332.715	91.06
332.943	73.06
333.172	85.06
333.4	85.06
333.629	104.06
333.857	99.06
334.085	115.06
334.314	110.06
334.542	127.06
334.771	104.06
334.999	97.06
335.227	93.06
335.455	89.06
335.684	106.06
335.912	108.06
336.14	96.06
336.369	93.06
336.597	102.06
336.825	92.06
337.053	101.06
337.281	101.06
337.51	94.06
337.738	90.06
337.966	99.06
338.194	97.06
338.422	87.06
338.65	93.06
338.878	82.06
339.106	82.06
339.334	91.06
339.562	90.06
339.79	92.06
340.018	72.06
340.246	95.06
340.474	80.06
340.702	92.06
340.93	76.06
341.158	97.06
341.386	83.06
341.614	90.06
341.842	82.06
342.07	79.06
342.298	88.06
342.526	84.06
342.754	83.06
342.981	96.06
343.209	94.06
343.437	92.06
343.665	89.06
343.893	82.06
344.12	96.06
344.348	85.06
344.576	87.06
344.804	97.06
345.031	83.06
345.259	88.06
345.487	91.06
345.714	89.06
345.942	83.06
346.17	84.06
346.397	83.06
346.625	92.06
346.853	98.06
347.08	80.06
347.308	87.06
347.535	100.06
347.763	103.06
347.99	88.06
348.218	96.06
348.445	101.06
348.673	97.06
348.9	78.06
349.128	96.06
349.355	99.06
349.583	87.06
349.81	92.06
350.037	79.06
350.265	98.06
350.492	82.06
350.72	92.06
350.947	91.06
351.174	104.06
351.402	100.06
351.629	97.06
351.856	97.06
352.083	83.06
352.311	96.06
352.538	94.06
352.765	104.06
352.992	101.06
353.22	106.06
353.447	107.06
353.674	99.06
353.901	102.06
354.128	95.06
354.355	95.06
354.583	89.06
354.81	106.06
355.037	101.06
355.264	87.06
355.491	89.06
355.718	77.06
355.945	114.06
356.172	89.06
356.399	91.06
356.626	87.06
356.853	95.06
357.08	83.06
357.307	104.06
357.534	90.06
357.761	84.06
357.988	88.06
358.215	91.06
358.441	83.06
358.668	99.06
358.895	93.06
359.122	92.06
359.349	74.06
359.576	88.06
359.802	79.06
360.029	97.06
360.256	95.06
360.483	104.06
360.709	81.06
360.936	99.06
361.163	95.06
361.39	93.06
361.616	94.06
361.843	93.06
362.07	89.06
362.296	92.06
362.523	68.06
362.749	92.06
362.976	85.06
363.203	83.06
363.429	93.06
363.656	91.06
363.882	87.06
364.109	86.06
364.335	93.06
364.562	85.06
364.788	90.06
365.015	84.06
365.241	70.06
365.468	97.06
365.694	101.06
365.92	86.06
366.147	84.06
366.373	81.06
366.599	80.06
366.826	82.06
367.052	90.06
367.278	106.06
367.505	99.06
367.731	99.06
367.957	80.06
368.184	93.06
368.41	93.06
368.636	89.06
368.862	109.06
369.089	100.06
369.315	87.06
369.541	82.06
369.767	93.06
369.993	73.06
370.219	68.06
370.445	76.06
370.672	75.06
370.898	86.06
371.124	81.06
371.35	88.06
371.576	87.06
371.802	90.06
372.028	91.06
372.254	90.06
372.48	80.06
372.706	76.06
372.932	85.06
373.158	85.06
373.384	87.06
373.61	99.06
373.835	97.06
374.061	73.06
374.287	83.06
374.513	99.06
374.739	80.06
374.965	90.06
375.191	82.06
375.416	83.06
375.642	99.06
375.868	99.06
376.094	80.06
376.319	84.06
376.545	85.06
376.771	94.06
376.997	82.06
377.222	88.06
377.448	87.06
377.674	93.06
377.899	104.06
378.125	86.06
378.35	92.06
378.576	90.06
378.802	90.06
379.027	83.06
379.253	87.06
379.478	80.06
379.704	95.06
379.929	92.06
380.155	85.06
380.38	91.06
380.606	98.06
380.831	91.06
381.057	99.06
381.282	96.06
381.507	98.06
381.733	96.06
381.958	108.06
382.184	106.06
382.409	107.06
382.634	95.06
382.86	117.06
383.085	99.06
383.31	92.06
383.535	113.06
383.761	97.06
383.986	113.06
384.211	107.06
384.436	94.06
384.662	93.06
384.887	99.06
385.112	123.06
385.337	116.06
385.562	104.06
385.787	114.06
386.013	138.06
386.238	119.06
386.463	105.06
386.688	113.06
386.913	113.06
387.138	105.06
387.363	118.06
387.588	106.06
387.813	88.06
388.038	103.06
388.263	116.06
388.488	113.06
388.713	102.06
388.938	89.06
389.163	88.06
389.387	97.06
389.612	107.06
389.837	86.06
390.062	104.06
390.287	100.06
390.512	87.06
390.736	101.06
390.961	97.06
391.186	105.06
391.411	98.06
391.636	91.06
391.86	86.06
392.085	70.06
392.31	96.06
392.534	83.06
392.759	81.06
392.984	97.06
393.208	78.06
393.433	96.06
393.658	97.06
393.882	82.06
394.107	83.06
394.331	77.06
394.556	66.06
394.78	85.06
395.005	82.06
395.229	74.06
395.454	79.06
395.678	76.06
395.903	109.06
396.127	94.06
396.352	75.06
396.576	88.06
396.801	88.06
397.025	81.06
397.249	86.06
397.474	89.06
397.698	83.06
397.922	88.06
398.147	70.06
398.371	85.06
398.595	95.06
398.82	76.06
399.044	93.06
399.268	93.06
399.492	82.06
399.717	82.06
399.941	87.06
400.165	84.06
400.389	77.06
400.613	87.06
400.837	81.06
401.062	92.06
401.286	87.06
401.51	90.06
401.734	88.06
401.958	83.06
402.182	107.06
402.406	127.06
402.63	91.06
402.854	91.06
403.078	97.06
403.302	95.06
403.526	84.06
403.75	87.06
403.974	83.06
404.198	107.06
404.422	93.06
404.645	72.06
404.869	76.06
405.093	87.06
405.317	91.06
405.541	108.06
405.765	94.06
405.988	99.06
406.212	129.06
406.436	177.06
406.66	121.06
406.883	86.06
407.107	84.06
407.331	97.06
407.555	98.06
407.778	92.06
408.002	87.06
408.226	95.06
408.449	88.06
408.673	74.06
408.896	81.06
409.12	87.06
409.344	74.06
409.567	83.06
409.791	107.06
410.014	98.06
410.238	69.06
410.461	89.06
410.685	97.06
410.908	104.06
411.132	91.06
411.355	82.06
411.578	83.06
411.802	90.06
412.025	86.06
412.249	71.06
412.472	89.06
412.695	99.06
412.919	89.06
413.142	87.06
413.365	93.06
413.589	89.06
413.812	84.06
414.035	98.06
414.258	84.06
414.482	100.06
414.705	92.06
414.928	100.06
415.151	76.06
415.374	111.06
415.597	89.06
415.821	100.06
416.044	95.06
416.267	100.06
416.49	85.06
416.713	107.06
416.936	88.06
417.159	83.06
417.382	81.06
417.605	74.06
417.828	108.06
418.051	90.06
418.274	73.06
418.497	77.06
418.72	88.06
418.943	83.06
419.166	83.06
419.389	94.06
419.611	87.06
419.834	79.06
420.057	82.06
420.28	89.06
420.503	83.06
420.726	79.06
420.948	85.06
421.171	88.06
421.394	76.06
421.617	87.06
421.839	82.06
422.062	81.06
422.285	98.06
422.507	98.06
422.73	89.06
422.953	93.06
423.175	96.06
423.398	93.06
423.621	84.06
423.843	79.06
424.066	97.06
424.288	83.06
424.511	87.06
424.733	96.06
424.956	86.06
425.178	90.06
425.401	87.06
425.623	84.06
425.846	88.06
426.068	90.06
426.291	81.06
426.513	74.06
426.735	91.06
426.958	96.06
427.18	95.06
427.402	107.06
427.625	126.06
427.847	122.06
428.069	97.06
428.292	95.06
428.514	89.06
428.736	83.06
428.958	79.06
429.181	83.06
429.403	90.06
429.625	83.06
429.847	87.06
430.069	92.06
430.292	80.06
430.514	79.06
430.736	83.06
430.958	88.06
431.18	77.06
431.402	74.06
431.624	70.06
431.846	82.06
432.068	69.06
432.29	72.06
432.512	91.06
432.734	92.06
432.956	90.06
433.178	90.06
433.4	99.06
433.622	97.06
433.844	82.06
434.066	100.06
434.287	92.06
434.509	90.06
434.731	95.06
434.953	84.06
435.175	98.06
435.397	86.06
435.618	90.06
435.84	107.06
436.062	107.06
436.284	99.06
436.505	100.06
436.727	95.06
436.949	77.06
437.17	79.06
437.392	74.06
437.614	81.06
437.835	91.06
438.057	102.06
438.278	75.06
438.5	79.06
438.721	98.06
438.943	91.06
439.165	84.06
439.386	84.06
439.608	93.06
439.829	94.06
440.05	88.06
440.272	116.06
440.493	96.06
440.715	91.06
440.936	83.06
441.158	80.06
441.379	88.06
441.6	93.06
441.822	87.06
442.043	83.06
442.264	97.06
442.486	88.06
442.707	74.06
442.928	102.06
443.149	109.06
443.371	123.06
443.592	104.06
443.813	109.06
444.034	77.06
444.255	84.06
444.476	84.06
444.698	72.06
444.919	92.06
445.14	138.06
445.361	114.06
445.582	103.06
445.803	103.06
446.024	116.06
446.245	122.06
446.466	95.06
446.687	83.06
446.908	83.06
447.129	73.06
447.35	67.06
447.571	84.06
447.792	92.06
448.013	95.06
448.234	84.06
448.455	103.06
448.675	85.06
448.896	100.06
449.117	90.06
449.338	98.06
449.559	107.06
449.779	107.06
450	90.06
450.221	89.06
450.442	90.06
450.662	88.06
450.883	95.06
451.104	107.06
451.324	96.06
451.545	74.06
451.766	76.06
451.986	74.06
452.207	73.06
452.428	90.06
452.648	92.06
452.869	98.06
453.089	106.06
453.31	106.06
453.53	78.06
453.751	91.06
453.971	90.06
454.192	89.06
454.412	102.06
454.633	84.06
454.853	92.06
455.073	92.06
455.294	93.06
455.514	103.06
455.734	105.06
455.955	90.06
456.175	83.06
456.395	85.06
456.616	93.06
456.836	98.06
457.056	84.06
457.276	77.06
457.497	81.06
457.717	89.06
457.937	76.06
458.157	86.06
458.377	89.06
458.598	95.06
458.818	118.06
459.038	109.06
459.258	104.06
459.478	83.06
459.698	79.06
459.918	85.06
460.138	92.06
460.358	89.06
460.578	84.06
460.798	80.06
461.018	84.06
461.238	59.06
461.458	85.06
461.678	86.06
461.898	95.06
462.118	89.06
462.338	73.06
462.558	87.06
462.777	73.06
462.997	83.06
463.217	79.06
463.437	67.06
463.657	79.06
463.876	87.06
464.096	87.06
464.316	87.06
464.536	91.06
464.755	83.06
464.975	95.06
465.195	121.06
465.414	117.06
465.634	90.06
465.854	92.06
466.073	93.06
466.293	82.06
466.512	83.06
466.732	80.06
466.951	82.06
467.171	86.06
467.391	86.06
467.61	95.06
467.829	87.06
468.049	96.06
468.268	96.06
468.488	84.06
468.707	86.06
468.927	81.06
469.146	81.06
469.365	83.06
469.585	83.06
469.804	97.06
470.023	91.06
470.243	82.06
470.462	81.06
470.681	83.06
470.901	77.06
471.12	81.06
471.339	87.06
471.558	89.06
471.777	84.06
471.997	88.06
472.216	96.06
472.435	133.06
472.654	93.06
472.873	89.06
473.092	90.06
473.311	86.06
473.53	75.06
473.749	96.06
473.968	97.06
474.187	88.06
474.406	74.06
474.625	92.06
474.844	90.06
475.063	86.06
475.282	81.06
475.501	84.06
475.72	84.06
475.939	80.06
476.158	85.06
476.377	82.06
476.596	69.06
476.814	89.06
477.033	84.06
477.252	86.06
477.471	91.06
477.69	82.06
477.908	97.06
478.127	83.06
478.346	84.06
478.564	70.06
478.783	96.06
479.002	82.06
479.22	91.06
479.439	80.06
479.658	90.06
479.876	96.06
480.095	90.06
480.313	89.06
480.532	85.06
480.751	102.06
480.969	103.06
481.188	162.06
481.406	133.06
481.624	87.06
481.843	83.06
482.061	88.06
482.28	101.06
482.498	85.06
482.717	92.06
482.935	81.06
483.153	84.06
483.372	74.06
483.59	88.06
483.808	90.06
484.027	86.06
484.245	102.06
484.463	94.06
484.681	106.06
484.9	93.06
485.118	80.06
485.336	91.06
485.554	99.06
485.772	97.06
485.99	101.06
486.209	86.06
486.427	92.06
486.645	96.06
486.863	81.06
487.081	90.06
487.299	101.06
487.517	87.06
487.735	90.06
487.953	92.06
488.171	85.06
488.389	94.06
488.607	95.06
488.825	106.06
489.043	90.06
489.261	88.06
489.479	88.06
489.696	86.06
489.914	84.06
490.132	96.06
490.35	98.06
490.568	87.06
490.786	89.06
491.003	85.06
491.221	87.06
491.439	88.06
491.657	85.06
491.874	90.06
492.092	96.06
492.31	103.06
492.527	85.06
492.745	64.06
492.963	100.06
493.18	85.06
493.398	86.06
493.615	91.06
493.833	99.06
494.05	86.06
494.268	84.06
494.485	92.06
494.703	98.06
494.92	108.06
495.138	94.06
495.355	101.06
495.573	88.06
495.79	83.06
496.008	92.06
496.225	88.06
496.442	99.06
496.66	85.06
496.877	94.06
497.094	102.06
497.312	91.06
497.529	73.06
497.746	83.06
497.963	84.06
498.181	82.06
498.398	90.06
498.615	107.06
498.832	94.06
499.049	97.06
499.267	105.06
499.484	70.06
499.701	90.06
499.918	95.06
500.135	82.06
500.352	86.06
500.569	97.06
500.786	85.06
501.003	90.06
501.22	80.06
501.437	87.06
501.654	92.06
501.871	98.06
502.088	86.06
502.305	96.06
502.522	81.06
502.739	97.06
502.956	85.06
503.172	88.06
503.389	81.06
503.606	96.06
503.823	79.06
504.04	86.06
504.256	87.06
504.473	97.06
504.69	84.06
504.907	93.06
505.123	85.06
505.34	89.06
505.557	85.06
505.773	91.06
505.99	92.06
506.207	85.06
506.423	97.06
506.64	99.06
506.856	102.06
507.073	94.06
507.289	89.06
507.506	100.06
507.722	106.06
507.939	99.06
508.155	91.06
508.372	95.06
508.588	80.06
508.805	104.06
509.021	98.06
509.238	97.06
509.454	81.06
509.67	99.06
509.887	101.06
510.103	128.06
510.319	167.06
510.536	575.06
510.752	1630.06
510.968	480.06
511.184	134.06
511.401	87.06
511.617	90.06
511.833	94.06
512.049	83.06
512.265	95.06
512.481	97.06
512.698	88.06
512.914	106.06
513.13	103.06
513.346	79.06
513.562	92.06
513.778	80.06
513.994	93.06
514.21	90.06
514.426	91.06
514.642	107.06
514.858	114.06
515.074	106.06
515.29	299.06
515.506	937.06
515.721	381.06
515.937	128.06
516.153	98.06
516.369	92.06
516.585	76.06
516.801	69.06
517.016	77.06
517.232	92.06
