Data from Uncirc_1980_H10_HRD10591_00060.txt Node
Date: Wed Jan 03 12:37:07 EST 2024
User: Yrep
Spectrometer: HR+D1059
Trigger mode: 1
Integration Time (sec): 1.000000E-1
Scans to average: 1
Electric dark correction enabled: true
Nonlinearity correction enabled: false
Boxcar width: 0
XAxis mode: Wavelengths
Number of Pixels in Spectrum: 2048
>>>>>Begin Spectral Data<<<<<
223.165	-21
223.4	-21
223.635	-21
223.869	-9
224.104	-16
224.338	-9
224.573	-29
224.808	-12
225.042	-8
225.277	-1
225.511	-5
225.746	-1
225.98	13
226.215	-2
226.449	22
226.683	24
226.918	27
227.152	27
227.387	46
227.621	41
227.856	38
228.09	34
228.324	31
228.559	58
228.793	57
229.027	56
229.262	67
229.496	66
229.73	83
229.964	66
230.199	71
230.433	70
230.667	70
230.901	90
231.136	88
231.37	89
231.604	92
231.838	80
232.072	87
232.306	72
232.541	77
232.775	82
233.009	68
233.243	86
233.477	73
233.711	70
233.945	77
234.179	86
234.413	83
234.647	83
234.881	76
235.115	84
235.349	86
235.583	95
235.817	93
236.051	96
236.285	90
236.519	82
236.753	75
236.987	67
237.221	68
237.455	88
237.689	79
237.922	78
238.156	57
238.39	65
238.624	70
238.858	70
239.091	70
239.325	75
239.559	92
239.793	70
240.027	92
240.26	77
240.494	80
240.728	77
240.961	78
241.195	85
241.429	73
241.662	69
241.896	74
242.13	72
242.363	79
242.597	79
242.83	77
243.064	75
243.298	78
243.531	81
243.765	77
243.998	71
244.232	71
244.465	82
244.699	64
244.932	75
245.166	91
245.399	70
245.633	61
245.866	82
246.099	76
246.333	84
246.566	77
246.8	76
247.033	78
247.266	98
247.5	78
247.733	88
247.966	88
248.2	87
248.433	88
248.666	85
248.899	72
249.133	72
249.366	95
249.599	90
249.832	90
250.066	86
250.299	83
250.532	76
250.765	75
250.998	75
251.231	92
251.465	80
251.698	73
251.931	98
252.164	87
252.397	82
252.63	78
252.863	87
253.096	82
253.329	90
253.562	77
253.795	86
254.028	85
254.261	85
254.494	88
254.727	92
254.96	82
255.193	84
255.426	91
255.659	82
255.892	83
256.124	84
256.357	98
256.59	75
256.823	95
257.056	82
257.289	77
257.521	81
257.754	90
257.987	90
258.22	82
258.452	86
258.685	70
258.918	78
259.151	80
259.383	91
259.616	88
259.849	74
260.081	77
260.314	78
260.547	83
260.779	75
261.012	82
261.244	90
261.477	94
261.71	92
261.942	99
262.175	93
262.407	104
262.64	96
262.872	83
263.105	79
263.337	77
263.57	88
263.802	83
264.035	84
264.267	100
264.499	84
264.732	83
264.964	78
265.197	77
265.429	87
265.661	90
265.894	82
266.126	82
266.358	86
266.591	82
266.823	75
267.055	82
267.287	86
267.52	80
267.752	90
267.984	82
268.216	72
268.448	82
268.681	70
268.913	86
269.145	85
269.377	82
269.609	86
269.841	89
270.073	79
270.306	78
270.538	91
270.77	69
271.002	73
271.234	73
271.466	92
271.698	75
271.93	89
272.162	91
272.394	85
272.626	86
272.858	84
273.09	89
273.322	88
273.553	94
273.785	83
274.017	89
274.249	89
274.481	84
274.713	102
274.945	96
275.176	89
275.408	73
275.64	97
275.872	107
276.104	86
276.335	98
276.567	94
276.799	86
277.031	80
277.262	86
277.494	87
277.726	87
277.957	89
278.189	85
278.421	72
278.652	101
278.884	95
279.115	88
279.347	95
279.579	89
279.81	63
280.042	95
280.273	97
280.505	106
280.736	93
280.968	102
281.199	83
281.431	83
281.662	93
281.894	80
282.125	102
282.356	117
282.588	118
282.819	113
283.051	94
283.282	94
283.513	99
283.745	96
283.976	88
284.207	90
284.439	76
284.67	93
284.901	87
285.132	71
285.364	80
285.595	68
285.826	84
286.057	71
286.288	85
286.52	92
286.751	87
286.982	90
287.213	104
287.444	79
287.675	94
287.906	98
288.138	88
288.369	83
288.6	90
288.831	94
289.062	90
289.293	72
289.524	85
289.755	97
289.986	93
290.217	95
290.448	79
290.679	90
290.91	82
291.141	85
291.371	88
291.602	92
291.833	95
292.064	87
292.295	85
292.526	91
292.757	79
292.987	83
293.218	89
293.449	97
293.68	94
293.91	83
294.141	68
294.372	76
294.603	91
294.833	93
295.064	104
295.295	86
295.525	83
295.756	92
295.987	123
296.217	133
296.448	122
296.679	91
296.909	84
297.14	94
297.37	101
297.601	83
297.831	96
298.062	101
298.292	90
298.523	88
298.753	85
298.984	89
299.214	84
299.445	93
299.675	86
299.905	92
300.136	92
300.366	92
300.597	94
300.827	105
301.057	86
301.288	100
301.518	107
301.748	93
301.979	107
302.209	104
302.439	110
302.669	76
302.9	70
303.13	77
303.36	97
303.59	92
303.82	113
304.051	90
304.281	75
304.511	101
304.741	98
304.971	87
305.201	92
305.431	89
305.661	97
305.891	86
306.121	83
306.352	90
306.582	92
306.812	96
307.042	94
307.272	106
307.502	84
307.731	86
307.961	99
308.191	90
308.421	74
308.651	84
308.881	96
309.111	93
309.341	78
309.571	97
309.8	100
310.03	103
310.26	100
310.49	91
310.72	90
310.949	92
311.179	90
311.409	98
311.639	94
311.868	84
312.098	86
312.328	90
312.557	100
312.787	104
313.017	104
313.246	90
313.476	102
313.706	97
313.935	90
314.165	94
314.394	95
314.624	77
314.853	102
315.083	98
315.312	90
315.542	89
315.771	98
316.001	94
316.23	82
316.46	88
316.689	91
316.919	94
317.148	100
317.377	84
317.607	92
317.836	101
318.065	102
318.295	94
318.524	92
318.753	98
318.983	87
319.212	99
319.441	105
319.67	103
319.9	97
320.129	101
320.358	90
320.587	94
320.816	90
321.046	103
321.275	97
321.504	109
321.733	92
321.962	96
322.191	100
322.42	94
322.649	124
322.878	117
323.108	127
323.337	123
323.566	114
323.795	126
324.024	174
324.253	285
324.482	580
324.71	1190
324.939	1566
325.168	601
325.397	201
325.626	130
325.855	114
326.084	121
326.313	123
326.542	142
326.77	203
326.999	340
327.228	679
327.457	1232
327.686	974
327.914	291
328.143	160
328.372	140
328.6	116
328.829	124
329.058	111
329.287	116
329.515	110
329.744	94
329.972	101
330.201	110
330.43	119
330.658	113
330.887	119
331.115	115
331.344	100
331.572	103
331.801	94
332.03	100
332.258	86
332.486	94
332.715	91
332.943	84
333.172	82
333.4	97
333.629	95
333.857	103
334.085	91
334.314	119
334.542	127
334.771	106
334.999	94
335.227	83
335.455	89
335.684	96
335.912	111
336.14	98
336.369	97
336.597	104
336.825	88
337.053	102
337.281	79
337.51	105
337.738	96
337.966	101
338.194	92
338.422	96
338.65	86
338.878	104
339.106	93
339.334	94
339.562	99
339.79	99
340.018	89
340.246	97
340.474	102
340.702	84
340.93	94
341.158	80
341.386	95
341.614	100
341.842	99
342.07	104
342.298	99
342.526	84
342.754	95
342.981	93
343.209	111
343.437	107
343.665	98
343.893	96
344.12	101
344.348	85
344.576	99
344.804	95
345.031	101
345.259	102
345.487	103
345.714	108
345.942	96
346.17	102
346.397	98
346.625	95
346.853	88
347.08	108
347.308	99
347.535	102
347.763	108
347.99	108
348.218	105
348.445	111
348.673	104
348.9	106
349.128	99
349.355	96
349.583	94
349.81	91
350.037	85
350.265	93
350.492	102
350.72	105
350.947	99
351.174	92
351.402	91
351.629	102
351.856	99
352.083	93
352.311	108
352.538	103
352.765	106
352.992	100
353.22	108
353.447	91
353.674	95
353.901	88
354.128	93
354.355	95
354.583	103
354.81	94
355.037	99
355.264	105
355.491	102
355.718	100
355.945	91
356.172	90
356.399	96
356.626	112
356.853	90
357.08	106
357.307	91
357.534	93
357.761	91
357.988	94
358.215	106
358.441	82
358.668	99
358.895	80
359.122	83
359.349	98
359.576	86
359.802	107
360.029	106
360.256	99
360.483	100
360.709	88
360.936	89
361.163	96
361.39	99
361.616	100
361.843	84
362.07	91
362.296	96
362.523	82
362.749	86
362.976	72
363.203	91
363.429	92
363.656	90
363.882	92
364.109	97
364.335	92
364.562	89
364.788	93
365.015	85
365.241	98
365.468	107
365.694	95
365.92	98
366.147	90
366.373	81
366.599	91
366.826	76
367.052	89
367.278	91
367.505	91
367.731	96
367.957	89
368.184	74
368.41	88
368.636	94
368.862	118
369.089	104
369.315	98
369.541	99
369.767	95
369.993	88
370.219	92
370.445	94
370.672	86
370.898	90
371.124	103
371.35	98
371.576	87
371.802	102
372.028	88
372.254	85
372.48	95
372.706	76
372.932	107
373.158	85
373.384	85
373.61	100
373.835	92
374.061	83
374.287	106
374.513	88
374.739	92
374.965	80
375.191	88
375.416	82
375.642	108
375.868	92
376.094	96
376.319	89
376.545	84
376.771	76
376.997	77
377.222	99
377.448	103
377.674	88
377.899	92
378.125	100
378.35	105
378.576	102
378.802	94
379.027	97
379.253	84
379.478	87
379.704	98
379.929	95
380.155	98
380.38	101
380.606	113
380.831	87
381.057	106
381.282	94
381.507	89
381.733	114
381.958	101
382.184	102
382.409	111
382.634	105
382.86	94
383.085	108
383.31	104
383.535	94
383.761	91
383.986	87
384.211	109
384.436	101
384.662	108
384.887	100
385.112	108
385.337	101
385.562	102
385.787	94
386.013	101
386.238	104
386.463	107
386.688	107
386.913	112
387.138	111
387.363	121
387.588	116
387.813	91
388.038	117
388.263	116
388.488	104
388.713	96
388.938	93
389.163	102
389.387	98
389.612	88
389.837	88
390.062	85
390.287	113
390.512	91
390.736	95
390.961	88
391.186	104
391.411	83
391.636	95
391.86	91
392.085	91
392.31	90
392.534	89
392.759	96
392.984	103
393.208	101
393.433	108
393.658	99
393.882	102
394.107	91
394.331	106
394.556	95
394.78	86
395.005	90
395.229	102
395.454	101
395.678	90
395.903	78
396.127	72
396.352	85
396.576	98
396.801	96
397.025	79
397.249	91
397.474	87
397.698	81
397.922	88
398.147	101
398.371	84
398.595	99
398.82	99
399.044	88
399.268	91
399.492	94
399.717	84
399.941	82
400.165	92
400.389	84
400.613	87
400.837	84
401.062	90
401.286	90
401.51	86
401.734	86
401.958	104
402.182	109
402.406	125
402.63	94
402.854	94
403.078	86
403.302	79
403.526	104
403.75	95
403.974	80
404.198	66
404.422	86
404.645	82
404.869	96
405.093	101
405.317	107
405.541	91
405.765	101
405.988	105
406.212	136
406.436	188
406.66	114
406.883	85
407.107	84
407.331	95
407.555	106
407.778	89
408.002	96
408.226	79
408.449	87
408.673	89
408.896	101
409.12	108
409.344	91
409.567	88
409.791	103
410.014	88
410.238	100
410.461	87
410.685	79
410.908	96
411.132	107
411.355	82
411.578	90
411.802	97
412.025	87
412.249	104
412.472	88
412.695	90
412.919	84
413.142	88
413.365	109
413.589	84
413.812	77
414.035	101
414.258	92
414.482	85
414.705	90
414.928	83
415.151	96
415.374	86
415.597	92
415.821	96
416.044	94
416.267	77
416.49	90
416.713	92
416.936	89
417.159	90
417.382	81
417.605	87
417.828	85
418.051	91
418.274	90
418.497	88
418.72	98
418.943	87
419.166	94
419.389	99
419.611	114
419.834	102
420.057	102
420.28	95
420.503	78
420.726	84
420.948	82
421.171	93
421.394	93
421.617	87
421.839	92
422.062	101
422.285	102
422.507	104
422.73	99
422.953	100
423.175	118
423.398	79
423.621	84
423.843	90
424.066	92
424.288	98
424.511	89
424.733	99
424.956	86
425.178	96
425.401	86
425.623	103
425.846	100
426.068	99
426.291	90
426.513	96
426.735	85
426.958	91
427.18	103
427.402	118
427.625	146
427.847	122
428.069	109
428.292	84
428.514	78
428.736	82
428.958	74
429.181	90
429.403	94
429.625	78
429.847	77
430.069	88
430.292	87
430.514	95
430.736	88
430.958	87
431.18	85
431.402	94
431.624	93
431.846	89
432.068	93
432.29	88
432.512	87
432.734	84
432.956	98
433.178	104
433.4	108
433.622	91
433.844	79
434.066	95
434.287	88
434.509	87
434.731	83
434.953	91
435.175	93
435.397	90
435.618	93
435.84	96
436.062	125
436.284	119
436.505	98
436.727	102
436.949	96
437.17	80
437.392	86
437.614	78
437.835	93
438.057	100
438.278	100
438.5	92
438.721	115
438.943	106
439.165	89
439.386	79
439.608	83
439.829	92
440.05	111
440.272	115
440.493	104
440.715	88
440.936	98
441.158	92
441.379	102
441.6	93
441.822	98
442.043	106
442.264	90
442.486	96
442.707	82
442.928	95
443.149	113
443.371	120
443.592	109
443.813	104
444.034	91
444.255	76
444.476	100
444.698	84
444.919	102
445.14	134
445.361	126
445.582	98
445.803	125
446.024	105
446.245	112
446.466	90
446.687	89
446.908	93
447.129	92
447.35	81
447.571	93
447.792	86
448.013	87
448.234	110
448.455	96
448.675	104
448.896	110
449.117	96
449.338	106
449.559	104
449.779	114
450	101
450.221	104
450.442	108
450.662	108
450.883	107
451.104	115
451.324	96
451.545	93
451.766	81
451.986	87
452.207	100
452.428	93
452.648	98
452.869	106
453.089	100
453.31	101
453.53	102
453.751	92
453.971	96
454.192	94
454.412	80
454.633	77
454.853	90
455.073	88
455.294	88
455.514	97
455.734	91
455.955	92
456.175	98
456.395	96
456.616	95
456.836	87
457.056	88
457.276	88
457.497	90
457.717	75
457.937	92
458.157	87
458.377	92
458.598	109
458.818	128
459.038	119
459.258	100
459.478	104
459.698	87
459.918	84
460.138	85
460.358	84
460.578	73
460.798	90
461.018	86
461.238	89
461.458	69
461.678	90
461.898	84
462.118	92
462.338	88
462.558	87
462.777	89
462.997	84
463.217	84
463.437	79
463.657	88
463.876	84
464.096	87
464.316	85
464.536	80
464.755	91
464.975	86
465.195	146
465.414	121
465.634	94
465.854	86
466.073	85
466.293	88
466.512	79
466.732	89
466.951	86
467.171	79
467.391	87
467.61	96
467.829	107
468.049	104
468.268	103
468.488	94
468.707	88
468.927	86
469.146	94
469.365	95
469.585	93
469.804	95
470.023	94
470.243	91
470.462	91
470.681	91
470.901	100
471.12	88
471.339	90
471.558	86
471.777	87
471.997	85
472.216	115
472.435	139
472.654	105
472.873	106
473.092	80
473.311	99
473.53	66
473.749	86
473.968	102
474.187	100
474.406	90
474.625	94
474.844	94
475.063	106
475.282	95
475.501	86
475.72	75
475.939	84
476.158	104
476.377	84
476.596	89
476.814	92
477.033	75
477.252	98
477.471	98
477.69	91
477.908	80
478.127	100
478.346	106
478.564	92
478.783	90
479.002	76
479.22	88
479.439	98
479.658	92
479.876	91
480.095	99
480.313	89
480.532	94
480.751	91
480.969	100
481.188	171
481.406	131
481.624	96
481.843	86
482.061	100
482.28	88
482.498	74
482.717	97
482.935	79
483.153	105
483.372	92
483.59	79
483.808	86
484.027	101
484.245	94
484.463	98
484.681	103
484.9	89
485.118	87
485.336	75
485.554	93
485.772	92
485.99	98
486.209	92
486.427	111
486.645	106
486.863	94
487.081	87
487.299	83
487.517	99
487.735	91
487.953	87
488.171	93
488.389	92
488.607	91
488.825	83
489.043	96
489.261	96
489.479	88
489.696	91
489.914	92
490.132	88
490.35	80
490.568	99
490.786	89
491.003	80
491.221	87
491.439	95
491.657	97
491.874	103
492.092	95
492.31	92
492.527	95
492.745	84
492.963	93
493.18	92
493.398	85
493.615	86
493.833	88
494.05	97
494.268	100
494.485	82
494.703	87
494.92	80
495.138	93
495.355	104
495.573	98
495.79	99
496.008	99
496.225	96
496.442	95
496.66	106
496.877	71
497.094	89
497.312	86
497.529	78
497.746	102
497.963	96
498.181	84
498.398	103
498.615	92
498.832	88
499.049	107
499.267	86
499.484	93
499.701	93
499.918	94
500.135	87
500.352	84
500.569	77
500.786	89
501.003	90
501.22	89
501.437	88
501.654	77
501.871	104
502.088	98
502.305	91
502.522	71
502.739	94
502.956	78
503.172	77
503.389	88
503.606	106
503.823	91
504.04	91
504.256	106
504.473	90
504.69	91
504.907	89
505.123	88
505.34	98
505.557	82
505.773	93
505.99	74
506.207	84
506.423	90
506.64	100
506.856	81
507.073	91
507.289	87
507.506	90
507.722	111
507.939	93
508.155	84
508.372	85
508.588	95
508.805	96
509.021	93
509.238	95
509.454	103
509.67	98
509.887	112
510.103	123
510.319	198
510.536	594
510.752	1805
510.968	522
511.184	141
511.401	114
511.617	99
511.833	86
512.049	91
512.265	74
512.481	92
512.698	88
512.914	85
513.13	88
513.346	90
513.562	86
513.778	75
513.994	92
514.21	101
514.426	119
514.642	101
514.858	101
515.074	141
515.29	330
515.506	1049
515.721	374
515.937	117
516.153	104
516.369	99
516.585	98
516.801	93
517.016	104
517.232	84
517.448	92
517.664	105
517.879	91
518.095	101
518.311	83
518.527	92
518.742	99
518.958	96
519.173	99
519.389	105
519.605	94
519.82	87
520.036	107
520.251	93
520.467	101
520.682	115
520.898	94
521.113	102
521.329	110
521.544	172
521.76	393
521.975	1657
522.19	1000
522.406	230
522.621	108
522.836	96
523.052	99
523.267	92
523.482	107
523.698	101
523.913	105
524.128	102
524.343	97
524.559	89
524.774	85
524.989	87
525.204	104
525.419	98
525.634	90
525.849	92
526.064	81
526.28	90
526.495	91
526.71	78
526.925	100
527.14	89
527.355	95
527.57	90
527.785	97
527.999	88
528.214	98
528.429	88
528.644	90
528.859	64
529.074	98
529.289	112
529.503	139
529.718	103
529.933	90
530.148	84
530.363	117
530.577	90
530.792	101
531.007	89
531.221	96
531.436	92
531.651	88
531.865	87
532.08	91
532.295	101
532.509	82
532.724	90
532.938	90
533.153	95
533.367	103
533.582	90
533.796	100
534.011	95
534.225	84
534.44	87
534.654	86
534.868	95
535.083	103
535.297	98
535.511	117
535.726	108
535.94	98
536.154	88
536.369	100
536.583	82
536.797	100
537.011	88
537.225	91
537.44	93
537.654	96
537.868	98
538.082	76
538.296	95
538.51	96
538.724	84
538.938	84
539.153	89
539.367	90
539.581	105
539.795	86
540.009	97
540.222	96
540.436	93
540.65	83
540.864	84
541.078	102
541.292	92
541.506	85
541.72	83
541.934	88
542.147	91
542.361	85
542.575	78
542.789	95
543.002	86
543.216	95
543.43	92
543.644	101
543.857	90
544.071	86
544.285	94
544.498	99
544.712	90
544.925	89
545.139	88
545.352	103
545.566	88
545.779	92
545.993	92
546.206	75
546.42	88
546.633	104
546.847	104
547.06	93
547.274	77
547.487	87
547.7	102
547.914	90
548.127	85
548.34	98
548.554	104
548.767	88
548.98	100
549.193	82
549.407	84
549.62	87
549.833	77
550.046	78
550.259	103
550.473	75
550.686	86
550.899	77
551.112	80
551.325	82
551.538	88
551.751	79
551.964	82
552.177	91
552.39	98
552.603	88
552.816	93
553.029	99
553.242	80
553.455	86
553.667	95
553.88	105
554.093	87
554.306	92
554.519	104
554.732	98
554.944	91
555.157	100
555.37	89
555.583	86
555.795	87
556.008	91
556.221	82
556.433	91
556.646	85
556.859	82
557.071	103
557.284	106
557.496	84
557.709	91
557.921	107
558.134	94
558.346	93
558.559	83
558.771	82
558.984	90
559.196	91
559.409	93
559.621	87
559.833	76
560.046	67
560.258	80
560.47	75
560.683	93
560.895	93
561.107	95
561.32	100
561.532	87
561.744	91
561.956	87
562.168	105
562.381	85
562.593	83
562.805	70
563.017	84
563.229	87
563.441	71
563.653	91
563.865	90
564.077	84
564.289	88
564.501	86
564.713	107
564.925	92
565.137	89
565.349	93
565.561	107
565.773	98
565.985	94
566.197	96
566.408	86
566.62	86
566.832	79
567.044	82
567.255	80
567.467	93
567.679	93
567.891	81
568.102	83
568.314	93
568.526	69
568.737	89
568.949	96
569.161	78
569.372	78
569.584	90
569.795	106
570.007	113
570.218	204
570.43	127
570.641	89
570.853	92
571.064	99
571.276	106
571.487	89
571.698	91
571.91	84
572.121	106
572.333	98
572.544	79
572.755	92
572.966	98
573.178	104
573.389	91
573.6	88
573.811	95
574.023	86
574.234	77
574.445	90
574.656	95
574.867	77
575.078	99
575.289	95
575.501	95
575.712	88
575.923	83
576.134	70
576.345	86
576.556	99
576.767	82
576.978	90
577.188	101
577.399	86
577.61	81
577.821	94
578.032	117
578.243	235
578.454	587
578.665	184
578.875	110
579.086	104
579.297	76
579.508	88
579.718	92
579.929	106
580.14	79
580.35	98
580.561	103
580.772	80
580.982	90
581.193	81
581.403	93
581.614	87
581.825	103
582.035	86
582.246	84
582.456	85
582.667	93
582.877	78
583.087	85
583.298	100
583.508	90
583.719	90
583.929	80
