Data from Uncirc_1980_H10_HRD10591_00096.txt Node
Date: Wed Jan 03 12:37:14 EST 2024
User: Yrep
Spectrometer: HR+D1059
Trigger mode: 1
Integration Time (sec): 1.000000E-1
Scans to average: 1
Electric dark correction enabled: true
Nonlinearity correction enabled: false
Boxcar width: 0
XAxis mode: Wavelengths
Number of Pixels in Spectrum: 2048
>>>>>Begin Spectral Data<<<<<
223.165	-14.56
223.4	-14.56
223.635	-14.56
223.869	-19.56
224.104	-12.56
224.338	-12.56
224.573	-23.56
224.808	-17.56
225.042	-16.56
225.277	-12.56
225.511	-4.56
225.746	-0.56
225.98	0.44
226.215	27.44
226.449	19.44
226.683	12.44
226.918	39.44
227.152	35.44
227.387	37.44
227.621	42.44
227.856	36.44
228.09	52.44
228.324	43.44
228.559	45.44
228.793	55.44
229.027	60.44
229.262	81.44
229.496	65.44
229.73	86.44
229.964	89.44
230.199	66.44
230.433	73.44
230.667	68.44
230.901	70.44
231.136	77.44
231.37	73.44
231.604	74.44
231.838	70.44
232.072	84.44
232.306	81.44
232.541	64.44
232.775	68.44
233.009	82.44
233.243	72.44
233.477	75.44
233.711	85.44
233.945	74.44
234.179	58.44
234.413	74.44
234.647	92.44
234.881	82.44
235.115	77.44
235.349	79.44
235.583	89.44
235.817	101.44
236.051	97.44
236.285	75.44
236.519	84.44
236.753	81.44
236.987	75.44
237.221	75.44
237.455	60.44
237.689	72.44
237.922	65.44
238.156	69.44
238.39	80.44
238.624	64.44
238.858	69.44
239.091	67.44
239.325	82.44
239.559	69.44
239.793	93.44
240.027	85.44
240.26	85.44
240.494	84.44
240.728	76.44
240.961	74.44
241.195	69.44
241.429	65.44
241.662	58.44
241.896	70.44
242.13	60.44
242.363	75.44
242.597	73.44
242.83	72.44
243.064	73.44
243.298	81.44
243.531	74.44
243.765	71.44
243.998	69.44
244.232	80.44
244.465	79.44
244.699	65.44
244.932	84.44
245.166	77.44
245.399	76.44
245.633	65.44
245.866	58.44
246.099	79.44
246.333	73.44
246.566	67.44
246.8	60.44
247.033	71.44
247.266	74.44
247.5	77.44
247.733	79.44
247.966	69.44
248.2	74.44
248.433	76.44
248.666	96.44
248.899	97.44
249.133	95.44
249.366	96.44
249.599	101.44
249.832	76.44
250.066	81.44
250.299	74.44
250.532	83.44
250.765	77.44
250.998	83.44
251.231	72.44
251.465	90.44
251.698	80.44
251.931	98.44
252.164	75.44
252.397	91.44
252.63	81.44
252.863	81.44
253.096	72.44
253.329	60.44
253.562	74.44
253.795	81.44
254.028	91.44
254.261	98.44
254.494	79.44
254.727	79.44
254.96	76.44
255.193	94.44
255.426	75.44
255.659	75.44
255.892	90.44
256.124	77.44
256.357	76.44
256.59	81.44
256.823	81.44
257.056	85.44
257.289	84.44
257.521	73.44
257.754	88.44
257.987	89.44
258.22	93.44
258.452	97.44
258.685	80.44
258.918	64.44
259.151	79.44
259.383	74.44
259.616	70.44
259.849	72.44
260.081	85.44
260.314	86.44
260.547	67.44
260.779	79.44
261.012	86.44
261.244	74.44
261.477	75.44
261.71	84.44
261.942	116.44
262.175	101.44
262.407	86.44
262.64	92.44
262.872	92.44
263.105	89.44
263.337	76.44
263.57	72.44
263.802	81.44
264.035	79.44
264.267	92.44
264.499	86.44
264.732	88.44
264.964	73.44
265.197	79.44
265.429	79.44
265.661	88.44
265.894	79.44
266.126	67.44
266.358	72.44
266.591	79.44
266.823	79.44
267.055	93.44
267.287	88.44
267.52	76.44
267.752	91.44
267.984	90.44
268.216	84.44
268.448	86.44
268.681	89.44
268.913	70.44
269.145	76.44
269.377	87.44
269.609	88.44
269.841	92.44
270.073	85.44
270.306	83.44
270.538	75.44
270.77	87.44
271.002	65.44
271.234	84.44
271.466	88.44
271.698	77.44
271.93	78.44
272.162	85.44
272.394	68.44
272.626	73.44
272.858	70.44
273.09	85.44
273.322	90.44
273.553	75.44
273.785	78.44
274.017	91.44
274.249	92.44
274.481	85.44
274.713	80.44
274.945	82.44
275.176	85.44
275.408	90.44
275.64	83.44
275.872	81.44
276.104	90.44
276.335	80.44
276.567	101.44
276.799	101.44
277.031	106.44
277.262	94.44
277.494	85.44
277.726	89.44
277.957	88.44
278.189	89.44
278.421	67.44
278.652	64.44
278.884	89.44
279.115	88.44
279.347	90.44
279.579	97.44
279.81	95.44
280.042	75.44
280.273	73.44
280.505	85.44
280.736	89.44
280.968	85.44
281.199	97.44
281.431	80.44
281.662	94.44
281.894	96.44
282.125	97.44
282.356	108.44
282.588	140.44
282.819	103.44
283.051	89.44
283.282	85.44
283.513	84.44
283.745	88.44
283.976	94.44
284.207	79.44
284.439	89.44
284.67	100.44
284.901	81.44
285.132	100.44
285.364	80.44
285.595	82.44
285.826	88.44
286.057	95.44
286.288	71.44
286.52	72.44
286.751	79.44
286.982	81.44
287.213	75.44
287.444	93.44
287.675	75.44
287.906	91.44
288.138	97.44
288.369	87.44
288.6	104.44
288.831	87.44
289.062	101.44
289.293	82.44
289.524	97.44
289.755	72.44
289.986	61.44
290.217	77.44
290.448	99.44
290.679	76.44
290.91	80.44
291.141	89.44
291.371	74.44
291.602	71.44
291.833	89.44
292.064	93.44
292.295	89.44
292.526	95.44
292.757	89.44
292.987	89.44
293.218	92.44
293.449	81.44
293.68	81.44
293.91	80.44
294.141	68.44
294.372	84.44
294.603	78.44
294.833	76.44
295.064	81.44
295.295	96.44
295.525	83.44
295.756	117.44
295.987	100.44
296.217	118.44
296.448	111.44
296.679	96.44
296.909	88.44
297.14	85.44
297.37	75.44
297.601	91.44
297.831	89.44
298.062	90.44
298.292	92.44
298.523	100.44
298.753	95.44
298.984	80.44
299.214	91.44
299.445	89.44
299.675	87.44
299.905	91.44
300.136	74.44
300.366	104.44
300.597	100.44
300.827	75.44
301.057	97.44
301.288	107.44
301.518	93.44
301.748	82.44
301.979	85.44
302.209	77.44
302.439	98.44
302.669	82.44
302.9	72.44
303.13	102.44
303.36	99.44
303.59	86.44
303.82	94.44
304.051	103.44
304.281	82.44
304.511	87.44
304.741	73.44
304.971	73.44
305.201	97.44
305.431	102.44
305.661	90.44
305.891	82.44
306.121	103.44
306.352	91.44
306.582	111.44
306.812	85.44
307.042	97.44
307.272	83.44
307.502	93.44
307.731	97.44
307.961	83.44
308.191	87.44
308.421	80.44
308.651	98.44
308.881	95.44
309.111	100.44
309.341	95.44
309.571	92.44
309.8	88.44
310.03	91.44
310.26	87.44
310.49	93.44
310.72	109.44
310.949	94.44
311.179	88.44
311.409	95.44
311.639	95.44
311.868	97.44
312.098	89.44
312.328	87.44
312.557	98.44
312.787	105.44
313.017	96.44
313.246	90.44
313.476	96.44
313.706	99.44
313.935	95.44
314.165	99.44
314.394	82.44
314.624	106.44
314.853	89.44
315.083	91.44
315.312	92.44
315.542	81.44
315.771	95.44
316.001	100.44
316.23	84.44
316.46	84.44
316.689	72.44
316.919	78.44
317.148	86.44
317.377	93.44
317.607	104.44
317.836	89.44
318.065	86.44
318.295	88.44
318.524	84.44
318.753	88.44
318.983	104.44
319.212	92.44
319.441	106.44
319.67	103.44
319.9	85.44
320.129	102.44
320.358	76.44
320.587	90.44
320.816	87.44
321.046	104.44
321.275	90.44
321.504	87.44
321.733	98.44
321.962	92.44
322.191	92.44
322.42	97.44
322.649	97.44
322.878	108.44
323.108	116.44
323.337	125.44
323.566	127.44
323.795	146.44
324.024	173.44
324.253	337.44
324.482	699.44
324.71	1403.44
324.939	1931.44
325.168	708.44
325.397	217.44
325.626	133.44
325.855	119.44
326.084	111.44
326.313	114.44
326.542	144.44
326.77	189.44
326.999	394.44
327.228	791.44
327.457	1426.44
327.686	1178.44
327.914	325.44
328.143	191.44
328.372	151.44
328.6	118.44
328.829	103.44
329.058	121.44
329.287	123.44
329.515	109.44
329.744	106.44
329.972	119.44
330.201	113.44
330.43	125.44
330.658	116.44
330.887	115.44
331.115	126.44
331.344	106.44
331.572	79.44
331.801	109.44
332.03	96.44
332.258	105.44
332.486	88.44
332.715	97.44
332.943	78.44
333.172	93.44
333.4	94.44
333.629	99.44
333.857	122.44
334.085	97.44
334.314	113.44
334.542	114.44
334.771	122.44
334.999	99.44
335.227	93.44
335.455	107.44
335.684	89.44
335.912	100.44
336.14	96.44
336.369	109.44
336.597	94.44
336.825	86.44
337.053	102.44
337.281	102.44
337.51	92.44
337.738	103.44
337.966	85.44
338.194	95.44
338.422	91.44
338.65	88.44
338.878	88.44
339.106	91.44
339.334	93.44
339.562	99.44
339.79	92.44
340.018	74.44
340.246	102.44
340.474	93.44
340.702	100.44
340.93	101.44
341.158	87.44
341.386	91.44
341.614	110.44
341.842	97.44
342.07	90.44
342.298	95.44
342.526	89.44
342.754	81.44
342.981	79.44
343.209	75.44
343.437	97.44
343.665	94.44
343.893	99.44
344.12	87.44
344.348	92.44
344.576	93.44
344.804	95.44
345.031	90.44
345.259	108.44
345.487	88.44
345.714	88.44
345.942	96.44
346.17	90.44
346.397	88.44
346.625	98.44
346.853	94.44
347.08	97.44
347.308	88.44
347.535	85.44
347.763	102.44
347.99	111.44
348.218	109.44
348.445	114.44
348.673	107.44
348.9	92.44
349.128	96.44
349.355	90.44
349.583	99.44
349.81	84.44
350.037	101.44
350.265	94.44
350.492	72.44
350.72	92.44
350.947	97.44
351.174	113.44
351.402	106.44
351.629	100.44
351.856	99.44
352.083	114.44
352.311	97.44
352.538	99.44
352.765	106.44
352.992	123.44
353.22	104.44
353.447	87.44
353.674	104.44
353.901	97.44
354.128	80.44
354.355	99.44
354.583	91.44
354.81	95.44
355.037	101.44
355.264	87.44
355.491	95.44
355.718	84.44
355.945	83.44
356.172	90.44
356.399	102.44
356.626	97.44
356.853	102.44
357.08	74.44
357.307	77.44
357.534	83.44
357.761	98.44
357.988	87.44
358.215	87.44
358.441	80.44
358.668	93.44
358.895	79.44
359.122	90.44
359.349	90.44
359.576	84.44
359.802	84.44
360.029	108.44
360.256	108.44
360.483	104.44
360.709	84.44
360.936	96.44
361.163	93.44
361.39	97.44
361.616	116.44
361.843	86.44
362.07	104.44
362.296	82.44
362.523	77.44
362.749	92.44
362.976	93.44
363.203	85.44
363.429	92.44
363.656	89.44
363.882	85.44
364.109	81.44
364.335	99.44
364.562	89.44
364.788	95.44
365.015	80.44
365.241	100.44
365.468	100.44
365.694	93.44
365.92	80.44
366.147	92.44
366.373	93.44
366.599	92.44
366.826	86.44
367.052	83.44
367.278	91.44
367.505	83.44
367.731	98.44
367.957	80.44
368.184	103.44
368.41	89.44
368.636	106.44
368.862	115.44
369.089	92.44
369.315	97.44
369.541	92.44
369.767	95.44
369.993	84.44
370.219	80.44
370.445	83.44
370.672	92.44
370.898	70.44
371.124	85.44
371.35	71.44
371.576	81.44
371.802	80.44
372.028	95.44
372.254	89.44
372.48	94.44
372.706	81.44
372.932	76.44
373.158	70.44
373.384	77.44
373.61	79.44
373.835	81.44
374.061	95.44
374.287	83.44
374.513	93.44
374.739	106.44
374.965	87.44
375.191	87.44
375.416	98.44
375.642	89.44
375.868	86.44
376.094	103.44
376.319	96.44
376.545	87.44
376.771	92.44
376.997	79.44
377.222	87.44
377.448	76.44
377.674	73.44
377.899	99.44
378.125	86.44
378.35	94.44
378.576	100.44
378.802	85.44
379.027	91.44
379.253	89.44
379.478	100.44
379.704	83.44
379.929	101.44
380.155	99.44
380.38	93.44
380.606	89.44
380.831	95.44
381.057	76.44
381.282	89.44
381.507	96.44
381.733	101.44
381.958	108.44
382.184	98.44
382.409	87.44
382.634	95.44
382.86	95.44
383.085	86.44
383.31	96.44
383.535	104.44
383.761	96.44
383.986	84.44
384.211	90.44
384.436	88.44
384.662	94.44
384.887	94.44
385.112	86.44
385.337	94.44
385.562	91.44
385.787	91.44
386.013	96.44
386.238	106.44
386.463	83.44
386.688	104.44
386.913	105.44
387.138	100.44
387.363	99.44
387.588	102.44
387.813	89.44
388.038	102.44
388.263	103.44
388.488	98.44
388.713	92.44
388.938	93.44
389.163	91.44
389.387	87.44
389.612	89.44
389.837	96.44
390.062	86.44
390.287	73.44
390.512	95.44
390.736	83.44
390.961	83.44
391.186	88.44
391.411	99.44
391.636	107.44
391.86	90.44
392.085	86.44
392.31	89.44
392.534	72.44
392.759	84.44
392.984	81.44
393.208	67.44
393.433	85.44
393.658	83.44
393.882	90.44
394.107	68.44
394.331	67.44
394.556	85.44
394.78	75.44
395.005	97.44
395.229	81.44
395.454	90.44
395.678	83.44
395.903	85.44
396.127	83.44
396.352	95.44
396.576	92.44
396.801	90.44
397.025	88.44
397.249	93.44
397.474	86.44
397.698	92.44
397.922	87.44
398.147	76.44
398.371	80.44
398.595	88.44
398.82	62.44
399.044	92.44
399.268	69.44
399.492	65.44
399.717	68.44
399.941	78.44
400.165	83.44
400.389	88.44
400.613	87.44
400.837	73.44
401.062	70.44
401.286	89.44
401.51	97.44
401.734	90.44
401.958	90.44
402.182	119.44
402.406	143.44
402.63	104.44
402.854	81.44
403.078	89.44
403.302	74.44
403.526	83.44
403.75	93.44
403.974	76.44
404.198	88.44
404.422	90.44
404.645	87.44
404.869	87.44
405.093	84.44
405.317	102.44
405.541	98.44
405.765	100.44
405.988	103.44
406.212	149.44
406.436	209.44
406.66	147.44
406.883	103.44
407.107	95.44
407.331	89.44
407.555	96.44
407.778	91.44
408.002	97.44
408.226	96.44
408.449	95.44
408.673	96.44
408.896	88.44
409.12	103.44
409.344	89.44
409.567	92.44
409.791	87.44
410.014	93.44
410.238	95.44
410.461	73.44
410.685	91.44
410.908	96.44
411.132	87.44
411.355	94.44
411.578	95.44
411.802	101.44
412.025	91.44
412.249	94.44
412.472	80.44
412.695	82.44
412.919	82.44
413.142	87.44
413.365	106.44
413.589	93.44
413.812	86.44
414.035	92.44
414.258	87.44
414.482	86.44
414.705	93.44
414.928	93.44
415.151	94.44
415.374	99.44
415.597	83.44
415.821	82.44
416.044	88.44
416.267	101.44
416.49	77.44
416.713	80.44
416.936	81.44
417.159	76.44
417.382	92.44
417.605	92.44
417.828	84.44
418.051	89.44
418.274	84.44
418.497	87.44
418.72	95.44
418.943	87.44
419.166	88.44
419.389	89.44
419.611	76.44
419.834	90.44
420.057	92.44
420.28	83.44
420.503	71.44
420.726	85.44
420.948	78.44
421.171	87.44
421.394	82.44
421.617	80.44
421.839	91.44
422.062	79.44
422.285	82.44
422.507	96.44
422.73	100.44
422.953	86.44
423.175	87.44
423.398	91.44
423.621	83.44
423.843	92.44
424.066	72.44
424.288	97.44
424.511	84.44
424.733	87.44
424.956	95.44
425.178	104.44
425.401	100.44
425.623	102.44
425.846	91.44
426.068	85.44
426.291	84.44
426.513	104.44
426.735	92.44
426.958	102.44
427.18	90.44
427.402	132.44
427.625	160.44
427.847	118.44
428.069	97.44
428.292	82.44
428.514	88.44
428.736	83.44
428.958	85.44
429.181	84.44
429.403	89.44
429.625	82.44
429.847	92.44
430.069	99.44
430.292	90.44
430.514	89.44
430.736	88.44
430.958	75.44
431.18	83.44
431.402	55.44
431.624	77.44
431.846	77.44
432.068	76.44
432.29	73.44
432.512	87.44
432.734	93.44
432.956	85.44
433.178	100.44
433.4	93.44
433.622	98.44
433.844	92.44
434.066	79.44
434.287	92.44
434.509	92.44
434.731	92.44
434.953	90.44
435.175	99.44
435.397	79.44
435.618	95.44
435.84	96.44
436.062	116.44
436.284	97.44
436.505	92.44
436.727	100.44
436.949	100.44
437.17	103.44
437.392	85.44
437.614	89.44
437.835	100.44
438.057	103.44
438.278	109.44
438.5	104.44
438.721	112.44
438.943	104.44
439.165	90.44
439.386	92.44
439.608	108.44
439.829	92.44
440.05	102.44
440.272	133.44
440.493	79.44
440.715	74.44
440.936	90.44
441.158	86.44
441.379	82.44
441.6	83.44
441.822	91.44
442.043	96.44
442.264	107.44
442.486	91.44
442.707	88.44
442.928	103.44
443.149	123.44
443.371	116.44
443.592	108.44
443.813	110.44
444.034	104.44
444.255	95.44
444.476	92.44
444.698	84.44
444.919	91.44
445.14	128.44
445.361	143.44
445.582	122.44
445.803	134.44
446.024	131.44
446.245	138.44
446.466	97.44
446.687	89.44
446.908	88.44
447.129	90.44
447.35	105.44
447.571	94.44
447.792	98.44
448.013	81.44
448.234	92.44
448.455	89.44
448.675	104.44
448.896	124.44
449.117	105.44
449.338	108.44
449.559	122.44
449.779	118.44
450	82.44
450.221	81.44
450.442	82.44
450.662	99.44
450.883	98.44
451.104	108.44
451.324	88.44
451.545	77.44
451.766	81.44
451.986	75.44
452.207	92.44
452.428	75.44
452.648	101.44
452.869	106.44
453.089	109.44
453.31	112.44
453.53	87.44
453.751	76.44
453.971	98.44
454.192	100.44
454.412	87.44
454.633	87.44
454.853	70.44
455.073	82.44
455.294	89.44
455.514	95.44
455.734	81.44
455.955	73.44
456.175	89.44
456.395	89.44
456.616	91.44
456.836	88.44
457.056	91.44
457.276	68.44
457.497	84.44
457.717	77.44
457.937	91.44
458.157	79.44
458.377	83.44
458.598	101.44
458.818	125.44
459.038	156.44
459.258	100.44
459.478	81.44
459.698	97.44
459.918	93.44
460.138	90.44
460.358	93.44
460.578	77.44
460.798	84.44
461.018	111.44
461.238	97.44
461.458	88.44
461.678	94.44
461.898	77.44
462.118	97.44
462.338	89.44
462.558	80.44
462.777	99.44
462.997	103.44
463.217	83.44
463.437	98.44
463.657	79.44
463.876	77.44
464.096	86.44
464.316	80.44
464.536	84.44
464.755	97.44
464.975	112.44
465.195	134.44
465.414	153.44
465.634	91.44
465.854	82.44
466.073	89.44
466.293	97.44
466.512	80.44
466.732	96.44
466.951	89.44
467.171	98.44
467.391	96.44
467.61	103.44
467.829	92.44
468.049	97.44
468.268	103.44
468.488	96.44
468.707	81.44
468.927	89.44
469.146	89.44
469.365	95.44
469.585	83.44
469.804	103.44
470.023	104.44
470.243	95.44
470.462	108.44
470.681	104.44
470.901	76.44
471.12	84.44
471.339	89.44
471.558	89.44
471.777	85.44
471.997	96.44
472.216	96.44
472.435	146.44
472.654	91.44
472.873	98.44
473.092	74.44
473.311	79.44
473.53	85.44
473.749	99.44
473.968	89.44
474.187	103.44
474.406	90.44
474.625	88.44
474.844	101.44
475.063	103.44
475.282	79.44
475.501	77.44
475.72	84.44
475.939	82.44
476.158	85.44
476.377	74.44
476.596	95.44
476.814	77.44
477.033	101.44
477.252	80.44
477.471	82.44
477.69	81.44
477.908	94.44
478.127	87.44
478.346	78.44
478.564	87.44
478.783	91.44
479.002	87.44
479.22	92.44
479.439	87.44
479.658	102.44
479.876	90.44
480.095	88.44
480.313	79.44
480.532	98.44
480.751	89.44
480.969	113.44
481.188	184.44
481.406	168.44
481.624	105.44
481.843	85.44
482.061	80.44
482.28	99.44
482.498	94.44
482.717	91.44
482.935	84.44
483.153	97.44
483.372	95.44
483.59	83.44
483.808	96.44
484.027	88.44
484.245	89.44
484.463	92.44
484.681	101.44
484.9	82.44
485.118	80.44
485.336	104.44
485.554	99.44
485.772	91.44
485.99	91.44
486.209	99.44
486.427	89.44
486.645	96.44
486.863	115.44
487.081	103.44
487.299	106.44
487.517	103.44
487.735	90.44
487.953	87.44
488.171	98.44
488.389	90.44
488.607	93.44
488.825	79.44
489.043	81.44
489.261	85.44
489.479	89.44
489.696	86.44
489.914	88.44
490.132	85.44
490.35	98.44
490.568	95.44
490.786	91.44
491.003	79.44
491.221	80.44
491.439	98.44
491.657	89.44
491.874	96.44
492.092	83.44
492.31	92.44
492.527	67.44
492.745	90.44
492.963	93.44
493.18	85.44
493.398	104.44
493.615	92.44
493.833	96.44
494.05	76.44
494.268	90.44
494.485	91.44
494.703	86.44
494.92	99.44
495.138	83.44
495.355	86.44
495.573	77.44
495.79	93.44
496.008	96.44
496.225	87.44
496.442	82.44
496.66	90.44
496.877	85.44
497.094	92.44
497.312	98.44
497.529	97.44
497.746	89.44
497.963	93.44
498.181	84.44
498.398	87.44
498.615	94.44
498.832	103.44
499.049	83.44
499.267	98.44
499.484	92.44
499.701	87.44
499.918	98.44
500.135	83.44
500.352	93.44
500.569	74.44
500.786	79.44
501.003	90.44
501.22	89.44
501.437	104.44
501.654	85.44
501.871	89.44
502.088	92.44
502.305	87.44
502.522	82.44
502.739	86.44
502.956	79.44
503.172	79.44
503.389	95.44
503.606	104.44
503.823	91.44
504.04	83.44
504.256	90.44
504.473	92.44
504.69	83.44
504.907	99.44
505.123	86.44
505.34	91.44
505.557	90.44
505.773	96.44
505.99	100.44
506.207	79.44
506.423	87.44
506.64	104.44
506.856	92.44
507.073	91.44
507.289	87.44
507.506	93.44
507.722	103.44
507.939	104.44
508.155	99.44
508.372	101.44
508.588	101.44
508.805	88.44
509.021	95.44
509.238	88.44
509.454	100.44
509.67	92.44
509.887	103.44
510.103	117.44
510.319	181.44
510.536	675.44
510.752	2231.44
510.968	605.44
511.184	167.44
511.401	113.44
511.617	85.44
511.833	87.44
512.049	95.44
512.265	89.44
512.481	85.44
512.698	96.44
512.914	101.44
513.13	84.44
513.346	88.44
513.562	86.44
513.778	92.44
513.994	79.44
514.21	103.44
514.426	108.44
514.642	124.44
514.858	109.44
515.074	139.44
515.29	405.44
515.506	1363.44
515.721	511.44
515.937	159.44
516.153	117.44
516.369	97.44
