Data from Uncirc_1980_H10_HRD10591_00097.txt Node
Date: Wed Jan 03 12:37:14 EST 2024
User: Yrep
Spectrometer: HR+D1059
Trigger mode: 1
Integration Time (sec): 1.000000E-1
Scans to average: 1
Electric dark correction enabled: true
Nonlinearity correction enabled: false
Boxcar width: 0
XAxis mode: Wavelengths
Number of Pixels in Spectrum: 2048
>>>>>Begin Spectral Data<<<<<
223.165	-26.19
223.4	-26.19
223.635	-26.19
223.869	-26.19
224.104	-15.19
224.338	-12.19
224.573	-7.19
224.808	-13.19
225.042	-5.19
225.277	-1.19
225.511	0.81
225.746	-4.19
225.98	13.81
226.215	18.81
226.449	16.81
226.683	23.81
226.918	14.81
227.152	21.81
227.387	23.81
227.621	20.81
227.856	45.81
228.09	51.81
228.324	42.81
228.559	70.81
228.793	47.81
229.027	65.81
229.262	59.81
229.496	67.81
229.73	77.81
229.964	81.81
230.199	85.81
230.433	84.81
230.667	74.81
230.901	54.81
231.136	66.81
231.37	70.81
231.604	71.81
231.838	77.81
232.072	65.81
232.306	83.81
232.541	65.81
232.775	79.81
233.009	71.81
233.243	77.81
233.477	77.81
233.711	78.81
233.945	73.81
234.179	80.81
234.413	87.81
234.647	79.81
234.881	77.81
235.115	70.81
235.349	71.81
235.583	62.81
235.817	77.81
236.051	83.81
236.285	72.81
236.519	63.81
236.753	60.81
236.987	74.81
237.221	77.81
237.455	80.81
237.689	65.81
237.922	63.81
238.156	72.81
238.39	58.81
238.624	69.81
238.858	74.81
239.091	69.81
239.325	78.81
239.559	66.81
239.793	78.81
240.027	78.81
240.26	79.81
240.494	85.81
240.728	73.81
240.961	63.81
241.195	67.81
241.429	64.81
241.662	67.81
241.896	74.81
242.13	74.81
242.363	83.81
242.597	91.81
242.83	73.81
243.064	74.81
243.298	72.81
243.531	87.81
243.765	83.81
243.998	78.81
244.232	90.81
244.465	80.81
244.699	62.81
244.932	68.81
245.166	73.81
245.399	92.81
245.633	67.81
245.866	72.81
246.099	76.81
246.333	71.81
246.566	69.81
246.8	61.81
247.033	75.81
247.266	73.81
247.5	81.81
247.733	77.81
247.966	71.81
248.2	83.81
248.433	79.81
248.666	78.81
248.899	77.81
249.133	81.81
249.366	82.81
249.599	78.81
249.832	60.81
250.066	76.81
250.299	85.81
250.532	83.81
250.765	75.81
250.998	87.81
251.231	77.81
251.465	73.81
251.698	65.81
251.931	67.81
252.164	73.81
252.397	71.81
252.63	84.81
252.863	77.81
253.096	65.81
253.329	73.81
253.562	64.81
253.795	74.81
254.028	82.81
254.261	95.81
254.494	87.81
254.727	71.81
254.96	80.81
255.193	77.81
255.426	71.81
255.659	79.81
255.892	86.81
256.124	85.81
256.357	74.81
256.59	74.81
256.823	77.81
257.056	93.81
257.289	92.81
257.521	65.81
257.754	73.81
257.987	71.81
258.22	87.81
258.452	68.81
258.685	79.81
258.918	88.81
259.151	80.81
259.383	91.81
259.616	79.81
259.849	57.81
260.081	82.81
260.314	93.81
260.547	79.81
260.779	87.81
261.012	84.81
261.244	82.81
261.477	98.81
261.71	80.81
261.942	82.81
262.175	110.81
262.407	102.81
262.64	83.81
262.872	72.81
263.105	93.81
263.337	79.81
263.57	78.81
263.802	81.81
264.035	87.81
264.267	102.81
264.499	76.81
264.732	83.81
264.964	68.81
265.197	77.81
265.429	68.81
265.661	93.81
265.894	89.81
266.126	84.81
266.358	76.81
266.591	76.81
266.823	80.81
267.055	74.81
267.287	73.81
267.52	75.81
267.752	74.81
267.984	73.81
268.216	84.81
268.448	92.81
268.681	87.81
268.913	81.81
269.145	86.81
269.377	86.81
269.609	97.81
269.841	83.81
270.073	78.81
270.306	77.81
270.538	98.81
270.77	86.81
271.002	96.81
271.234	88.81
271.466	89.81
271.698	79.81
271.93	82.81
272.162	84.81
272.394	73.81
272.626	83.81
272.858	89.81
273.09	85.81
273.322	92.81
273.553	89.81
273.785	87.81
274.017	85.81
274.249	78.81
274.481	80.81
274.713	83.81
274.945	88.81
275.176	77.81
275.408	71.81
275.64	77.81
275.872	82.81
276.104	69.81
276.335	78.81
276.567	77.81
276.799	89.81
277.031	96.81
277.262	84.81
277.494	87.81
277.726	83.81
277.957	78.81
278.189	85.81
278.421	73.81
278.652	70.81
278.884	80.81
279.115	86.81
279.347	77.81
279.579	74.81
279.81	92.81
280.042	93.81
280.273	87.81
280.505	71.81
280.736	77.81
280.968	96.81
281.199	85.81
281.431	90.81
281.662	91.81
281.894	79.81
282.125	91.81
282.356	113.81
282.588	117.81
282.819	108.81
283.051	86.81
283.282	92.81
283.513	91.81
283.745	81.81
283.976	89.81
284.207	90.81
284.439	78.81
284.67	74.81
284.901	93.81
285.132	77.81
285.364	97.81
285.595	90.81
285.826	86.81
286.057	85.81
286.288	94.81
286.52	83.81
286.751	74.81
286.982	79.81
287.213	76.81
287.444	64.81
287.675	94.81
287.906	96.81
288.138	87.81
288.369	96.81
288.6	91.81
288.831	85.81
289.062	80.81
289.293	89.81
289.524	79.81
289.755	92.81
289.986	70.81
290.217	81.81
290.448	89.81
290.679	91.81
290.91	98.81
291.141	84.81
291.371	87.81
291.602	84.81
291.833	85.81
292.064	82.81
292.295	89.81
292.526	85.81
292.757	73.81
292.987	70.81
293.218	71.81
293.449	85.81
293.68	80.81
293.91	73.81
294.141	85.81
294.372	103.81
294.603	80.81
294.833	93.81
295.064	80.81
295.295	84.81
295.525	86.81
295.756	98.81
295.987	97.81
296.217	114.81
296.448	100.81
296.679	90.81
296.909	98.81
297.14	81.81
297.37	93.81
297.601	95.81
297.831	73.81
298.062	86.81
298.292	72.81
298.523	86.81
298.753	84.81
298.984	71.81
299.214	86.81
299.445	92.81
299.675	99.81
299.905	91.81
300.136	91.81
300.366	73.81
300.597	93.81
300.827	86.81
301.057	99.81
301.288	103.81
301.518	83.81
301.748	87.81
301.979	91.81
302.209	90.81
302.439	73.81
302.669	70.81
302.9	83.81
303.13	89.81
303.36	89.81
303.59	86.81
303.82	96.81
304.051	91.81
304.281	85.81
304.511	90.81
304.741	85.81
304.971	83.81
305.201	79.81
305.431	85.81
305.661	96.81
305.891	90.81
306.121	89.81
306.352	91.81
306.582	106.81
306.812	88.81
307.042	88.81
307.272	97.81
307.502	90.81
307.731	94.81
307.961	82.81
308.191	88.81
308.421	90.81
308.651	88.81
308.881	78.81
309.111	78.81
309.341	94.81
309.571	95.81
309.8	92.81
310.03	102.81
310.26	79.81
310.49	94.81
310.72	97.81
310.949	113.81
311.179	101.81
311.409	85.81
311.639	83.81
311.868	91.81
312.098	100.81
312.328	91.81
312.557	117.81
312.787	98.81
313.017	95.81
313.246	81.81
313.476	89.81
313.706	93.81
313.935	83.81
314.165	93.81
314.394	94.81
314.624	91.81
314.853	100.81
315.083	83.81
315.312	93.81
315.542	97.81
315.771	91.81
316.001	81.81
316.23	83.81
316.46	70.81
316.689	81.81
316.919	81.81
317.148	86.81
317.377	93.81
317.607	85.81
317.836	85.81
318.065	82.81
318.295	86.81
318.524	73.81
318.753	74.81
318.983	83.81
319.212	85.81
319.441	97.81
319.67	100.81
319.9	93.81
320.129	94.81
320.358	84.81
320.587	81.81
320.816	90.81
321.046	82.81
321.275	91.81
321.504	87.81
321.733	85.81
321.962	95.81
322.191	82.81
322.42	104.81
322.649	103.81
322.878	106.81
323.108	117.81
323.337	128.81
323.566	115.81
323.795	144.81
324.024	183.81
324.253	319.81
324.482	655.81
324.71	1327.81
324.939	1779.81
325.168	671.81
325.397	206.81
325.626	129.81
325.855	121.81
326.084	126.81
326.313	126.81
326.542	131.81
326.77	178.81
326.999	393.81
327.228	789.81
327.457	1369.81
327.686	1105.81
327.914	316.81
328.143	153.81
328.372	129.81
328.6	114.81
328.829	94.81
329.058	111.81
329.287	103.81
329.515	97.81
329.744	92.81
329.972	94.81
330.201	102.81
330.43	106.81
330.658	111.81
330.887	113.81
331.115	123.81
331.344	74.81
331.572	96.81
331.801	89.81
332.03	103.81
332.258	101.81
332.486	95.81
332.715	80.81
332.943	99.81
333.172	79.81
333.4	90.81
333.629	105.81
333.857	89.81
334.085	110.81
334.314	98.81
334.542	115.81
334.771	115.81
334.999	84.81
335.227	86.81
335.455	96.81
335.684	94.81
335.912	96.81
336.14	95.81
336.369	95.81
336.597	89.81
336.825	98.81
337.053	81.81
337.281	98.81
337.51	82.81
337.738	83.81
337.966	86.81
338.194	88.81
338.422	89.81
338.65	87.81
338.878	83.81
339.106	76.81
339.334	77.81
339.562	81.81
339.79	97.81
340.018	78.81
340.246	81.81
340.474	94.81
340.702	91.81
340.93	97.81
341.158	87.81
341.386	91.81
341.614	92.81
341.842	77.81
342.07	97.81
342.298	80.81
342.526	88.81
342.754	84.81
342.981	69.81
343.209	92.81
343.437	93.81
343.665	90.81
343.893	97.81
344.12	83.81
344.348	81.81
344.576	94.81
344.804	83.81
345.031	78.81
345.259	90.81
345.487	90.81
345.714	93.81
345.942	98.81
346.17	76.81
346.397	89.81
346.625	96.81
346.853	77.81
347.08	81.81
347.308	95.81
347.535	96.81
347.763	90.81
347.99	100.81
348.218	92.81
348.445	85.81
348.673	85.81
348.9	96.81
349.128	91.81
349.355	86.81
349.583	82.81
349.81	77.81
350.037	98.81
350.265	76.81
350.492	88.81
350.72	100.81
350.947	80.81
351.174	66.81
351.402	98.81
351.629	100.81
351.856	92.81
352.083	86.81
352.311	102.81
352.538	89.81
352.765	104.81
352.992	102.81
353.22	108.81
353.447	93.81
353.674	78.81
353.901	96.81
354.128	93.81
354.355	86.81
354.583	92.81
354.81	87.81
355.037	85.81
355.264	77.81
355.491	88.81
355.718	81.81
355.945	94.81
356.172	97.81
356.399	92.81
356.626	98.81
356.853	84.81
357.08	81.81
357.307	81.81
357.534	90.81
357.761	80.81
357.988	80.81
358.215	101.81
358.441	90.81
358.668	89.81
358.895	93.81
359.122	93.81
359.349	72.81
359.576	88.81
359.802	92.81
360.029	98.81
360.256	117.81
360.483	100.81
360.709	82.81
360.936	84.81
361.163	95.81
361.39	86.81
361.616	77.81
361.843	83.81
362.07	70.81
362.296	94.81
362.523	97.81
362.749	101.81
362.976	90.81
363.203	88.81
363.429	87.81
363.656	85.81
363.882	79.81
364.109	88.81
364.335	86.81
364.562	87.81
364.788	87.81
365.015	97.81
365.241	87.81
365.468	101.81
365.694	101.81
365.92	99.81
366.147	92.81
366.373	71.81
366.599	79.81
366.826	68.81
367.052	77.81
367.278	95.81
367.505	68.81
367.731	91.81
367.957	84.81
368.184	72.81
368.41	85.81
368.636	113.81
368.862	109.81
369.089	88.81
369.315	85.81
369.541	93.81
369.767	99.81
369.993	97.81
370.219	88.81
370.445	91.81
370.672	88.81
370.898	80.81
371.124	71.81
371.35	87.81
371.576	85.81
371.802	71.81
372.028	97.81
372.254	85.81
372.48	90.81
372.706	89.81
372.932	74.81
373.158	89.81
373.384	89.81
373.61	86.81
373.835	99.81
374.061	72.81
374.287	87.81
374.513	87.81
374.739	93.81
374.965	78.81
375.191	79.81
375.416	87.81
375.642	72.81
375.868	93.81
376.094	93.81
376.319	91.81
376.545	86.81
376.771	77.81
376.997	85.81
377.222	69.81
377.448	78.81
377.674	81.81
377.899	94.81
378.125	83.81
378.35	84.81
378.576	79.81
378.802	82.81
379.027	87.81
379.253	85.81
379.478	92.81
379.704	86.81
379.929	85.81
380.155	98.81
380.38	104.81
380.606	87.81
380.831	87.81
381.057	93.81
381.282	82.81
381.507	92.81
381.733	96.81
381.958	88.81
382.184	95.81
382.409	106.81
382.634	94.81
382.86	84.81
383.085	107.81
383.31	95.81
383.535	91.81
383.761	91.81
383.986	90.81
384.211	98.81
384.436	79.81
384.662	100.81
384.887	77.81
385.112	89.81
385.337	108.81
385.562	104.81
385.787	95.81
386.013	103.81
386.238	107.81
386.463	103.81
386.688	105.81
386.913	89.81
387.138	111.81
387.363	93.81
387.588	86.81
387.813	109.81
388.038	90.81
388.263	102.81
388.488	90.81
388.713	94.81
388.938	89.81
389.163	90.81
389.387	99.81
389.612	87.81
389.837	88.81
390.062	93.81
390.287	86.81
390.512	83.81
390.736	95.81
390.961	88.81
391.186	93.81
391.411	102.81
391.636	93.81
391.86	86.81
392.085	72.81
392.31	83.81
392.534	72.81
392.759	96.81
392.984	97.81
393.208	77.81
393.433	79.81
393.658	77.81
393.882	86.81
394.107	72.81
394.331	66.81
394.556	82.81
394.78	79.81
395.005	85.81
395.229	70.81
395.454	89.81
395.678	92.81
395.903	87.81
396.127	104.81
396.352	64.81
396.576	77.81
396.801	97.81
397.025	84.81
397.249	81.81
397.474	95.81
397.698	77.81
397.922	91.81
398.147	101.81
398.371	92.81
398.595	106.81
398.82	74.81
399.044	87.81
399.268	81.81
399.492	74.81
399.717	85.81
399.941	75.81
400.165	93.81
400.389	70.81
400.613	81.81
400.837	77.81
401.062	86.81
401.286	82.81
401.51	80.81
401.734	93.81
401.958	102.81
402.182	120.81
402.406	130.81
402.63	99.81
402.854	80.81
403.078	63.81
403.302	81.81
403.526	70.81
403.75	77.81
403.974	99.81
404.198	92.81
404.422	82.81
404.645	73.81
404.869	73.81
405.093	93.81
405.317	94.81
405.541	103.81
405.765	94.81
405.988	93.81
406.212	135.81
406.436	163.81
406.66	118.81
406.883	72.81
407.107	87.81
407.331	84.81
407.555	81.81
407.778	80.81
408.002	88.81
408.226	85.81
408.449	85.81
408.673	83.81
408.896	81.81
409.12	73.81
409.344	95.81
409.567	95.81
409.791	97.81
410.014	97.81
410.238	89.81
410.461	81.81
410.685	94.81
410.908	89.81
411.132	94.81
411.355	77.81
411.578	93.81
411.802	74.81
412.025	87.81
412.249	95.81
412.472	82.81
412.695	96.81
412.919	83.81
413.142	89.81
413.365	81.81
413.589	77.81
413.812	79.81
414.035	79.81
414.258	89.81
414.482	84.81
414.705	84.81
414.928	101.81
415.151	83.81
415.374	77.81
415.597	95.81
415.821	91.81
416.044	88.81
416.267	75.81
416.49	98.81
416.713	81.81
416.936	78.81
417.159	79.81
417.382	91.81
417.605	74.81
417.828	85.81
418.051	77.81
418.274	81.81
418.497	73.81
418.72	81.81
418.943	88.81
419.166	94.81
419.389	79.81
419.611	87.81
419.834	98.81
420.057	88.81
420.28	93.81
420.503	105.81
420.726	84.81
420.948	74.81
421.171	102.81
421.394	99.81
421.617	86.81
421.839	89.81
422.062	91.81
422.285	87.81
422.507	94.81
422.73	99.81
422.953	91.81
423.175	89.81
423.398	82.81
423.621	96.81
423.843	85.81
424.066	79.81
424.288	72.81
424.511	85.81
424.733	93.81
424.956	96.81
425.178	100.81
425.401	101.81
425.623	96.81
425.846	91.81
426.068	95.81
426.291	81.81
426.513	100.81
426.735	96.81
426.958	89.81
427.18	93.81
427.402	103.81
427.625	130.81
427.847	114.81
428.069	90.81
428.292	87.81
428.514	83.81
428.736	96.81
428.958	82.81
429.181	80.81
429.403	95.81
429.625	86.81
429.847	81.81
430.069	88.81
430.292	81.81
430.514	82.81
430.736	70.81
430.958	81.81
431.18	83.81
431.402	67.81
431.624	78.81
431.846	85.81
432.068	79.81
432.29	72.81
432.512	87.81
432.734	70.81
432.956	89.81
433.178	94.81
433.4	94.81
433.622	83.81
433.844	83.81
434.066	93.81
434.287	85.81
434.509	81.81
434.731	78.81
434.953	90.81
435.175	83.81
435.397	81.81
435.618	86.81
435.84	86.81
436.062	119.81
436.284	91.81
436.505	102.81
436.727	81.81
436.949	82.81
437.17	90.81
437.392	74.81
437.614	90.81
437.835	81.81
438.057	109.81
438.278	96.81
438.5	94.81
438.721	103.81
438.943	92.81
439.165	81.81
439.386	88.81
439.608	98.81
439.829	87.81
440.05	109.81
440.272	114.81
440.493	94.81
440.715	82.81
440.936	82.81
441.158	81.81
441.379	79.81
441.6	85.81
441.822	90.81
442.043	87.81
442.264	86.81
442.486	93.81
442.707	95.81
442.928	96.81
443.149	113.81
443.371	110.81
443.592	106.81
443.813	103.81
444.034	81.81
444.255	93.81
444.476	78.81
444.698	77.81
444.919	90.81
445.14	131.81
445.361	109.81
445.582	106.81
445.803	119.81
446.024	113.81
446.245	107.81
446.466	97.81
446.687	84.81
446.908	81.81
447.129	97.81
447.35	79.81
447.571	106.81
447.792	93.81
448.013	96.81
448.234	97.81
448.455	89.81
448.675	110.81
448.896	108.81
449.117	104.81
449.338	102.81
449.559	128.81
449.779	107.81
450	82.81
450.221	89.81
450.442	84.81
450.662	91.81
450.883	102.81
451.104	96.81
451.324	85.81
451.545	83.81
451.766	78.81
451.986	81.81
452.207	76.81
452.428	80.81
452.648	89.81
452.869	95.81
453.089	102.81
453.31	110.81
453.53	79.81
453.751	77.81
453.971	84.81
454.192	80.81
454.412	86.81
454.633	81.81
454.853	89.81
455.073	93.81
455.294	87.81
455.514	88.81
455.734	82.81
455.955	75.81
456.175	74.81
456.395	74.81
456.616	96.81
456.836	98.81
457.056	79.81
457.276	89.81
457.497	81.81
457.717	77.81
457.937	93.81
458.157	85.81
458.377	86.81
458.598	96.81
458.818	132.81
459.038	128.81
459.258	106.81
459.478	92.81
459.698	84.81
459.918	89.81
460.138	81.81
460.358	81.81
460.578	84.81
460.798	77.81
461.018	87.81
461.238	94.81
461.458	85.81
461.678	86.81
461.898	93.81
462.118	85.81
462.338	77.81
462.558	79.81
462.777	86.81
462.997	72.81
463.217	91.81
463.437	87.81
463.657	84.81
463.876	85.81
464.096	93.81
464.316	82.81
464.536	79.81
464.755	95.81
464.975	80.81
465.195	147.81
465.414	132.81
465.634	77.81
465.854	94.81
466.073	91.81
466.293	81.81
466.512	94.81
466.732	80.81
466.951	94.81
467.171	87.81
467.391	86.81
467.61	69.81
467.829	81.81
468.049	101.81
468.268	103.81
468.488	86.81
468.707	77.81
468.927	75.81
469.146	83.81
469.365	89.81
469.585	85.81
469.804	83.81
470.023	94.81
470.243	99.81
470.462	104.81
470.681	107.81
470.901	89.81
471.12	82.81
471.339	86.81
471.558	82.81
471.777	89.81
471.997	79.81
472.216	103.81
472.435	133.81
472.654	84.81
472.873	81.81
473.092	95.81
473.311	99.81
473.53	79.81
473.749	95.81
473.968	89.81
474.187	100.81
474.406	96.81
474.625	108.81
474.844	72.81
475.063	70.81
475.282	87.81
475.501	73.81
475.72	81.81
475.939	82.81
476.158	77.81
476.377	86.81
476.596	69.81
476.814	97.81
477.033	93.81
477.252	90.81
477.471	74.81
477.69	80.81
477.908	91.81
478.127	82.81
478.346	89.81
478.564	91.81
478.783	73.81
479.002	89.81
479.22	92.81
479.439	103.81
479.658	89.81
479.876	78.81
480.095	62.81
480.313	89.81
480.532	93.81
480.751	87.81
480.969	102.81
481.188	186.81
481.406	142.81
481.624	91.81
481.843	71.81
482.061	89.81
482.28	83.81
482.498	90.81
482.717	93.81
482.935	89.81
483.153	87.81
483.372	99.81
483.59	102.81
483.808	84.81
484.027	95.81
484.245	109.81
484.463	97.81
484.681	90.81
484.9	99.81
485.118	94.81
485.336	96.81
485.554	89.81
485.772	99.81
485.99	110.81
486.209	96.81
486.427	90.81
486.645	93.81
486.863	107.81
487.081	99.81
487.299	83.81
487.517	90.81
487.735	91.81
487.953	86.81
488.171	88.81
488.389	93.81
488.607	88.81
488.825	87.81
489.043	88.81
489.261	74.81
489.479	97.81
489.696	81.81
489.914	84.81
490.132	90.81
490.35	104.81
490.568	77.81
490.786	82.81
491.003	93.81
491.221	80.81
491.439	87.81
491.657	82.81
491.874	95.81
492.092	75.81
492.31	88.81
492.527	72.81
492.745	88.81
492.963	69.81
493.18	77.81
493.398	94.81
493.615	107.81
493.833	95.81
494.05	88.81
494.268	77.81
494.485	96.81
494.703	77.81
494.92	90.81
495.138	83.81
495.355	90.81
495.573	97.81
495.79	93.81
496.008	97.81
496.225	90.81
496.442	83.81
496.66	80.81
496.877	95.81
497.094	101.81
497.312	75.81
497.529	100.81
497.746	76.81
497.963	90.81
498.181	102.81
498.398	86.81
498.615	110.81
498.832	98.81
499.049	79.81
499.267	86.81
499.484	82.81
499.701	90.81
499.918	85.81
500.135	66.81
500.352	91.81
500.569	87.81
500.786	77.81
501.003	95.81
501.22	87.81
501.437	83.81
501.654	93.81
501.871	93.81
502.088	91.81
502.305	95.81
502.522	86.81
502.739	90.81
502.956	80.81
503.172	93.81
503.389	111.81
503.606	94.81
503.823	95.81
504.04	88.81
504.256	90.81
504.473	81.81
504.69	89.81
504.907	83.81
505.123	88.81
505.34	91.81
505.557	91.81
505.773	79.81
505.99	69.81
506.207	93.81
506.423	86.81
506.64	94.81
506.856	105.81
507.073	87.81
507.289	84.81
507.506	86.81
507.722	107.81
507.939	105.81
508.155	87.81
508.372	106.81
508.588	95.81
508.805	96.81
509.021	87.81
509.238	89.81
509.454	99.81
509.67	87.81
509.887	94.81
510.103	128.81
510.319	197.81
510.536	610.81
510.752	1871.81
510.968	518.81
511.184	128.81
511.401	103.81
511.617	91.81
511.833	88.81
512.049	91.81
512.265	85.81
512.481	104.81
512.698	82.81
512.914	100.81
513.13	87.81
513.346	89.81
513.562	97.81
513.778	99.81
513.994	81.81
514.21	98.81
514.426	106.81
514.642	110.81
514.858	100.81
515.074	136.81
515.29	349.81
515.506	1080.81
515.721	393.81
515.937	136.81
516.153	91.81
516.369	96.81
516.585	89.81
516.801	87.81
517.016	101.81
517.232	72.81
517.448	84.81
