Data from Uncirc_1980_H10_HRD10591_00083.txt Node
Date: Wed Jan 03 12:37:12 EST 2024
User: Yrep
Spectrometer: HR+D1059
Trigger mode: 1
Integration Time (sec): 1.000000E-1
Scans to average: 1
Electric dark correction enabled: true
Nonlinearity correction enabled: false
Boxcar width: 0
XAxis mode: Wavelengths
Number of Pixels in Spectrum: 2048
>>>>>Begin Spectral Data<<<<<
223.165	-2.19
223.4	-2.19
223.635	-2.19
223.869	-12.19
224.104	-30.19
224.338	-28.19
224.573	-14.19
224.808	-10.19
225.042	-14.19
225.277	1.81
225.511	-9.19
225.746	16.81
225.98	-5.19
226.215	19.81
226.449	9.81
226.683	23.81
226.918	31.81
227.152	21.81
227.387	28.81
227.621	40.81
227.856	35.81
228.09	47.81
228.324	46.81
228.559	45.81
228.793	53.81
229.027	53.81
229.262	75.81
229.496	67.81
229.73	56.81
229.964	63.81
230.199	73.81
230.433	71.81
230.667	72.81
230.901	72.81
231.136	65.81
231.37	91.81
231.604	87.81
231.838	78.81
232.072	75.81
232.306	86.81
232.541	73.81
232.775	64.81
233.009	70.81
233.243	91.81
233.477	80.81
233.711	64.81
233.945	83.81
234.179	79.81
234.413	76.81
234.647	71.81
234.881	79.81
235.115	80.81
235.349	92.81
235.583	77.81
235.817	85.81
236.051	80.81
236.285	63.81
236.519	74.81
236.753	91.81
236.987	72.81
237.221	75.81
237.455	76.81
237.689	76.81
237.922	72.81
238.156	63.81
238.39	79.81
238.624	79.81
238.858	69.81
239.091	76.81
239.325	79.81
239.559	88.81
239.793	74.81
240.027	75.81
240.26	65.81
240.494	74.81
240.728	69.81
240.961	90.81
241.195	87.81
241.429	76.81
241.662	83.81
241.896	67.81
242.13	75.81
242.363	65.81
242.597	64.81
242.83	61.81
243.064	75.81
243.298	76.81
243.531	71.81
243.765	76.81
243.998	89.81
244.232	75.81
244.465	74.81
244.699	83.81
244.932	71.81
245.166	81.81
245.399	67.81
245.633	73.81
245.866	73.81
246.099	71.81
246.333	72.81
246.566	63.81
246.8	62.81
247.033	75.81
247.266	88.81
247.5	83.81
247.733	89.81
247.966	98.81
248.2	67.81
248.433	59.81
248.666	83.81
248.899	73.81
249.133	79.81
249.366	87.81
249.599	84.81
249.832	81.81
250.066	72.81
250.299	66.81
250.532	85.81
250.765	85.81
250.998	80.81
251.231	71.81
251.465	91.81
251.698	76.81
251.931	86.81
252.164	83.81
252.397	79.81
252.63	83.81
252.863	76.81
253.096	81.81
253.329	76.81
253.562	84.81
253.795	74.81
254.028	74.81
254.261	82.81
254.494	72.81
254.727	86.81
254.96	83.81
255.193	73.81
255.426	67.81
255.659	76.81
255.892	81.81
256.124	91.81
256.357	75.81
256.59	81.81
256.823	81.81
257.056	79.81
257.289	85.81
257.521	80.81
257.754	75.81
257.987	81.81
258.22	67.81
258.452	82.81
258.685	85.81
258.918	67.81
259.151	71.81
259.383	71.81
259.616	60.81
259.849	68.81
260.081	73.81
260.314	86.81
260.547	74.81
260.779	83.81
261.012	71.81
261.244	84.81
261.477	94.81
261.71	77.81
261.942	95.81
262.175	83.81
262.407	79.81
262.64	81.81
262.872	75.81
263.105	67.81
263.337	68.81
263.57	79.81
263.802	65.81
264.035	95.81
264.267	82.81
264.499	86.81
264.732	85.81
264.964	81.81
265.197	67.81
265.429	89.81
265.661	68.81
265.894	88.81
266.126	86.81
266.358	78.81
266.591	78.81
266.823	83.81
267.055	81.81
267.287	77.81
267.52	85.81
267.752	89.81
267.984	70.81
268.216	76.81
268.448	74.81
268.681	88.81
268.913	87.81
269.145	86.81
269.377	67.81
269.609	91.81
269.841	76.81
270.073	83.81
270.306	83.81
270.538	88.81
270.77	76.81
271.002	92.81
271.234	88.81
271.466	85.81
271.698	92.81
271.93	76.81
272.162	75.81
272.394	77.81
272.626	74.81
272.858	87.81
273.09	85.81
273.322	90.81
273.553	63.81
273.785	67.81
274.017	71.81
274.249	68.81
274.481	83.81
274.713	85.81
274.945	55.81
275.176	79.81
275.408	96.81
275.64	74.81
275.872	80.81
276.104	77.81
276.335	87.81
276.567	91.81
276.799	115.81
277.031	99.81
277.262	91.81
277.494	79.81
277.726	76.81
277.957	73.81
278.189	84.81
278.421	87.81
278.652	83.81
278.884	79.81
279.115	84.81
279.347	80.81
279.579	88.81
279.81	83.81
280.042	84.81
280.273	96.81
280.505	95.81
280.736	101.81
280.968	88.81
281.199	83.81
281.431	79.81
281.662	92.81
281.894	83.81
282.125	79.81
282.356	96.81
282.588	117.81
282.819	100.81
283.051	91.81
283.282	88.81
283.513	81.81
283.745	90.81
283.976	63.81
284.207	71.81
284.439	74.81
284.67	87.81
284.901	87.81
285.132	95.81
285.364	92.81
285.595	77.81
285.826	87.81
286.057	83.81
286.288	82.81
286.52	91.81
286.751	79.81
286.982	85.81
287.213	75.81
287.444	91.81
287.675	81.81
287.906	93.81
288.138	88.81
288.369	88.81
288.6	85.81
288.831	78.81
289.062	89.81
289.293	87.81
289.524	74.81
289.755	85.81
289.986	79.81
290.217	87.81
290.448	100.81
290.679	99.81
290.91	92.81
291.141	81.81
291.371	89.81
291.602	79.81
291.833	79.81
292.064	92.81
292.295	87.81
292.526	91.81
292.757	88.81
292.987	85.81
293.218	88.81
293.449	98.81
293.68	81.81
293.91	98.81
294.141	91.81
294.372	106.81
294.603	81.81
294.833	93.81
295.064	91.81
295.295	99.81
295.525	77.81
295.756	96.81
295.987	107.81
296.217	113.81
296.448	100.81
296.679	96.81
296.909	81.81
297.14	81.81
297.37	83.81
297.601	83.81
297.831	96.81
298.062	79.81
298.292	90.81
298.523	88.81
298.753	78.81
298.984	88.81
299.214	97.81
299.445	95.81
299.675	81.81
299.905	91.81
300.136	83.81
300.366	89.81
300.597	87.81
300.827	105.81
301.057	84.81
301.288	95.81
301.518	83.81
301.748	76.81
301.979	91.81
302.209	80.81
302.439	87.81
302.669	84.81
302.9	85.81
303.13	84.81
303.36	80.81
303.59	80.81
303.82	92.81
304.051	90.81
304.281	85.81
304.511	93.81
304.741	93.81
304.971	89.81
305.201	93.81
305.431	88.81
305.661	93.81
305.891	112.81
306.121	89.81
306.352	90.81
306.582	107.81
306.812	83.81
307.042	74.81
307.272	87.81
307.502	83.81
307.731	92.81
307.961	94.81
308.191	94.81
308.421	79.81
308.651	78.81
308.881	75.81
309.111	84.81
309.341	95.81
309.571	90.81
309.8	86.81
310.03	85.81
310.26	97.81
310.49	74.81
310.72	93.81
310.949	89.81
311.179	92.81
311.409	84.81
311.639	87.81
311.868	99.81
312.098	79.81
312.328	92.81
312.557	110.81
312.787	99.81
313.017	104.81
313.246	88.81
313.476	104.81
313.706	101.81
313.935	77.81
314.165	88.81
314.394	78.81
314.624	94.81
314.853	91.81
315.083	88.81
315.312	91.81
315.542	109.81
315.771	87.81
316.001	72.81
316.23	88.81
316.46	97.81
316.689	95.81
316.919	97.81
317.148	98.81
317.377	89.81
317.607	92.81
317.836	101.81
318.065	72.81
318.295	83.81
318.524	82.81
318.753	88.81
318.983	93.81
319.212	98.81
319.441	111.81
319.67	87.81
319.9	98.81
320.129	89.81
320.358	99.81
320.587	83.81
320.816	94.81
321.046	86.81
321.275	100.81
321.504	105.81
321.733	84.81
321.962	93.81
322.191	99.81
322.42	98.81
322.649	100.81
322.878	100.81
323.108	114.81
323.337	118.81
323.566	108.81
323.795	117.81
324.024	151.81
324.253	272.81
324.482	584.81
324.71	1149.81
324.939	1523.81
325.168	573.81
325.397	201.81
325.626	123.81
325.855	120.81
326.084	120.81
326.313	123.81
326.542	119.81
326.77	175.81
326.999	323.81
327.228	671.81
327.457	1155.81
327.686	950.81
327.914	276.81
328.143	167.81
328.372	128.81
328.6	110.81
328.829	97.81
329.058	107.81
329.287	113.81
329.515	95.81
329.744	108.81
329.972	91.81
330.201	113.81
330.43	119.81
330.658	108.81
330.887	99.81
331.115	115.81
331.344	96.81
331.572	79.81
331.801	105.81
332.03	99.81
332.258	94.81
332.486	82.81
332.715	84.81
332.943	86.81
333.172	111.81
333.4	84.81
333.629	103.81
333.857	96.81
334.085	90.81
334.314	98.81
334.542	122.81
334.771	118.81
334.999	96.81
335.227	105.81
335.455	109.81
335.684	104.81
335.912	108.81
336.14	98.81
336.369	103.81
336.597	83.81
336.825	99.81
337.053	89.81
337.281	90.81
337.51	85.81
337.738	88.81
337.966	91.81
338.194	82.81
338.422	95.81
338.65	97.81
338.878	89.81
339.106	83.81
339.334	103.81
339.562	84.81
339.79	85.81
340.018	84.81
340.246	89.81
340.474	84.81
340.702	93.81
340.93	75.81
341.158	83.81
341.386	97.81
341.614	73.81
341.842	83.81
342.07	94.81
342.298	89.81
342.526	74.81
342.754	91.81
342.981	84.81
343.209	81.81
343.437	111.81
343.665	88.81
343.893	93.81
344.12	97.81
344.348	81.81
344.576	87.81
344.804	95.81
345.031	89.81
345.259	84.81
345.487	103.81
345.714	83.81
345.942	76.81
346.17	79.81
346.397	85.81
346.625	95.81
346.853	76.81
347.08	94.81
347.308	96.81
347.535	82.81
347.763	92.81
347.99	93.81
348.218	84.81
348.445	95.81
348.673	85.81
348.9	84.81
349.128	73.81
349.355	93.81
349.583	95.81
349.81	85.81
350.037	76.81
350.265	77.81
350.492	98.81
350.72	79.81
350.947	105.81
351.174	100.81
351.402	89.81
351.629	87.81
351.856	87.81
352.083	98.81
352.311	94.81
352.538	85.81
352.765	87.81
352.992	89.81
353.22	106.81
353.447	83.81
353.674	98.81
353.901	89.81
354.128	87.81
354.355	85.81
354.583	88.81
354.81	96.81
355.037	97.81
355.264	98.81
355.491	97.81
355.718	93.81
355.945	79.81
356.172	83.81
356.399	98.81
356.626	95.81
356.853	92.81
357.08	79.81
357.307	97.81
357.534	88.81
357.761	79.81
357.988	89.81
358.215	76.81
358.441	86.81
358.668	91.81
358.895	88.81
359.122	92.81
359.349	90.81
359.576	95.81
359.802	104.81
360.029	97.81
360.256	106.81
360.483	91.81
360.709	90.81
360.936	93.81
361.163	87.81
361.39	95.81
361.616	103.81
361.843	91.81
362.07	91.81
362.296	88.81
362.523	81.81
362.749	84.81
362.976	77.81
363.203	79.81
363.429	76.81
363.656	73.81
363.882	74.81
364.109	88.81
364.335	81.81
364.562	86.81
364.788	94.81
365.015	85.81
365.241	83.81
365.468	102.81
365.694	87.81
365.92	90.81
366.147	88.81
366.373	83.81
366.599	76.81
366.826	72.81
367.052	83.81
367.278	84.81
367.505	76.81
367.731	95.81
367.957	87.81
368.184	88.81
368.41	99.81
368.636	110.81
368.862	120.81
369.089	99.81
369.315	81.81
369.541	91.81
369.767	105.81
369.993	97.81
370.219	84.81
370.445	86.81
370.672	75.81
370.898	81.81
371.124	86.81
371.35	72.81
371.576	79.81
371.802	76.81
372.028	74.81
372.254	72.81
372.48	91.81
372.706	87.81
372.932	97.81
373.158	91.81
373.384	86.81
373.61	79.81
373.835	84.81
374.061	95.81
374.287	81.81
374.513	72.81
374.739	79.81
374.965	84.81
375.191	97.81
375.416	92.81
375.642	88.81
375.868	95.81
376.094	87.81
376.319	71.81
376.545	86.81
376.771	86.81
376.997	86.81
377.222	83.81
377.448	86.81
377.674	86.81
377.899	92.81
378.125	97.81
378.35	76.81
378.576	91.81
378.802	88.81
379.027	67.81
379.253	90.81
379.478	93.81
379.704	103.81
379.929	91.81
380.155	85.81
380.38	79.81
380.606	97.81
380.831	92.81
381.057	93.81
381.282	101.81
381.507	99.81
381.733	99.81
381.958	100.81
382.184	97.81
382.409	98.81
382.634	91.81
382.86	98.81
383.085	105.81
383.31	84.81
383.535	96.81
383.761	100.81
383.986	107.81
384.211	91.81
384.436	81.81
384.662	77.81
384.887	93.81
385.112	101.81
385.337	105.81
385.562	101.81
385.787	95.81
386.013	110.81
386.238	104.81
386.463	93.81
386.688	102.81
386.913	93.81
387.138	88.81
387.363	98.81
387.588	103.81
387.813	94.81
388.038	98.81
388.263	104.81
388.488	100.81
388.713	92.81
388.938	82.81
389.163	83.81
389.387	87.81
389.612	107.81
389.837	85.81
390.062	100.81
390.287	89.81
390.512	82.81
390.736	97.81
390.961	87.81
391.186	89.81
391.411	100.81
391.636	89.81
391.86	95.81
392.085	108.81
392.31	98.81
392.534	74.81
392.759	77.81
392.984	90.81
393.208	73.81
393.433	97.81
393.658	91.81
393.882	85.81
394.107	88.81
394.331	82.81
394.556	80.81
394.78	97.81
395.005	87.81
395.229	84.81
395.454	73.81
395.678	93.81
395.903	85.81
396.127	88.81
396.352	87.81
396.576	87.81
396.801	84.81
397.025	75.81
397.249	95.81
397.474	81.81
397.698	87.81
397.922	77.81
398.147	100.81
398.371	69.81
398.595	83.81
398.82	91.81
399.044	89.81
399.268	73.81
399.492	74.81
399.717	93.81
399.941	102.81
400.165	90.81
400.389	79.81
400.613	84.81
400.837	92.81
401.062	92.81
401.286	95.81
401.51	89.81
401.734	68.81
401.958	94.81
402.182	111.81
402.406	132.81
402.63	105.81
402.854	88.81
403.078	74.81
403.302	94.81
403.526	96.81
403.75	90.81
403.974	80.81
404.198	93.81
404.422	90.81
404.645	90.81
404.869	85.81
405.093	71.81
405.317	105.81
405.541	96.81
405.765	99.81
405.988	98.81
406.212	133.81
406.436	172.81
406.66	123.81
406.883	89.81
407.107	68.81
407.331	106.81
407.555	85.81
407.778	91.81
408.002	83.81
408.226	86.81
408.449	84.81
408.673	74.81
408.896	82.81
409.12	80.81
409.344	94.81
409.567	86.81
409.791	92.81
410.014	84.81
410.238	81.81
410.461	108.81
410.685	77.81
410.908	85.81
411.132	102.81
411.355	79.81
411.578	97.81
411.802	87.81
412.025	86.81
412.249	87.81
412.472	87.81
412.695	73.81
412.919	85.81
413.142	83.81
413.365	97.81
413.589	91.81
413.812	83.81
414.035	93.81
414.258	90.81
414.482	86.81
414.705	80.81
414.928	93.81
415.151	88.81
415.374	93.81
415.597	94.81
415.821	79.81
416.044	100.81
416.267	92.81
416.49	75.81
416.713	83.81
416.936	91.81
417.159	84.81
417.382	93.81
417.605	97.81
417.828	91.81
418.051	75.81
418.274	77.81
418.497	73.81
418.72	82.81
418.943	81.81
419.166	82.81
419.389	81.81
419.611	83.81
419.834	92.81
420.057	85.81
420.28	79.81
420.503	87.81
420.726	82.81
420.948	82.81
421.171	93.81
421.394	91.81
421.617	82.81
421.839	83.81
422.062	100.81
422.285	79.81
422.507	93.81
422.73	98.81
422.953	74.81
423.175	69.81
423.398	80.81
423.621	92.81
423.843	75.81
424.066	83.81
424.288	66.81
424.511	94.81
424.733	80.81
424.956	95.81
425.178	96.81
425.401	86.81
425.623	92.81
425.846	98.81
426.068	83.81
426.291	79.81
426.513	87.81
426.735	90.81
426.958	95.81
427.18	117.81
427.402	115.81
427.625	131.81
427.847	119.81
428.069	85.81
428.292	85.81
428.514	79.81
428.736	71.81
428.958	80.81
429.181	83.81
429.403	91.81
429.625	79.81
429.847	85.81
430.069	80.81
430.292	79.81
430.514	87.81
430.736	76.81
430.958	85.81
431.18	94.81
431.402	85.81
431.624	89.81
431.846	106.81
432.068	89.81
432.29	77.81
432.512	93.81
432.734	85.81
432.956	90.81
433.178	91.81
433.4	83.81
433.622	95.81
433.844	76.81
434.066	80.81
434.287	73.81
434.509	88.81
434.731	91.81
434.953	73.81
435.175	92.81
435.397	92.81
435.618	80.81
435.84	86.81
436.062	109.81
436.284	111.81
436.505	92.81
436.727	98.81
436.949	84.81
437.17	76.81
437.392	75.81
437.614	80.81
437.835	96.81
438.057	108.81
438.278	106.81
438.5	96.81
438.721	123.81
438.943	91.81
439.165	79.81
439.386	83.81
439.608	90.81
439.829	80.81
440.05	101.81
440.272	107.81
440.493	85.81
440.715	91.81
440.936	93.81
441.158	93.81
441.379	92.81
441.6	87.81
441.822	74.81
442.043	75.81
442.264	84.81
442.486	84.81
442.707	103.81
442.928	97.81
443.149	124.81
443.371	102.81
443.592	102.81
443.813	99.81
444.034	97.81
444.255	93.81
444.476	79.81
444.698	90.81
444.919	96.81
445.14	131.81
445.361	122.81
445.582	103.81
445.803	97.81
446.024	106.81
446.245	104.81
446.466	106.81
446.687	90.81
446.908	81.81
447.129	93.81
447.35	83.81
447.571	98.81
447.792	88.81
448.013	97.81
448.234	82.81
448.455	88.81
448.675	101.81
448.896	97.81
449.117	83.81
449.338	87.81
449.559	122.81
449.779	111.81
450	94.81
450.221	100.81
450.442	90.81
450.662	90.81
450.883	90.81
451.104	91.81
451.324	87.81
451.545	93.81
451.766	81.81
451.986	80.81
452.207	101.81
452.428	99.81
452.648	89.81
452.869	98.81
453.089	97.81
453.31	97.81
453.53	100.81
453.751	87.81
453.971	102.81
454.192	87.81
454.412	95.81
454.633	86.81
454.853	87.81
455.073	86.81
455.294	68.81
455.514	85.81
455.734	92.81
455.955	75.81
456.175	85.81
456.395	89.81
456.616	69.81
456.836	85.81
457.056	89.81
457.276	72.81
457.497	83.81
457.717	91.81
457.937	90.81
458.157	86.81
458.377	81.81
458.598	93.81
458.818	114.81
459.038	132.81
459.258	87.81
459.478	79.81
459.698	79.81
459.918	79.81
460.138	78.81
460.358	81.81
460.578	75.81
460.798	85.81
461.018	86.81
461.238	91.81
461.458	84.81
461.678	74.81
461.898	97.81
462.118	85.81
462.338	79.81
462.558	85.81
462.777	75.81
462.997	83.81
463.217	73.81
463.437	90.81
463.657	97.81
463.876	79.81
464.096	107.81
464.316	93.81
464.536	93.81
464.755	85.81
464.975	97.81
465.195	128.81
465.414	127.81
465.634	74.81
465.854	84.81
466.073	83.81
466.293	80.81
466.512	79.81
466.732	74.81
466.951	97.81
467.171	85.81
467.391	90.81
467.61	90.81
467.829	88.81
468.049	99.81
468.268	108.81
468.488	97.81
468.707	97.81
468.927	86.81
469.146	62.81
469.365	76.81
469.585	82.81
469.804	81.81
470.023	87.81
470.243	69.81
470.462	85.81
470.681	99.81
470.901	87.81
471.12	80.81
471.339	91.81
471.558	96.81
471.777	87.81
471.997	86.81
472.216	114.81
472.435	134.81
472.654	97.81
472.873	85.81
473.092	79.81
473.311	75.81
473.53	91.81
473.749	83.81
473.968	92.81
474.187	90.81
474.406	73.81
474.625	70.81
474.844	81.81
475.063	79.81
475.282	85.81
475.501	85.81
475.72	96.81
475.939	95.81
476.158	83.81
476.377	76.81
476.596	90.81
476.814	69.81
477.033	95.81
477.252	82.81
477.471	94.81
477.69	89.81
477.908	93.81
478.127	83.81
478.346	76.81
478.564	83.81
478.783	80.81
479.002	84.81
479.22	80.81
479.439	101.81
479.658	84.81
479.876	85.81
480.095	103.81
480.313	86.81
480.532	86.81
480.751	94.81
480.969	104.81
481.188	172.81
481.406	138.81
481.624	86.81
481.843	101.81
482.061	84.81
482.28	89.81
482.498	97.81
482.717	73.81
482.935	80.81
483.153	92.81
483.372	87.81
483.59	73.81
483.808	80.81
484.027	100.81
484.245	81.81
484.463	90.81
484.681	93.81
484.9	97.81
485.118	81.81
485.336	101.81
485.554	89.81
485.772	113.81
485.99	91.81
486.209	103.81
486.427	92.81
486.645	88.81
486.863	107.81
487.081	101.81
487.299	95.81
487.517	87.81
487.735	91.81
487.953	99.81
488.171	80.81
488.389	97.81
488.607	85.81
488.825	94.81
489.043	88.81
489.261	77.81
489.479	90.81
489.696	92.81
489.914	100.81
490.132	86.81
490.35	69.81
490.568	91.81
490.786	71.81
491.003	88.81
491.221	91.81
491.439	90.81
491.657	71.81
491.874	93.81
492.092	90.81
492.31	84.81
492.527	87.81
492.745	83.81
492.963	83.81
493.18	84.81
493.398	81.81
493.615	97.81
493.833	93.81
494.05	89.81
494.268	82.81
494.485	83.81
494.703	88.81
494.92	93.81
495.138	75.81
495.355	87.81
495.573	77.81
495.79	86.81
496.008	86.81
496.225	77.81
496.442	78.81
496.66	86.81
496.877	81.81
497.094	86.81
497.312	83.81
497.529	85.81
497.746	81.81
497.963	95.81
498.181	90.81
498.398	101.81
498.615	128.81
498.832	100.81
499.049	96.81
499.267	89.81
499.484	77.81
499.701	94.81
499.918	84.81
500.135	88.81
500.352	93.81
500.569	98.81
500.786	91.81
501.003	79.81
501.22	95.81
501.437	92.81
501.654	91.81
501.871	100.81
502.088	88.81
502.305	91.81
502.522	87.81
502.739	90.81
502.956	86.81
503.172	98.81
503.389	92.81
503.606	88.81
503.823	95.81
504.04	114.81
504.256	79.81
504.473	89.81
504.69	87.81
504.907	76.81
505.123	91.81
505.34	77.81
505.557	83.81
505.773	100.81
505.99	85.81
506.207	84.81
506.423	96.81
506.64	88.81
506.856	98.81
507.073	89.81
507.289	87.81
507.506	85.81
507.722	109.81
507.939	95.81
508.155	83.81
508.372	84.81
508.588	93.81
508.805	100.81
509.021	89.81
509.238	85.81
509.454	93.81
509.67	100.81
509.887	99.81
510.103	111.81
510.319	171.81
510.536	589.81
510.752	1754.81
510.968	501.81
511.184	146.81
511.401	95.81
511.617	93.81
511.833	88.81
512.049	96.81
512.265	97.81
512.481	82.81
512.698	84.81
512.914	80.81
513.13	91.81
513.346	74.81
513.562	89.81
513.778	83.81
513.994	85.81
514.21	96.81
514.426	92.81
514.642	108.81
514.858	105.81
515.074	124.81
515.29	322.81
515.506	1041.81
515.721	396.81
515.937	126.81
516.153	100.81
516.369	107.81
516.585	82.81
516.801	81.81
517.016	94.81
517.232	90.81
517.448	107.81
