Data from Uncirc_1980_H10_HRD10591_00008.txt Node
Date: Wed Jan 03 12:36:57 EST 2024
User: Yrep
Spectrometer: HR+D1059
Trigger mode: 1
Integration Time (sec): 1.000000E-1
Scans to average: 1
Electric dark correction enabled: true
Nonlinearity correction enabled: false
Boxcar width: 0
XAxis mode: Wavelengths
Number of Pixels in Spectrum: 2048
>>>>>Begin Spectral Data<<<<<
223.165	-28.56
223.4	-28.56
223.635	-28.56
223.869	-23.56
224.104	-17.56
224.338	-19.56
224.573	-5.56
224.808	-1.56
225.042	-6.56
225.277	-16.56
225.511	-10.56
225.746	6.44
225.98	6.44
226.215	15.44
226.449	21.44
226.683	8.44
226.918	27.44
227.152	44.44
227.387	20.44
227.621	41.44
227.856	63.44
228.09	45.44
228.324	63.44
228.559	53.44
228.793	45.44
229.027	63.44
229.262	74.44
229.496	68.44
229.73	77.44
229.964	85.44
230.199	73.44
230.433	67.44
230.667	73.44
230.901	78.44
231.136	75.44
231.37	70.44
231.604	79.44
231.838	76.44
232.072	73.44
232.306	92.44
232.541	80.44
232.775	79.44
233.009	89.44
233.243	78.44
233.477	89.44
233.711	99.44
233.945	83.44
234.179	89.44
234.413	77.44
234.647	76.44
234.881	86.44
235.115	91.44
235.349	83.44
235.583	88.44
235.817	78.44
236.051	85.44
236.285	58.44
236.519	83.44
236.753	91.44
236.987	84.44
237.221	83.44
237.455	69.44
237.689	86.44
237.922	77.44
238.156	86.44
238.39	67.44
238.624	84.44
238.858	71.44
239.091	79.44
239.325	71.44
239.559	90.44
239.793	79.44
240.027	73.44
240.26	70.44
240.494	87.44
240.728	76.44
240.961	65.44
241.195	69.44
241.429	77.44
241.662	87.44
241.896	87.44
242.13	92.44
242.363	84.44
242.597	83.44
242.83	76.44
243.064	76.44
243.298	84.44
243.531	83.44
243.765	87.44
243.998	78.44
244.232	70.44
244.465	94.44
244.699	67.44
244.932	75.44
245.166	95.44
245.399	80.44
245.633	88.44
245.866	72.44
246.099	83.44
246.333	85.44
246.566	73.44
246.8	65.44
247.033	76.44
247.266	80.44
247.5	91.44
247.733	83.44
247.966	74.44
248.2	87.44
248.433	95.44
248.666	75.44
248.899	78.44
249.133	96.44
249.366	99.44
249.599	99.44
249.832	81.44
250.066	93.44
250.299	86.44
250.532	71.44
250.765	71.44
250.998	85.44
251.231	91.44
251.465	84.44
251.698	76.44
251.931	77.44
252.164	81.44
252.397	69.44
252.63	90.44
252.863	76.44
253.096	95.44
253.329	89.44
253.562	85.44
253.795	76.44
254.028	67.44
254.261	76.44
254.494	89.44
254.727	77.44
254.96	81.44
255.193	71.44
255.426	87.44
255.659	96.44
255.892	77.44
256.124	79.44
256.357	80.44
256.59	77.44
256.823	91.44
257.056	73.44
257.289	83.44
257.521	78.44
257.754	73.44
257.987	74.44
258.22	77.44
258.452	72.44
258.685	96.44
258.918	76.44
259.151	85.44
259.383	85.44
259.616	80.44
259.849	81.44
260.081	89.44
260.314	77.44
260.547	76.44
260.779	81.44
261.012	89.44
261.244	94.44
261.477	87.44
261.71	94.44
261.942	92.44
262.175	91.44
262.407	84.44
262.64	95.44
262.872	79.44
263.105	92.44
263.337	84.44
263.57	84.44
263.802	85.44
264.035	96.44
264.267	80.44
264.499	89.44
264.732	89.44
264.964	89.44
265.197	84.44
265.429	83.44
265.661	97.44
265.894	100.44
266.126	85.44
266.358	97.44
266.591	91.44
266.823	80.44
267.055	88.44
267.287	91.44
267.52	69.44
267.752	92.44
267.984	104.44
268.216	81.44
268.448	78.44
268.681	78.44
268.913	102.44
269.145	94.44
269.377	83.44
269.609	73.44
269.841	89.44
270.073	92.44
270.306	84.44
270.538	71.44
270.77	84.44
271.002	71.44
271.234	77.44
271.466	88.44
271.698	97.44
271.93	96.44
272.162	88.44
272.394	80.44
272.626	85.44
272.858	73.44
273.09	87.44
273.322	94.44
273.553	86.44
273.785	84.44
274.017	88.44
274.249	80.44
274.481	92.44
274.713	99.44
274.945	85.44
275.176	73.44
275.408	85.44
275.64	96.44
275.872	94.44
276.104	92.44
276.335	86.44
276.567	94.44
276.799	86.44
277.031	83.44
277.262	87.44
277.494	85.44
277.726	78.44
277.957	78.44
278.189	88.44
278.421	86.44
278.652	83.44
278.884	84.44
279.115	105.44
279.347	85.44
279.579	86.44
279.81	91.44
280.042	104.44
280.273	99.44
280.505	87.44
280.736	90.44
280.968	92.44
281.199	87.44
281.431	91.44
281.662	77.44
281.894	104.44
282.125	96.44
282.356	100.44
282.588	114.44
282.819	108.44
283.051	82.44
283.282	91.44
283.513	102.44
283.745	84.44
283.976	86.44
284.207	87.44
284.439	105.44
284.67	98.44
284.901	87.44
285.132	69.44
285.364	79.44
285.595	96.44
285.826	87.44
286.057	89.44
286.288	99.44
286.52	89.44
286.751	90.44
286.982	80.44
287.213	89.44
287.444	88.44
287.675	101.44
287.906	101.44
288.138	94.44
288.369	108.44
288.6	99.44
288.831	88.44
289.062	91.44
289.293	75.44
289.524	93.44
289.755	83.44
289.986	80.44
290.217	83.44
290.448	95.44
290.679	91.44
290.91	95.44
291.141	83.44
291.371	70.44
291.602	101.44
291.833	92.44
292.064	86.44
292.295	75.44
292.526	79.44
292.757	95.44
292.987	90.44
293.218	84.44
293.449	85.44
293.68	105.44
293.91	91.44
294.141	95.44
294.372	92.44
294.603	95.44
294.833	103.44
295.064	91.44
295.295	86.44
295.525	89.44
295.756	110.44
295.987	97.44
296.217	119.44
296.448	102.44
296.679	74.44
296.909	90.44
297.14	97.44
297.37	91.44
297.601	94.44
297.831	97.44
298.062	79.44
298.292	95.44
298.523	85.44
298.753	95.44
298.984	91.44
299.214	105.44
299.445	86.44
299.675	88.44
299.905	85.44
300.136	93.44
300.366	101.44
300.597	96.44
300.827	84.44
301.057	88.44
301.288	96.44
301.518	93.44
301.748	82.44
301.979	88.44
302.209	93.44
302.439	109.44
302.669	103.44
302.9	94.44
303.13	88.44
303.36	97.44
303.59	80.44
303.82	96.44
304.051	88.44
304.281	91.44
304.511	93.44
304.741	89.44
304.971	86.44
305.201	98.44
305.431	89.44
305.661	80.44
305.891	88.44
306.121	92.44
306.352	100.44
306.582	101.44
306.812	102.44
307.042	92.44
307.272	103.44
307.502	99.44
307.731	97.44
307.961	99.44
308.191	87.44
308.421	92.44
308.651	93.44
308.881	94.44
309.111	102.44
309.341	98.44
309.571	98.44
309.8	100.44
310.03	98.44
310.26	85.44
310.49	113.44
310.72	93.44
310.949	91.44
311.179	95.44
311.409	96.44
311.639	76.44
311.868	93.44
312.098	103.44
312.328	95.44
312.557	107.44
312.787	106.44
313.017	96.44
313.246	90.44
313.476	96.44
313.706	98.44
313.935	93.44
314.165	95.44
314.394	87.44
314.624	102.44
314.853	92.44
315.083	96.44
315.312	75.44
315.542	97.44
315.771	90.44
316.001	97.44
316.23	79.44
316.46	90.44
316.689	104.44
316.919	108.44
317.148	102.44
317.377	110.44
317.607	110.44
317.836	94.44
318.065	89.44
318.295	93.44
318.524	81.44
318.753	96.44
318.983	93.44
319.212	88.44
319.441	100.44
319.67	103.44
319.9	94.44
320.129	91.44
320.358	74.44
320.587	92.44
320.816	110.44
321.046	109.44
321.275	105.44
321.504	94.44
321.733	87.44
321.962	102.44
322.191	97.44
322.42	107.44
322.649	104.44
322.878	92.44
323.108	104.44
323.337	111.44
323.566	99.44
323.795	127.44
324.024	142.44
324.253	256.44
324.482	525.44
324.71	1050.44
324.939	1401.44
325.168	533.44
325.397	183.44
325.626	134.44
325.855	114.44
326.084	108.44
326.313	121.44
326.542	134.44
326.77	176.44
326.999	311.44
327.228	613.44
327.457	1125.44
327.686	899.44
327.914	254.44
328.143	150.44
328.372	112.44
328.6	117.44
328.829	110.44
329.058	109.44
329.287	108.44
329.515	106.44
329.744	116.44
329.972	93.44
330.201	109.44
330.43	119.44
330.658	114.44
330.887	109.44
331.115	116.44
331.344	106.44
331.572	110.44
331.801	97.44
332.03	98.44
332.258	108.44
332.486	94.44
332.715	105.44
332.943	98.44
333.172	99.44
333.4	96.44
333.629	93.44
333.857	102.44
334.085	107.44
334.314	108.44
334.542	113.44
334.771	126.44
334.999	104.44
335.227	106.44
335.455	97.44
335.684	89.44
335.912	95.44
336.14	101.44
336.369	89.44
336.597	93.44
336.825	95.44
337.053	92.44
337.281	103.44
337.51	92.44
337.738	87.44
337.966	103.44
338.194	105.44
338.422	90.44
338.65	101.44
338.878	87.44
339.106	86.44
339.334	92.44
339.562	80.44
339.79	95.44
340.018	88.44
340.246	93.44
340.474	80.44
340.702	89.44
340.93	99.44
341.158	94.44
341.386	86.44
341.614	102.44
341.842	93.44
342.07	93.44
342.298	90.44
342.526	85.44
342.754	86.44
342.981	98.44
343.209	92.44
343.437	105.44
343.665	99.44
343.893	86.44
344.12	89.44
344.348	99.44
344.576	89.44
344.804	87.44
345.031	91.44
345.259	88.44
345.487	99.44
345.714	98.44
345.942	101.44
346.17	79.44
346.397	102.44
346.625	85.44
346.853	94.44
347.08	77.44
347.308	101.44
347.535	108.44
347.763	112.44
347.99	98.44
348.218	103.44
348.445	98.44
348.673	94.44
348.9	93.44
349.128	92.44
349.355	88.44
349.583	98.44
349.81	90.44
350.037	106.44
350.265	96.44
350.492	96.44
350.72	84.44
350.947	99.44
351.174	90.44
351.402	113.44
351.629	110.44
351.856	96.44
352.083	98.44
352.311	103.44
352.538	107.44
352.765	111.44
352.992	115.44
353.22	97.44
353.447	85.44
353.674	87.44
353.901	94.44
354.128	104.44
354.355	111.44
354.583	108.44
354.81	112.44
355.037	102.44
355.264	98.44
355.491	95.44
355.718	99.44
355.945	89.44
356.172	97.44
356.399	103.44
356.626	92.44
356.853	93.44
357.08	107.44
357.307	88.44
357.534	88.44
357.761	96.44
357.988	101.44
358.215	103.44
358.441	110.44
358.668	103.44
358.895	96.44
359.122	113.44
359.349	87.44
359.576	87.44
359.802	92.44
360.029	99.44
360.256	115.44
360.483	97.44
360.709	89.44
360.936	94.44
361.163	106.44
361.39	89.44
361.616	91.44
361.843	95.44
362.07	107.44
362.296	94.44
362.523	96.44
362.749	104.44
362.976	88.44
363.203	100.44
363.429	100.44
363.656	86.44
363.882	83.44
364.109	77.44
364.335	96.44
364.562	94.44
364.788	93.44
365.015	94.44
365.241	97.44
365.468	98.44
365.694	101.44
365.92	94.44
366.147	105.44
366.373	83.44
366.599	86.44
366.826	91.44
367.052	95.44
367.278	85.44
367.505	87.44
367.731	94.44
367.957	83.44
368.184	99.44
368.41	102.44
368.636	112.44
368.862	96.44
369.089	112.44
369.315	100.44
369.541	90.44
369.767	96.44
369.993	106.44
370.219	88.44
370.445	91.44
370.672	95.44
370.898	92.44
371.124	83.44
371.35	90.44
371.576	96.44
371.802	88.44
372.028	90.44
372.254	96.44
372.48	90.44
372.706	92.44
372.932	93.44
373.158	102.44
373.384	91.44
373.61	86.44
373.835	94.44
374.061	103.44
374.287	97.44
374.513	95.44
374.739	103.44
374.965	91.44
375.191	95.44
375.416	95.44
375.642	107.44
375.868	81.44
376.094	80.44
376.319	85.44
376.545	85.44
376.771	104.44
376.997	95.44
377.222	107.44
377.448	111.44
377.674	94.44
377.899	117.44
378.125	107.44
378.35	105.44
378.576	108.44
378.802	92.44
379.027	112.44
379.253	97.44
379.478	107.44
379.704	113.44
379.929	101.44
380.155	94.44
380.38	105.44
380.606	110.44
380.831	111.44
381.057	107.44
381.282	110.44
381.507	113.44
381.733	111.44
381.958	103.44
382.184	105.44
382.409	112.44
382.634	116.44
382.86	123.44
383.085	112.44
383.31	110.44
383.535	109.44
383.761	110.44
383.986	113.44
384.211	118.44
384.436	109.44
384.662	106.44
384.887	132.44
385.112	121.44
385.337	121.44
385.562	143.44
385.787	128.44
386.013	122.44
386.238	145.44
386.463	113.44
386.688	134.44
386.913	132.44
387.138	149.44
387.363	143.44
387.588	101.44
387.813	113.44
388.038	125.44
388.263	166.44
388.488	144.44
388.713	106.44
388.938	84.44
389.163	107.44
389.387	102.44
389.612	99.44
389.837	100.44
390.062	96.44
390.287	102.44
390.512	92.44
390.736	78.44
390.961	107.44
391.186	102.44
391.411	89.44
391.636	93.44
391.86	98.44
392.085	75.44
392.31	76.44
392.534	95.44
392.759	74.44
392.984	87.44
393.208	96.44
393.433	94.44
393.658	105.44
393.882	98.44
394.107	75.44
394.331	84.44
394.556	88.44
394.78	86.44
395.005	74.44
395.229	97.44
395.454	92.44
395.678	91.44
395.903	95.44
396.127	87.44
396.352	95.44
396.576	95.44
396.801	76.44
397.025	95.44
397.249	97.44
397.474	89.44
397.698	100.44
397.922	107.44
398.147	76.44
398.371	83.44
398.595	84.44
398.82	93.44
399.044	75.44
399.268	88.44
399.492	87.44
399.717	87.44
399.941	99.44
400.165	96.44
400.389	99.44
400.613	96.44
400.837	101.44
401.062	86.44
401.286	87.44
401.51	89.44
401.734	84.44
401.958	88.44
402.182	99.44
402.406	111.44
402.63	109.44
402.854	108.44
403.078	103.44
403.302	90.44
403.526	81.44
403.75	78.44
403.974	87.44
404.198	81.44
404.422	84.44
404.645	100.44
404.869	107.44
405.093	94.44
405.317	87.44
405.541	93.44
405.765	89.44
405.988	90.44
406.212	136.44
406.436	158.44
406.66	129.44
406.883	89.44
407.107	85.44
407.331	87.44
407.555	87.44
407.778	78.44
408.002	89.44
408.226	85.44
408.449	95.44
408.673	94.44
408.896	99.44
409.12	93.44
409.344	86.44
409.567	100.44
409.791	92.44
410.014	110.44
410.238	89.44
410.461	103.44
410.685	117.44
410.908	100.44
411.132	107.44
411.355	103.44
411.578	90.44
411.802	78.44
412.025	87.44
412.249	85.44
412.472	90.44
412.695	87.44
412.919	100.44
413.142	102.44
413.365	94.44
413.589	106.44
413.812	85.44
414.035	83.44
414.258	90.44
414.482	106.44
414.705	78.44
414.928	92.44
415.151	104.44
415.374	94.44
415.597	102.44
415.821	87.44
416.044	100.44
416.267	87.44
416.49	100.44
416.713	92.44
416.936	99.44
417.159	95.44
417.382	93.44
417.605	87.44
417.828	92.44
418.051	80.44
418.274	106.44
418.497	76.44
418.72	89.44
418.943	86.44
419.166	107.44
419.389	112.44
419.611	84.44
419.834	93.44
420.057	95.44
420.28	99.44
420.503	67.44
420.726	89.44
420.948	88.44
421.171	93.44
421.394	97.44
421.617	90.44
421.839	92.44
422.062	78.44
422.285	94.44
422.507	101.44
422.73	104.44
422.953	100.44
423.175	89.44
423.398	88.44
423.621	88.44
423.843	94.44
424.066	84.44
424.288	76.44
424.511	81.44
424.733	91.44
424.956	105.44
425.178	101.44
425.401	87.44
425.623	87.44
425.846	86.44
426.068	98.44
426.291	87.44
426.513	99.44
426.735	91.44
426.958	86.44
427.18	102.44
427.402	107.44
427.625	119.44
427.847	94.44
428.069	102.44
428.292	88.44
428.514	86.44
428.736	88.44
428.958	102.44
429.181	84.44
429.403	90.44
429.625	84.44
429.847	96.44
430.069	91.44
430.292	97.44
430.514	96.44
430.736	93.44
430.958	84.44
431.18	81.44
431.402	96.44
431.624	101.44
431.846	76.44
432.068	89.44
432.29	94.44
432.512	101.44
432.734	89.44
432.956	79.44
433.178	97.44
433.4	92.44
433.622	80.44
433.844	90.44
434.066	91.44
434.287	92.44
434.509	82.44
434.731	94.44
434.953	89.44
435.175	81.44
435.397	89.44
435.618	86.44
435.84	95.44
436.062	123.44
436.284	106.44
436.505	108.44
436.727	93.44
436.949	85.44
437.17	80.44
437.392	77.44
437.614	83.44
437.835	99.44
438.057	102.44
438.278	97.44
438.5	95.44
438.721	103.44
438.943	101.44
439.165	96.44
439.386	100.44
439.608	95.44
439.829	91.44
440.05	104.44
440.272	112.44
440.493	92.44
440.715	91.44
440.936	87.44
441.158	106.44
441.379	95.44
441.6	97.44
441.822	97.44
442.043	85.44
442.264	97.44
442.486	84.44
442.707	80.44
442.928	100.44
443.149	107.44
443.371	101.44
443.592	107.44
443.813	101.44
444.034	114.44
444.255	95.44
444.476	88.44
444.698	80.44
444.919	78.44
445.14	145.44
445.361	118.44
445.582	103.44
445.803	115.44
446.024	103.44
446.245	119.44
446.466	88.44
446.687	84.44
446.908	78.44
447.129	84.44
447.35	89.44
447.571	103.44
447.792	97.44
448.013	82.44
448.234	110.44
448.455	102.44
448.675	107.44
448.896	105.44
449.117	103.44
449.338	93.44
449.559	116.44
449.779	117.44
450	94.44
450.221	89.44
450.442	100.44
450.662	87.44
450.883	99.44
451.104	109.44
451.324	81.44
451.545	89.44
451.766	92.44
451.986	75.44
452.207	99.44
452.428	86.44
452.648	85.44
452.869	89.44
453.089	97.44
453.31	100.44
453.53	93.44
453.751	92.44
453.971	93.44
454.192	103.44
454.412	91.44
454.633	88.44
454.853	87.44
455.073	84.44
455.294	84.44
455.514	98.44
455.734	78.44
455.955	76.44
456.175	76.44
456.395	93.44
456.616	83.44
456.836	89.44
457.056	92.44
457.276	92.44
457.497	80.44
457.717	87.44
457.937	95.44
458.157	94.44
458.377	98.44
458.598	95.44
458.818	110.44
459.038	127.44
459.258	95.44
459.478	96.44
459.698	85.44
459.918	85.44
460.138	78.44
460.358	76.44
460.578	78.44
460.798	88.44
461.018	99.44
461.238	95.44
461.458	95.44
461.678	101.44
461.898	81.44
462.118	90.44
462.338	76.44
462.558	93.44
462.777	75.44
462.997	79.44
463.217	99.44
463.437	87.44
463.657	88.44
463.876	94.44
464.096	85.44
464.316	77.44
464.536	92.44
464.755	87.44
464.975	91.44
465.195	139.44
465.414	101.44
465.634	88.44
465.854	87.44
466.073	84.44
466.293	80.44
466.512	80.44
466.732	98.44
466.951	85.44
467.171	93.44
467.391	86.44
467.61	92.44
467.829	96.44
468.049	88.44
468.268	84.44
468.488	89.44
468.707	84.44
468.927	79.44
469.146	96.44
469.365	91.44
469.585	80.44
469.804	89.44
470.023	80.44
470.243	80.44
470.462	101.44
470.681	111.44
470.901	80.44
471.12	96.44
471.339	95.44
471.558	84.44
471.777	87.44
471.997	93.44
472.216	101.44
472.435	114.44
472.654	97.44
472.873	79.44
473.092	85.44
473.311	104.44
473.53	79.44
473.749	94.44
473.968	86.44
474.187	92.44
474.406	86.44
474.625	80.44
474.844	77.44
475.063	92.44
475.282	87.44
475.501	92.44
475.72	96.44
475.939	83.44
476.158	93.44
476.377	83.44
476.596	96.44
476.814	93.44
477.033	81.44
477.252	85.44
477.471	99.44
477.69	94.44
477.908	90.44
478.127	78.44
478.346	83.44
478.564	82.44
478.783	94.44
479.002	87.44
479.22	92.44
479.439	89.44
479.658	108.44
479.876	95.44
480.095	72.44
480.313	99.44
480.532	69.44
480.751	95.44
480.969	111.44
481.188	145.44
481.406	131.44
481.624	93.44
481.843	101.44
482.061	84.44
482.28	101.44
482.498	107.44
482.717	74.44
482.935	83.44
483.153	97.44
483.372	95.44
483.59	73.44
483.808	98.44
484.027	80.44
484.245	82.44
484.463	96.44
484.681	88.44
484.9	89.44
485.118	102.44
485.336	89.44
485.554	99.44
485.772	107.44
485.99	92.44
486.209	102.44
486.427	100.44
486.645	96.44
486.863	119.44
487.081	93.44
487.299	104.44
487.517	94.44
487.735	71.44
487.953	80.44
488.171	101.44
488.389	92.44
488.607	102.44
488.825	83.44
489.043	83.44
489.261	100.44
489.479	92.44
489.696	93.44
489.914	106.44
490.132	102.44
490.35	78.44
490.568	89.44
490.786	96.44
491.003	100.44
491.221	84.44
491.439	89.44
491.657	100.44
491.874	83.44
492.092	87.44
492.31	83.44
492.527	89.44
492.745	99.44
492.963	91.44
493.18	76.44
493.398	87.44
493.615	99.44
493.833	87.44
494.05	83.44
494.268	94.44
494.485	75.44
494.703	90.44
494.92	96.44
495.138	87.44
495.355	85.44
495.573	103.44
495.79	96.44
496.008	93.44
496.225	96.44
496.442	79.44
496.66	91.44
496.877	84.44
497.094	78.44
497.312	91.44
497.529	95.44
497.746	74.44
497.963	86.44
498.181	80.44
498.398	93.44
498.615	117.44
498.832	97.44
499.049	80.44
499.267	96.44
499.484	94.44
499.701	85.44
499.918	85.44
500.135	89.44
500.352	88.44
500.569	85.44
500.786	79.44
501.003	76.44
501.22	81.44
501.437	85.44
501.654	95.44
501.871	105.44
502.088	86.44
502.305	100.44
502.522	82.44
502.739	93.44
502.956	85.44
503.172	83.44
503.389	88.44
503.606	85.44
503.823	108.44
504.04	96.44
504.256	96.44
504.473	92.44
504.69	103.44
504.907	100.44
505.123	84.44
505.34	102.44
505.557	83.44
505.773	100.44
505.99	97.44
506.207	93.44
506.423	76.44
506.64	93.44
506.856	83.44
507.073	87.44
507.289	85.44
507.506	97.44
507.722	110.44
507.939	93.44
508.155	101.44
508.372	91.44
508.588	95.44
508.805	87.44
509.021	78.44
509.238	76.44
509.454	92.44
509.67	93.44
509.887	110.44
510.103	127.44
510.319	172.44
510.536	515.44
510.752	1428.44
510.968	421.44
511.184	131.44
511.401	85.44
511.617	104.44
511.833	87.44
512.049	106.44
512.265	79.44
512.481	97.44
512.698	83.44
512.914	99.44
513.13	113.44
513.346	106.44
513.562	104.44
513.778	98.44
513.994	103.44
514.21	91.44
514.426	112.44
514.642	110.44
514.858	112.44
515.074	144.44
515.29	274.44
