Data from Uncirc_1980_H10_HRD10591_00039.txt Node
Date: Wed Jan 03 12:37:03 EST 2024
User: Yrep
Spectrometer: HR+D1059
Trigger mode: 1
Integration Time (sec): 1.000000E-1
Scans to average: 1
Electric dark correction enabled: true
Nonlinearity correction enabled: false
Boxcar width: 0
XAxis mode: Wavelengths
Number of Pixels in Spectrum: 2048
>>>>>Begin Spectral Data<<<<<
223.165	-23.19
223.4	-23.19
223.635	-23.19
223.869	-15.19
224.104	-18.19
224.338	3.81
224.573	-25.19
224.808	-19.19
225.042	-9.19
225.277	-16.19
225.511	-14.19
225.746	3.81
225.98	13.81
226.215	16.81
226.449	12.81
226.683	27.81
226.918	26.81
227.152	34.81
227.387	33.81
227.621	33.81
227.856	35.81
228.09	44.81
228.324	58.81
228.559	54.81
228.793	46.81
229.027	56.81
229.262	61.81
229.496	61.81
229.73	87.81
229.964	65.81
230.199	70.81
230.433	78.81
230.667	82.81
230.901	77.81
231.136	86.81
231.37	76.81
231.604	83.81
231.838	94.81
232.072	62.81
232.306	82.81
232.541	74.81
232.775	83.81
233.009	86.81
233.243	79.81
233.477	76.81
233.711	78.81
233.945	89.81
234.179	83.81
234.413	86.81
234.647	82.81
234.881	72.81
235.115	77.81
235.349	67.81
235.583	93.81
235.817	80.81
236.051	68.81
236.285	76.81
236.519	86.81
236.753	84.81
236.987	76.81
237.221	78.81
237.455	81.81
237.689	71.81
237.922	73.81
238.156	71.81
238.39	87.81
238.624	78.81
238.858	78.81
239.091	70.81
239.325	89.81
239.559	80.81
239.793	70.81
240.027	93.81
240.26	84.81
240.494	71.81
240.728	92.81
240.961	70.81
241.195	64.81
241.429	76.81
241.662	66.81
241.896	68.81
242.13	98.81
242.363	75.81
242.597	60.81
242.83	73.81
243.064	76.81
243.298	84.81
243.531	67.81
243.765	82.81
243.998	84.81
244.232	89.81
244.465	74.81
244.699	83.81
244.932	70.81
245.166	80.81
245.399	91.81
245.633	88.81
245.866	79.81
246.099	74.81
246.333	77.81
246.566	85.81
246.8	88.81
247.033	74.81
247.266	70.81
247.5	78.81
247.733	88.81
247.966	79.81
248.2	80.81
248.433	71.81
248.666	85.81
248.899	76.81
249.133	76.81
249.366	95.81
249.599	96.81
249.832	79.81
250.066	82.81
250.299	94.81
250.532	88.81
250.765	79.81
250.998	95.81
251.231	82.81
251.465	71.81
251.698	79.81
251.931	79.81
252.164	94.81
252.397	73.81
252.63	86.81
252.863	96.81
253.096	85.81
253.329	86.81
253.562	91.81
253.795	77.81
254.028	81.81
254.261	79.81
254.494	76.81
254.727	75.81
254.96	80.81
255.193	89.81
255.426	94.81
255.659	80.81
255.892	82.81
256.124	92.81
256.357	88.81
256.59	102.81
256.823	82.81
257.056	73.81
257.289	88.81
257.521	73.81
257.754	79.81
257.987	87.81
258.22	85.81
258.452	79.81
258.685	83.81
258.918	73.81
259.151	82.81
259.383	91.81
259.616	83.81
259.849	71.81
260.081	78.81
260.314	76.81
260.547	70.81
260.779	83.81
261.012	78.81
261.244	82.81
261.477	81.81
261.71	95.81
261.942	97.81
262.175	107.81
262.407	80.81
262.64	76.81
262.872	83.81
263.105	88.81
263.337	76.81
263.57	78.81
263.802	85.81
264.035	78.81
264.267	80.81
264.499	78.81
264.732	87.81
264.964	92.81
265.197	88.81
265.429	84.81
265.661	75.81
265.894	88.81
266.126	85.81
266.358	99.81
266.591	90.81
266.823	93.81
267.055	89.81
267.287	83.81
267.52	95.81
267.752	93.81
267.984	78.81
268.216	79.81
268.448	80.81
268.681	82.81
268.913	91.81
269.145	83.81
269.377	83.81
269.609	80.81
269.841	96.81
270.073	82.81
270.306	79.81
270.538	84.81
270.77	85.81
271.002	86.81
271.234	92.81
271.466	95.81
271.698	77.81
271.93	86.81
272.162	74.81
272.394	82.81
272.626	99.81
272.858	73.81
273.09	68.81
273.322	93.81
273.553	87.81
273.785	90.81
274.017	76.81
274.249	89.81
274.481	68.81
274.713	81.81
274.945	79.81
275.176	82.81
275.408	86.81
275.64	85.81
275.872	89.81
276.104	95.81
276.335	88.81
276.567	97.81
276.799	105.81
277.031	96.81
277.262	106.81
277.494	79.81
277.726	98.81
277.957	80.81
278.189	78.81
278.421	75.81
278.652	94.81
278.884	82.81
279.115	92.81
279.347	88.81
279.579	78.81
279.81	93.81
280.042	78.81
280.273	82.81
280.505	90.81
280.736	82.81
280.968	84.81
281.199	100.81
281.431	81.81
281.662	88.81
281.894	83.81
282.125	102.81
282.356	110.81
282.588	120.81
282.819	110.81
283.051	86.81
283.282	87.81
283.513	72.81
283.745	80.81
283.976	86.81
284.207	84.81
284.439	93.81
284.67	92.81
284.901	93.81
285.132	79.81
285.364	92.81
285.595	91.81
285.826	94.81
286.057	81.81
286.288	81.81
286.52	77.81
286.751	78.81
286.982	82.81
287.213	86.81
287.444	89.81
287.675	80.81
287.906	88.81
288.138	98.81
288.369	86.81
288.6	90.81
288.831	96.81
289.062	91.81
289.293	85.81
289.524	96.81
289.755	77.81
289.986	78.81
290.217	83.81
290.448	68.81
290.679	95.81
290.91	90.81
291.141	86.81
291.371	85.81
291.602	87.81
291.833	80.81
292.064	89.81
292.295	84.81
292.526	75.81
292.757	88.81
292.987	86.81
293.218	99.81
293.449	86.81
293.68	92.81
293.91	79.81
294.141	103.81
294.372	95.81
294.603	84.81
294.833	94.81
295.064	104.81
295.295	78.81
295.525	93.81
295.756	98.81
295.987	106.81
296.217	110.81
296.448	112.81
296.679	93.81
296.909	92.81
297.14	94.81
297.37	86.81
297.601	99.81
297.831	86.81
298.062	110.81
298.292	85.81
298.523	79.81
298.753	90.81
298.984	100.81
299.214	98.81
299.445	103.81
299.675	97.81
299.905	99.81
300.136	96.81
300.366	94.81
300.597	88.81
300.827	68.81
301.057	82.81
301.288	93.81
301.518	86.81
301.748	86.81
301.979	104.81
302.209	87.81
302.439	89.81
302.669	92.81
302.9	82.81
303.13	103.81
303.36	93.81
303.59	95.81
303.82	72.81
304.051	89.81
304.281	93.81
304.511	104.81
304.741	91.81
304.971	87.81
305.201	77.81
305.431	97.81
305.661	85.81
305.891	86.81
306.121	83.81
306.352	95.81
306.582	95.81
306.812	77.81
307.042	91.81
307.272	95.81
307.502	85.81
307.731	82.81
307.961	85.81
308.191	98.81
308.421	71.81
308.651	81.81
308.881	104.81
309.111	98.81
309.341	86.81
309.571	102.81
309.8	82.81
310.03	90.81
310.26	89.81
310.49	99.81
310.72	96.81
310.949	102.81
311.179	91.81
311.409	99.81
311.639	85.81
311.868	92.81
312.098	107.81
312.328	117.81
312.557	82.81
312.787	100.81
313.017	95.81
313.246	99.81
313.476	99.81
313.706	91.81
313.935	86.81
314.165	97.81
314.394	85.81
314.624	95.81
314.853	96.81
315.083	84.81
315.312	94.81
315.542	87.81
315.771	90.81
316.001	86.81
316.23	96.81
316.46	87.81
316.689	86.81
316.919	98.81
317.148	108.81
317.377	86.81
317.607	94.81
317.836	89.81
318.065	94.81
318.295	92.81
318.524	87.81
318.753	92.81
318.983	92.81
319.212	79.81
319.441	90.81
319.67	93.81
319.9	95.81
320.129	107.81
320.358	98.81
320.587	94.81
320.816	95.81
321.046	98.81
321.275	99.81
321.504	93.81
321.733	96.81
321.962	108.81
322.191	108.81
322.42	110.81
322.649	108.81
322.878	110.81
323.108	107.81
323.337	103.81
323.566	107.81
323.795	131.81
324.024	171.81
324.253	297.81
324.482	609.81
324.71	1174.81
324.939	1567.81
325.168	592.81
325.397	200.81
325.626	150.81
325.855	112.81
326.084	118.81
326.313	123.81
326.542	135.81
326.77	186.81
326.999	354.81
327.228	684.81
327.457	1211.81
327.686	975.81
327.914	294.81
328.143	169.81
328.372	137.81
328.6	125.81
328.829	102.81
329.058	115.81
329.287	114.81
329.515	120.81
329.744	102.81
329.972	106.81
330.201	108.81
330.43	120.81
330.658	118.81
330.887	129.81
331.115	110.81
331.344	89.81
331.572	93.81
331.801	106.81
332.03	103.81
332.258	98.81
332.486	88.81
332.715	86.81
332.943	92.81
333.172	104.81
333.4	90.81
333.629	109.81
333.857	111.81
334.085	103.81
334.314	108.81
334.542	110.81
334.771	137.81
334.999	96.81
335.227	106.81
335.455	101.81
335.684	91.81
335.912	98.81
336.14	92.81
336.369	101.81
336.597	100.81
336.825	96.81
337.053	99.81
337.281	100.81
337.51	97.81
337.738	92.81
337.966	93.81
338.194	104.81
338.422	76.81
338.65	101.81
338.878	100.81
339.106	88.81
339.334	99.81
339.562	89.81
339.79	96.81
340.018	96.81
340.246	84.81
340.474	98.81
340.702	87.81
340.93	91.81
341.158	95.81
341.386	100.81
341.614	79.81
341.842	102.81
342.07	101.81
342.298	97.81
342.526	106.81
342.754	80.81
342.981	78.81
343.209	92.81
343.437	108.81
343.665	74.81
343.893	86.81
344.12	96.81
344.348	85.81
344.576	90.81
344.804	96.81
345.031	90.81
345.259	101.81
345.487	101.81
345.714	107.81
345.942	99.81
346.17	98.81
346.397	87.81
346.625	86.81
346.853	90.81
347.08	94.81
347.308	88.81
347.535	88.81
347.763	82.81
347.99	105.81
348.218	100.81
348.445	98.81
348.673	95.81
348.9	90.81
349.128	100.81
349.355	88.81
349.583	94.81
349.81	99.81
350.037	88.81
350.265	93.81
350.492	92.81
350.72	90.81
350.947	91.81
351.174	106.81
351.402	103.81
351.629	106.81
351.856	98.81
352.083	94.81
352.311	83.81
352.538	117.81
352.765	112.81
352.992	96.81
353.22	99.81
353.447	109.81
353.674	101.81
353.901	105.81
354.128	82.81
354.355	102.81
354.583	102.81
354.81	96.81
355.037	86.81
355.264	108.81
355.491	106.81
355.718	93.81
355.945	106.81
356.172	107.81
356.399	95.81
356.626	102.81
356.853	87.81
357.08	86.81
357.307	94.81
357.534	86.81
357.761	89.81
357.988	94.81
358.215	96.81
358.441	99.81
358.668	93.81
358.895	83.81
359.122	89.81
359.349	88.81
359.576	90.81
359.802	105.81
360.029	110.81
360.256	94.81
360.483	95.81
360.709	91.81
360.936	86.81
361.163	99.81
361.39	100.81
361.616	101.81
361.843	91.81
362.07	95.81
362.296	95.81
362.523	102.81
362.749	94.81
362.976	100.81
363.203	89.81
363.429	95.81
363.656	100.81
363.882	91.81
364.109	92.81
364.335	99.81
364.562	96.81
364.788	92.81
365.015	90.81
365.241	100.81
365.468	108.81
365.694	108.81
365.92	92.81
366.147	77.81
366.373	82.81
366.599	82.81
366.826	88.81
367.052	90.81
367.278	84.81
367.505	93.81
367.731	91.81
367.957	88.81
368.184	100.81
368.41	102.81
368.636	110.81
368.862	108.81
369.089	100.81
369.315	96.81
369.541	95.81
369.767	94.81
369.993	82.81
370.219	90.81
370.445	87.81
370.672	83.81
370.898	93.81
371.124	78.81
371.35	79.81
371.576	90.81
371.802	100.81
372.028	85.81
372.254	79.81
372.48	94.81
372.706	94.81
372.932	90.81
373.158	93.81
373.384	86.81
373.61	84.81
373.835	95.81
374.061	77.81
374.287	98.81
374.513	98.81
374.739	97.81
374.965	97.81
375.191	100.81
375.416	84.81
375.642	90.81
375.868	85.81
376.094	95.81
376.319	89.81
376.545	89.81
376.771	98.81
376.997	90.81
377.222	104.81
377.448	92.81
377.674	80.81
377.899	90.81
378.125	97.81
378.35	85.81
378.576	94.81
378.802	95.81
379.027	87.81
379.253	102.81
379.478	100.81
379.704	91.81
379.929	103.81
380.155	98.81
380.38	107.81
380.606	99.81
380.831	81.81
381.057	109.81
381.282	92.81
381.507	97.81
381.733	103.81
381.958	98.81
382.184	97.81
382.409	99.81
382.634	92.81
382.86	96.81
383.085	113.81
383.31	112.81
383.535	107.81
383.761	101.81
383.986	109.81
384.211	108.81
384.436	106.81
384.662	106.81
384.887	109.81
385.112	105.81
385.337	92.81
385.562	108.81
385.787	108.81
386.013	112.81
386.238	123.81
386.463	115.81
386.688	97.81
386.913	117.81
387.138	103.81
387.363	113.81
387.588	106.81
387.813	108.81
388.038	109.81
388.263	126.81
388.488	127.81
388.713	104.81
388.938	103.81
389.163	82.81
389.387	90.81
389.612	101.81
389.837	91.81
390.062	94.81
390.287	97.81
390.512	86.81
390.736	84.81
390.961	86.81
391.186	103.81
391.411	96.81
391.636	98.81
391.86	76.81
392.085	87.81
392.31	93.81
392.534	94.81
392.759	87.81
392.984	86.81
393.208	77.81
393.433	90.81
393.658	84.81
393.882	95.81
394.107	80.81
394.331	83.81
394.556	87.81
394.78	90.81
395.005	93.81
395.229	83.81
395.454	95.81
395.678	86.81
395.903	83.81
396.127	93.81
396.352	79.81
396.576	91.81
396.801	102.81
397.025	90.81
397.249	78.81
397.474	91.81
397.698	90.81
397.922	94.81
398.147	80.81
398.371	92.81
398.595	83.81
398.82	91.81
399.044	94.81
399.268	87.81
399.492	99.81
399.717	91.81
399.941	87.81
400.165	73.81
400.389	83.81
400.613	82.81
400.837	84.81
401.062	89.81
401.286	94.81
401.51	86.81
401.734	85.81
401.958	85.81
402.182	118.81
402.406	148.81
402.63	106.81
402.854	97.81
403.078	99.81
403.302	88.81
403.526	93.81
403.75	93.81
403.974	98.81
404.198	84.81
404.422	80.81
404.645	79.81
404.869	91.81
405.093	93.81
405.317	98.81
405.541	91.81
405.765	87.81
405.988	118.81
406.212	146.81
406.436	196.81
406.66	138.81
406.883	96.81
407.107	100.81
407.331	102.81
407.555	105.81
407.778	97.81
408.002	80.81
408.226	95.81
408.449	81.81
408.673	95.81
408.896	102.81
409.12	85.81
409.344	84.81
409.567	80.81
409.791	92.81
410.014	104.81
410.238	100.81
410.461	88.81
410.685	89.81
410.908	84.81
411.132	93.81
411.355	90.81
411.578	75.81
411.802	86.81
412.025	94.81
412.249	92.81
412.472	93.81
412.695	82.81
412.919	91.81
413.142	89.81
413.365	84.81
413.589	93.81
413.812	104.81
414.035	84.81
414.258	79.81
414.482	96.81
414.705	77.81
414.928	90.81
415.151	86.81
415.374	105.81
415.597	95.81
415.821	92.81
416.044	98.81
416.267	85.81
416.49	90.81
416.713	84.81
416.936	90.81
417.159	82.81
417.382	100.81
417.605	92.81
417.828	106.81
418.051	90.81
418.274	91.81
418.497	74.81
418.72	96.81
418.943	74.81
419.166	72.81
419.389	88.81
419.611	105.81
419.834	84.81
420.057	99.81
420.28	90.81
420.503	75.81
420.726	88.81
420.948	100.81
421.171	106.81
421.394	102.81
421.617	92.81
421.839	80.81
422.062	102.81
422.285	79.81
422.507	96.81
422.73	94.81
422.953	99.81
423.175	101.81
423.398	91.81
423.621	94.81
423.843	86.81
424.066	80.81
424.288	82.81
424.511	89.81
424.733	94.81
424.956	85.81
425.178	104.81
425.401	86.81
425.623	106.81
425.846	95.81
426.068	98.81
426.291	86.81
426.513	88.81
426.735	109.81
426.958	94.81
427.18	100.81
427.402	125.81
427.625	143.81
427.847	111.81
428.069	93.81
428.292	92.81
428.514	83.81
428.736	85.81
428.958	84.81
429.181	86.81
429.403	76.81
429.625	84.81
429.847	96.81
430.069	96.81
430.292	92.81
430.514	90.81
430.736	90.81
430.958	92.81
431.18	77.81
431.402	90.81
431.624	78.81
431.846	80.81
432.068	107.81
432.29	91.81
432.512	99.81
432.734	83.81
432.956	75.81
433.178	107.81
433.4	112.81
433.622	89.81
433.844	91.81
434.066	91.81
434.287	79.81
434.509	114.81
434.731	87.81
434.953	87.81
435.175	83.81
435.397	94.81
435.618	80.81
435.84	78.81
436.062	109.81
436.284	93.81
436.505	99.81
436.727	83.81
436.949	83.81
437.17	89.81
437.392	97.81
437.614	86.81
437.835	95.81
438.057	89.81
438.278	109.81
438.5	89.81
438.721	113.81
438.943	95.81
439.165	88.81
439.386	80.81
439.608	95.81
439.829	83.81
440.05	98.81
440.272	126.81
440.493	74.81
440.715	86.81
440.936	88.81
441.158	88.81
441.379	86.81
441.6	100.81
441.822	90.81
442.043	97.81
442.264	103.81
442.486	106.81
442.707	83.81
442.928	98.81
443.149	97.81
443.371	117.81
443.592	99.81
443.813	104.81
444.034	103.81
444.255	94.81
444.476	80.81
444.698	86.81
444.919	93.81
445.14	131.81
445.361	110.81
445.582	111.81
445.803	103.81
446.024	104.81
446.245	99.81
446.466	89.81
446.687	93.81
446.908	85.81
447.129	80.81
447.35	91.81
447.571	104.81
447.792	95.81
448.013	95.81
448.234	100.81
448.455	99.81
448.675	92.81
448.896	111.81
449.117	90.81
449.338	97.81
449.559	119.81
449.779	107.81
450	88.81
450.221	91.81
450.442	94.81
450.662	86.81
450.883	95.81
451.104	103.81
451.324	88.81
451.545	71.81
451.766	88.81
451.986	83.81
452.207	83.81
452.428	92.81
452.648	99.81
452.869	109.81
453.089	110.81
453.31	103.81
453.53	95.81
453.751	77.81
453.971	93.81
454.192	105.81
454.412	101.81
454.633	92.81
454.853	91.81
455.073	87.81
455.294	87.81
455.514	90.81
455.734	90.81
455.955	89.81
456.175	93.81
456.395	91.81
456.616	81.81
456.836	91.81
457.056	89.81
457.276	90.81
457.497	92.81
457.717	72.81
457.937	82.81
458.157	98.81
458.377	85.81
458.598	111.81
458.818	109.81
459.038	125.81
459.258	95.81
459.478	91.81
459.698	78.81
459.918	82.81
460.138	91.81
460.358	96.81
460.578	91.81
460.798	80.81
461.018	92.81
461.238	96.81
461.458	96.81
461.678	92.81
461.898	92.81
462.118	94.81
462.338	90.81
462.558	90.81
462.777	94.81
462.997	91.81
463.217	68.81
463.437	91.81
463.657	86.81
463.876	96.81
464.096	86.81
464.316	91.81
464.536	81.81
464.755	89.81
464.975	109.81
465.195	142.81
465.414	126.81
465.634	97.81
465.854	98.81
466.073	93.81
466.293	89.81
466.512	83.81
466.732	90.81
466.951	80.81
467.171	95.81
467.391	93.81
467.61	89.81
467.829	91.81
468.049	96.81
468.268	99.81
468.488	95.81
468.707	91.81
468.927	83.81
469.146	87.81
469.365	83.81
469.585	82.81
469.804	91.81
470.023	101.81
470.243	92.81
470.462	107.81
470.681	91.81
470.901	106.81
471.12	79.81
471.339	92.81
471.558	88.81
471.777	88.81
471.997	95.81
472.216	113.81
472.435	127.81
472.654	82.81
472.873	90.81
473.092	86.81
473.311	79.81
473.53	88.81
473.749	80.81
473.968	89.81
474.187	107.81
474.406	79.81
474.625	96.81
474.844	89.81
475.063	107.81
475.282	84.81
475.501	95.81
475.72	95.81
475.939	87.81
476.158	92.81
476.377	90.81
476.596	74.81
476.814	98.81
477.033	88.81
477.252	87.81
477.471	90.81
477.69	91.81
477.908	91.81
478.127	72.81
478.346	100.81
478.564	100.81
478.783	100.81
479.002	89.81
479.22	107.81
479.439	107.81
479.658	93.81
479.876	82.81
480.095	79.81
480.313	95.81
480.532	103.81
480.751	86.81
480.969	115.81
481.188	198.81
481.406	141.81
481.624	97.81
481.843	90.81
482.061	79.81
482.28	105.81
482.498	85.81
482.717	82.81
482.935	90.81
483.153	90.81
483.372	93.81
483.59	90.81
483.808	79.81
484.027	88.81
484.245	93.81
484.463	90.81
484.681	98.81
484.9	93.81
485.118	109.81
485.336	98.81
485.554	102.81
485.772	92.81
485.99	102.81
486.209	107.81
486.427	103.81
486.645	102.81
486.863	111.81
487.081	92.81
487.299	95.81
487.517	94.81
487.735	98.81
487.953	96.81
488.171	88.81
488.389	101.81
488.607	91.81
488.825	78.81
489.043	90.81
489.261	93.81
489.479	95.81
489.696	95.81
489.914	102.81
490.132	92.81
490.35	102.81
490.568	101.81
490.786	79.81
491.003	87.81
491.221	90.81
491.439	94.81
491.657	82.81
491.874	69.81
492.092	86.81
492.31	80.81
492.527	82.81
492.745	90.81
492.963	100.81
493.18	97.81
493.398	103.81
493.615	80.81
493.833	94.81
494.05	98.81
494.268	77.81
494.485	87.81
494.703	87.81
494.92	101.81
495.138	96.81
495.355	84.81
495.573	88.81
495.79	104.81
496.008	98.81
496.225	84.81
496.442	80.81
496.66	89.81
496.877	82.81
497.094	91.81
497.312	101.81
497.529	94.81
497.746	72.81
497.963	95.81
498.181	91.81
498.398	108.81
498.615	107.81
498.832	102.81
499.049	87.81
499.267	98.81
499.484	87.81
499.701	92.81
499.918	100.81
500.135	85.81
500.352	95.81
500.569	86.81
500.786	107.81
501.003	79.81
501.22	74.81
501.437	92.81
501.654	98.81
501.871	105.81
502.088	76.81
502.305	97.81
502.522	92.81
502.739	88.81
502.956	82.81
503.172	99.81
503.389	89.81
503.606	101.81
503.823	101.81
504.04	83.81
504.256	102.81
504.473	92.81
504.69	93.81
504.907	97.81
505.123	98.81
505.34	93.81
505.557	88.81
505.773	79.81
505.99	89.81
506.207	91.81
506.423	85.81
506.64	94.81
506.856	84.81
507.073	88.81
507.289	98.81
507.506	93.81
507.722	107.81
507.939	100.81
508.155	84.81
508.372	86.81
508.588	103.81
508.805	95.81
509.021	84.81
509.238	91.81
509.454	79.81
509.67	102.81
509.887	107.81
510.103	128.81
510.319	195.81
510.536	636.81
510.752	1924.81
510.968	533.81
511.184	137.81
511.401	118.81
511.617	105.81
511.833	82.81
512.049	92.81
512.265	111.81
512.481	89.81
512.698	91.81
512.914	88.81
513.13	94.81
513.346	102.81
513.562	92.81
513.778	88.81
513.994	101.81
514.21	100.81
514.426	112.81
514.642	119.81
514.858	124.81
515.074	153.81
515.29	352.81
515.506	1110.81
515.721	448.81
