Data from Uncirc_1980_H10_HRD10591_00098.txt Node
Date: Wed Jan 03 12:37:15 EST 2024
User: Yrep
Spectrometer: HR+D1059
Trigger mode: 1
Integration Time (sec): 1.000000E-1
Scans to average: 1
Electric dark correction enabled: true
Nonlinearity correction enabled: false
Boxcar width: 0
XAxis mode: Wavelengths
Number of Pixels in Spectrum: 2048
>>>>>Begin Spectral Data<<<<<
223.165	-22.75
223.4	-22.75
223.635	-22.75
223.869	-13.75
224.104	-21.75
224.338	-11.75
224.573	-17.75
224.808	-16.75
225.042	-5.75
225.277	10.25
225.511	-2.75
225.746	7.25
225.98	-1.75
226.215	8.25
226.449	12.25
226.683	23.25
226.918	19.25
227.152	34.25
227.387	43.25
227.621	35.25
227.856	33.25
228.09	45.25
228.324	45.25
228.559	62.25
228.793	51.25
229.027	55.25
229.262	66.25
229.496	71.25
229.73	70.25
229.964	84.25
230.199	71.25
230.433	68.25
230.667	89.25
230.901	71.25
231.136	72.25
231.37	80.25
231.604	78.25
231.838	75.25
232.072	63.25
232.306	66.25
232.541	75.25
232.775	78.25
233.009	87.25
233.243	88.25
233.477	65.25
233.711	82.25
233.945	88.25
234.179	80.25
234.413	79.25
234.647	70.25
234.881	80.25
235.115	70.25
235.349	58.25
235.583	71.25
235.817	58.25
236.051	74.25
236.285	55.25
236.519	58.25
236.753	73.25
236.987	74.25
237.221	70.25
237.455	70.25
237.689	75.25
237.922	59.25
238.156	69.25
238.39	67.25
238.624	81.25
238.858	76.25
239.091	86.25
239.325	84.25
239.559	62.25
239.793	55.25
240.027	80.25
240.26	83.25
240.494	69.25
240.728	69.25
240.961	63.25
241.195	71.25
241.429	81.25
241.662	62.25
241.896	68.25
242.13	70.25
242.363	71.25
242.597	80.25
242.83	67.25
243.064	79.25
243.298	68.25
243.531	78.25
243.765	84.25
243.998	80.25
244.232	78.25
244.465	66.25
244.699	81.25
244.932	78.25
245.166	80.25
245.399	77.25
245.633	84.25
245.866	75.25
246.099	82.25
246.333	83.25
246.566	58.25
246.8	64.25
247.033	70.25
247.266	89.25
247.5	85.25
247.733	76.25
247.966	76.25
248.2	79.25
248.433	85.25
248.666	84.25
248.899	82.25
249.133	81.25
249.366	96.25
249.599	80.25
249.832	73.25
250.066	72.25
250.299	70.25
250.532	68.25
250.765	64.25
250.998	52.25
251.231	58.25
251.465	78.25
251.698	83.25
251.931	69.25
252.164	78.25
252.397	79.25
252.63	78.25
252.863	79.25
253.096	73.25
253.329	70.25
253.562	73.25
253.795	69.25
254.028	89.25
254.261	68.25
254.494	67.25
254.727	80.25
254.96	87.25
255.193	88.25
255.426	90.25
255.659	79.25
255.892	86.25
256.124	71.25
256.357	76.25
256.59	78.25
256.823	82.25
257.056	71.25
257.289	90.25
257.521	86.25
257.754	76.25
257.987	66.25
258.22	76.25
258.452	85.25
258.685	84.25
258.918	79.25
259.151	73.25
259.383	75.25
259.616	68.25
259.849	78.25
260.081	86.25
260.314	71.25
260.547	79.25
260.779	78.25
261.012	80.25
261.244	86.25
261.477	89.25
261.71	82.25
261.942	91.25
262.175	80.25
262.407	72.25
262.64	70.25
262.872	78.25
263.105	87.25
263.337	85.25
263.57	82.25
263.802	86.25
264.035	83.25
264.267	73.25
264.499	86.25
264.732	75.25
264.964	82.25
265.197	75.25
265.429	70.25
265.661	91.25
265.894	82.25
266.126	72.25
266.358	81.25
266.591	78.25
266.823	83.25
267.055	75.25
267.287	92.25
267.52	82.25
267.752	81.25
267.984	83.25
268.216	67.25
268.448	78.25
268.681	88.25
268.913	87.25
269.145	74.25
269.377	69.25
269.609	72.25
269.841	87.25
270.073	94.25
270.306	78.25
270.538	73.25
270.77	92.25
271.002	85.25
271.234	77.25
271.466	80.25
271.698	90.25
271.93	73.25
272.162	91.25
272.394	76.25
272.626	82.25
272.858	74.25
273.09	83.25
273.322	90.25
273.553	94.25
273.785	85.25
274.017	73.25
274.249	83.25
274.481	74.25
274.713	72.25
274.945	84.25
275.176	73.25
275.408	86.25
275.64	73.25
275.872	89.25
276.104	85.25
276.335	84.25
276.567	89.25
276.799	101.25
277.031	100.25
277.262	89.25
277.494	71.25
277.726	84.25
277.957	81.25
278.189	71.25
278.421	92.25
278.652	83.25
278.884	68.25
279.115	74.25
279.347	80.25
279.579	78.25
279.81	81.25
280.042	94.25
280.273	97.25
280.505	81.25
280.736	89.25
280.968	84.25
281.199	84.25
281.431	68.25
281.662	74.25
281.894	73.25
282.125	90.25
282.356	122.25
282.588	119.25
282.819	110.25
283.051	92.25
283.282	78.25
283.513	75.25
283.745	82.25
283.976	78.25
284.207	86.25
284.439	79.25
284.67	92.25
284.901	87.25
285.132	80.25
285.364	79.25
285.595	86.25
285.826	89.25
286.057	83.25
286.288	80.25
286.52	98.25
286.751	86.25
286.982	83.25
287.213	79.25
287.444	98.25
287.675	87.25
287.906	82.25
288.138	89.25
288.369	95.25
288.6	85.25
288.831	86.25
289.062	86.25
289.293	90.25
289.524	83.25
289.755	96.25
289.986	78.25
290.217	90.25
290.448	73.25
290.679	85.25
290.91	75.25
291.141	84.25
291.371	91.25
291.602	78.25
291.833	76.25
292.064	86.25
292.295	76.25
292.526	86.25
292.757	85.25
292.987	84.25
293.218	73.25
293.449	96.25
293.68	86.25
293.91	90.25
294.141	84.25
294.372	94.25
294.603	94.25
294.833	91.25
295.064	86.25
295.295	89.25
295.525	95.25
295.756	96.25
295.987	111.25
296.217	129.25
296.448	106.25
296.679	85.25
296.909	85.25
297.14	86.25
297.37	87.25
297.601	79.25
297.831	90.25
298.062	96.25
298.292	96.25
298.523	80.25
298.753	82.25
298.984	90.25
299.214	92.25
299.445	84.25
299.675	84.25
299.905	85.25
300.136	79.25
300.366	88.25
300.597	82.25
300.827	89.25
301.057	96.25
301.288	78.25
301.518	75.25
301.748	82.25
301.979	103.25
302.209	85.25
302.439	92.25
302.669	83.25
302.9	87.25
303.13	90.25
303.36	92.25
303.59	96.25
303.82	114.25
304.051	76.25
304.281	103.25
304.511	100.25
304.741	84.25
304.971	86.25
305.201	90.25
305.431	66.25
305.661	96.25
305.891	84.25
306.121	81.25
306.352	87.25
306.582	95.25
306.812	95.25
307.042	86.25
307.272	85.25
307.502	91.25
307.731	72.25
307.961	89.25
308.191	86.25
308.421	85.25
308.651	95.25
308.881	81.25
309.111	91.25
309.341	102.25
309.571	91.25
309.8	99.25
310.03	86.25
310.26	87.25
310.49	87.25
310.72	110.25
310.949	87.25
311.179	91.25
311.409	81.25
311.639	89.25
311.868	84.25
312.098	85.25
312.328	80.25
312.557	106.25
312.787	88.25
313.017	96.25
313.246	108.25
313.476	83.25
313.706	96.25
313.935	92.25
314.165	92.25
314.394	83.25
314.624	96.25
314.853	90.25
315.083	86.25
315.312	90.25
315.542	89.25
315.771	95.25
316.001	87.25
316.23	83.25
316.46	93.25
316.689	75.25
316.919	97.25
317.148	92.25
317.377	79.25
317.607	81.25
317.836	71.25
318.065	83.25
318.295	84.25
318.524	91.25
318.753	94.25
318.983	95.25
319.212	106.25
319.441	103.25
319.67	98.25
319.9	82.25
320.129	81.25
320.358	106.25
320.587	88.25
320.816	82.25
321.046	105.25
321.275	90.25
321.504	74.25
321.733	94.25
321.962	95.25
322.191	95.25
322.42	99.25
322.649	100.25
322.878	97.25
323.108	116.25
323.337	110.25
323.566	117.25
323.795	140.25
324.024	178.25
324.253	297.25
324.482	664.25
324.71	1330.25
324.939	1756.25
325.168	655.25
325.397	206.25
325.626	136.25
325.855	127.25
326.084	117.25
326.313	107.25
326.542	146.25
326.77	202.25
326.999	362.25
327.228	754.25
327.457	1370.25
327.686	1111.25
327.914	314.25
328.143	178.25
328.372	124.25
328.6	117.25
328.829	122.25
329.058	118.25
329.287	123.25
329.515	100.25
329.744	97.25
329.972	110.25
330.201	100.25
330.43	120.25
330.658	105.25
330.887	124.25
331.115	102.25
331.344	91.25
331.572	100.25
331.801	97.25
332.03	102.25
332.258	90.25
332.486	91.25
332.715	79.25
332.943	82.25
333.172	85.25
333.4	84.25
333.629	96.25
333.857	116.25
334.085	106.25
334.314	115.25
334.542	114.25
334.771	114.25
334.999	89.25
335.227	95.25
335.455	87.25
335.684	89.25
335.912	96.25
336.14	82.25
336.369	100.25
336.597	95.25
336.825	97.25
337.053	82.25
337.281	83.25
337.51	94.25
337.738	104.25
337.966	88.25
338.194	84.25
338.422	97.25
338.65	94.25
338.878	72.25
339.106	94.25
339.334	87.25
339.562	104.25
339.79	98.25
340.018	108.25
340.246	104.25
340.474	99.25
340.702	89.25
340.93	76.25
341.158	94.25
341.386	84.25
341.614	85.25
341.842	91.25
342.07	81.25
342.298	73.25
342.526	88.25
342.754	62.25
342.981	81.25
343.209	86.25
343.437	94.25
343.665	74.25
343.893	97.25
344.12	86.25
344.348	88.25
344.576	90.25
344.804	90.25
345.031	89.25
345.259	100.25
345.487	102.25
345.714	62.25
345.942	80.25
346.17	86.25
346.397	94.25
346.625	98.25
346.853	84.25
347.08	84.25
347.308	94.25
347.535	91.25
347.763	99.25
347.99	96.25
348.218	94.25
348.445	78.25
348.673	87.25
348.9	88.25
349.128	87.25
349.355	89.25
349.583	91.25
349.81	90.25
350.037	94.25
350.265	88.25
350.492	83.25
350.72	82.25
350.947	105.25
351.174	103.25
351.402	101.25
351.629	104.25
351.856	100.25
352.083	90.25
352.311	107.25
352.538	103.25
352.765	97.25
352.992	105.25
353.22	118.25
353.447	97.25
353.674	95.25
353.901	100.25
354.128	88.25
354.355	100.25
354.583	91.25
354.81	97.25
355.037	94.25
355.264	94.25
355.491	97.25
355.718	98.25
355.945	96.25
356.172	111.25
356.399	83.25
356.626	102.25
356.853	94.25
357.08	88.25
357.307	97.25
357.534	93.25
357.761	87.25
357.988	90.25
358.215	100.25
358.441	93.25
358.668	94.25
358.895	96.25
359.122	95.25
359.349	91.25
359.576	90.25
359.802	105.25
360.029	105.25
360.256	105.25
360.483	86.25
360.709	82.25
360.936	80.25
361.163	87.25
361.39	92.25
361.616	89.25
361.843	88.25
362.07	82.25
362.296	88.25
362.523	83.25
362.749	86.25
362.976	82.25
363.203	100.25
363.429	86.25
363.656	71.25
363.882	88.25
364.109	97.25
364.335	98.25
364.562	82.25
364.788	79.25
365.015	86.25
365.241	96.25
365.468	108.25
365.694	116.25
365.92	91.25
366.147	97.25
366.373	83.25
366.599	85.25
366.826	73.25
367.052	84.25
367.278	96.25
367.505	85.25
367.731	88.25
367.957	82.25
368.184	88.25
368.41	94.25
368.636	112.25
368.862	113.25
369.089	94.25
369.315	105.25
369.541	84.25
369.767	85.25
369.993	90.25
370.219	73.25
370.445	87.25
370.672	95.25
370.898	88.25
371.124	78.25
371.35	75.25
371.576	74.25
371.802	73.25
372.028	86.25
372.254	103.25
372.48	76.25
372.706	80.25
372.932	90.25
373.158	90.25
373.384	89.25
373.61	103.25
373.835	76.25
374.061	96.25
374.287	81.25
374.513	65.25
374.739	82.25
374.965	82.25
375.191	85.25
375.416	87.25
375.642	84.25
375.868	81.25
376.094	98.25
376.319	93.25
376.545	92.25
376.771	84.25
376.997	96.25
377.222	104.25
377.448	87.25
377.674	94.25
377.899	97.25
378.125	90.25
378.35	79.25
378.576	90.25
378.802	88.25
379.027	95.25
379.253	95.25
379.478	78.25
379.704	91.25
379.929	77.25
380.155	86.25
380.38	90.25
380.606	99.25
380.831	91.25
381.057	98.25
381.282	79.25
381.507	95.25
381.733	87.25
381.958	89.25
382.184	90.25
382.409	110.25
382.634	94.25
382.86	107.25
383.085	78.25
383.31	89.25
383.535	97.25
383.761	69.25
383.986	86.25
384.211	102.25
384.436	94.25
384.662	97.25
384.887	98.25
385.112	103.25
385.337	98.25
385.562	95.25
385.787	114.25
386.013	88.25
386.238	99.25
386.463	110.25
386.688	107.25
386.913	110.25
387.138	102.25
387.363	103.25
387.588	87.25
387.813	98.25
388.038	103.25
388.263	100.25
388.488	91.25
388.713	83.25
388.938	91.25
389.163	94.25
389.387	86.25
389.612	103.25
389.837	89.25
390.062	94.25
390.287	82.25
390.512	90.25
390.736	78.25
390.961	86.25
391.186	108.25
391.411	86.25
391.636	100.25
391.86	101.25
392.085	66.25
392.31	86.25
392.534	67.25
392.759	88.25
392.984	86.25
393.208	86.25
393.433	89.25
393.658	94.25
393.882	92.25
394.107	74.25
394.331	82.25
394.556	89.25
394.78	86.25
395.005	92.25
395.229	82.25
395.454	83.25
395.678	92.25
395.903	73.25
396.127	89.25
396.352	75.25
396.576	70.25
396.801	75.25
397.025	86.25
397.249	88.25
397.474	80.25
397.698	83.25
397.922	88.25
398.147	82.25
398.371	81.25
398.595	79.25
398.82	88.25
399.044	90.25
399.268	92.25
399.492	92.25
399.717	95.25
399.941	80.25
400.165	91.25
400.389	85.25
400.613	69.25
400.837	84.25
401.062	88.25
401.286	98.25
401.51	92.25
401.734	103.25
401.958	93.25
402.182	126.25
402.406	128.25
402.63	113.25
402.854	94.25
403.078	85.25
403.302	94.25
403.526	89.25
403.75	81.25
403.974	76.25
404.198	82.25
404.422	82.25
404.645	82.25
404.869	78.25
405.093	93.25
405.317	95.25
405.541	90.25
405.765	103.25
405.988	112.25
406.212	152.25
406.436	196.25
406.66	129.25
406.883	103.25
407.107	94.25
407.331	96.25
407.555	99.25
407.778	79.25
408.002	90.25
408.226	94.25
408.449	81.25
408.673	78.25
408.896	89.25
409.12	102.25
409.344	79.25
409.567	101.25
409.791	80.25
410.014	86.25
410.238	85.25
410.461	79.25
410.685	83.25
410.908	80.25
411.132	97.25
411.355	95.25
411.578	85.25
411.802	92.25
412.025	79.25
412.249	90.25
412.472	96.25
412.695	95.25
412.919	73.25
413.142	82.25
413.365	72.25
413.589	87.25
413.812	82.25
414.035	78.25
414.258	91.25
414.482	83.25
414.705	82.25
414.928	95.25
415.151	94.25
415.374	86.25
415.597	96.25
415.821	100.25
416.044	96.25
416.267	84.25
416.49	86.25
416.713	87.25
416.936	101.25
417.159	84.25
417.382	95.25
417.605	88.25
417.828	89.25
418.051	87.25
418.274	84.25
418.497	95.25
418.72	87.25
418.943	95.25
419.166	94.25
419.389	80.25
419.611	97.25
419.834	95.25
420.057	98.25
420.28	68.25
420.503	73.25
420.726	75.25
420.948	91.25
421.171	95.25
421.394	80.25
421.617	84.25
421.839	90.25
422.062	84.25
422.285	87.25
422.507	81.25
422.73	96.25
422.953	98.25
423.175	83.25
423.398	94.25
423.621	91.25
423.843	83.25
424.066	80.25
424.288	96.25
424.511	97.25
424.733	98.25
424.956	90.25
425.178	99.25
425.401	108.25
425.623	95.25
425.846	99.25
426.068	92.25
426.291	91.25
426.513	90.25
426.735	87.25
426.958	86.25
427.18	86.25
427.402	130.25
427.625	135.25
427.847	114.25
428.069	104.25
428.292	80.25
428.514	88.25
428.736	93.25
428.958	83.25
429.181	82.25
429.403	86.25
429.625	80.25
429.847	92.25
430.069	82.25
430.292	80.25
430.514	83.25
430.736	90.25
430.958	75.25
431.18	93.25
431.402	96.25
431.624	87.25
431.846	72.25
432.068	97.25
432.29	87.25
432.512	87.25
432.734	92.25
432.956	79.25
433.178	99.25
433.4	97.25
433.622	84.25
433.844	86.25
434.066	74.25
434.287	90.25
434.509	98.25
434.731	82.25
434.953	89.25
435.175	95.25
435.397	83.25
435.618	98.25
435.84	95.25
436.062	108.25
436.284	108.25
436.505	86.25
436.727	93.25
436.949	95.25
437.17	87.25
437.392	78.25
437.614	76.25
437.835	101.25
438.057	112.25
438.278	89.25
438.5	110.25
438.721	116.25
438.943	103.25
439.165	82.25
439.386	86.25
439.608	82.25
439.829	92.25
440.05	107.25
440.272	115.25
440.493	86.25
440.715	80.25
440.936	83.25
441.158	87.25
441.379	87.25
441.6	80.25
441.822	103.25
442.043	83.25
442.264	96.25
442.486	101.25
442.707	94.25
442.928	90.25
443.149	111.25
443.371	123.25
443.592	98.25
443.813	91.25
444.034	100.25
444.255	82.25
444.476	86.25
444.698	95.25
444.919	95.25
445.14	134.25
445.361	120.25
445.582	99.25
445.803	118.25
446.024	118.25
446.245	120.25
446.466	103.25
446.687	97.25
446.908	92.25
447.129	87.25
447.35	89.25
447.571	91.25
447.792	88.25
448.013	92.25
448.234	112.25
448.455	97.25
448.675	99.25
448.896	101.25
449.117	84.25
449.338	110.25
449.559	112.25
449.779	108.25
450	85.25
450.221	84.25
450.442	93.25
450.662	91.25
450.883	92.25
451.104	95.25
451.324	76.25
451.545	78.25
451.766	86.25
451.986	76.25
452.207	88.25
452.428	79.25
452.648	92.25
452.869	99.25
453.089	83.25
453.31	121.25
453.53	84.25
453.751	79.25
453.971	100.25
454.192	114.25
454.412	90.25
454.633	82.25
454.853	90.25
455.073	82.25
455.294	89.25
455.514	93.25
455.734	90.25
455.955	88.25
456.175	83.25
456.395	95.25
456.616	99.25
456.836	72.25
457.056	74.25
457.276	81.25
457.497	89.25
457.717	83.25
457.937	89.25
458.157	85.25
458.377	73.25
458.598	102.25
458.818	119.25
459.038	126.25
459.258	122.25
459.478	95.25
459.698	94.25
459.918	72.25
460.138	78.25
460.358	90.25
460.578	99.25
460.798	82.25
461.018	79.25
461.238	78.25
461.458	62.25
461.678	78.25
461.898	81.25
462.118	86.25
462.338	85.25
462.558	78.25
462.777	85.25
462.997	84.25
463.217	78.25
463.437	89.25
463.657	84.25
463.876	98.25
464.096	73.25
464.316	88.25
464.536	82.25
464.755	90.25
464.975	99.25
465.195	131.25
465.414	136.25
465.634	101.25
465.854	83.25
466.073	77.25
466.293	88.25
466.512	100.25
466.732	69.25
466.951	71.25
467.171	86.25
467.391	96.25
467.61	94.25
467.829	110.25
468.049	94.25
468.268	102.25
468.488	75.25
468.707	80.25
468.927	74.25
469.146	72.25
469.365	75.25
469.585	84.25
469.804	99.25
470.023	94.25
470.243	96.25
470.462	105.25
470.681	100.25
470.901	95.25
471.12	81.25
471.339	91.25
471.558	85.25
471.777	88.25
471.997	97.25
472.216	85.25
472.435	132.25
472.654	97.25
472.873	83.25
473.092	76.25
473.311	72.25
473.53	74.25
473.749	79.25
473.968	88.25
474.187	99.25
474.406	86.25
474.625	72.25
474.844	89.25
475.063	75.25
475.282	86.25
475.501	72.25
475.72	84.25
475.939	82.25
476.158	90.25
476.377	84.25
476.596	87.25
476.814	80.25
477.033	97.25
477.252	82.25
477.471	73.25
477.69	96.25
477.908	98.25
478.127	86.25
478.346	79.25
478.564	85.25
478.783	97.25
479.002	104.25
479.22	80.25
479.439	110.25
479.658	101.25
479.876	99.25
480.095	88.25
480.313	91.25
480.532	87.25
480.751	86.25
480.969	113.25
481.188	190.25
481.406	151.25
481.624	75.25
481.843	84.25
482.061	84.25
482.28	90.25
482.498	93.25
482.717	77.25
482.935	82.25
483.153	80.25
483.372	81.25
483.59	95.25
483.808	92.25
484.027	82.25
484.245	93.25
484.463	80.25
484.681	90.25
484.9	86.25
485.118	83.25
485.336	90.25
485.554	98.25
485.772	91.25
485.99	112.25
486.209	90.25
486.427	96.25
486.645	83.25
486.863	103.25
487.081	89.25
487.299	82.25
487.517	86.25
487.735	86.25
487.953	93.25
488.171	103.25
488.389	72.25
488.607	99.25
488.825	83.25
489.043	78.25
489.261	82.25
489.479	87.25
489.696	114.25
489.914	97.25
490.132	85.25
490.35	86.25
490.568	78.25
490.786	82.25
491.003	86.25
491.221	82.25
491.439	82.25
491.657	99.25
491.874	90.25
492.092	79.25
492.31	78.25
492.527	78.25
492.745	81.25
492.963	87.25
493.18	96.25
493.398	89.25
493.615	93.25
493.833	86.25
494.05	66.25
494.268	75.25
494.485	91.25
494.703	101.25
494.92	90.25
495.138	90.25
495.355	83.25
495.573	95.25
495.79	100.25
496.008	102.25
496.225	84.25
496.442	77.25
496.66	106.25
496.877	94.25
497.094	89.25
497.312	86.25
497.529	80.25
497.746	84.25
497.963	84.25
498.181	81.25
498.398	103.25
498.615	95.25
498.832	97.25
499.049	88.25
499.267	72.25
499.484	88.25
499.701	77.25
499.918	78.25
500.135	77.25
500.352	98.25
500.569	100.25
500.786	91.25
501.003	80.25
501.22	78.25
501.437	91.25
501.654	78.25
501.871	101.25
502.088	93.25
502.305	84.25
502.522	79.25
502.739	80.25
502.956	103.25
503.172	80.25
503.389	72.25
503.606	88.25
503.823	78.25
504.04	71.25
504.256	88.25
504.473	83.25
504.69	84.25
504.907	104.25
505.123	82.25
505.34	78.25
505.557	74.25
505.773	99.25
505.99	90.25
506.207	89.25
506.423	94.25
506.64	73.25
506.856	83.25
507.073	81.25
507.289	90.25
507.506	89.25
507.722	107.25
507.939	100.25
508.155	67.25
508.372	99.25
508.588	92.25
508.805	93.25
509.021	96.25
509.238	101.25
509.454	112.25
509.67	90.25
509.887	93.25
510.103	121.25
510.319	173.25
510.536	628.25
510.752	1952.25
510.968	562.25
511.184	133.25
511.401	99.25
511.617	91.25
511.833	85.25
512.049	86.25
512.265	90.25
512.481	100.25
512.698	87.25
512.914	90.25
513.13	88.25
513.346	93.25
513.562	92.25
513.778	99.25
513.994	93.25
514.21	97.25
514.426	100.25
514.642	108.25
514.858	105.25
515.074	121.25
515.29	363.25
515.506	1193.25
515.721	464.25
515.937	134.25
516.153	104.25
516.369	91.25
516.585	97.25
516.801	88.25
517.016	93.25
