Data from Uncirc_1980_H10_HRD10591_00073.txt Node
Date: Wed Jan 03 12:37:10 EST 2024
User: Yrep
Spectrometer: HR+D1059
Trigger mode: 1
Integration Time (sec): 1.000000E-1
Scans to average: 1
Electric dark correction enabled: true
Nonlinearity correction enabled: false
Boxcar width: 0
XAxis mode: Wavelengths
Number of Pixels in Spectrum: 2048
>>>>>Begin Spectral Data<<<<<
223.165	-6.75
223.4	-6.75
223.635	-6.75
223.869	-1.75
224.104	-24.75
224.338	-18.75
224.573	-19.75
224.808	-8.75
225.042	-17.75
225.277	-13.75
225.511	12.25
225.746	6.25
225.98	8.25
226.215	16.25
226.449	20.25
226.683	-6.75
226.918	27.25
227.152	28.25
227.387	35.25
227.621	34.25
227.856	55.25
228.09	49.25
228.324	49.25
228.559	61.25
228.793	64.25
229.027	53.25
229.262	72.25
229.496	66.25
229.73	72.25
229.964	91.25
230.199	73.25
230.433	77.25
230.667	86.25
230.901	72.25
231.136	68.25
231.37	91.25
231.604	74.25
231.838	76.25
232.072	74.25
232.306	93.25
232.541	68.25
232.775	79.25
233.009	87.25
233.243	69.25
233.477	84.25
233.711	87.25
233.945	87.25
234.179	83.25
234.413	83.25
234.647	70.25
234.881	85.25
235.115	87.25
235.349	79.25
235.583	86.25
235.817	93.25
236.051	79.25
236.285	78.25
236.519	91.25
236.753	71.25
236.987	74.25
237.221	68.25
237.455	95.25
237.689	73.25
237.922	75.25
238.156	79.25
238.39	78.25
238.624	77.25
238.858	86.25
239.091	70.25
239.325	75.25
239.559	72.25
239.793	81.25
240.027	78.25
240.26	85.25
240.494	73.25
240.728	84.25
240.961	75.25
241.195	85.25
241.429	67.25
241.662	72.25
241.896	71.25
242.13	81.25
242.363	70.25
242.597	68.25
242.83	72.25
243.064	78.25
243.298	72.25
243.531	79.25
243.765	91.25
243.998	71.25
244.232	85.25
244.465	81.25
244.699	97.25
244.932	96.25
245.166	84.25
245.399	65.25
245.633	74.25
245.866	85.25
246.099	92.25
246.333	77.25
246.566	84.25
246.8	83.25
247.033	71.25
247.266	73.25
247.5	85.25
247.733	79.25
247.966	83.25
248.2	88.25
248.433	91.25
248.666	96.25
248.899	87.25
249.133	94.25
249.366	84.25
249.599	89.25
249.832	93.25
250.066	71.25
250.299	78.25
250.532	75.25
250.765	73.25
250.998	94.25
251.231	89.25
251.465	76.25
251.698	83.25
251.931	70.25
252.164	81.25
252.397	92.25
252.63	77.25
252.863	77.25
253.096	96.25
253.329	79.25
253.562	64.25
253.795	75.25
254.028	90.25
254.261	91.25
254.494	76.25
254.727	91.25
254.96	81.25
255.193	91.25
255.426	83.25
255.659	84.25
255.892	69.25
256.124	83.25
256.357	85.25
256.59	93.25
256.823	98.25
257.056	93.25
257.289	78.25
257.521	77.25
257.754	73.25
257.987	74.25
258.22	78.25
258.452	76.25
258.685	88.25
258.918	89.25
259.151	103.25
259.383	80.25
259.616	87.25
259.849	87.25
260.081	84.25
260.314	83.25
260.547	79.25
260.779	90.25
261.012	76.25
261.244	97.25
261.477	85.25
261.71	99.25
261.942	100.25
262.175	105.25
262.407	76.25
262.64	81.25
262.872	79.25
263.105	94.25
263.337	75.25
263.57	88.25
263.802	83.25
264.035	72.25
264.267	72.25
264.499	86.25
264.732	85.25
264.964	77.25
265.197	88.25
265.429	74.25
265.661	79.25
265.894	80.25
266.126	87.25
266.358	90.25
266.591	82.25
266.823	69.25
267.055	91.25
267.287	75.25
267.52	68.25
267.752	89.25
267.984	93.25
268.216	77.25
268.448	85.25
268.681	70.25
268.913	77.25
269.145	84.25
269.377	84.25
269.609	80.25
269.841	83.25
270.073	97.25
270.306	78.25
270.538	86.25
270.77	87.25
271.002	100.25
271.234	87.25
271.466	85.25
271.698	84.25
271.93	84.25
272.162	95.25
272.394	98.25
272.626	83.25
272.858	88.25
273.09	95.25
273.322	98.25
273.553	95.25
273.785	91.25
274.017	72.25
274.249	88.25
274.481	90.25
274.713	89.25
274.945	78.25
275.176	85.25
275.408	73.25
275.64	94.25
275.872	85.25
276.104	79.25
276.335	100.25
276.567	89.25
276.799	93.25
277.031	109.25
277.262	92.25
277.494	86.25
277.726	73.25
277.957	80.25
278.189	67.25
278.421	73.25
278.652	92.25
278.884	80.25
279.115	80.25
279.347	79.25
279.579	88.25
279.81	111.25
280.042	91.25
280.273	69.25
280.505	98.25
280.736	87.25
280.968	83.25
281.199	88.25
281.431	86.25
281.662	97.25
281.894	99.25
282.125	96.25
282.356	106.25
282.588	128.25
282.819	102.25
283.051	72.25
283.282	103.25
283.513	101.25
283.745	80.25
283.976	97.25
284.207	94.25
284.439	78.25
284.67	87.25
284.901	79.25
285.132	86.25
285.364	86.25
285.595	85.25
285.826	97.25
286.057	81.25
286.288	94.25
286.52	85.25
286.751	93.25
286.982	70.25
287.213	83.25
287.444	89.25
287.675	103.25
287.906	93.25
288.138	94.25
288.369	97.25
288.6	107.25
288.831	92.25
289.062	102.25
289.293	98.25
289.524	78.25
289.755	90.25
289.986	87.25
290.217	85.25
290.448	87.25
290.679	79.25
290.91	87.25
291.141	90.25
291.371	96.25
291.602	75.25
291.833	96.25
292.064	102.25
292.295	94.25
292.526	89.25
292.757	83.25
292.987	86.25
293.218	85.25
293.449	73.25
293.68	95.25
293.91	88.25
294.141	97.25
294.372	83.25
294.603	92.25
294.833	106.25
295.064	101.25
295.295	101.25
295.525	94.25
295.756	92.25
295.987	106.25
296.217	127.25
296.448	115.25
296.679	87.25
296.909	97.25
297.14	88.25
297.37	87.25
297.601	80.25
297.831	95.25
298.062	106.25
298.292	80.25
298.523	89.25
298.753	85.25
298.984	93.25
299.214	87.25
299.445	89.25
299.675	91.25
299.905	93.25
300.136	90.25
300.366	85.25
300.597	95.25
300.827	102.25
301.057	100.25
301.288	97.25
301.518	93.25
301.748	100.25
301.979	97.25
302.209	107.25
302.439	85.25
302.669	87.25
302.9	97.25
303.13	85.25
303.36	93.25
303.59	107.25
303.82	93.25
304.051	94.25
304.281	87.25
304.511	83.25
304.741	87.25
304.971	87.25
305.201	87.25
305.431	84.25
305.661	95.25
305.891	83.25
306.121	100.25
306.352	107.25
306.582	106.25
306.812	83.25
307.042	93.25
307.272	85.25
307.502	75.25
307.731	96.25
307.961	92.25
308.191	73.25
308.421	81.25
308.651	86.25
308.881	96.25
309.111	86.25
309.341	102.25
309.571	104.25
309.8	100.25
310.03	91.25
310.26	103.25
310.49	81.25
310.72	75.25
310.949	96.25
311.179	99.25
311.409	96.25
311.639	95.25
311.868	86.25
312.098	89.25
312.328	91.25
312.557	101.25
312.787	89.25
313.017	103.25
313.246	92.25
313.476	92.25
313.706	90.25
313.935	98.25
314.165	105.25
314.394	102.25
314.624	99.25
314.853	84.25
315.083	94.25
315.312	86.25
315.542	77.25
315.771	85.25
316.001	85.25
316.23	85.25
316.46	88.25
316.689	93.25
316.919	103.25
317.148	91.25
317.377	90.25
317.607	98.25
317.836	88.25
318.065	84.25
318.295	100.25
318.524	93.25
318.753	84.25
318.983	100.25
319.212	98.25
319.441	96.25
319.67	103.25
319.9	88.25
320.129	100.25
320.358	101.25
320.587	88.25
320.816	103.25
321.046	87.25
321.275	80.25
321.504	102.25
321.733	99.25
321.962	106.25
322.191	98.25
322.42	103.25
322.649	108.25
322.878	105.25
323.108	138.25
323.337	113.25
323.566	117.25
323.795	137.25
324.024	183.25
324.253	293.25
324.482	638.25
324.71	1275.25
324.939	1699.25
325.168	635.25
325.397	205.25
325.626	124.25
325.855	122.25
326.084	112.25
326.313	118.25
326.542	123.25
326.77	188.25
326.999	362.25
327.228	731.25
327.457	1341.25
327.686	1035.25
327.914	313.25
328.143	172.25
328.372	119.25
328.6	114.25
328.829	111.25
329.058	126.25
329.287	112.25
329.515	123.25
329.744	88.25
329.972	90.25
330.201	108.25
330.43	123.25
330.658	122.25
330.887	123.25
331.115	108.25
331.344	87.25
331.572	98.25
331.801	104.25
332.03	103.25
332.258	114.25
332.486	94.25
332.715	99.25
332.943	101.25
333.172	93.25
333.4	99.25
333.629	108.25
333.857	104.25
334.085	101.25
334.314	112.25
334.542	124.25
334.771	122.25
334.999	117.25
335.227	91.25
335.455	99.25
335.684	103.25
335.912	109.25
336.14	102.25
336.369	87.25
336.597	99.25
336.825	93.25
337.053	100.25
337.281	96.25
337.51	95.25
337.738	94.25
337.966	95.25
338.194	111.25
338.422	103.25
338.65	83.25
338.878	82.25
339.106	89.25
339.334	88.25
339.562	92.25
339.79	84.25
340.018	97.25
340.246	80.25
340.474	95.25
340.702	87.25
340.93	86.25
341.158	103.25
341.386	89.25
341.614	87.25
341.842	93.25
342.07	105.25
342.298	89.25
342.526	95.25
342.754	92.25
342.981	91.25
343.209	107.25
343.437	96.25
343.665	89.25
343.893	85.25
344.12	108.25
344.348	98.25
344.576	113.25
344.804	85.25
345.031	102.25
345.259	101.25
345.487	86.25
345.714	106.25
345.942	101.25
346.17	103.25
346.397	100.25
346.625	95.25
346.853	79.25
347.08	85.25
347.308	78.25
347.535	112.25
347.763	105.25
347.99	105.25
348.218	111.25
348.445	101.25
348.673	87.25
348.9	100.25
349.128	85.25
349.355	100.25
349.583	99.25
349.81	97.25
350.037	102.25
350.265	99.25
350.492	93.25
350.72	85.25
350.947	107.25
351.174	95.25
351.402	102.25
351.629	97.25
351.856	97.25
352.083	106.25
352.311	99.25
352.538	111.25
352.765	99.25
352.992	111.25
353.22	115.25
353.447	103.25
353.674	95.25
353.901	93.25
354.128	121.25
354.355	98.25
354.583	97.25
354.81	110.25
355.037	97.25
355.264	93.25
355.491	103.25
355.718	99.25
355.945	84.25
356.172	107.25
356.399	92.25
356.626	84.25
356.853	85.25
357.08	106.25
357.307	95.25
357.534	97.25
357.761	95.25
357.988	96.25
358.215	100.25
358.441	94.25
358.668	89.25
358.895	87.25
359.122	93.25
359.349	87.25
359.576	91.25
359.802	101.25
360.029	99.25
360.256	97.25
360.483	106.25
360.709	96.25
360.936	78.25
361.163	93.25
361.39	95.25
361.616	98.25
361.843	94.25
362.07	83.25
362.296	85.25
362.523	87.25
362.749	88.25
362.976	77.25
363.203	105.25
363.429	91.25
363.656	97.25
363.882	93.25
364.109	93.25
364.335	105.25
364.562	105.25
364.788	92.25
365.015	88.25
365.241	116.25
365.468	107.25
365.694	98.25
365.92	96.25
366.147	98.25
366.373	97.25
366.599	91.25
366.826	95.25
367.052	89.25
367.278	89.25
367.505	93.25
367.731	89.25
367.957	101.25
368.184	93.25
368.41	111.25
368.636	104.25
368.862	124.25
369.089	103.25
369.315	91.25
369.541	100.25
369.767	101.25
369.993	91.25
370.219	95.25
370.445	92.25
370.672	93.25
370.898	87.25
371.124	90.25
371.35	92.25
371.576	84.25
371.802	78.25
372.028	98.25
372.254	97.25
372.48	94.25
372.706	90.25
372.932	91.25
373.158	87.25
373.384	105.25
373.61	96.25
373.835	88.25
374.061	96.25
374.287	87.25
374.513	101.25
374.739	100.25
374.965	84.25
375.191	84.25
375.416	98.25
375.642	98.25
375.868	93.25
376.094	97.25
376.319	93.25
376.545	85.25
376.771	75.25
376.997	93.25
377.222	95.25
377.448	99.25
377.674	95.25
377.899	93.25
378.125	107.25
378.35	87.25
378.576	94.25
378.802	97.25
379.027	92.25
379.253	102.25
379.478	92.25
379.704	99.25
379.929	94.25
380.155	89.25
380.38	93.25
380.606	103.25
380.831	93.25
381.057	91.25
381.282	97.25
381.507	91.25
381.733	89.25
381.958	91.25
382.184	112.25
382.409	108.25
382.634	114.25
382.86	118.25
383.085	113.25
383.31	112.25
383.535	105.25
383.761	102.25
383.986	86.25
384.211	89.25
384.436	96.25
384.662	101.25
384.887	117.25
385.112	109.25
385.337	108.25
385.562	112.25
385.787	117.25
386.013	109.25
386.238	123.25
386.463	107.25
386.688	110.25
386.913	104.25
387.138	105.25
387.363	93.25
387.588	102.25
387.813	107.25
388.038	104.25
388.263	115.25
388.488	99.25
388.713	102.25
388.938	103.25
389.163	100.25
389.387	94.25
389.612	90.25
389.837	95.25
390.062	96.25
390.287	96.25
390.512	87.25
390.736	97.25
390.961	92.25
391.186	97.25
391.411	112.25
391.636	94.25
391.86	86.25
392.085	89.25
392.31	85.25
392.534	96.25
392.759	100.25
392.984	99.25
393.208	95.25
393.433	84.25
393.658	94.25
393.882	95.25
394.107	90.25
394.331	101.25
394.556	94.25
394.78	89.25
395.005	92.25
395.229	81.25
395.454	76.25
395.678	84.25
395.903	91.25
396.127	81.25
396.352	91.25
396.576	83.25
396.801	94.25
397.025	89.25
397.249	96.25
397.474	77.25
397.698	94.25
397.922	79.25
398.147	75.25
398.371	90.25
398.595	92.25
398.82	89.25
399.044	83.25
399.268	91.25
399.492	108.25
399.717	97.25
399.941	100.25
400.165	88.25
400.389	81.25
400.613	101.25
400.837	96.25
401.062	78.25
401.286	85.25
401.51	89.25
401.734	77.25
401.958	99.25
402.182	112.25
402.406	132.25
402.63	110.25
402.854	85.25
403.078	85.25
403.302	88.25
403.526	83.25
403.75	85.25
403.974	84.25
404.198	91.25
404.422	101.25
404.645	90.25
404.869	98.25
405.093	87.25
405.317	101.25
405.541	84.25
405.765	91.25
405.988	98.25
406.212	159.25
406.436	183.25
406.66	120.25
406.883	94.25
407.107	86.25
407.331	87.25
407.555	81.25
407.778	96.25
408.002	102.25
408.226	84.25
408.449	98.25
408.673	95.25
408.896	90.25
409.12	82.25
409.344	80.25
409.567	95.25
409.791	83.25
410.014	86.25
410.238	95.25
410.461	107.25
410.685	104.25
410.908	102.25
411.132	95.25
411.355	107.25
411.578	95.25
411.802	99.25
412.025	92.25
412.249	91.25
412.472	94.25
412.695	111.25
412.919	87.25
413.142	83.25
413.365	75.25
413.589	98.25
413.812	103.25
414.035	75.25
414.258	103.25
414.482	92.25
414.705	82.25
414.928	96.25
415.151	87.25
415.374	100.25
415.597	85.25
415.821	91.25
416.044	103.25
416.267	84.25
416.49	78.25
416.713	78.25
416.936	92.25
417.159	88.25
417.382	93.25
417.605	105.25
417.828	103.25
418.051	93.25
418.274	92.25
418.497	80.25
418.72	92.25
418.943	100.25
419.166	95.25
419.389	93.25
419.611	88.25
419.834	94.25
420.057	100.25
420.28	99.25
420.503	88.25
420.726	89.25
420.948	91.25
421.171	89.25
421.394	87.25
421.617	85.25
421.839	92.25
422.062	75.25
422.285	98.25
422.507	101.25
422.73	95.25
422.953	83.25
423.175	87.25
423.398	83.25
423.621	86.25
423.843	85.25
424.066	78.25
424.288	91.25
424.511	95.25
424.733	84.25
424.956	105.25
425.178	99.25
425.401	96.25
425.623	112.25
425.846	88.25
426.068	91.25
426.291	96.25
426.513	94.25
426.735	106.25
426.958	101.25
427.18	116.25
427.402	128.25
427.625	137.25
427.847	126.25
428.069	107.25
428.292	91.25
428.514	81.25
428.736	92.25
428.958	70.25
429.181	99.25
429.403	84.25
429.625	85.25
429.847	91.25
430.069	102.25
430.292	103.25
430.514	92.25
430.736	89.25
430.958	90.25
431.18	87.25
431.402	86.25
431.624	95.25
431.846	97.25
432.068	89.25
432.29	74.25
432.512	87.25
432.734	83.25
432.956	93.25
433.178	97.25
433.4	87.25
433.622	94.25
433.844	99.25
434.066	88.25
434.287	96.25
434.509	94.25
434.731	112.25
434.953	89.25
435.175	97.25
435.397	85.25
435.618	92.25
435.84	103.25
436.062	115.25
436.284	107.25
436.505	96.25
436.727	96.25
436.949	94.25
437.17	107.25
437.392	88.25
437.614	101.25
437.835	108.25
438.057	111.25
438.278	95.25
438.5	96.25
438.721	125.25
438.943	99.25
439.165	86.25
439.386	100.25
439.608	91.25
439.829	95.25
440.05	108.25
440.272	118.25
440.493	91.25
440.715	83.25
440.936	91.25
441.158	94.25
441.379	91.25
441.6	92.25
441.822	105.25
442.043	91.25
442.264	91.25
442.486	77.25
442.707	99.25
442.928	113.25
443.149	129.25
443.371	128.25
443.592	107.25
443.813	109.25
444.034	102.25
444.255	93.25
444.476	90.25
444.698	101.25
444.919	85.25
445.14	129.25
445.361	123.25
445.582	104.25
445.803	122.25
446.024	115.25
446.245	111.25
446.466	102.25
446.687	78.25
446.908	90.25
447.129	83.25
447.35	84.25
447.571	83.25
447.792	99.25
448.013	96.25
448.234	90.25
448.455	83.25
448.675	113.25
448.896	102.25
449.117	101.25
449.338	110.25
449.559	121.25
449.779	132.25
450	95.25
450.221	97.25
450.442	80.25
450.662	101.25
450.883	99.25
451.104	107.25
451.324	97.25
451.545	88.25
451.766	100.25
451.986	87.25
452.207	87.25
452.428	91.25
452.648	95.25
452.869	99.25
453.089	107.25
453.31	103.25
453.53	107.25
453.751	85.25
453.971	109.25
454.192	97.25
454.412	95.25
454.633	96.25
454.853	93.25
455.073	87.25
455.294	102.25
455.514	99.25
455.734	87.25
455.955	93.25
456.175	95.25
456.395	85.25
456.616	85.25
456.836	74.25
457.056	89.25
457.276	85.25
457.497	94.25
457.717	86.25
457.937	83.25
458.157	96.25
458.377	89.25
458.598	93.25
458.818	111.25
459.038	124.25
459.258	112.25
459.478	96.25
459.698	89.25
459.918	89.25
460.138	95.25
460.358	92.25
460.578	80.25
460.798	86.25
461.018	88.25
461.238	94.25
461.458	83.25
461.678	91.25
461.898	85.25
462.118	83.25
462.338	88.25
462.558	94.25
462.777	98.25
462.997	78.25
463.217	89.25
463.437	81.25
463.657	67.25
463.876	83.25
464.096	98.25
464.316	81.25
464.536	96.25
464.755	93.25
464.975	98.25
465.195	150.25
465.414	133.25
465.634	90.25
465.854	78.25
466.073	93.25
466.293	97.25
466.512	84.25
466.732	92.25
466.951	86.25
467.171	86.25
467.391	90.25
467.61	99.25
467.829	92.25
468.049	99.25
468.268	93.25
468.488	85.25
468.707	92.25
468.927	76.25
469.146	94.25
469.365	81.25
469.585	91.25
469.804	91.25
470.023	107.25
470.243	92.25
470.462	109.25
470.681	100.25
470.901	95.25
471.12	99.25
471.339	91.25
471.558	81.25
471.777	92.25
471.997	94.25
472.216	113.25
472.435	150.25
472.654	112.25
472.873	83.25
473.092	83.25
473.311	99.25
473.53	83.25
473.749	90.25
473.968	89.25
474.187	106.25
474.406	90.25
474.625	90.25
474.844	110.25
475.063	91.25
475.282	95.25
475.501	101.25
475.72	85.25
475.939	79.25
476.158	80.25
476.377	91.25
476.596	102.25
476.814	99.25
477.033	94.25
477.252	95.25
477.471	87.25
477.69	87.25
477.908	80.25
478.127	89.25
478.346	85.25
478.564	86.25
478.783	109.25
479.002	87.25
479.22	87.25
479.439	96.25
479.658	99.25
479.876	98.25
480.095	92.25
480.313	94.25
480.532	97.25
480.751	100.25
480.969	106.25
481.188	171.25
481.406	144.25
481.624	107.25
481.843	90.25
482.061	85.25
482.28	99.25
482.498	97.25
482.717	102.25
482.935	97.25
483.153	91.25
483.372	92.25
483.59	105.25
483.808	93.25
484.027	95.25
484.245	91.25
484.463	97.25
484.681	87.25
484.9	92.25
485.118	101.25
485.336	102.25
485.554	87.25
485.772	104.25
485.99	107.25
486.209	110.25
486.427	116.25
486.645	94.25
486.863	113.25
487.081	115.25
487.299	90.25
487.517	99.25
487.735	111.25
487.953	90.25
488.171	97.25
488.389	97.25
488.607	99.25
488.825	79.25
489.043	93.25
489.261	99.25
489.479	100.25
489.696	90.25
489.914	93.25
490.132	95.25
490.35	92.25
490.568	97.25
490.786	87.25
491.003	89.25
491.221	90.25
491.439	101.25
491.657	103.25
491.874	87.25
492.092	94.25
492.31	86.25
492.527	79.25
492.745	95.25
492.963	103.25
493.18	93.25
493.398	95.25
493.615	104.25
493.833	105.25
494.05	96.25
494.268	95.25
494.485	80.25
494.703	83.25
494.92	85.25
495.138	90.25
495.355	91.25
495.573	96.25
495.79	88.25
496.008	101.25
496.225	93.25
496.442	102.25
496.66	99.25
496.877	82.25
497.094	90.25
497.312	100.25
497.529	90.25
497.746	100.25
497.963	96.25
498.181	99.25
498.398	92.25
498.615	96.25
498.832	89.25
499.049	101.25
499.267	99.25
499.484	100.25
499.701	106.25
499.918	98.25
500.135	91.25
500.352	96.25
500.569	96.25
500.786	91.25
501.003	89.25
501.22	87.25
501.437	102.25
501.654	87.25
501.871	101.25
502.088	88.25
502.305	87.25
502.522	87.25
502.739	79.25
502.956	89.25
503.172	94.25
503.389	95.25
503.606	100.25
503.823	97.25
504.04	93.25
504.256	77.25
504.473	88.25
504.69	81.25
504.907	99.25
505.123	88.25
505.34	96.25
505.557	102.25
505.773	74.25
505.99	69.25
506.207	93.25
506.423	107.25
506.64	89.25
506.856	89.25
507.073	101.25
507.289	86.25
507.506	97.25
507.722	98.25
507.939	106.25
508.155	95.25
508.372	99.25
508.588	87.25
508.805	108.25
509.021	93.25
509.238	102.25
509.454	113.25
509.67	112.25
509.887	100.25
510.103	119.25
510.319	184.25
510.536	624.25
510.752	1877.25
510.968	522.25
511.184	138.25
511.401	103.25
511.617	94.25
511.833	99.25
512.049	97.25
512.265	96.25
512.481	90.25
512.698	88.25
512.914	100.25
513.13	103.25
513.346	91.25
513.562	95.25
513.778	81.25
513.994	109.25
514.21	88.25
514.426	113.25
514.642	110.25
514.858	120.25
515.074	156.25
515.29	345.25
