Data from Uncirc_1980_H10_HRD10591_00012.txt Node
Date: Wed Jan 03 12:36:57 EST 2024
User: Yrep
Spectrometer: HR+D1059
Trigger mode: 1
Integration Time (sec): 1.000000E-1
Scans to average: 1
Electric dark correction enabled: true
Nonlinearity correction enabled: false
Boxcar width: 0
XAxis mode: Wavelengths
Number of Pixels in Spectrum: 2048
>>>>>Begin Spectral Data<<<<<
223.165	-21.19
223.4	-21.19
223.635	-21.19
223.869	-20.19
224.104	-31.19
224.338	-11.19
224.573	-10.19
224.808	-10.19
225.042	-6.19
225.277	-10.19
225.511	1.81
225.746	-0.19
225.98	8.81
226.215	26.81
226.449	12.81
226.683	16.81
226.918	20.81
227.152	32.81
227.387	34.81
227.621	38.81
227.856	45.81
228.09	44.81
228.324	52.81
228.559	45.81
228.793	69.81
229.027	61.81
229.262	58.81
229.496	68.81
229.73	66.81
229.964	82.81
230.199	58.81
230.433	63.81
230.667	66.81
230.901	76.81
231.136	72.81
231.37	86.81
231.604	76.81
231.838	85.81
232.072	72.81
232.306	76.81
232.541	92.81
232.775	82.81
233.009	86.81
233.243	81.81
233.477	77.81
233.711	86.81
233.945	77.81
234.179	97.81
234.413	71.81
234.647	71.81
234.881	86.81
235.115	68.81
235.349	82.81
235.583	68.81
235.817	74.81
236.051	76.81
236.285	77.81
236.519	83.81
236.753	69.81
236.987	80.81
237.221	73.81
237.455	82.81
237.689	61.81
237.922	74.81
238.156	78.81
238.39	73.81
238.624	76.81
238.858	78.81
239.091	73.81
239.325	69.81
239.559	77.81
239.793	75.81
240.027	76.81
240.26	84.81
240.494	72.81
240.728	64.81
240.961	73.81
241.195	80.81
241.429	88.81
241.662	66.81
241.896	76.81
242.13	77.81
242.363	65.81
242.597	78.81
242.83	60.81
243.064	82.81
243.298	78.81
243.531	71.81
243.765	86.81
243.998	56.81
244.232	82.81
244.465	93.81
244.699	65.81
244.932	90.81
245.166	75.81
245.399	71.81
245.633	76.81
245.866	71.81
246.099	82.81
246.333	75.81
246.566	74.81
246.8	82.81
247.033	70.81
247.266	86.81
247.5	85.81
247.733	80.81
247.966	83.81
248.2	67.81
248.433	80.81
248.666	57.81
248.899	80.81
249.133	86.81
249.366	103.81
249.599	91.81
249.832	77.81
250.066	74.81
250.299	75.81
250.532	75.81
250.765	85.81
250.998	74.81
251.231	67.81
251.465	90.81
251.698	70.81
251.931	67.81
252.164	78.81
252.397	74.81
252.63	84.81
252.863	68.81
253.096	69.81
253.329	78.81
253.562	69.81
253.795	73.81
254.028	83.81
254.261	87.81
254.494	57.81
254.727	73.81
254.96	78.81
255.193	80.81
255.426	96.81
255.659	75.81
255.892	92.81
256.124	74.81
256.357	68.81
256.59	93.81
256.823	71.81
257.056	74.81
257.289	88.81
257.521	84.81
257.754	98.81
257.987	81.81
258.22	68.81
258.452	65.81
258.685	78.81
258.918	80.81
259.151	70.81
259.383	98.81
259.616	76.81
259.849	86.81
260.081	85.81
260.314	77.81
260.547	72.81
260.779	67.81
261.012	81.81
261.244	77.81
261.477	75.81
261.71	94.81
261.942	100.81
262.175	90.81
262.407	89.81
262.64	96.81
262.872	88.81
263.105	77.81
263.337	75.81
263.57	89.81
263.802	84.81
264.035	92.81
264.267	76.81
264.499	74.81
264.732	73.81
264.964	88.81
265.197	85.81
265.429	78.81
265.661	86.81
265.894	69.81
266.126	84.81
266.358	80.81
266.591	76.81
266.823	84.81
267.055	90.81
267.287	83.81
267.52	85.81
267.752	84.81
267.984	87.81
268.216	73.81
268.448	91.81
268.681	74.81
268.913	78.81
269.145	71.81
269.377	74.81
269.609	88.81
269.841	89.81
270.073	59.81
270.306	67.81
270.538	87.81
270.77	76.81
271.002	75.81
271.234	80.81
271.466	84.81
271.698	80.81
271.93	72.81
272.162	73.81
272.394	80.81
272.626	84.81
272.858	83.81
273.09	88.81
273.322	78.81
273.553	84.81
273.785	86.81
274.017	81.81
274.249	92.81
274.481	68.81
274.713	88.81
274.945	80.81
275.176	82.81
275.408	82.81
275.64	84.81
275.872	73.81
276.104	84.81
276.335	98.81
276.567	88.81
276.799	93.81
277.031	98.81
277.262	100.81
277.494	84.81
277.726	89.81
277.957	86.81
278.189	94.81
278.421	86.81
278.652	82.81
278.884	76.81
279.115	69.81
279.347	82.81
279.579	91.81
279.81	81.81
280.042	88.81
280.273	88.81
280.505	87.81
280.736	77.81
280.968	85.81
281.199	90.81
281.431	91.81
281.662	86.81
281.894	89.81
282.125	77.81
282.356	107.81
282.588	118.81
282.819	109.81
283.051	80.81
283.282	90.81
283.513	84.81
283.745	83.81
283.976	82.81
284.207	89.81
284.439	77.81
284.67	87.81
284.901	92.81
285.132	89.81
285.364	82.81
285.595	68.81
285.826	90.81
286.057	76.81
286.288	80.81
286.52	88.81
286.751	72.81
286.982	81.81
287.213	82.81
287.444	78.81
287.675	91.81
287.906	75.81
288.138	85.81
288.369	86.81
288.6	90.81
288.831	84.81
289.062	73.81
289.293	82.81
289.524	86.81
289.755	81.81
289.986	82.81
290.217	102.81
290.448	101.81
290.679	87.81
290.91	83.81
291.141	81.81
291.371	103.81
291.602	80.81
291.833	82.81
292.064	73.81
292.295	79.81
292.526	77.81
292.757	87.81
292.987	72.81
293.218	79.81
293.449	76.81
293.68	94.81
293.91	84.81
294.141	90.81
294.372	92.81
294.603	89.81
294.833	99.81
295.064	76.81
295.295	81.81
295.525	87.81
295.756	92.81
295.987	106.81
296.217	128.81
296.448	111.81
296.679	85.81
296.909	85.81
297.14	86.81
297.37	82.81
297.601	87.81
297.831	93.81
298.062	96.81
298.292	96.81
298.523	91.81
298.753	92.81
298.984	85.81
299.214	82.81
299.445	93.81
299.675	82.81
299.905	105.81
300.136	108.81
300.366	67.81
300.597	89.81
300.827	89.81
301.057	92.81
301.288	86.81
301.518	95.81
301.748	75.81
301.979	97.81
302.209	94.81
302.439	87.81
302.669	89.81
302.9	94.81
303.13	81.81
303.36	91.81
303.59	104.81
303.82	105.81
304.051	100.81
304.281	91.81
304.511	82.81
304.741	72.81
304.971	84.81
305.201	74.81
305.431	90.81
305.661	94.81
305.891	99.81
306.121	94.81
306.352	90.81
306.582	99.81
306.812	88.81
307.042	104.81
307.272	92.81
307.502	82.81
307.731	93.81
307.961	92.81
308.191	94.81
308.421	96.81
308.651	88.81
308.881	92.81
309.111	88.81
309.341	87.81
309.571	88.81
309.8	71.81
310.03	92.81
310.26	88.81
310.49	79.81
310.72	99.81
310.949	107.81
311.179	84.81
311.409	105.81
311.639	92.81
311.868	91.81
312.098	107.81
312.328	90.81
312.557	95.81
312.787	106.81
313.017	94.81
313.246	91.81
313.476	81.81
313.706	108.81
313.935	93.81
314.165	90.81
314.394	83.81
314.624	82.81
314.853	81.81
315.083	93.81
315.312	83.81
315.542	97.81
315.771	88.81
316.001	86.81
316.23	91.81
316.46	78.81
316.689	93.81
316.919	93.81
317.148	89.81
317.377	96.81
317.607	84.81
317.836	115.81
318.065	91.81
318.295	83.81
318.524	89.81
318.753	85.81
318.983	76.81
319.212	84.81
319.441	87.81
319.67	100.81
319.9	82.81
320.129	85.81
320.358	86.81
320.587	91.81
320.816	76.81
321.046	96.81
321.275	88.81
321.504	108.81
321.733	97.81
321.962	103.81
322.191	89.81
322.42	89.81
322.649	109.81
322.878	99.81
323.108	115.81
323.337	111.81
323.566	123.81
323.795	123.81
324.024	171.81
324.253	307.81
324.482	598.81
324.71	1266.81
324.939	1664.81
325.168	632.81
325.397	195.81
325.626	135.81
325.855	109.81
326.084	123.81
326.313	123.81
326.542	143.81
326.77	193.81
326.999	355.81
327.228	706.81
327.457	1300.81
327.686	1025.81
327.914	283.81
328.143	158.81
328.372	129.81
328.6	121.81
328.829	110.81
329.058	117.81
329.287	108.81
329.515	95.81
329.744	113.81
329.972	104.81
330.201	90.81
330.43	109.81
330.658	117.81
330.887	120.81
331.115	105.81
331.344	85.81
331.572	74.81
331.801	102.81
332.03	110.81
332.258	90.81
332.486	85.81
332.715	85.81
332.943	82.81
333.172	84.81
333.4	89.81
333.629	97.81
333.857	112.81
334.085	104.81
334.314	100.81
334.542	122.81
334.771	114.81
334.999	100.81
335.227	82.81
335.455	86.81
335.684	90.81
335.912	89.81
336.14	98.81
336.369	98.81
336.597	94.81
336.825	105.81
337.053	86.81
337.281	98.81
337.51	91.81
337.738	100.81
337.966	93.81
338.194	98.81
338.422	83.81
338.65	90.81
338.878	79.81
339.106	77.81
339.334	81.81
339.562	97.81
339.79	92.81
340.018	95.81
340.246	77.81
340.474	107.81
340.702	102.81
340.93	101.81
341.158	82.81
341.386	82.81
341.614	86.81
341.842	95.81
342.07	91.81
342.298	87.81
342.526	89.81
342.754	87.81
342.981	96.81
343.209	78.81
343.437	96.81
343.665	86.81
343.893	86.81
344.12	104.81
344.348	91.81
344.576	107.81
344.804	82.81
345.031	98.81
345.259	104.81
345.487	76.81
345.714	95.81
345.942	89.81
346.17	91.81
346.397	89.81
346.625	70.81
346.853	82.81
347.08	92.81
347.308	96.81
347.535	86.81
347.763	94.81
347.99	92.81
348.218	96.81
348.445	96.81
348.673	86.81
348.9	94.81
349.128	89.81
349.355	78.81
349.583	85.81
349.81	100.81
350.037	113.81
350.265	85.81
350.492	96.81
350.72	89.81
350.947	103.81
351.174	110.81
351.402	102.81
351.629	98.81
351.856	85.81
352.083	98.81
352.311	96.81
352.538	108.81
352.765	107.81
352.992	117.81
353.22	101.81
353.447	105.81
353.674	91.81
353.901	109.81
354.128	106.81
354.355	104.81
354.583	91.81
354.81	103.81
355.037	98.81
355.264	93.81
355.491	113.81
355.718	89.81
355.945	109.81
356.172	104.81
356.399	92.81
356.626	93.81
356.853	88.81
357.08	93.81
357.307	96.81
357.534	96.81
357.761	84.81
357.988	92.81
358.215	93.81
358.441	98.81
358.668	96.81
358.895	100.81
359.122	88.81
359.349	82.81
359.576	87.81
359.802	102.81
360.029	94.81
360.256	113.81
360.483	83.81
360.709	80.81
360.936	88.81
361.163	99.81
361.39	96.81
361.616	86.81
361.843	82.81
362.07	86.81
362.296	77.81
362.523	91.81
362.749	93.81
362.976	89.81
363.203	89.81
363.429	77.81
363.656	90.81
363.882	82.81
364.109	85.81
364.335	79.81
364.562	89.81
364.788	82.81
365.015	101.81
365.241	98.81
365.468	92.81
365.694	98.81
365.92	85.81
366.147	84.81
366.373	94.81
366.599	86.81
366.826	77.81
367.052	80.81
367.278	89.81
367.505	102.81
367.731	87.81
367.957	82.81
368.184	69.81
368.41	96.81
368.636	96.81
368.862	103.81
369.089	103.81
369.315	85.81
369.541	94.81
369.767	88.81
369.993	75.81
370.219	101.81
370.445	85.81
370.672	98.81
370.898	98.81
371.124	90.81
371.35	87.81
371.576	94.81
371.802	75.81
372.028	89.81
372.254	85.81
372.48	99.81
372.706	91.81
372.932	77.81
373.158	85.81
373.384	87.81
373.61	83.81
373.835	96.81
374.061	84.81
374.287	92.81
374.513	84.81
374.739	85.81
374.965	85.81
375.191	101.81
375.416	96.81
375.642	98.81
375.868	97.81
376.094	97.81
376.319	109.81
376.545	90.81
376.771	85.81
376.997	89.81
377.222	92.81
377.448	96.81
377.674	80.81
377.899	104.81
378.125	95.81
378.35	94.81
378.576	90.81
378.802	90.81
379.027	96.81
379.253	105.81
379.478	92.81
379.704	93.81
379.929	100.81
380.155	94.81
380.38	108.81
380.606	105.81
380.831	105.81
381.057	108.81
381.282	98.81
381.507	98.81
381.733	114.81
381.958	107.81
382.184	109.81
382.409	108.81
382.634	136.81
382.86	120.81
383.085	115.81
383.31	102.81
383.535	119.81
383.761	118.81
383.986	123.81
384.211	122.81
384.436	129.81
384.662	124.81
384.887	123.81
385.112	124.81
385.337	129.81
385.562	134.81
385.787	134.81
386.013	130.81
386.238	146.81
386.463	131.81
386.688	139.81
386.913	138.81
387.138	133.81
387.363	141.81
387.588	115.81
387.813	113.81
388.038	145.81
388.263	144.81
388.488	148.81
388.713	100.81
388.938	96.81
389.163	90.81
389.387	93.81
389.612	83.81
389.837	90.81
390.062	90.81
390.287	92.81
390.512	103.81
390.736	98.81
390.961	97.81
391.186	104.81
391.411	85.81
391.636	97.81
391.86	83.81
392.085	81.81
392.31	84.81
392.534	83.81
392.759	91.81
392.984	76.81
393.208	92.81
393.433	93.81
393.658	99.81
393.882	74.81
394.107	88.81
394.331	78.81
394.556	102.81
394.78	89.81
395.005	93.81
395.229	88.81
395.454	81.81
395.678	80.81
395.903	93.81
396.127	96.81
396.352	94.81
396.576	85.81
396.801	93.81
397.025	94.81
397.249	79.81
397.474	90.81
397.698	90.81
397.922	84.81
398.147	85.81
398.371	85.81
398.595	101.81
398.82	75.81
399.044	93.81
399.268	79.81
399.492	97.81
399.717	101.81
399.941	96.81
400.165	97.81
400.389	104.81
400.613	80.81
400.837	82.81
401.062	97.81
401.286	87.81
401.51	80.81
401.734	90.81
401.958	93.81
402.182	113.81
402.406	127.81
402.63	98.81
402.854	97.81
403.078	85.81
403.302	88.81
403.526	85.81
403.75	89.81
403.974	94.81
404.198	90.81
404.422	92.81
404.645	90.81
404.869	89.81
405.093	92.81
405.317	92.81
405.541	89.81
405.765	104.81
405.988	115.81
406.212	151.81
406.436	188.81
406.66	118.81
406.883	102.81
407.107	76.81
407.331	95.81
407.555	90.81
407.778	89.81
408.002	85.81
408.226	94.81
408.449	80.81
408.673	90.81
408.896	104.81
409.12	92.81
409.344	101.81
409.567	86.81
409.791	99.81
410.014	96.81
410.238	94.81
410.461	96.81
410.685	95.81
410.908	106.81
411.132	82.81
411.355	77.81
411.578	105.81
411.802	87.81
412.025	104.81
412.249	85.81
412.472	93.81
412.695	100.81
412.919	84.81
413.142	103.81
413.365	88.81
413.589	84.81
413.812	82.81
414.035	107.81
414.258	92.81
414.482	96.81
414.705	76.81
414.928	88.81
415.151	96.81
415.374	108.81
415.597	80.81
415.821	94.81
416.044	94.81
416.267	98.81
416.49	93.81
416.713	77.81
416.936	101.81
417.159	87.81
417.382	99.81
417.605	85.81
417.828	87.81
418.051	97.81
418.274	82.81
418.497	82.81
418.72	92.81
418.943	90.81
419.166	90.81
419.389	95.81
419.611	80.81
419.834	82.81
420.057	96.81
420.28	85.81
420.503	89.81
420.726	79.81
420.948	89.81
421.171	96.81
421.394	77.81
421.617	94.81
421.839	85.81
422.062	99.81
422.285	99.81
422.507	104.81
422.73	112.81
422.953	99.81
423.175	85.81
423.398	81.81
423.621	99.81
423.843	95.81
424.066	87.81
424.288	85.81
424.511	97.81
424.733	98.81
424.956	78.81
425.178	99.81
425.401	94.81
425.623	95.81
425.846	91.81
426.068	93.81
426.291	86.81
426.513	97.81
426.735	93.81
426.958	93.81
427.18	96.81
427.402	123.81
427.625	131.81
427.847	105.81
428.069	98.81
428.292	80.81
428.514	71.81
428.736	106.81
428.958	90.81
429.181	88.81
429.403	80.81
429.625	84.81
429.847	88.81
430.069	102.81
430.292	97.81
430.514	74.81
430.736	88.81
430.958	95.81
431.18	83.81
431.402	84.81
431.624	93.81
431.846	81.81
432.068	84.81
432.29	91.81
432.512	91.81
432.734	80.81
432.956	81.81
433.178	96.81
433.4	86.81
433.622	89.81
433.844	104.81
434.066	88.81
434.287	94.81
434.509	89.81
434.731	81.81
434.953	90.81
435.175	101.81
435.397	91.81
435.618	95.81
435.84	96.81
436.062	113.81
436.284	114.81
436.505	83.81
436.727	99.81
436.949	100.81
437.17	79.81
437.392	76.81
437.614	93.81
437.835	100.81
438.057	113.81
438.278	101.81
438.5	101.81
438.721	113.81
438.943	104.81
439.165	80.81
439.386	77.81
439.608	102.81
439.829	78.81
440.05	104.81
440.272	123.81
440.493	105.81
440.715	90.81
440.936	89.81
441.158	73.81
441.379	74.81
441.6	86.81
441.822	90.81
442.043	82.81
442.264	104.81
442.486	86.81
442.707	88.81
442.928	87.81
443.149	104.81
443.371	117.81
443.592	96.81
443.813	86.81
444.034	90.81
444.255	84.81
444.476	70.81
444.698	96.81
444.919	74.81
445.14	123.81
445.361	102.81
445.582	114.81
445.803	111.81
446.024	118.81
446.245	114.81
446.466	93.81
446.687	87.81
446.908	90.81
447.129	90.81
447.35	78.81
447.571	96.81
447.792	84.81
448.013	95.81
448.234	111.81
448.455	93.81
448.675	101.81
448.896	112.81
449.117	95.81
449.338	96.81
449.559	119.81
449.779	119.81
450	90.81
450.221	95.81
450.442	76.81
450.662	99.81
450.883	82.81
451.104	109.81
451.324	73.81
451.545	89.81
451.766	77.81
451.986	93.81
452.207	86.81
452.428	74.81
452.648	92.81
452.869	96.81
453.089	99.81
453.31	110.81
453.53	103.81
453.751	77.81
453.971	94.81
454.192	99.81
454.412	94.81
454.633	81.81
454.853	98.81
455.073	88.81
455.294	77.81
455.514	83.81
455.734	65.81
455.955	73.81
456.175	79.81
456.395	84.81
456.616	87.81
456.836	97.81
457.056	86.81
457.276	93.81
457.497	86.81
457.717	94.81
457.937	89.81
458.157	82.81
458.377	94.81
458.598	93.81
458.818	132.81
459.038	138.81
459.258	97.81
459.478	71.81
459.698	87.81
459.918	98.81
460.138	80.81
460.358	90.81
460.578	77.81
460.798	89.81
461.018	90.81
461.238	86.81
461.458	88.81
461.678	97.81
461.898	97.81
462.118	86.81
462.338	93.81
462.558	79.81
462.777	77.81
462.997	98.81
463.217	92.81
463.437	92.81
463.657	82.81
463.876	85.81
464.096	97.81
464.316	94.81
464.536	98.81
464.755	94.81
464.975	103.81
465.195	118.81
465.414	125.81
465.634	88.81
465.854	85.81
466.073	84.81
466.293	81.81
466.512	88.81
466.732	103.81
466.951	85.81
467.171	92.81
467.391	83.81
467.61	102.81
467.829	92.81
468.049	87.81
468.268	107.81
468.488	83.81
468.707	73.81
468.927	92.81
469.146	73.81
469.365	84.81
469.585	98.81
469.804	76.81
470.023	98.81
470.243	90.81
470.462	96.81
470.681	88.81
470.901	82.81
471.12	90.81
471.339	81.81
471.558	93.81
471.777	92.81
471.997	77.81
472.216	100.81
472.435	119.81
472.654	90.81
472.873	107.81
473.092	85.81
473.311	91.81
473.53	84.81
473.749	85.81
473.968	88.81
474.187	92.81
474.406	83.81
474.625	91.81
474.844	90.81
475.063	76.81
475.282	90.81
475.501	97.81
475.72	89.81
475.939	96.81
476.158	96.81
476.377	69.81
476.596	80.81
476.814	80.81
477.033	87.81
477.252	90.81
477.471	83.81
477.69	96.81
477.908	70.81
478.127	81.81
478.346	92.81
478.564	91.81
478.783	90.81
479.002	87.81
479.22	89.81
479.439	107.81
479.658	104.81
479.876	95.81
480.095	84.81
480.313	94.81
480.532	92.81
480.751	98.81
480.969	114.81
481.188	171.81
481.406	126.81
481.624	94.81
481.843	84.81
482.061	87.81
482.28	81.81
482.498	89.81
482.717	89.81
482.935	87.81
483.153	89.81
483.372	74.81
483.59	94.81
483.808	81.81
484.027	90.81
484.245	82.81
484.463	88.81
484.681	91.81
484.9	101.81
485.118	109.81
485.336	92.81
485.554	103.81
485.772	96.81
485.99	106.81
486.209	100.81
486.427	110.81
486.645	116.81
486.863	107.81
487.081	93.81
487.299	103.81
487.517	101.81
487.735	89.81
487.953	94.81
488.171	98.81
488.389	91.81
488.607	106.81
488.825	90.81
489.043	89.81
489.261	92.81
489.479	80.81
489.696	92.81
489.914	78.81
490.132	98.81
490.35	86.81
490.568	101.81
490.786	102.81
491.003	85.81
491.221	102.81
491.439	81.81
491.657	90.81
491.874	93.81
492.092	93.81
492.31	93.81
492.527	91.81
492.745	87.81
492.963	80.81
493.18	85.81
493.398	86.81
493.615	84.81
493.833	113.81
494.05	88.81
494.268	92.81
494.485	89.81
494.703	82.81
494.92	91.81
495.138	81.81
495.355	86.81
495.573	84.81
495.79	95.81
496.008	96.81
496.225	91.81
496.442	89.81
496.66	106.81
496.877	86.81
497.094	86.81
497.312	98.81
497.529	89.81
497.746	91.81
497.963	93.81
498.181	81.81
498.398	89.81
498.615	89.81
498.832	101.81
499.049	87.81
499.267	94.81
499.484	96.81
499.701	101.81
499.918	84.81
500.135	98.81
500.352	96.81
500.569	99.81
500.786	100.81
501.003	98.81
501.22	93.81
501.437	91.81
501.654	82.81
501.871	89.81
502.088	87.81
502.305	100.81
502.522	89.81
502.739	85.81
502.956	80.81
503.172	86.81
503.389	98.81
503.606	92.81
503.823	88.81
504.04	92.81
504.256	85.81
504.473	94.81
504.69	90.81
504.907	83.81
505.123	92.81
505.34	97.81
505.557	76.81
505.773	80.81
505.99	76.81
506.207	89.81
506.423	92.81
506.64	92.81
506.856	82.81
507.073	87.81
507.289	103.81
507.506	87.81
507.722	107.81
507.939	97.81
508.155	99.81
508.372	91.81
508.588	99.81
508.805	95.81
509.021	94.81
509.238	85.81
509.454	74.81
509.67	80.81
509.887	98.81
510.103	123.81
510.319	170.81
510.536	591.81
510.752	1787.81
510.968	509.81
511.184	134.81
511.401	100.81
511.617	106.81
511.833	78.81
512.049	97.81
512.265	93.81
512.481	98.81
512.698	89.81
512.914	91.81
513.13	94.81
513.346	93.81
513.562	89.81
513.778	104.81
513.994	84.81
514.21	92.81
514.426	114.81
514.642	112.81
514.858	124.81
515.074	140.81
515.29	331.81
515.506	1030.81
515.721	393.81
515.937	142.81
516.153	100.81
516.369	100.81
