Data from Uncirc_1980_H10_HRD10591_00031.txt Node
Date: Wed Jan 03 12:37:01 EST 2024
User: Yrep
Spectrometer: HR+D1059
Trigger mode: 1
Integration Time (sec): 1.000000E-1
Scans to average: 1
Electric dark correction enabled: true
Nonlinearity correction enabled: false
Boxcar width: 0
XAxis mode: Wavelengths
Number of Pixels in Spectrum: 2048
>>>>>Begin Spectral Data<<<<<
223.165	-18.5
223.4	-18.5
223.635	-18.5
223.869	-15.5
224.104	-21.5
224.338	-11.5
224.573	-17.5
224.808	-7.5
225.042	-10.5
225.277	6.5
225.511	-6.5
225.746	4.5
225.98	7.5
226.215	15.5
226.449	16.5
226.683	17.5
226.918	17.5
227.152	23.5
227.387	36.5
227.621	29.5
227.856	41.5
228.09	47.5
228.324	38.5
228.559	54.5
228.793	55.5
229.027	66.5
229.262	50.5
229.496	84.5
229.73	78.5
229.964	70.5
230.199	71.5
230.433	93.5
230.667	68.5
230.901	72.5
231.136	65.5
231.37	73.5
231.604	73.5
231.838	83.5
232.072	66.5
232.306	82.5
232.541	69.5
232.775	84.5
233.009	85.5
233.243	84.5
233.477	70.5
233.711	85.5
233.945	74.5
234.179	84.5
234.413	66.5
234.647	75.5
234.881	96.5
235.115	78.5
235.349	69.5
235.583	86.5
235.817	89.5
236.051	76.5
236.285	70.5
236.519	55.5
236.753	80.5
236.987	63.5
237.221	91.5
237.455	86.5
237.689	82.5
237.922	74.5
238.156	67.5
238.39	71.5
238.624	75.5
238.858	85.5
239.091	78.5
239.325	82.5
239.559	89.5
239.793	81.5
240.027	59.5
240.26	73.5
240.494	65.5
240.728	80.5
240.961	78.5
241.195	80.5
241.429	79.5
241.662	84.5
241.896	84.5
242.13	67.5
242.363	69.5
242.597	78.5
242.83	74.5
243.064	66.5
243.298	68.5
243.531	79.5
243.765	63.5
243.998	71.5
244.232	76.5
244.465	72.5
244.699	70.5
244.932	71.5
245.166	80.5
245.399	71.5
245.633	90.5
245.866	69.5
246.099	60.5
246.333	84.5
246.566	66.5
246.8	68.5
247.033	80.5
247.266	77.5
247.5	72.5
247.733	66.5
247.966	82.5
248.2	58.5
248.433	94.5
248.666	75.5
248.899	78.5
249.133	80.5
249.366	86.5
249.599	93.5
249.832	85.5
250.066	83.5
250.299	75.5
250.532	78.5
250.765	80.5
250.998	76.5
251.231	75.5
251.465	83.5
251.698	79.5
251.931	68.5
252.164	80.5
252.397	87.5
252.63	78.5
252.863	64.5
253.096	89.5
253.329	87.5
253.562	72.5
253.795	92.5
254.028	79.5
254.261	79.5
254.494	68.5
254.727	70.5
254.96	80.5
255.193	75.5
255.426	68.5
255.659	71.5
255.892	72.5
256.124	91.5
256.357	80.5
256.59	80.5
256.823	86.5
257.056	74.5
257.289	78.5
257.521	82.5
257.754	88.5
257.987	91.5
258.22	75.5
258.452	92.5
258.685	88.5
258.918	83.5
259.151	92.5
259.383	91.5
259.616	74.5
259.849	96.5
260.081	83.5
260.314	81.5
260.547	82.5
260.779	75.5
261.012	76.5
261.244	60.5
261.477	91.5
261.71	80.5
261.942	84.5
262.175	99.5
262.407	90.5
262.64	86.5
262.872	81.5
263.105	68.5
263.337	71.5
263.57	96.5
263.802	79.5
264.035	94.5
264.267	91.5
264.499	83.5
264.732	76.5
264.964	66.5
265.197	87.5
265.429	81.5
265.661	82.5
265.894	87.5
266.126	83.5
266.358	84.5
266.591	86.5
266.823	82.5
267.055	76.5
267.287	91.5
267.52	94.5
267.752	94.5
267.984	68.5
268.216	80.5
268.448	83.5
268.681	79.5
268.913	58.5
269.145	78.5
269.377	74.5
269.609	80.5
269.841	74.5
270.073	86.5
270.306	79.5
270.538	88.5
270.77	84.5
271.002	70.5
271.234	84.5
271.466	99.5
271.698	92.5
271.93	74.5
272.162	80.5
272.394	75.5
272.626	80.5
272.858	82.5
273.09	79.5
273.322	89.5
273.553	86.5
273.785	67.5
274.017	95.5
274.249	72.5
274.481	79.5
274.713	87.5
274.945	97.5
275.176	92.5
275.408	76.5
275.64	94.5
275.872	92.5
276.104	80.5
276.335	84.5
276.567	86.5
276.799	89.5
277.031	97.5
277.262	76.5
277.494	78.5
277.726	80.5
277.957	82.5
278.189	81.5
278.421	87.5
278.652	79.5
278.884	78.5
279.115	86.5
279.347	90.5
279.579	76.5
279.81	85.5
280.042	78.5
280.273	85.5
280.505	87.5
280.736	73.5
280.968	84.5
281.199	85.5
281.431	86.5
281.662	88.5
281.894	104.5
282.125	99.5
282.356	102.5
282.588	106.5
282.819	101.5
283.051	79.5
283.282	78.5
283.513	81.5
283.745	78.5
283.976	92.5
284.207	106.5
284.439	84.5
284.67	93.5
284.901	73.5
285.132	76.5
285.364	83.5
285.595	81.5
285.826	102.5
286.057	68.5
286.288	60.5
286.52	98.5
286.751	91.5
286.982	78.5
287.213	96.5
287.444	83.5
287.675	79.5
287.906	76.5
288.138	80.5
288.369	82.5
288.6	93.5
288.831	84.5
289.062	69.5
289.293	90.5
289.524	84.5
289.755	90.5
289.986	71.5
290.217	86.5
290.448	76.5
290.679	90.5
290.91	86.5
291.141	84.5
291.371	76.5
291.602	80.5
291.833	86.5
292.064	98.5
292.295	85.5
292.526	80.5
292.757	89.5
292.987	92.5
293.218	84.5
293.449	94.5
293.68	91.5
293.91	88.5
294.141	83.5
294.372	86.5
294.603	94.5
294.833	92.5
295.064	89.5
295.295	84.5
295.525	84.5
295.756	91.5
295.987	96.5
296.217	101.5
296.448	114.5
296.679	82.5
296.909	82.5
297.14	85.5
297.37	89.5
297.601	77.5
297.831	87.5
298.062	83.5
298.292	83.5
298.523	79.5
298.753	96.5
298.984	81.5
299.214	88.5
299.445	80.5
299.675	84.5
299.905	87.5
300.136	86.5
300.366	84.5
300.597	97.5
300.827	91.5
301.057	83.5
301.288	82.5
301.518	84.5
301.748	79.5
301.979	96.5
302.209	84.5
302.439	98.5
302.669	72.5
302.9	98.5
303.13	73.5
303.36	79.5
303.59	104.5
303.82	87.5
304.051	87.5
304.281	88.5
304.511	97.5
304.741	86.5
304.971	93.5
305.201	84.5
305.431	82.5
305.661	81.5
305.891	92.5
306.121	97.5
306.352	98.5
306.582	89.5
306.812	86.5
307.042	106.5
307.272	99.5
307.502	86.5
307.731	83.5
307.961	91.5
308.191	93.5
308.421	84.5
308.651	98.5
308.881	87.5
309.111	82.5
309.341	83.5
309.571	90.5
309.8	88.5
310.03	81.5
310.26	80.5
310.49	91.5
310.72	88.5
310.949	98.5
311.179	95.5
311.409	90.5
311.639	96.5
311.868	114.5
312.098	98.5
312.328	94.5
312.557	95.5
312.787	91.5
313.017	104.5
313.246	85.5
313.476	100.5
313.706	99.5
313.935	84.5
314.165	86.5
314.394	89.5
314.624	79.5
314.853	92.5
315.083	94.5
315.312	88.5
315.542	91.5
315.771	88.5
316.001	79.5
316.23	85.5
316.46	83.5
316.689	88.5
316.919	104.5
317.148	103.5
317.377	87.5
317.607	99.5
317.836	92.5
318.065	90.5
318.295	88.5
318.524	86.5
318.753	92.5
318.983	96.5
319.212	88.5
319.441	95.5
319.67	101.5
319.9	89.5
320.129	87.5
320.358	104.5
320.587	86.5
320.816	100.5
321.046	93.5
321.275	92.5
321.504	90.5
321.733	87.5
321.962	91.5
322.191	102.5
322.42	90.5
322.649	91.5
322.878	98.5
323.108	108.5
323.337	95.5
323.566	100.5
323.795	122.5
324.024	146.5
324.253	270.5
324.482	541.5
324.71	1084.5
324.939	1417.5
325.168	535.5
325.397	185.5
325.626	108.5
325.855	94.5
326.084	113.5
326.313	112.5
326.542	119.5
326.77	170.5
326.999	322.5
327.228	617.5
327.457	1109.5
327.686	891.5
327.914	260.5
328.143	140.5
328.372	134.5
328.6	114.5
328.829	102.5
329.058	109.5
329.287	112.5
329.515	88.5
329.744	98.5
329.972	95.5
330.201	112.5
330.43	127.5
330.658	102.5
330.887	103.5
331.115	112.5
331.344	94.5
331.572	94.5
331.801	85.5
332.03	96.5
332.258	93.5
332.486	100.5
332.715	82.5
332.943	72.5
333.172	103.5
333.4	83.5
333.629	84.5
333.857	97.5
334.085	102.5
334.314	95.5
334.542	108.5
334.771	97.5
334.999	93.5
335.227	88.5
335.455	89.5
335.684	105.5
335.912	87.5
336.14	95.5
336.369	79.5
336.597	95.5
336.825	95.5
337.053	105.5
337.281	103.5
337.51	82.5
337.738	75.5
337.966	82.5
338.194	97.5
338.422	89.5
338.65	79.5
338.878	87.5
339.106	90.5
339.334	93.5
339.562	85.5
339.79	88.5
340.018	82.5
340.246	97.5
340.474	74.5
340.702	90.5
340.93	78.5
341.158	88.5
341.386	74.5
341.614	91.5
341.842	94.5
342.07	84.5
342.298	89.5
342.526	81.5
342.754	83.5
342.981	87.5
343.209	97.5
343.437	96.5
343.665	74.5
343.893	100.5
344.12	75.5
344.348	75.5
344.576	81.5
344.804	86.5
345.031	91.5
345.259	101.5
345.487	74.5
345.714	80.5
345.942	76.5
346.17	78.5
346.397	83.5
346.625	90.5
346.853	105.5
347.08	85.5
347.308	83.5
347.535	100.5
347.763	85.5
347.99	92.5
348.218	97.5
348.445	100.5
348.673	91.5
348.9	94.5
349.128	89.5
349.355	98.5
349.583	84.5
349.81	93.5
350.037	88.5
350.265	90.5
350.492	85.5
350.72	86.5
350.947	104.5
351.174	91.5
351.402	110.5
351.629	99.5
351.856	92.5
352.083	103.5
352.311	90.5
352.538	86.5
352.765	101.5
352.992	92.5
353.22	107.5
353.447	101.5
353.674	100.5
353.901	100.5
354.128	89.5
354.355	84.5
354.583	93.5
354.81	95.5
355.037	99.5
355.264	91.5
355.491	91.5
355.718	90.5
355.945	93.5
356.172	90.5
356.399	83.5
356.626	90.5
356.853	86.5
357.08	82.5
357.307	90.5
357.534	95.5
357.761	90.5
357.988	96.5
358.215	103.5
358.441	102.5
358.668	99.5
358.895	94.5
359.122	90.5
359.349	90.5
359.576	101.5
359.802	87.5
360.029	86.5
360.256	103.5
360.483	87.5
360.709	87.5
360.936	90.5
361.163	88.5
361.39	85.5
361.616	98.5
361.843	96.5
362.07	84.5
362.296	92.5
362.523	73.5
362.749	82.5
362.976	94.5
363.203	82.5
363.429	88.5
363.656	98.5
363.882	92.5
364.109	84.5
364.335	92.5
364.562	93.5
364.788	76.5
365.015	79.5
365.241	92.5
365.468	101.5
365.694	92.5
365.92	99.5
366.147	68.5
366.373	85.5
366.599	79.5
366.826	95.5
367.052	76.5
367.278	84.5
367.505	96.5
367.731	95.5
367.957	84.5
368.184	69.5
368.41	76.5
368.636	92.5
368.862	103.5
369.089	104.5
369.315	87.5
369.541	86.5
369.767	86.5
369.993	92.5
370.219	78.5
370.445	97.5
370.672	83.5
370.898	103.5
371.124	90.5
371.35	73.5
371.576	88.5
371.802	91.5
372.028	82.5
372.254	97.5
372.48	85.5
372.706	85.5
372.932	72.5
373.158	82.5
373.384	86.5
373.61	84.5
373.835	91.5
374.061	92.5
374.287	88.5
374.513	98.5
374.739	82.5
374.965	99.5
375.191	99.5
375.416	106.5
375.642	81.5
375.868	94.5
376.094	86.5
376.319	94.5
376.545	92.5
376.771	78.5
376.997	86.5
377.222	82.5
377.448	90.5
377.674	104.5
377.899	99.5
378.125	92.5
378.35	75.5
378.576	99.5
378.802	88.5
379.027	106.5
379.253	94.5
379.478	79.5
379.704	96.5
379.929	84.5
380.155	79.5
380.38	90.5
380.606	98.5
380.831	102.5
381.057	96.5
381.282	85.5
381.507	99.5
381.733	92.5
381.958	104.5
382.184	100.5
382.409	101.5
382.634	99.5
382.86	114.5
383.085	100.5
383.31	98.5
383.535	109.5
383.761	99.5
383.986	97.5
384.211	105.5
384.436	101.5
384.662	97.5
384.887	103.5
385.112	112.5
385.337	98.5
385.562	117.5
385.787	111.5
386.013	116.5
386.238	119.5
386.463	107.5
386.688	106.5
386.913	100.5
387.138	114.5
387.363	97.5
387.588	120.5
387.813	92.5
388.038	95.5
388.263	123.5
388.488	128.5
388.713	98.5
388.938	86.5
389.163	98.5
389.387	91.5
389.612	101.5
389.837	90.5
390.062	99.5
390.287	97.5
390.512	77.5
390.736	92.5
390.961	99.5
391.186	88.5
391.411	102.5
391.636	101.5
391.86	89.5
392.085	84.5
392.31	67.5
392.534	77.5
392.759	84.5
392.984	83.5
393.208	82.5
393.433	75.5
393.658	88.5
393.882	90.5
394.107	79.5
394.331	91.5
394.556	89.5
394.78	96.5
395.005	91.5
395.229	95.5
395.454	81.5
395.678	84.5
395.903	94.5
396.127	92.5
396.352	91.5
396.576	79.5
396.801	94.5
397.025	86.5
397.249	90.5
397.474	71.5
397.698	80.5
397.922	81.5
398.147	83.5
398.371	77.5
398.595	78.5
398.82	83.5
399.044	93.5
399.268	85.5
399.492	79.5
399.717	88.5
399.941	82.5
400.165	84.5
400.389	82.5
400.613	97.5
400.837	93.5
401.062	92.5
401.286	85.5
401.51	84.5
401.734	94.5
401.958	94.5
402.182	112.5
402.406	118.5
402.63	91.5
402.854	83.5
403.078	82.5
403.302	75.5
403.526	68.5
403.75	96.5
403.974	92.5
404.198	92.5
404.422	77.5
404.645	87.5
404.869	84.5
405.093	88.5
405.317	96.5
405.541	98.5
405.765	98.5
405.988	102.5
406.212	127.5
406.436	173.5
406.66	118.5
406.883	98.5
407.107	92.5
407.331	95.5
407.555	93.5
407.778	97.5
408.002	85.5
408.226	78.5
408.449	87.5
408.673	98.5
408.896	82.5
409.12	97.5
409.344	87.5
409.567	80.5
409.791	90.5
410.014	98.5
410.238	82.5
410.461	80.5
410.685	95.5
410.908	91.5
411.132	97.5
411.355	89.5
411.578	102.5
411.802	79.5
412.025	86.5
412.249	81.5
412.472	87.5
412.695	99.5
412.919	81.5
413.142	74.5
413.365	91.5
413.589	94.5
413.812	98.5
414.035	91.5
414.258	95.5
414.482	107.5
414.705	86.5
414.928	94.5
415.151	91.5
415.374	98.5
415.597	96.5
415.821	84.5
416.044	99.5
416.267	83.5
416.49	95.5
416.713	105.5
416.936	89.5
417.159	98.5
417.382	101.5
417.605	73.5
417.828	73.5
418.051	82.5
418.274	82.5
418.497	93.5
418.72	91.5
418.943	101.5
419.166	81.5
419.389	86.5
419.611	84.5
419.834	69.5
420.057	76.5
420.28	83.5
420.503	82.5
420.726	92.5
420.948	100.5
421.171	102.5
421.394	80.5
421.617	82.5
421.839	73.5
422.062	91.5
422.285	87.5
422.507	82.5
422.73	102.5
422.953	76.5
423.175	88.5
423.398	83.5
423.621	92.5
423.843	81.5
424.066	88.5
424.288	79.5
424.511	79.5
424.733	90.5
424.956	99.5
425.178	90.5
425.401	91.5
425.623	92.5
425.846	79.5
426.068	87.5
426.291	81.5
426.513	72.5
426.735	96.5
426.958	96.5
427.18	87.5
427.402	116.5
427.625	121.5
427.847	104.5
428.069	84.5
428.292	75.5
428.514	80.5
428.736	96.5
428.958	89.5
429.181	75.5
429.403	87.5
429.625	99.5
429.847	82.5
430.069	75.5
430.292	94.5
430.514	88.5
430.736	86.5
430.958	82.5
431.18	71.5
431.402	80.5
431.624	85.5
431.846	83.5
432.068	76.5
432.29	69.5
432.512	69.5
432.734	96.5
432.956	75.5
433.178	92.5
433.4	94.5
433.622	84.5
433.844	83.5
434.066	84.5
434.287	105.5
434.509	105.5
434.731	84.5
434.953	75.5
435.175	79.5
435.397	71.5
435.618	95.5
435.84	103.5
436.062	112.5
436.284	105.5
436.505	82.5
436.727	87.5
436.949	91.5
437.17	97.5
437.392	85.5
437.614	98.5
437.835	98.5
438.057	95.5
438.278	103.5
438.5	91.5
438.721	105.5
438.943	103.5
439.165	86.5
439.386	66.5
439.608	90.5
439.829	79.5
440.05	100.5
440.272	120.5
440.493	87.5
440.715	94.5
440.936	85.5
441.158	82.5
441.379	80.5
441.6	78.5
441.822	76.5
442.043	80.5
442.264	102.5
442.486	95.5
442.707	90.5
442.928	101.5
443.149	104.5
443.371	100.5
443.592	109.5
443.813	90.5
444.034	91.5
444.255	86.5
444.476	71.5
444.698	87.5
444.919	83.5
445.14	128.5
445.361	112.5
445.582	103.5
445.803	120.5
446.024	110.5
446.245	117.5
446.466	106.5
446.687	76.5
446.908	73.5
447.129	90.5
447.35	88.5
447.571	78.5
447.792	96.5
448.013	82.5
448.234	98.5
448.455	101.5
448.675	90.5
448.896	90.5
449.117	92.5
449.338	83.5
449.559	118.5
449.779	107.5
450	80.5
450.221	79.5
450.442	78.5
450.662	98.5
450.883	102.5
451.104	105.5
451.324	84.5
451.545	73.5
451.766	88.5
451.986	82.5
452.207	92.5
452.428	103.5
452.648	77.5
452.869	100.5
453.089	99.5
453.31	102.5
453.53	80.5
453.751	92.5
453.971	102.5
454.192	94.5
454.412	86.5
454.633	101.5
454.853	90.5
455.073	84.5
455.294	94.5
455.514	106.5
455.734	89.5
455.955	80.5
456.175	86.5
456.395	88.5
456.616	85.5
456.836	82.5
457.056	87.5
457.276	79.5
457.497	86.5
457.717	81.5
457.937	94.5
458.157	82.5
458.377	96.5
458.598	95.5
458.818	117.5
459.038	113.5
459.258	89.5
459.478	84.5
459.698	80.5
459.918	91.5
460.138	91.5
460.358	77.5
460.578	84.5
460.798	92.5
461.018	97.5
461.238	78.5
461.458	86.5
461.678	89.5
461.898	67.5
462.118	75.5
462.338	82.5
462.558	94.5
462.777	89.5
462.997	88.5
463.217	91.5
463.437	89.5
463.657	89.5
463.876	88.5
464.096	83.5
464.316	82.5
464.536	78.5
464.755	69.5
464.975	99.5
465.195	129.5
465.414	116.5
465.634	100.5
465.854	83.5
466.073	82.5
466.293	75.5
466.512	82.5
466.732	62.5
466.951	92.5
467.171	94.5
467.391	91.5
467.61	94.5
467.829	84.5
468.049	92.5
468.268	96.5
468.488	83.5
468.707	80.5
468.927	77.5
469.146	86.5
469.365	76.5
469.585	89.5
469.804	82.5
470.023	96.5
470.243	83.5
470.462	88.5
470.681	99.5
470.901	85.5
471.12	78.5
471.339	90.5
471.558	78.5
471.777	82.5
471.997	75.5
472.216	102.5
472.435	121.5
472.654	98.5
472.873	88.5
473.092	74.5
473.311	84.5
473.53	63.5
473.749	80.5
473.968	98.5
474.187	95.5
474.406	97.5
474.625	98.5
474.844	86.5
475.063	87.5
475.282	80.5
475.501	88.5
475.72	79.5
475.939	83.5
476.158	83.5
476.377	85.5
476.596	75.5
476.814	78.5
477.033	85.5
477.252	84.5
477.471	88.5
477.69	87.5
477.908	84.5
478.127	75.5
478.346	96.5
478.564	81.5
478.783	96.5
479.002	104.5
479.22	78.5
479.439	97.5
479.658	89.5
479.876	91.5
480.095	91.5
480.313	110.5
480.532	86.5
480.751	88.5
480.969	112.5
481.188	154.5
481.406	129.5
481.624	83.5
481.843	72.5
482.061	78.5
482.28	111.5
482.498	94.5
482.717	90.5
482.935	87.5
483.153	84.5
483.372	90.5
483.59	92.5
483.808	87.5
484.027	95.5
484.245	91.5
484.463	90.5
484.681	90.5
484.9	83.5
485.118	91.5
485.336	90.5
485.554	100.5
485.772	95.5
485.99	84.5
486.209	89.5
486.427	94.5
486.645	92.5
486.863	104.5
487.081	88.5
487.299	102.5
487.517	96.5
487.735	100.5
487.953	92.5
488.171	98.5
488.389	95.5
488.607	92.5
488.825	80.5
489.043	87.5
489.261	86.5
489.479	94.5
489.696	85.5
489.914	85.5
490.132	87.5
490.35	84.5
490.568	90.5
490.786	92.5
491.003	92.5
491.221	82.5
491.439	89.5
491.657	107.5
491.874	95.5
492.092	87.5
492.31	94.5
492.527	94.5
492.745	82.5
492.963	76.5
493.18	86.5
493.398	70.5
493.615	107.5
493.833	94.5
494.05	84.5
494.268	75.5
494.485	92.5
494.703	90.5
494.92	74.5
495.138	86.5
495.355	100.5
495.573	92.5
495.79	82.5
496.008	101.5
496.225	74.5
496.442	82.5
496.66	90.5
496.877	86.5
497.094	88.5
497.312	88.5
497.529	96.5
497.746	82.5
497.963	89.5
498.181	78.5
498.398	88.5
498.615	90.5
498.832	94.5
499.049	72.5
499.267	88.5
499.484	85.5
499.701	76.5
499.918	87.5
500.135	96.5
500.352	83.5
500.569	90.5
500.786	86.5
501.003	101.5
501.22	102.5
501.437	100.5
501.654	83.5
501.871	78.5
502.088	103.5
502.305	84.5
502.522	82.5
502.739	85.5
502.956	83.5
503.172	95.5
503.389	91.5
503.606	96.5
503.823	74.5
504.04	94.5
504.256	72.5
504.473	73.5
504.69	83.5
504.907	82.5
505.123	72.5
505.34	82.5
505.557	86.5
505.773	90.5
505.99	87.5
506.207	97.5
506.423	81.5
506.64	74.5
506.856	88.5
507.073	88.5
507.289	91.5
507.506	84.5
507.722	91.5
507.939	97.5
508.155	94.5
508.372	84.5
508.588	85.5
508.805	83.5
509.021	82.5
509.238	87.5
509.454	95.5
509.67	101.5
509.887	108.5
510.103	114.5
510.319	166.5
510.536	542.5
510.752	1603.5
510.968	446.5
511.184	122.5
511.401	88.5
511.617	88.5
511.833	87.5
512.049	106.5
512.265	84.5
512.481	86.5
512.698	97.5
512.914	79.5
513.13	78.5
513.346	89.5
513.562	89.5
513.778	95.5
513.994	94.5
514.21	99.5
514.426	105.5
514.642	106.5
514.858	83.5
515.074	126.5
515.29	286.5
515.506	904.5
515.721	331.5
515.937	122.5
516.153	97.5
516.369	92.5
516.585	92.5
516.801	96.5
517.016	98.5
517.232	92.5
517.448	100.5
517.664	92.5
517.879	83.5
518.095	88.5
518.311	88.5
518.527	73.5
518.742	88.5
518.958	91.5
519.173	96.5
519.389	106.5
519.605	107.5
519.82	101.5
520.036	104.5
520.251	117.5
520.467	98.5
520.682	87.5
520.898	107.5
521.113	99.5
521.329	117.5
521.544	170.5
521.76	326.5
521.975	1466.5
522.19	863.5
522.406	202.5
522.621	99.5
522.836	98.5
523.052	93.5
523.267	91.5
523.482	92.5
523.698	95.5
523.913	102.5
524.128	95.5
524.343	91.5
524.559	94.5
524.774	90.5
524.989	102.5
525.204	96.5
525.419	92.5
525.634	83.5
525.849	90.5
526.064	84.5
526.28	99.5
526.495	80.5
526.71	92.5
526.925	78.5
527.14	94.5
527.355	81.5
527.57	87.5
527.785	88.5
527.999	84.5
528.214	93.5
528.429	96.5
528.644	80.5
528.859	91.5
529.074	88.5
529.289	100.5
529.503	134.5
529.718	95.5
529.933	89.5
530.148	105.5
530.363	92.5
530.577	88.5
530.792	85.5
531.007	89.5
531.221	86.5
531.436	95.5
531.651	82.5
531.865	78.5
532.08	65.5
532.295	75.5
532.509	85.5
532.724	67.5
532.938	100.5
533.153	91.5
533.367	83.5
533.582	83.5
533.796	88.5
534.011	89.5
534.225	90.5
534.44	94.5
534.654	90.5
534.868	100.5
535.083	90.5
535.297	106.5
535.511	100.5
535.726	77.5
535.94	108.5
536.154	89.5
536.369	86.5
536.583	91.5
536.797	90.5
537.011	92.5
537.225	90.5
