Data from Uncirc_1980_H10_HRD10591_00040.txt Node
Date: Wed Jan 03 12:37:03 EST 2024
User: Yrep
Spectrometer: HR+D1059
Trigger mode: 1
Integration Time (sec): 1.000000E-1
Scans to average: 1
Electric dark correction enabled: true
Nonlinearity correction enabled: false
Boxcar width: 0
XAxis mode: Wavelengths
Number of Pixels in Spectrum: 2048
>>>>>Begin Spectral Data<<<<<
223.165	-19.25
223.4	-19.25
223.635	-19.25
223.869	-17.25
224.104	-14.25
224.338	-24.25
224.573	-18.25
224.808	-22.25
225.042	0.75
225.277	-7.25
225.511	2.75
225.746	-2.25
225.98	0.75
226.215	-1.25
226.449	28.75
226.683	24.75
226.918	23.75
227.152	44.75
227.387	38.75
227.621	48.75
227.856	32.75
228.09	46.75
228.324	41.75
228.559	71.75
228.793	49.75
229.027	67.75
229.262	76.75
229.496	64.75
229.73	75.75
229.964	81.75
230.199	58.75
230.433	80.75
230.667	75.75
230.901	73.75
231.136	80.75
231.37	80.75
231.604	68.75
231.838	65.75
232.072	64.75
232.306	71.75
232.541	82.75
232.775	96.75
233.009	107.75
233.243	85.75
233.477	85.75
233.711	90.75
233.945	85.75
234.179	74.75
234.413	83.75
234.647	84.75
234.881	73.75
235.115	76.75
235.349	75.75
235.583	81.75
235.817	75.75
236.051	75.75
236.285	73.75
236.519	83.75
236.753	74.75
236.987	76.75
237.221	77.75
237.455	91.75
237.689	78.75
237.922	78.75
238.156	69.75
238.39	56.75
238.624	78.75
238.858	80.75
239.091	82.75
239.325	81.75
239.559	75.75
239.793	86.75
240.027	76.75
240.26	85.75
240.494	68.75
240.728	66.75
240.961	69.75
241.195	87.75
241.429	75.75
241.662	84.75
241.896	75.75
242.13	72.75
242.363	73.75
242.597	73.75
242.83	90.75
243.064	60.75
243.298	73.75
243.531	75.75
243.765	92.75
243.998	78.75
244.232	80.75
244.465	84.75
244.699	91.75
244.932	77.75
245.166	75.75
245.399	81.75
245.633	75.75
245.866	77.75
246.099	74.75
246.333	76.75
246.566	82.75
246.8	83.75
247.033	82.75
247.266	75.75
247.5	75.75
247.733	75.75
247.966	85.75
248.2	71.75
248.433	86.75
248.666	76.75
248.899	85.75
249.133	84.75
249.366	94.75
249.599	95.75
249.832	82.75
250.066	83.75
250.299	76.75
250.532	72.75
250.765	76.75
250.998	88.75
251.231	76.75
251.465	82.75
251.698	78.75
251.931	83.75
252.164	89.75
252.397	80.75
252.63	71.75
252.863	78.75
253.096	71.75
253.329	69.75
253.562	66.75
253.795	96.75
254.028	88.75
254.261	91.75
254.494	63.75
254.727	83.75
254.96	80.75
255.193	77.75
255.426	82.75
255.659	80.75
255.892	80.75
256.124	60.75
256.357	84.75
256.59	83.75
256.823	82.75
257.056	80.75
257.289	82.75
257.521	81.75
257.754	74.75
257.987	80.75
258.22	88.75
258.452	73.75
258.685	74.75
258.918	85.75
259.151	93.75
259.383	78.75
259.616	77.75
259.849	81.75
260.081	93.75
260.314	102.75
260.547	81.75
260.779	92.75
261.012	82.75
261.244	89.75
261.477	89.75
261.71	96.75
261.942	96.75
262.175	108.75
262.407	88.75
262.64	81.75
262.872	75.75
263.105	86.75
263.337	80.75
263.57	97.75
263.802	71.75
264.035	71.75
264.267	75.75
264.499	83.75
264.732	83.75
264.964	85.75
265.197	65.75
265.429	81.75
265.661	69.75
265.894	88.75
266.126	80.75
266.358	96.75
266.591	70.75
266.823	76.75
267.055	87.75
267.287	85.75
267.52	81.75
267.752	77.75
267.984	69.75
268.216	78.75
268.448	83.75
268.681	94.75
268.913	77.75
269.145	75.75
269.377	84.75
269.609	84.75
269.841	75.75
270.073	84.75
270.306	80.75
270.538	94.75
270.77	81.75
271.002	105.75
271.234	70.75
271.466	72.75
271.698	68.75
271.93	89.75
272.162	95.75
272.394	78.75
272.626	80.75
272.858	99.75
273.09	93.75
273.322	93.75
273.553	83.75
273.785	86.75
274.017	86.75
274.249	91.75
274.481	71.75
274.713	78.75
274.945	88.75
275.176	90.75
275.408	94.75
275.64	88.75
275.872	86.75
276.104	101.75
276.335	92.75
276.567	88.75
276.799	104.75
277.031	98.75
277.262	90.75
277.494	97.75
277.726	75.75
277.957	101.75
278.189	86.75
278.421	86.75
278.652	90.75
278.884	89.75
279.115	86.75
279.347	88.75
279.579	88.75
279.81	91.75
280.042	97.75
280.273	90.75
280.505	89.75
280.736	73.75
280.968	90.75
281.199	83.75
281.431	94.75
281.662	85.75
281.894	97.75
282.125	87.75
282.356	105.75
282.588	107.75
282.819	97.75
283.051	96.75
283.282	84.75
283.513	79.75
283.745	85.75
283.976	81.75
284.207	82.75
284.439	78.75
284.67	86.75
284.901	80.75
285.132	77.75
285.364	69.75
285.595	83.75
285.826	93.75
286.057	88.75
286.288	88.75
286.52	79.75
286.751	86.75
286.982	89.75
287.213	78.75
287.444	90.75
287.675	78.75
287.906	79.75
288.138	82.75
288.369	99.75
288.6	81.75
288.831	93.75
289.062	92.75
289.293	88.75
289.524	92.75
289.755	87.75
289.986	85.75
290.217	72.75
290.448	86.75
290.679	88.75
290.91	81.75
291.141	87.75
291.371	68.75
291.602	72.75
291.833	84.75
292.064	82.75
292.295	83.75
292.526	74.75
292.757	89.75
292.987	74.75
293.218	84.75
293.449	73.75
293.68	92.75
293.91	89.75
294.141	91.75
294.372	92.75
294.603	85.75
294.833	94.75
295.064	87.75
295.295	110.75
295.525	90.75
295.756	90.75
295.987	99.75
296.217	123.75
296.448	113.75
296.679	86.75
296.909	89.75
297.14	98.75
297.37	89.75
297.601	78.75
297.831	83.75
298.062	75.75
298.292	96.75
298.523	87.75
298.753	81.75
298.984	88.75
299.214	86.75
299.445	78.75
299.675	86.75
299.905	83.75
300.136	90.75
300.366	88.75
300.597	97.75
300.827	90.75
301.057	85.75
301.288	109.75
301.518	84.75
301.748	84.75
301.979	93.75
302.209	88.75
302.439	86.75
302.669	96.75
302.9	78.75
303.13	81.75
303.36	88.75
303.59	95.75
303.82	99.75
304.051	84.75
304.281	99.75
304.511	95.75
304.741	79.75
304.971	86.75
305.201	78.75
305.431	80.75
305.661	83.75
305.891	81.75
306.121	77.75
306.352	103.75
306.582	100.75
306.812	76.75
307.042	93.75
307.272	92.75
307.502	102.75
307.731	82.75
307.961	86.75
308.191	92.75
308.421	82.75
308.651	92.75
308.881	88.75
309.111	96.75
309.341	100.75
309.571	80.75
309.8	78.75
310.03	86.75
310.26	96.75
310.49	93.75
310.72	90.75
310.949	95.75
311.179	93.75
311.409	83.75
311.639	80.75
311.868	91.75
312.098	86.75
312.328	89.75
312.557	87.75
312.787	83.75
313.017	96.75
313.246	87.75
313.476	80.75
313.706	88.75
313.935	84.75
314.165	89.75
314.394	91.75
314.624	87.75
314.853	82.75
315.083	72.75
315.312	91.75
315.542	84.75
315.771	90.75
316.001	105.75
316.23	68.75
316.46	102.75
316.689	84.75
316.919	89.75
317.148	96.75
317.377	100.75
317.607	90.75
317.836	81.75
318.065	88.75
318.295	85.75
318.524	96.75
318.753	101.75
318.983	88.75
319.212	89.75
319.441	90.75
319.67	90.75
319.9	100.75
320.129	99.75
320.358	101.75
320.587	100.75
320.816	86.75
321.046	81.75
321.275	77.75
321.504	84.75
321.733	93.75
321.962	88.75
322.191	88.75
322.42	93.75
322.649	107.75
322.878	99.75
323.108	102.75
323.337	106.75
323.566	110.75
323.795	123.75
324.024	140.75
324.253	275.75
324.482	569.75
324.71	1155.75
324.939	1522.75
325.168	569.75
325.397	191.75
325.626	124.75
325.855	116.75
326.084	107.75
326.313	120.75
326.542	110.75
326.77	184.75
326.999	324.75
327.228	675.75
327.457	1193.75
327.686	982.75
327.914	277.75
328.143	149.75
328.372	126.75
328.6	109.75
328.829	98.75
329.058	87.75
329.287	101.75
329.515	97.75
329.744	84.75
329.972	99.75
330.201	105.75
330.43	120.75
330.658	101.75
330.887	103.75
331.115	111.75
331.344	94.75
331.572	87.75
331.801	95.75
332.03	89.75
332.258	84.75
332.486	78.75
332.715	86.75
332.943	97.75
333.172	94.75
333.4	98.75
333.629	96.75
333.857	96.75
334.085	94.75
334.314	100.75
334.542	101.75
334.771	121.75
334.999	106.75
335.227	100.75
335.455	96.75
335.684	97.75
335.912	81.75
336.14	90.75
336.369	82.75
336.597	89.75
336.825	84.75
337.053	97.75
337.281	86.75
337.51	83.75
337.738	85.75
337.966	83.75
338.194	90.75
338.422	90.75
338.65	83.75
338.878	79.75
339.106	81.75
339.334	93.75
339.562	76.75
339.79	83.75
340.018	80.75
340.246	92.75
340.474	73.75
340.702	96.75
340.93	89.75
341.158	89.75
341.386	80.75
341.614	88.75
341.842	88.75
342.07	102.75
342.298	92.75
342.526	89.75
342.754	91.75
342.981	68.75
343.209	75.75
343.437	89.75
343.665	91.75
343.893	91.75
344.12	108.75
344.348	93.75
344.576	88.75
344.804	85.75
345.031	98.75
345.259	96.75
345.487	83.75
345.714	101.75
345.942	83.75
346.17	85.75
346.397	93.75
346.625	87.75
346.853	82.75
347.08	92.75
347.308	92.75
347.535	84.75
347.763	93.75
347.99	83.75
348.218	86.75
348.445	100.75
348.673	81.75
348.9	101.75
349.128	100.75
349.355	96.75
349.583	101.75
349.81	83.75
350.037	77.75
350.265	80.75
350.492	98.75
350.72	87.75
350.947	82.75
351.174	93.75
351.402	106.75
351.629	87.75
351.856	103.75
352.083	88.75
352.311	99.75
352.538	97.75
352.765	93.75
352.992	109.75
353.22	108.75
353.447	102.75
353.674	106.75
353.901	86.75
354.128	80.75
354.355	101.75
354.583	95.75
354.81	92.75
355.037	97.75
355.264	93.75
355.491	84.75
355.718	93.75
355.945	91.75
356.172	86.75
356.399	98.75
356.626	97.75
356.853	96.75
357.08	89.75
357.307	105.75
357.534	100.75
357.761	96.75
357.988	100.75
358.215	91.75
358.441	95.75
358.668	84.75
358.895	87.75
359.122	83.75
359.349	100.75
359.576	90.75
359.802	85.75
360.029	98.75
360.256	99.75
360.483	86.75
360.709	85.75
360.936	97.75
361.163	85.75
361.39	89.75
361.616	95.75
361.843	97.75
362.07	91.75
362.296	92.75
362.523	68.75
362.749	80.75
362.976	90.75
363.203	92.75
363.429	89.75
363.656	83.75
363.882	89.75
364.109	94.75
364.335	89.75
364.562	79.75
364.788	98.75
365.015	101.75
365.241	92.75
365.468	105.75
365.694	109.75
365.92	76.75
366.147	91.75
366.373	90.75
366.599	104.75
366.826	82.75
367.052	83.75
367.278	76.75
367.505	100.75
367.731	90.75
367.957	88.75
368.184	84.75
368.41	77.75
368.636	93.75
368.862	107.75
369.089	85.75
369.315	98.75
369.541	81.75
369.767	74.75
369.993	90.75
370.219	82.75
370.445	78.75
370.672	86.75
370.898	92.75
371.124	81.75
371.35	92.75
371.576	86.75
371.802	90.75
372.028	77.75
372.254	81.75
372.48	97.75
372.706	85.75
372.932	86.75
373.158	85.75
373.384	90.75
373.61	104.75
373.835	95.75
374.061	91.75
374.287	98.75
374.513	94.75
374.739	86.75
374.965	96.75
375.191	77.75
375.416	65.75
375.642	92.75
375.868	103.75
376.094	91.75
376.319	91.75
376.545	109.75
376.771	85.75
376.997	83.75
377.222	90.75
377.448	92.75
377.674	84.75
377.899	85.75
378.125	84.75
378.35	90.75
378.576	87.75
378.802	91.75
379.027	93.75
379.253	89.75
379.478	92.75
379.704	101.75
379.929	90.75
380.155	80.75
380.38	82.75
380.606	91.75
380.831	84.75
381.057	94.75
381.282	98.75
381.507	104.75
381.733	91.75
381.958	96.75
382.184	88.75
382.409	97.75
382.634	99.75
382.86	98.75
383.085	86.75
383.31	114.75
383.535	111.75
383.761	109.75
383.986	102.75
384.211	106.75
384.436	85.75
384.662	102.75
384.887	98.75
385.112	113.75
385.337	115.75
385.562	105.75
385.787	107.75
386.013	113.75
386.238	108.75
386.463	104.75
386.688	115.75
386.913	112.75
387.138	94.75
387.363	114.75
387.588	100.75
387.813	104.75
388.038	107.75
388.263	108.75
388.488	96.75
388.713	100.75
388.938	89.75
389.163	87.75
389.387	93.75
389.612	98.75
389.837	98.75
390.062	93.75
390.287	103.75
390.512	87.75
390.736	83.75
390.961	87.75
391.186	83.75
391.411	91.75
391.636	96.75
391.86	101.75
392.085	92.75
392.31	93.75
392.534	71.75
392.759	91.75
392.984	94.75
393.208	94.75
393.433	90.75
393.658	93.75
393.882	75.75
394.107	92.75
394.331	95.75
394.556	90.75
394.78	88.75
395.005	78.75
395.229	80.75
395.454	85.75
395.678	88.75
395.903	85.75
396.127	88.75
396.352	75.75
396.576	77.75
396.801	78.75
397.025	95.75
397.249	79.75
397.474	91.75
397.698	73.75
397.922	84.75
398.147	103.75
398.371	82.75
398.595	80.75
398.82	81.75
399.044	69.75
399.268	92.75
399.492	84.75
399.717	81.75
399.941	85.75
400.165	100.75
400.389	98.75
400.613	83.75
400.837	78.75
401.062	84.75
401.286	86.75
401.51	77.75
401.734	96.75
401.958	98.75
402.182	114.75
402.406	122.75
402.63	99.75
402.854	97.75
403.078	76.75
403.302	77.75
403.526	73.75
403.75	100.75
403.974	73.75
404.198	87.75
404.422	81.75
404.645	87.75
404.869	85.75
405.093	90.75
405.317	86.75
405.541	85.75
405.765	83.75
405.988	101.75
406.212	135.75
406.436	170.75
406.66	119.75
406.883	94.75
407.107	86.75
407.331	103.75
407.555	93.75
407.778	92.75
408.002	87.75
408.226	74.75
408.449	99.75
408.673	92.75
408.896	81.75
409.12	99.75
409.344	83.75
409.567	85.75
409.791	90.75
410.014	104.75
410.238	74.75
410.461	94.75
410.685	84.75
410.908	95.75
411.132	87.75
411.355	97.75
411.578	96.75
411.802	87.75
412.025	82.75
412.249	75.75
412.472	96.75
412.695	100.75
412.919	89.75
413.142	84.75
413.365	92.75
413.589	95.75
413.812	80.75
414.035	96.75
414.258	83.75
414.482	96.75
414.705	93.75
414.928	97.75
415.151	91.75
415.374	92.75
415.597	81.75
415.821	81.75
416.044	92.75
416.267	89.75
416.49	96.75
416.713	70.75
416.936	78.75
417.159	82.75
417.382	72.75
417.605	84.75
417.828	109.75
418.051	95.75
418.274	69.75
418.497	88.75
418.72	86.75
418.943	91.75
419.166	73.75
419.389	88.75
419.611	75.75
419.834	98.75
420.057	90.75
420.28	93.75
420.503	92.75
420.726	88.75
420.948	86.75
421.171	86.75
421.394	96.75
421.617	96.75
421.839	86.75
422.062	79.75
422.285	87.75
422.507	85.75
422.73	94.75
422.953	81.75
423.175	84.75
423.398	96.75
423.621	87.75
423.843	92.75
424.066	84.75
424.288	84.75
424.511	86.75
424.733	97.75
424.956	93.75
425.178	82.75
425.401	90.75
425.623	107.75
425.846	89.75
426.068	84.75
426.291	90.75
426.513	79.75
426.735	80.75
426.958	90.75
427.18	96.75
427.402	113.75
427.625	121.75
427.847	99.75
428.069	92.75
428.292	94.75
428.514	85.75
428.736	74.75
428.958	82.75
429.181	89.75
429.403	87.75
429.625	87.75
429.847	87.75
430.069	80.75
430.292	86.75
430.514	80.75
430.736	66.75
430.958	89.75
431.18	86.75
431.402	98.75
431.624	83.75
431.846	96.75
432.068	87.75
432.29	80.75
432.512	83.75
432.734	94.75
432.956	101.75
433.178	97.75
433.4	101.75
433.622	80.75
433.844	83.75
434.066	85.75
434.287	86.75
434.509	93.75
434.731	82.75
434.953	96.75
435.175	87.75
435.397	95.75
435.618	102.75
435.84	87.75
436.062	98.75
436.284	107.75
436.505	88.75
436.727	108.75
436.949	93.75
437.17	83.75
437.392	95.75
437.614	75.75
437.835	85.75
438.057	99.75
438.278	102.75
438.5	94.75
438.721	104.75
438.943	90.75
439.165	99.75
439.386	77.75
439.608	82.75
439.829	88.75
440.05	108.75
440.272	120.75
440.493	90.75
440.715	75.75
440.936	88.75
441.158	68.75
441.379	93.75
441.6	94.75
441.822	88.75
442.043	100.75
442.264	105.75
442.486	77.75
442.707	75.75
442.928	100.75
443.149	113.75
443.371	108.75
443.592	88.75
443.813	92.75
444.034	110.75
444.255	102.75
444.476	85.75
444.698	90.75
444.919	97.75
445.14	115.75
445.361	98.75
445.582	115.75
445.803	121.75
446.024	113.75
446.245	113.75
446.466	113.75
446.687	70.75
446.908	90.75
447.129	67.75
447.35	87.75
447.571	90.75
447.792	89.75
448.013	95.75
448.234	90.75
448.455	83.75
448.675	109.75
448.896	100.75
449.117	84.75
449.338	92.75
449.559	97.75
449.779	116.75
450	84.75
450.221	90.75
450.442	77.75
450.662	89.75
450.883	93.75
451.104	104.75
451.324	78.75
451.545	84.75
451.766	85.75
451.986	89.75
452.207	89.75
452.428	100.75
452.648	100.75
452.869	108.75
453.089	100.75
453.31	86.75
453.53	80.75
453.751	75.75
453.971	98.75
454.192	100.75
454.412	88.75
454.633	91.75
454.853	98.75
455.073	92.75
455.294	78.75
455.514	81.75
455.734	85.75
455.955	91.75
456.175	90.75
456.395	92.75
456.616	84.75
456.836	75.75
457.056	84.75
457.276	88.75
457.497	83.75
457.717	76.75
457.937	76.75
458.157	86.75
458.377	83.75
458.598	103.75
458.818	125.75
459.038	132.75
459.258	109.75
459.478	96.75
459.698	93.75
459.918	96.75
460.138	91.75
460.358	82.75
460.578	88.75
460.798	91.75
461.018	82.75
461.238	81.75
461.458	91.75
461.678	83.75
461.898	72.75
462.118	93.75
462.338	76.75
462.558	76.75
462.777	77.75
462.997	77.75
463.217	83.75
463.437	77.75
463.657	86.75
463.876	92.75
464.096	100.75
464.316	99.75
464.536	88.75
464.755	96.75
464.975	92.75
465.195	140.75
465.414	125.75
465.634	78.75
465.854	87.75
466.073	81.75
466.293	88.75
466.512	77.75
466.732	72.75
466.951	87.75
467.171	93.75
467.391	96.75
467.61	92.75
467.829	84.75
468.049	86.75
468.268	93.75
468.488	93.75
468.707	76.75
468.927	86.75
469.146	77.75
469.365	80.75
469.585	88.75
469.804	78.75
470.023	94.75
470.243	84.75
470.462	97.75
470.681	103.75
470.901	90.75
471.12	70.75
471.339	99.75
471.558	80.75
471.777	82.75
471.997	85.75
472.216	111.75
472.435	133.75
472.654	83.75
472.873	88.75
473.092	104.75
473.311	78.75
473.53	86.75
473.749	82.75
473.968	89.75
474.187	97.75
474.406	81.75
474.625	86.75
474.844	79.75
475.063	91.75
475.282	89.75
475.501	83.75
475.72	78.75
475.939	92.75
476.158	85.75
476.377	91.75
476.596	85.75
476.814	90.75
477.033	82.75
477.252	87.75
477.471	84.75
477.69	89.75
477.908	85.75
478.127	83.75
478.346	79.75
478.564	74.75
478.783	100.75
479.002	87.75
479.22	96.75
479.439	96.75
479.658	85.75
479.876	87.75
480.095	99.75
480.313	88.75
480.532	94.75
480.751	95.75
480.969	106.75
481.188	174.75
481.406	122.75
481.624	91.75
481.843	84.75
482.061	92.75
482.28	96.75
482.498	97.75
482.717	88.75
482.935	91.75
483.153	84.75
483.372	101.75
483.59	99.75
483.808	72.75
484.027	83.75
484.245	91.75
484.463	95.75
484.681	89.75
484.9	81.75
485.118	74.75
485.336	103.75
485.554	103.75
485.772	100.75
485.99	108.75
486.209	108.75
486.427	102.75
486.645	112.75
486.863	91.75
487.081	99.75
487.299	103.75
487.517	98.75
487.735	78.75
487.953	90.75
488.171	97.75
488.389	96.75
488.607	103.75
488.825	85.75
489.043	92.75
489.261	77.75
489.479	92.75
489.696	77.75
489.914	84.75
490.132	92.75
490.35	73.75
490.568	89.75
490.786	89.75
491.003	89.75
491.221	103.75
491.439	101.75
491.657	97.75
491.874	95.75
492.092	81.75
492.31	84.75
492.527	109.75
492.745	101.75
492.963	95.75
493.18	92.75
493.398	90.75
493.615	93.75
493.833	105.75
494.05	90.75
494.268	91.75
494.485	87.75
494.703	87.75
494.92	85.75
495.138	104.75
495.355	92.75
495.573	82.75
495.79	91.75
496.008	77.75
496.225	82.75
496.442	94.75
496.66	92.75
496.877	91.75
497.094	97.75
497.312	88.75
497.529	90.75
497.746	100.75
497.963	87.75
498.181	90.75
498.398	84.75
498.615	97.75
498.832	92.75
499.049	91.75
499.267	89.75
499.484	97.75
499.701	90.75
499.918	101.75
500.135	87.75
500.352	84.75
500.569	86.75
500.786	109.75
501.003	90.75
501.22	90.75
501.437	76.75
501.654	86.75
501.871	86.75
502.088	91.75
502.305	86.75
502.522	90.75
502.739	92.75
502.956	82.75
503.172	81.75
503.389	92.75
503.606	94.75
503.823	99.75
504.04	74.75
504.256	88.75
504.473	98.75
504.69	86.75
504.907	86.75
505.123	85.75
505.34	97.75
505.557	98.75
505.773	99.75
505.99	85.75
506.207	100.75
506.423	93.75
506.64	84.75
506.856	77.75
507.073	81.75
507.289	91.75
507.506	101.75
507.722	102.75
507.939	89.75
508.155	94.75
508.372	105.75
508.588	86.75
508.805	82.75
509.021	87.75
509.238	93.75
509.454	98.75
509.67	101.75
509.887	103.75
510.103	128.75
510.319	176.75
510.536	548.75
510.752	1660.75
510.968	502.75
511.184	126.75
511.401	88.75
511.617	84.75
511.833	94.75
512.049	90.75
512.265	93.75
512.481	100.75
512.698	84.75
512.914	93.75
513.13	89.75
513.346	90.75
513.562	100.75
513.778	87.75
513.994	95.75
514.21	93.75
514.426	105.75
514.642	114.75
514.858	114.75
515.074	131.75
515.29	308.75
515.506	956.75
515.721	370.75
515.937	120.75
516.153	83.75
516.369	84.75
516.585	87.75
516.801	98.75
517.016	86.75
