Data from Uncirc_1980_H10_HRD10591_00075.txt Node
Date: Wed Jan 03 12:37:10 EST 2024
User: Yrep
Spectrometer: HR+D1059
Trigger mode: 1
Integration Time (sec): 1.000000E-1
Scans to average: 1
Electric dark correction enabled: true
Nonlinearity correction enabled: false
Boxcar width: 0
XAxis mode: Wavelengths
Number of Pixels in Spectrum: 2048
>>>>>Begin Spectral Data<<<<<
223.165	-24.19
223.4	-24.19
223.635	-24.19
223.869	-25.19
224.104	-20.19
224.338	-16.19
224.573	-21.19
224.808	-8.19
225.042	3.81
225.277	-7.19
225.511	9.81
225.746	5.81
225.98	-8.19
226.215	25.81
226.449	13.81
226.683	19.81
226.918	28.81
227.152	22.81
227.387	34.81
227.621	37.81
227.856	35.81
228.09	51.81
228.324	53.81
228.559	54.81
228.793	40.81
229.027	57.81
229.262	56.81
229.496	66.81
229.73	63.81
229.964	61.81
230.199	68.81
230.433	66.81
230.667	78.81
230.901	84.81
231.136	86.81
231.37	77.81
231.604	70.81
231.838	70.81
232.072	86.81
232.306	64.81
232.541	87.81
232.775	69.81
233.009	81.81
233.243	82.81
233.477	70.81
233.711	73.81
233.945	79.81
234.179	85.81
234.413	63.81
234.647	84.81
234.881	67.81
235.115	72.81
235.349	68.81
235.583	82.81
235.817	74.81
236.051	80.81
236.285	62.81
236.519	82.81
236.753	72.81
236.987	72.81
237.221	66.81
237.455	79.81
237.689	68.81
237.922	86.81
238.156	81.81
238.39	75.81
238.624	69.81
238.858	72.81
239.091	77.81
239.325	71.81
239.559	64.81
239.793	63.81
240.027	76.81
240.26	68.81
240.494	74.81
240.728	73.81
240.961	80.81
241.195	72.81
241.429	79.81
241.662	67.81
241.896	66.81
242.13	82.81
242.363	61.81
242.597	81.81
242.83	68.81
243.064	47.81
243.298	78.81
243.531	82.81
243.765	81.81
243.998	86.81
244.232	71.81
244.465	88.81
244.699	83.81
244.932	90.81
245.166	75.81
245.399	83.81
245.633	83.81
245.866	86.81
246.099	81.81
246.333	66.81
246.566	83.81
246.8	77.81
247.033	73.81
247.266	88.81
247.5	85.81
247.733	86.81
247.966	96.81
248.2	79.81
248.433	72.81
248.666	68.81
248.899	75.81
249.133	71.81
249.366	88.81
249.599	90.81
249.832	79.81
250.066	77.81
250.299	67.81
250.532	79.81
250.765	74.81
250.998	63.81
251.231	71.81
251.465	83.81
251.698	75.81
251.931	81.81
252.164	75.81
252.397	81.81
252.63	89.81
252.863	62.81
253.096	71.81
253.329	63.81
253.562	74.81
253.795	90.81
254.028	73.81
254.261	86.81
254.494	75.81
254.727	78.81
254.96	71.81
255.193	78.81
255.426	83.81
255.659	74.81
255.892	67.81
256.124	82.81
256.357	77.81
256.59	92.81
256.823	75.81
257.056	97.81
257.289	92.81
257.521	88.81
257.754	79.81
257.987	87.81
258.22	78.81
258.452	84.81
258.685	69.81
258.918	75.81
259.151	69.81
259.383	77.81
259.616	73.81
259.849	87.81
260.081	89.81
260.314	80.81
260.547	77.81
260.779	79.81
261.012	70.81
261.244	89.81
261.477	76.81
261.71	80.81
261.942	100.81
262.175	106.81
262.407	80.81
262.64	89.81
262.872	80.81
263.105	76.81
263.337	85.81
263.57	79.81
263.802	75.81
264.035	76.81
264.267	76.81
264.499	69.81
264.732	85.81
264.964	75.81
265.197	88.81
265.429	81.81
265.661	79.81
265.894	91.81
266.126	95.81
266.358	88.81
266.591	75.81
266.823	84.81
267.055	80.81
267.287	89.81
267.52	71.81
267.752	84.81
267.984	89.81
268.216	78.81
268.448	81.81
268.681	83.81
268.913	86.81
269.145	93.81
269.377	86.81
269.609	73.81
269.841	77.81
270.073	77.81
270.306	69.81
270.538	77.81
270.77	85.81
271.002	80.81
271.234	73.81
271.466	74.81
271.698	80.81
271.93	82.81
272.162	86.81
272.394	85.81
272.626	66.81
272.858	73.81
273.09	73.81
273.322	86.81
273.553	81.81
273.785	83.81
274.017	74.81
274.249	78.81
274.481	80.81
274.713	81.81
274.945	75.81
275.176	78.81
275.408	84.81
275.64	69.81
275.872	83.81
276.104	71.81
276.335	93.81
276.567	85.81
276.799	88.81
277.031	89.81
277.262	84.81
277.494	88.81
277.726	86.81
277.957	71.81
278.189	75.81
278.421	79.81
278.652	85.81
278.884	81.81
279.115	73.81
279.347	73.81
279.579	81.81
279.81	82.81
280.042	83.81
280.273	71.81
280.505	75.81
280.736	83.81
280.968	75.81
281.199	73.81
281.431	91.81
281.662	74.81
281.894	81.81
282.125	78.81
282.356	99.81
282.588	118.81
282.819	91.81
283.051	80.81
283.282	82.81
283.513	79.81
283.745	89.81
283.976	83.81
284.207	85.81
284.439	84.81
284.67	78.81
284.901	80.81
285.132	85.81
285.364	81.81
285.595	84.81
285.826	92.81
286.057	74.81
286.288	78.81
286.52	92.81
286.751	75.81
286.982	72.81
287.213	77.81
287.444	81.81
287.675	82.81
287.906	90.81
288.138	77.81
288.369	93.81
288.6	96.81
288.831	89.81
289.062	88.81
289.293	73.81
289.524	71.81
289.755	84.81
289.986	80.81
290.217	75.81
290.448	89.81
290.679	85.81
290.91	86.81
291.141	74.81
291.371	79.81
291.602	89.81
291.833	87.81
292.064	81.81
292.295	88.81
292.526	78.81
292.757	74.81
292.987	77.81
293.218	85.81
293.449	79.81
293.68	83.81
293.91	78.81
294.141	92.81
294.372	77.81
294.603	83.81
294.833	86.81
295.064	78.81
295.295	81.81
295.525	84.81
295.756	103.81
295.987	95.81
296.217	123.81
296.448	100.81
296.679	89.81
296.909	94.81
297.14	79.81
297.37	80.81
297.601	87.81
297.831	91.81
298.062	69.81
298.292	83.81
298.523	95.81
298.753	96.81
298.984	85.81
299.214	74.81
299.445	85.81
299.675	96.81
299.905	90.81
300.136	102.81
300.366	85.81
300.597	88.81
300.827	75.81
301.057	90.81
301.288	90.81
301.518	88.81
301.748	82.81
301.979	94.81
302.209	89.81
302.439	87.81
302.669	83.81
302.9	89.81
303.13	91.81
303.36	81.81
303.59	92.81
303.82	79.81
304.051	83.81
304.281	65.81
304.511	73.81
304.741	69.81
304.971	75.81
305.201	82.81
305.431	89.81
305.661	97.81
305.891	84.81
306.121	84.81
306.352	78.81
306.582	103.81
306.812	79.81
307.042	90.81
307.272	95.81
307.502	83.81
307.731	94.81
307.961	82.81
308.191	86.81
308.421	91.81
308.651	90.81
308.881	89.81
309.111	99.81
309.341	100.81
309.571	82.81
309.8	83.81
310.03	79.81
310.26	83.81
310.49	93.81
310.72	89.81
310.949	102.81
311.179	82.81
311.409	113.81
311.639	100.81
311.868	86.81
312.098	82.81
312.328	99.81
312.557	90.81
312.787	92.81
313.017	109.81
313.246	82.81
313.476	85.81
313.706	94.81
313.935	91.81
314.165	96.81
314.394	75.81
314.624	106.81
314.853	99.81
315.083	88.81
315.312	87.81
315.542	86.81
315.771	93.81
316.001	97.81
316.23	89.81
316.46	94.81
316.689	83.81
316.919	96.81
317.148	86.81
317.377	77.81
317.607	82.81
317.836	86.81
318.065	80.81
318.295	79.81
318.524	88.81
318.753	89.81
318.983	92.81
319.212	89.81
319.441	91.81
319.67	90.81
319.9	90.81
320.129	85.81
320.358	74.81
320.587	88.81
320.816	89.81
321.046	83.81
321.275	100.81
321.504	79.81
321.733	86.81
321.962	77.81
322.191	98.81
322.42	96.81
322.649	101.81
322.878	116.81
323.108	102.81
323.337	117.81
323.566	110.81
323.795	125.81
324.024	163.81
324.253	294.81
324.482	593.81
324.71	1165.81
324.939	1578.81
325.168	602.81
325.397	223.81
325.626	131.81
325.855	113.81
326.084	110.81
326.313	101.81
326.542	121.81
326.77	173.81
326.999	325.81
327.228	669.81
327.457	1240.81
327.686	954.81
327.914	280.81
328.143	167.81
328.372	135.81
328.6	124.81
328.829	107.81
329.058	102.81
329.287	107.81
329.515	98.81
329.744	108.81
329.972	111.81
330.201	102.81
330.43	114.81
330.658	105.81
330.887	126.81
331.115	93.81
331.344	96.81
331.572	100.81
331.801	89.81
332.03	82.81
332.258	104.81
332.486	90.81
332.715	86.81
332.943	83.81
333.172	100.81
333.4	93.81
333.629	98.81
333.857	98.81
334.085	105.81
334.314	107.81
334.542	134.81
334.771	118.81
334.999	113.81
335.227	96.81
335.455	81.81
335.684	82.81
335.912	97.81
336.14	90.81
336.369	89.81
336.597	86.81
336.825	86.81
337.053	84.81
337.281	67.81
337.51	87.81
337.738	86.81
337.966	96.81
338.194	83.81
338.422	86.81
338.65	94.81
338.878	87.81
339.106	89.81
339.334	106.81
339.562	85.81
339.79	87.81
340.018	75.81
340.246	91.81
340.474	94.81
340.702	103.81
340.93	89.81
341.158	82.81
341.386	101.81
341.614	71.81
341.842	85.81
342.07	72.81
342.298	89.81
342.526	88.81
342.754	85.81
342.981	90.81
343.209	84.81
343.437	110.81
343.665	85.81
343.893	95.81
344.12	105.81
344.348	87.81
344.576	88.81
344.804	84.81
345.031	75.81
345.259	87.81
345.487	84.81
345.714	64.81
345.942	83.81
346.17	84.81
346.397	91.81
346.625	97.81
346.853	101.81
347.08	86.81
347.308	88.81
347.535	74.81
347.763	82.81
347.99	99.81
348.218	101.81
348.445	92.81
348.673	97.81
348.9	86.81
349.128	90.81
349.355	85.81
349.583	101.81
349.81	98.81
350.037	106.81
350.265	92.81
350.492	91.81
350.72	86.81
350.947	82.81
351.174	99.81
351.402	90.81
351.629	94.81
351.856	99.81
352.083	99.81
352.311	103.81
352.538	93.81
352.765	104.81
352.992	101.81
353.22	89.81
353.447	93.81
353.674	89.81
353.901	93.81
354.128	87.81
354.355	96.81
354.583	81.81
354.81	98.81
355.037	91.81
355.264	100.81
355.491	81.81
355.718	85.81
355.945	91.81
356.172	79.81
356.399	94.81
356.626	88.81
356.853	98.81
357.08	91.81
357.307	82.81
357.534	94.81
357.761	84.81
357.988	90.81
358.215	95.81
358.441	95.81
358.668	82.81
358.895	88.81
359.122	81.81
359.349	83.81
359.576	90.81
359.802	88.81
360.029	95.81
360.256	80.81
360.483	83.81
360.709	85.81
360.936	97.81
361.163	109.81
361.39	90.81
361.616	75.81
361.843	85.81
362.07	86.81
362.296	88.81
362.523	95.81
362.749	105.81
362.976	77.81
363.203	90.81
363.429	94.81
363.656	94.81
363.882	88.81
364.109	93.81
364.335	84.81
364.562	97.81
364.788	73.81
365.015	89.81
365.241	102.81
365.468	102.81
365.694	105.81
365.92	95.81
366.147	73.81
366.373	73.81
366.599	88.81
366.826	92.81
367.052	65.81
367.278	93.81
367.505	79.81
367.731	104.81
367.957	89.81
368.184	77.81
368.41	80.81
368.636	93.81
368.862	118.81
369.089	99.81
369.315	98.81
369.541	101.81
369.767	85.81
369.993	79.81
370.219	103.81
370.445	84.81
370.672	92.81
370.898	107.81
371.124	90.81
371.35	85.81
371.576	83.81
371.802	86.81
372.028	85.81
372.254	83.81
372.48	96.81
372.706	86.81
372.932	104.81
373.158	93.81
373.384	90.81
373.61	97.81
373.835	80.81
374.061	88.81
374.287	83.81
374.513	93.81
374.739	77.81
374.965	79.81
375.191	88.81
375.416	83.81
375.642	86.81
375.868	90.81
376.094	86.81
376.319	83.81
376.545	85.81
376.771	92.81
376.997	74.81
377.222	78.81
377.448	81.81
377.674	85.81
377.899	87.81
378.125	72.81
378.35	73.81
378.576	84.81
378.802	90.81
379.027	87.81
379.253	98.81
379.478	85.81
379.704	89.81
379.929	80.81
380.155	106.81
380.38	68.81
380.606	91.81
380.831	81.81
381.057	97.81
381.282	104.81
381.507	94.81
381.733	86.81
381.958	82.81
382.184	97.81
382.409	81.81
382.634	99.81
382.86	101.81
383.085	81.81
383.31	95.81
383.535	98.81
383.761	104.81
383.986	101.81
384.211	97.81
384.436	110.81
384.662	79.81
384.887	96.81
385.112	106.81
385.337	79.81
385.562	94.81
385.787	102.81
386.013	98.81
386.238	110.81
386.463	102.81
386.688	93.81
386.913	100.81
387.138	86.81
387.363	92.81
387.588	99.81
387.813	91.81
388.038	105.81
388.263	102.81
388.488	101.81
388.713	93.81
388.938	94.81
389.163	87.81
389.387	93.81
389.612	89.81
389.837	81.81
390.062	98.81
390.287	86.81
390.512	105.81
390.736	86.81
390.961	93.81
391.186	88.81
391.411	77.81
391.636	101.81
391.86	81.81
392.085	92.81
392.31	88.81
392.534	98.81
392.759	94.81
392.984	88.81
393.208	82.81
393.433	88.81
393.658	69.81
393.882	81.81
394.107	69.81
394.331	66.81
394.556	74.81
394.78	91.81
395.005	78.81
395.229	81.81
395.454	77.81
395.678	46.81
395.903	62.81
396.127	73.81
396.352	70.81
396.576	78.81
396.801	74.81
397.025	95.81
397.249	88.81
397.474	89.81
397.698	93.81
397.922	92.81
398.147	80.81
398.371	74.81
398.595	93.81
398.82	89.81
399.044	82.81
399.268	89.81
399.492	75.81
399.717	72.81
399.941	82.81
400.165	85.81
400.389	100.81
400.613	86.81
400.837	86.81
401.062	85.81
401.286	96.81
401.51	82.81
401.734	97.81
401.958	96.81
402.182	99.81
402.406	119.81
402.63	105.81
402.854	95.81
403.078	94.81
403.302	80.81
403.526	93.81
403.75	72.81
403.974	78.81
404.198	83.81
404.422	85.81
404.645	91.81
404.869	70.81
405.093	85.81
405.317	100.81
405.541	87.81
405.765	88.81
405.988	125.81
406.212	143.81
406.436	171.81
406.66	112.81
406.883	87.81
407.107	96.81
407.331	81.81
407.555	98.81
407.778	81.81
408.002	78.81
408.226	69.81
408.449	91.81
408.673	80.81
408.896	87.81
409.12	91.81
409.344	69.81
409.567	88.81
409.791	93.81
410.014	89.81
410.238	91.81
410.461	89.81
410.685	100.81
410.908	104.81
411.132	90.81
411.355	87.81
411.578	70.81
411.802	84.81
412.025	96.81
412.249	89.81
412.472	86.81
412.695	85.81
412.919	91.81
413.142	76.81
413.365	87.81
413.589	89.81
413.812	85.81
414.035	76.81
414.258	74.81
414.482	84.81
414.705	74.81
414.928	84.81
415.151	91.81
415.374	95.81
415.597	93.81
415.821	89.81
416.044	94.81
416.267	92.81
416.49	74.81
416.713	83.81
416.936	93.81
417.159	80.81
417.382	81.81
417.605	80.81
417.828	86.81
418.051	81.81
418.274	95.81
418.497	78.81
418.72	94.81
418.943	88.81
419.166	81.81
419.389	82.81
419.611	80.81
419.834	90.81
420.057	96.81
420.28	94.81
420.503	100.81
420.726	98.81
420.948	86.81
421.171	91.81
421.394	90.81
421.617	74.81
421.839	90.81
422.062	81.81
422.285	91.81
422.507	86.81
422.73	89.81
422.953	83.81
423.175	84.81
423.398	92.81
423.621	81.81
423.843	82.81
424.066	88.81
424.288	99.81
424.511	78.81
424.733	89.81
424.956	89.81
425.178	98.81
425.401	88.81
425.623	65.81
425.846	72.81
426.068	89.81
426.291	92.81
426.513	84.81
426.735	83.81
426.958	86.81
427.18	94.81
427.402	105.81
427.625	136.81
427.847	107.81
428.069	102.81
428.292	73.81
428.514	84.81
428.736	79.81
428.958	84.81
429.181	86.81
429.403	76.81
429.625	91.81
429.847	80.81
430.069	89.81
430.292	91.81
430.514	72.81
430.736	83.81
430.958	91.81
431.18	82.81
431.402	99.81
431.624	98.81
431.846	87.81
432.068	85.81
432.29	68.81
432.512	88.81
432.734	82.81
432.956	102.81
433.178	99.81
433.4	87.81
433.622	73.81
433.844	90.81
434.066	79.81
434.287	78.81
434.509	89.81
434.731	90.81
434.953	88.81
435.175	82.81
435.397	84.81
435.618	82.81
435.84	110.81
436.062	81.81
436.284	88.81
436.505	101.81
436.727	93.81
436.949	83.81
437.17	89.81
437.392	80.81
437.614	77.81
437.835	81.81
438.057	94.81
438.278	94.81
438.5	98.81
438.721	125.81
438.943	88.81
439.165	83.81
439.386	74.81
439.608	88.81
439.829	102.81
440.05	107.81
440.272	116.81
440.493	86.81
440.715	86.81
440.936	83.81
441.158	84.81
441.379	81.81
441.6	90.81
441.822	89.81
442.043	85.81
442.264	73.81
442.486	87.81
442.707	97.81
442.928	96.81
443.149	101.81
443.371	105.81
443.592	91.81
443.813	97.81
444.034	93.81
444.255	95.81
444.476	94.81
444.698	97.81
444.919	79.81
445.14	130.81
445.361	114.81
445.582	111.81
445.803	112.81
446.024	111.81
446.245	115.81
446.466	98.81
446.687	80.81
446.908	88.81
447.129	71.81
447.35	89.81
447.571	86.81
447.792	79.81
448.013	86.81
448.234	88.81
448.455	85.81
448.675	97.81
448.896	93.81
449.117	91.81
449.338	101.81
449.559	114.81
449.779	115.81
450	91.81
450.221	96.81
450.442	85.81
450.662	80.81
450.883	92.81
451.104	101.81
451.324	88.81
451.545	73.81
451.766	85.81
451.986	83.81
452.207	79.81
452.428	77.81
452.648	100.81
452.869	95.81
453.089	104.81
453.31	98.81
453.53	75.81
453.751	89.81
453.971	93.81
454.192	83.81
454.412	71.81
454.633	91.81
454.853	92.81
455.073	91.81
455.294	91.81
455.514	101.81
455.734	85.81
455.955	88.81
456.175	87.81
456.395	77.81
456.616	70.81
456.836	74.81
457.056	88.81
457.276	87.81
457.497	70.81
457.717	100.81
457.937	90.81
458.157	88.81
458.377	84.81
458.598	97.81
458.818	124.81
459.038	113.81
459.258	93.81
459.478	93.81
459.698	91.81
459.918	74.81
460.138	71.81
460.358	68.81
460.578	84.81
460.798	93.81
461.018	87.81
461.238	88.81
461.458	88.81
461.678	70.81
461.898	91.81
462.118	90.81
462.338	83.81
462.558	81.81
462.777	82.81
462.997	88.81
463.217	94.81
463.437	87.81
463.657	98.81
463.876	89.81
464.096	88.81
464.316	85.81
464.536	82.81
464.755	83.81
464.975	98.81
465.195	104.81
465.414	136.81
465.634	93.81
465.854	88.81
466.073	88.81
466.293	80.81
466.512	82.81
466.732	67.81
466.951	79.81
467.171	93.81
467.391	99.81
467.61	89.81
467.829	80.81
468.049	94.81
468.268	96.81
468.488	84.81
468.707	81.81
468.927	81.81
469.146	96.81
469.365	80.81
469.585	79.81
469.804	81.81
470.023	83.81
470.243	91.81
470.462	98.81
470.681	99.81
470.901	89.81
471.12	90.81
471.339	100.81
471.558	80.81
471.777	77.81
471.997	96.81
472.216	110.81
472.435	127.81
472.654	82.81
472.873	91.81
473.092	88.81
473.311	90.81
473.53	65.81
473.749	81.81
473.968	82.81
474.187	99.81
474.406	95.81
474.625	88.81
474.844	67.81
475.063	77.81
475.282	82.81
475.501	75.81
475.72	75.81
475.939	92.81
476.158	77.81
476.377	78.81
476.596	85.81
476.814	80.81
477.033	87.81
477.252	80.81
477.471	81.81
477.69	75.81
477.908	77.81
478.127	82.81
478.346	80.81
478.564	105.81
478.783	99.81
479.002	101.81
479.22	81.81
479.439	96.81
479.658	86.81
479.876	79.81
480.095	95.81
480.313	88.81
480.532	98.81
480.751	87.81
480.969	113.81
481.188	170.81
481.406	134.81
481.624	98.81
481.843	85.81
482.061	79.81
482.28	97.81
482.498	83.81
482.717	90.81
482.935	78.81
483.153	97.81
483.372	79.81
483.59	88.81
483.808	80.81
484.027	88.81
484.245	84.81
484.463	99.81
484.681	93.81
484.9	95.81
485.118	109.81
485.336	89.81
485.554	104.81
485.772	103.81
485.99	98.81
486.209	105.81
486.427	92.81
486.645	103.81
486.863	100.81
487.081	104.81
487.299	82.81
487.517	77.81
487.735	83.81
487.953	75.81
488.171	82.81
488.389	90.81
488.607	99.81
488.825	99.81
489.043	86.81
489.261	77.81
489.479	74.81
489.696	98.81
489.914	81.81
490.132	78.81
490.35	85.81
490.568	96.81
490.786	72.81
491.003	102.81
491.221	84.81
491.439	71.81
491.657	88.81
491.874	86.81
492.092	90.81
492.31	85.81
492.527	85.81
492.745	91.81
492.963	78.81
493.18	75.81
493.398	87.81
493.615	99.81
493.833	98.81
494.05	95.81
494.268	90.81
494.485	85.81
494.703	83.81
494.92	82.81
495.138	93.81
495.355	85.81
495.573	80.81
495.79	81.81
496.008	83.81
496.225	92.81
496.442	87.81
496.66	95.81
496.877	94.81
497.094	83.81
497.312	85.81
497.529	79.81
497.746	93.81
497.963	96.81
498.181	80.81
498.398	97.81
498.615	81.81
498.832	97.81
499.049	86.81
499.267	84.81
499.484	88.81
499.701	101.81
499.918	90.81
500.135	87.81
500.352	78.81
500.569	92.81
500.786	80.81
501.003	90.81
501.22	85.81
501.437	83.81
501.654	103.81
501.871	93.81
502.088	98.81
502.305	91.81
502.522	79.81
502.739	83.81
502.956	96.81
503.172	96.81
503.389	95.81
503.606	97.81
503.823	97.81
504.04	88.81
504.256	93.81
504.473	81.81
504.69	85.81
504.907	95.81
505.123	86.81
505.34	97.81
505.557	95.81
505.773	94.81
505.99	88.81
506.207	82.81
506.423	86.81
506.64	71.81
506.856	83.81
507.073	63.81
507.289	86.81
507.506	75.81
507.722	102.81
507.939	104.81
508.155	89.81
508.372	89.81
508.588	84.81
508.805	106.81
509.021	95.81
509.238	89.81
509.454	82.81
509.67	97.81
509.887	91.81
510.103	119.81
510.319	185.81
510.536	529.81
510.752	1746.81
510.968	500.81
511.184	135.81
511.401	94.81
511.617	93.81
511.833	87.81
512.049	91.81
512.265	100.81
512.481	86.81
512.698	81.81
512.914	83.81
513.13	91.81
513.346	89.81
513.562	90.81
513.778	87.81
513.994	86.81
514.21	103.81
514.426	107.81
514.642	107.81
514.858	116.81
515.074	127.81
515.29	322.81
515.506	1018.81
515.721	374.81
515.937	132.81
516.153	93.81
516.369	81.81
516.585	81.81
516.801	98.81
517.016	90.81
517.232	87.81
517.448	95.81
517.664	100.81
