Data from Uncirc_1980_H10_HRD10591_00066.txt Node
Date: Wed Jan 03 12:37:08 EST 2024
User: Yrep
Spectrometer: HR+D1059
Trigger mode: 1
Integration Time (sec): 1.000000E-1
Scans to average: 1
Electric dark correction enabled: true
Nonlinearity correction enabled: false
Boxcar width: 0
XAxis mode: Wavelengths
Number of Pixels in Spectrum: 2048
>>>>>Begin Spectral Data<<<<<
223.165	-23.75
223.4	-23.75
223.635	-23.75
223.869	-24.75
224.104	-23.75
224.338	-15.75
224.573	-8.75
224.808	8.25
225.042	-16.75
225.277	-6.75
225.511	6.25
225.746	9.25
225.98	12.25
226.215	7.25
226.449	11.25
226.683	16.25
226.918	24.25
227.152	25.25
227.387	40.25
227.621	40.25
227.856	45.25
228.09	63.25
228.324	58.25
228.559	46.25
228.793	61.25
229.027	58.25
229.262	80.25
229.496	74.25
229.73	87.25
229.964	72.25
230.199	80.25
230.433	70.25
230.667	98.25
230.901	71.25
231.136	89.25
231.37	84.25
231.604	87.25
231.838	84.25
232.072	90.25
232.306	88.25
232.541	73.25
232.775	80.25
233.009	90.25
233.243	79.25
233.477	78.25
233.711	96.25
233.945	80.25
234.179	87.25
234.413	80.25
234.647	81.25
234.881	89.25
235.115	79.25
235.349	74.25
235.583	85.25
235.817	71.25
236.051	82.25
236.285	66.25
236.519	80.25
236.753	85.25
236.987	71.25
237.221	84.25
237.455	87.25
237.689	84.25
237.922	89.25
238.156	72.25
238.39	70.25
238.624	84.25
238.858	74.25
239.091	100.25
239.325	76.25
239.559	84.25
239.793	68.25
240.027	85.25
240.26	96.25
240.494	73.25
240.728	86.25
240.961	90.25
241.195	84.25
241.429	95.25
241.662	68.25
241.896	76.25
242.13	74.25
242.363	78.25
242.597	77.25
242.83	81.25
243.064	76.25
243.298	90.25
243.531	68.25
243.765	85.25
243.998	73.25
244.232	90.25
244.465	96.25
244.699	100.25
244.932	80.25
245.166	68.25
245.399	82.25
245.633	86.25
245.866	90.25
246.099	80.25
246.333	66.25
246.566	75.25
246.8	81.25
247.033	84.25
247.266	87.25
247.5	80.25
247.733	79.25
247.966	79.25
248.2	75.25
248.433	75.25
248.666	78.25
248.899	82.25
249.133	97.25
249.366	100.25
249.599	85.25
249.832	74.25
250.066	70.25
250.299	74.25
250.532	88.25
250.765	81.25
250.998	84.25
251.231	79.25
251.465	84.25
251.698	82.25
251.931	82.25
252.164	90.25
252.397	74.25
252.63	75.25
252.863	80.25
253.096	81.25
253.329	69.25
253.562	99.25
253.795	82.25
254.028	89.25
254.261	86.25
254.494	83.25
254.727	76.25
254.96	78.25
255.193	84.25
255.426	81.25
255.659	93.25
255.892	82.25
256.124	76.25
256.357	84.25
256.59	68.25
256.823	71.25
257.056	90.25
257.289	88.25
257.521	81.25
257.754	88.25
257.987	84.25
258.22	105.25
258.452	82.25
258.685	74.25
258.918	86.25
259.151	88.25
259.383	88.25
259.616	79.25
259.849	84.25
260.081	81.25
260.314	79.25
260.547	91.25
260.779	88.25
261.012	85.25
261.244	77.25
261.477	104.25
261.71	98.25
261.942	100.25
262.175	112.25
262.407	94.25
262.64	77.25
262.872	84.25
263.105	104.25
263.337	94.25
263.57	102.25
263.802	93.25
264.035	89.25
264.267	90.25
264.499	85.25
264.732	78.25
264.964	85.25
265.197	93.25
265.429	81.25
265.661	85.25
265.894	82.25
266.126	80.25
266.358	87.25
266.591	77.25
266.823	79.25
267.055	69.25
267.287	74.25
267.52	90.25
267.752	87.25
267.984	74.25
268.216	88.25
268.448	94.25
268.681	96.25
268.913	98.25
269.145	112.25
269.377	94.25
269.609	93.25
269.841	85.25
270.073	81.25
270.306	99.25
270.538	90.25
270.77	86.25
271.002	71.25
271.234	93.25
271.466	89.25
271.698	77.25
271.93	81.25
272.162	82.25
272.394	86.25
272.626	81.25
272.858	79.25
273.09	94.25
273.322	84.25
273.553	79.25
273.785	101.25
274.017	94.25
274.249	90.25
274.481	92.25
274.713	87.25
274.945	101.25
275.176	93.25
275.408	87.25
275.64	89.25
275.872	88.25
276.104	81.25
276.335	95.25
276.567	101.25
276.799	107.25
277.031	103.25
277.262	105.25
277.494	88.25
277.726	89.25
277.957	87.25
278.189	95.25
278.421	78.25
278.652	89.25
278.884	86.25
279.115	112.25
279.347	63.25
279.579	84.25
279.81	73.25
280.042	91.25
280.273	91.25
280.505	81.25
280.736	96.25
280.968	85.25
281.199	68.25
281.431	95.25
281.662	94.25
281.894	108.25
282.125	82.25
282.356	105.25
282.588	133.25
282.819	104.25
283.051	87.25
283.282	89.25
283.513	98.25
283.745	91.25
283.976	90.25
284.207	86.25
284.439	95.25
284.67	92.25
284.901	76.25
285.132	90.25
285.364	95.25
285.595	89.25
285.826	90.25
286.057	97.25
286.288	93.25
286.52	82.25
286.751	94.25
286.982	98.25
287.213	102.25
287.444	86.25
287.675	84.25
287.906	71.25
288.138	91.25
288.369	92.25
288.6	109.25
288.831	75.25
289.062	95.25
289.293	96.25
289.524	85.25
289.755	86.25
289.986	89.25
290.217	85.25
290.448	84.25
290.679	81.25
290.91	100.25
291.141	100.25
291.371	99.25
291.602	92.25
291.833	86.25
292.064	82.25
292.295	96.25
292.526	93.25
292.757	85.25
292.987	100.25
293.218	91.25
293.449	93.25
293.68	110.25
293.91	86.25
294.141	98.25
294.372	87.25
294.603	106.25
294.833	103.25
295.064	93.25
295.295	78.25
295.525	97.25
295.756	104.25
295.987	114.25
296.217	116.25
296.448	130.25
296.679	93.25
296.909	82.25
297.14	91.25
297.37	91.25
297.601	91.25
297.831	102.25
298.062	80.25
298.292	94.25
298.523	103.25
298.753	77.25
298.984	100.25
299.214	97.25
299.445	92.25
299.675	88.25
299.905	94.25
300.136	101.25
300.366	94.25
300.597	78.25
300.827	101.25
301.057	105.25
301.288	106.25
301.518	94.25
301.748	83.25
301.979	107.25
302.209	101.25
302.439	111.25
302.669	96.25
302.9	96.25
303.13	84.25
303.36	90.25
303.59	101.25
303.82	109.25
304.051	93.25
304.281	100.25
304.511	93.25
304.741	92.25
304.971	90.25
305.201	86.25
305.431	85.25
305.661	95.25
305.891	82.25
306.121	94.25
306.352	104.25
306.582	108.25
306.812	112.25
307.042	80.25
307.272	90.25
307.502	97.25
307.731	98.25
307.961	94.25
308.191	95.25
308.421	91.25
308.651	108.25
308.881	82.25
309.111	90.25
309.341	97.25
309.571	107.25
309.8	97.25
310.03	101.25
310.26	93.25
310.49	93.25
310.72	103.25
310.949	89.25
311.179	107.25
311.409	85.25
311.639	95.25
311.868	96.25
312.098	92.25
312.328	100.25
312.557	74.25
312.787	104.25
313.017	91.25
313.246	108.25
313.476	87.25
313.706	96.25
313.935	94.25
314.165	98.25
314.394	97.25
314.624	74.25
314.853	96.25
315.083	101.25
315.312	93.25
315.542	91.25
315.771	78.25
316.001	100.25
316.23	92.25
316.46	82.25
316.689	102.25
316.919	84.25
317.148	92.25
317.377	95.25
317.607	88.25
317.836	102.25
318.065	85.25
318.295	101.25
318.524	92.25
318.753	99.25
318.983	98.25
319.212	105.25
319.441	111.25
319.67	92.25
319.9	89.25
320.129	90.25
320.358	93.25
320.587	103.25
320.816	93.25
321.046	106.25
321.275	88.25
321.504	81.25
321.733	97.25
321.962	95.25
322.191	98.25
322.42	101.25
322.649	104.25
322.878	109.25
323.108	106.25
323.337	101.25
323.566	123.25
323.795	137.25
324.024	190.25
324.253	316.25
324.482	611.25
324.71	1253.25
324.939	1657.25
325.168	637.25
325.397	192.25
325.626	118.25
325.855	134.25
326.084	137.25
326.313	129.25
326.542	137.25
326.77	196.25
326.999	359.25
327.228	716.25
327.457	1258.25
327.686	995.25
327.914	294.25
328.143	156.25
328.372	129.25
328.6	106.25
328.829	103.25
329.058	122.25
329.287	123.25
329.515	112.25
329.744	95.25
329.972	105.25
330.201	106.25
330.43	125.25
330.658	123.25
330.887	113.25
331.115	114.25
331.344	99.25
331.572	111.25
331.801	94.25
332.03	101.25
332.258	88.25
332.486	96.25
332.715	96.25
332.943	94.25
333.172	106.25
333.4	86.25
333.629	103.25
333.857	106.25
334.085	111.25
334.314	122.25
334.542	134.25
334.771	132.25
334.999	102.25
335.227	95.25
335.455	94.25
335.684	102.25
335.912	99.25
336.14	101.25
336.369	97.25
336.597	100.25
336.825	105.25
337.053	108.25
337.281	82.25
337.51	88.25
337.738	101.25
337.966	103.25
338.194	121.25
338.422	94.25
338.65	91.25
338.878	101.25
339.106	86.25
339.334	84.25
339.562	82.25
339.79	87.25
340.018	88.25
340.246	91.25
340.474	80.25
340.702	95.25
340.93	82.25
341.158	97.25
341.386	96.25
341.614	97.25
341.842	104.25
342.07	91.25
342.298	88.25
342.526	94.25
342.754	100.25
342.981	85.25
343.209	92.25
343.437	77.25
343.665	92.25
343.893	88.25
344.12	105.25
344.348	94.25
344.576	102.25
344.804	106.25
345.031	94.25
345.259	92.25
345.487	106.25
345.714	90.25
345.942	85.25
346.17	94.25
346.397	94.25
346.625	80.25
346.853	87.25
347.08	92.25
347.308	97.25
347.535	98.25
347.763	92.25
347.99	114.25
348.218	93.25
348.445	109.25
348.673	108.25
348.9	98.25
349.128	102.25
349.355	102.25
349.583	95.25
349.81	89.25
350.037	97.25
350.265	108.25
350.492	92.25
350.72	86.25
350.947	96.25
351.174	111.25
351.402	88.25
351.629	114.25
351.856	93.25
352.083	104.25
352.311	100.25
352.538	104.25
352.765	113.25
352.992	118.25
353.22	106.25
353.447	109.25
353.674	95.25
353.901	110.25
354.128	97.25
354.355	90.25
354.583	91.25
354.81	89.25
355.037	96.25
355.264	97.25
355.491	99.25
355.718	88.25
355.945	95.25
356.172	102.25
356.399	100.25
356.626	107.25
356.853	95.25
357.08	92.25
357.307	93.25
357.534	96.25
357.761	107.25
357.988	99.25
358.215	90.25
358.441	87.25
358.668	93.25
358.895	95.25
359.122	81.25
359.349	108.25
359.576	96.25
359.802	96.25
360.029	97.25
360.256	105.25
360.483	102.25
360.709	97.25
360.936	102.25
361.163	105.25
361.39	91.25
361.616	103.25
361.843	86.25
362.07	104.25
362.296	96.25
362.523	102.25
362.749	91.25
362.976	94.25
363.203	92.25
363.429	120.25
363.656	104.25
363.882	93.25
364.109	89.25
364.335	78.25
364.562	99.25
364.788	82.25
365.015	104.25
365.241	102.25
365.468	112.25
365.694	112.25
365.92	98.25
366.147	84.25
366.373	81.25
366.599	93.25
366.826	86.25
367.052	102.25
367.278	89.25
367.505	101.25
367.731	86.25
367.957	98.25
368.184	88.25
368.41	93.25
368.636	94.25
368.862	112.25
369.089	107.25
369.315	100.25
369.541	84.25
369.767	86.25
369.993	71.25
370.219	86.25
370.445	100.25
370.672	93.25
370.898	98.25
371.124	82.25
371.35	86.25
371.576	95.25
371.802	97.25
372.028	86.25
372.254	91.25
372.48	98.25
372.706	91.25
372.932	111.25
373.158	88.25
373.384	91.25
373.61	88.25
373.835	105.25
374.061	106.25
374.287	95.25
374.513	97.25
374.739	89.25
374.965	95.25
375.191	87.25
375.416	97.25
375.642	98.25
375.868	95.25
376.094	109.25
376.319	65.25
376.545	94.25
376.771	98.25
376.997	98.25
377.222	87.25
377.448	79.25
377.674	86.25
377.899	86.25
378.125	91.25
378.35	87.25
378.576	105.25
378.802	119.25
379.027	96.25
379.253	98.25
379.478	100.25
379.704	78.25
379.929	89.25
380.155	95.25
380.38	91.25
380.606	92.25
380.831	86.25
381.057	109.25
381.282	81.25
381.507	98.25
381.733	112.25
381.958	92.25
382.184	109.25
382.409	101.25
382.634	98.25
382.86	100.25
383.085	111.25
383.31	110.25
383.535	107.25
383.761	89.25
383.986	113.25
384.211	101.25
384.436	85.25
384.662	101.25
384.887	108.25
385.112	111.25
385.337	94.25
385.562	104.25
385.787	94.25
386.013	103.25
386.238	111.25
386.463	103.25
386.688	114.25
386.913	111.25
387.138	100.25
387.363	95.25
387.588	96.25
387.813	109.25
388.038	108.25
388.263	103.25
388.488	96.25
388.713	94.25
388.938	108.25
389.163	96.25
389.387	90.25
389.612	87.25
389.837	97.25
390.062	93.25
390.287	108.25
390.512	91.25
390.736	96.25
390.961	73.25
391.186	88.25
391.411	89.25
391.636	94.25
391.86	84.25
392.085	93.25
392.31	92.25
392.534	88.25
392.759	97.25
392.984	100.25
393.208	92.25
393.433	86.25
393.658	88.25
393.882	82.25
394.107	101.25
394.331	100.25
394.556	93.25
394.78	91.25
395.005	81.25
395.229	90.25
395.454	97.25
395.678	105.25
395.903	87.25
396.127	103.25
396.352	102.25
396.576	84.25
396.801	100.25
397.025	105.25
397.249	89.25
397.474	94.25
397.698	81.25
397.922	92.25
398.147	98.25
398.371	81.25
398.595	102.25
398.82	95.25
399.044	90.25
399.268	90.25
399.492	91.25
399.717	89.25
399.941	88.25
400.165	92.25
400.389	107.25
400.613	90.25
400.837	81.25
401.062	95.25
401.286	82.25
401.51	78.25
401.734	100.25
401.958	102.25
402.182	105.25
402.406	143.25
402.63	128.25
402.854	104.25
403.078	106.25
403.302	91.25
403.526	109.25
403.75	95.25
403.974	100.25
404.198	91.25
404.422	84.25
404.645	87.25
404.869	97.25
405.093	103.25
405.317	120.25
405.541	111.25
405.765	109.25
405.988	103.25
406.212	155.25
406.436	201.25
406.66	125.25
406.883	112.25
407.107	106.25
407.331	85.25
407.555	101.25
407.778	96.25
408.002	96.25
408.226	99.25
408.449	103.25
408.673	88.25
408.896	86.25
409.12	95.25
409.344	105.25
409.567	92.25
409.791	89.25
410.014	96.25
410.238	86.25
410.461	88.25
410.685	93.25
410.908	95.25
411.132	104.25
411.355	105.25
411.578	101.25
411.802	103.25
412.025	68.25
412.249	85.25
412.472	97.25
412.695	92.25
412.919	84.25
413.142	100.25
413.365	90.25
413.589	94.25
413.812	87.25
414.035	100.25
414.258	95.25
414.482	88.25
414.705	88.25
414.928	100.25
415.151	106.25
415.374	106.25
415.597	86.25
415.821	89.25
416.044	105.25
416.267	94.25
416.49	90.25
416.713	110.25
416.936	94.25
417.159	85.25
417.382	85.25
417.605	89.25
417.828	94.25
418.051	78.25
418.274	93.25
418.497	93.25
418.72	92.25
418.943	73.25
419.166	87.25
419.389	93.25
419.611	90.25
419.834	95.25
420.057	102.25
420.28	79.25
420.503	80.25
420.726	91.25
420.948	93.25
421.171	92.25
421.394	89.25
421.617	97.25
421.839	90.25
422.062	99.25
422.285	88.25
422.507	92.25
422.73	109.25
422.953	95.25
423.175	94.25
423.398	96.25
423.621	92.25
423.843	70.25
424.066	80.25
424.288	90.25
424.511	82.25
424.733	87.25
424.956	97.25
425.178	87.25
425.401	98.25
425.623	101.25
425.846	88.25
426.068	100.25
426.291	85.25
426.513	99.25
426.735	81.25
426.958	103.25
427.18	102.25
427.402	105.25
427.625	157.25
427.847	114.25
428.069	108.25
428.292	92.25
428.514	95.25
428.736	82.25
428.958	91.25
429.181	77.25
429.403	87.25
429.625	98.25
429.847	92.25
430.069	108.25
430.292	91.25
430.514	89.25
430.736	80.25
430.958	82.25
431.18	86.25
431.402	101.25
431.624	96.25
431.846	94.25
432.068	87.25
432.29	89.25
432.512	89.25
432.734	96.25
432.956	88.25
433.178	94.25
433.4	95.25
433.622	104.25
433.844	87.25
434.066	98.25
434.287	90.25
434.509	77.25
434.731	81.25
434.953	79.25
435.175	81.25
435.397	84.25
435.618	77.25
435.84	88.25
436.062	105.25
436.284	113.25
436.505	93.25
436.727	94.25
436.949	104.25
437.17	80.25
437.392	91.25
437.614	96.25
437.835	100.25
438.057	110.25
438.278	109.25
438.5	93.25
438.721	111.25
438.943	93.25
439.165	78.25
439.386	90.25
439.608	92.25
439.829	87.25
440.05	122.25
440.272	108.25
440.493	95.25
440.715	94.25
440.936	102.25
441.158	89.25
441.379	96.25
441.6	99.25
441.822	84.25
442.043	100.25
442.264	94.25
442.486	84.25
442.707	95.25
442.928	91.25
443.149	111.25
443.371	116.25
443.592	109.25
443.813	104.25
444.034	95.25
444.255	96.25
444.476	96.25
444.698	93.25
444.919	84.25
445.14	144.25
445.361	119.25
445.582	117.25
445.803	122.25
446.024	120.25
446.245	121.25
446.466	103.25
446.687	97.25
446.908	87.25
447.129	93.25
447.35	85.25
447.571	80.25
447.792	99.25
448.013	84.25
448.234	105.25
448.455	105.25
448.675	103.25
448.896	117.25
449.117	90.25
449.338	100.25
449.559	127.25
449.779	132.25
450	92.25
450.221	98.25
450.442	100.25
450.662	93.25
450.883	109.25
451.104	116.25
451.324	83.25
451.545	81.25
451.766	86.25
451.986	100.25
452.207	82.25
452.428	93.25
452.648	94.25
452.869	102.25
453.089	108.25
453.31	101.25
453.53	98.25
453.751	100.25
453.971	114.25
454.192	95.25
454.412	96.25
454.633	97.25
454.853	73.25
455.073	90.25
455.294	91.25
455.514	90.25
455.734	80.25
455.955	94.25
456.175	78.25
456.395	77.25
456.616	95.25
456.836	81.25
457.056	89.25
457.276	85.25
457.497	80.25
457.717	78.25
457.937	81.25
458.157	87.25
458.377	81.25
458.598	88.25
458.818	137.25
459.038	143.25
459.258	103.25
459.478	97.25
459.698	93.25
459.918	85.25
460.138	90.25
460.358	97.25
460.578	100.25
460.798	93.25
461.018	73.25
461.238	82.25
461.458	97.25
461.678	95.25
461.898	94.25
462.118	84.25
462.338	101.25
462.558	97.25
462.777	95.25
462.997	83.25
463.217	88.25
463.437	97.25
463.657	81.25
463.876	87.25
464.096	95.25
464.316	105.25
464.536	103.25
464.755	98.25
464.975	105.25
465.195	141.25
465.414	148.25
465.634	98.25
465.854	88.25
466.073	91.25
466.293	91.25
466.512	90.25
466.732	98.25
466.951	88.25
467.171	85.25
467.391	91.25
467.61	93.25
467.829	94.25
468.049	91.25
468.268	103.25
468.488	81.25
468.707	74.25
468.927	96.25
469.146	76.25
469.365	112.25
469.585	91.25
469.804	94.25
470.023	86.25
470.243	87.25
470.462	97.25
470.681	105.25
470.901	91.25
471.12	74.25
471.339	77.25
471.558	94.25
471.777	86.25
471.997	107.25
472.216	100.25
472.435	118.25
472.654	98.25
472.873	101.25
473.092	93.25
473.311	85.25
473.53	87.25
473.749	93.25
473.968	110.25
474.187	106.25
474.406	95.25
474.625	82.25
474.844	86.25
475.063	86.25
475.282	80.25
475.501	88.25
475.72	97.25
475.939	112.25
476.158	70.25
476.377	100.25
476.596	94.25
476.814	94.25
477.033	106.25
477.252	102.25
477.471	93.25
477.69	95.25
477.908	98.25
478.127	94.25
478.346	82.25
478.564	84.25
478.783	94.25
479.002	95.25
479.22	97.25
479.439	104.25
479.658	97.25
479.876	97.25
480.095	106.25
480.313	89.25
480.532	103.25
480.751	109.25
480.969	108.25
481.188	198.25
481.406	158.25
481.624	118.25
481.843	85.25
482.061	80.25
482.28	87.25
482.498	89.25
482.717	94.25
482.935	97.25
483.153	107.25
483.372	94.25
483.59	95.25
483.808	85.25
484.027	95.25
484.245	102.25
484.463	94.25
484.681	110.25
484.9	91.25
485.118	94.25
485.336	100.25
485.554	110.25
485.772	117.25
485.99	119.25
486.209	107.25
486.427	106.25
486.645	99.25
486.863	108.25
487.081	117.25
487.299	101.25
487.517	97.25
487.735	86.25
487.953	98.25
488.171	97.25
488.389	89.25
488.607	101.25
488.825	102.25
489.043	93.25
489.261	92.25
489.479	93.25
489.696	100.25
489.914	92.25
490.132	92.25
490.35	79.25
490.568	91.25
490.786	103.25
491.003	99.25
491.221	96.25
491.439	98.25
491.657	94.25
491.874	93.25
492.092	90.25
492.31	84.25
492.527	88.25
492.745	102.25
492.963	101.25
493.18	86.25
493.398	88.25
493.615	104.25
493.833	93.25
494.05	92.25
494.268	98.25
494.485	94.25
494.703	84.25
494.92	95.25
495.138	81.25
495.355	98.25
495.573	85.25
495.79	95.25
496.008	81.25
496.225	77.25
496.442	86.25
496.66	88.25
496.877	91.25
497.094	96.25
497.312	96.25
497.529	93.25
497.746	98.25
497.963	101.25
498.181	88.25
498.398	94.25
498.615	92.25
498.832	110.25
499.049	98.25
499.267	88.25
499.484	100.25
499.701	87.25
499.918	97.25
500.135	91.25
500.352	101.25
500.569	100.25
500.786	100.25
501.003	97.25
501.22	92.25
501.437	105.25
501.654	100.25
501.871	88.25
502.088	102.25
502.305	85.25
502.522	97.25
502.739	103.25
502.956	90.25
503.172	84.25
503.389	80.25
503.606	96.25
503.823	110.25
504.04	98.25
504.256	97.25
504.473	86.25
504.69	104.25
504.907	98.25
505.123	91.25
505.34	88.25
505.557	92.25
505.773	91.25
505.99	85.25
506.207	108.25
506.423	79.25
506.64	92.25
506.856	90.25
507.073	81.25
507.289	98.25
507.506	93.25
507.722	103.25
507.939	102.25
508.155	102.25
508.372	92.25
508.588	98.25
508.805	94.25
509.021	104.25
509.238	91.25
509.454	85.25
509.67	97.25
509.887	107.25
510.103	124.25
510.319	206.25
510.536	677.25
510.752	2065.25
510.968	585.25
511.184	159.25
511.401	105.25
511.617	105.25
511.833	93.25
512.049	82.25
512.265	100.25
512.481	91.25
512.698	92.25
512.914	89.25
513.13	98.25
513.346	96.25
513.562	105.25
513.778	105.25
513.994	98.25
514.21	106.25
514.426	123.25
514.642	125.25
