Data from Uncirc_1980_H10_HRD10591_00051.txt Node
Date: Wed Jan 03 12:37:05 EST 2024
User: Yrep
Spectrometer: HR+D1059
Trigger mode: 1
Integration Time (sec): 1.000000E-1
Scans to average: 1
Electric dark correction enabled: true
Nonlinearity correction enabled: false
Boxcar width: 0
XAxis mode: Wavelengths
Number of Pixels in Spectrum: 2048
>>>>>Begin Spectral Data<<<<<
223.165	-14.5
223.4	-14.5
223.635	-14.5
223.869	-30.5
224.104	-6.5
224.338	-8.5
224.573	-21.5
224.808	-8.5
225.042	-5.5
225.277	-13.5
225.511	-11.5
225.746	14.5
225.98	-1.5
226.215	19.5
226.449	19.5
226.683	29.5
226.918	15.5
227.152	23.5
227.387	32.5
227.621	50.5
227.856	52.5
228.09	44.5
228.324	64.5
228.559	70.5
228.793	62.5
229.027	59.5
229.262	67.5
229.496	77.5
229.73	87.5
229.964	80.5
230.199	71.5
230.433	71.5
230.667	78.5
230.901	77.5
231.136	72.5
231.37	77.5
231.604	81.5
231.838	70.5
232.072	83.5
232.306	81.5
232.541	84.5
232.775	86.5
233.009	96.5
233.243	77.5
233.477	69.5
233.711	95.5
233.945	84.5
234.179	81.5
234.413	83.5
234.647	92.5
234.881	86.5
235.115	70.5
235.349	76.5
235.583	75.5
235.817	80.5
236.051	76.5
236.285	66.5
236.519	76.5
236.753	73.5
236.987	69.5
237.221	87.5
237.455	76.5
237.689	73.5
237.922	76.5
238.156	96.5
238.39	77.5
238.624	87.5
238.858	69.5
239.091	87.5
239.325	93.5
239.559	93.5
239.793	76.5
240.027	95.5
240.26	83.5
240.494	80.5
240.728	79.5
240.961	76.5
241.195	80.5
241.429	83.5
241.662	71.5
241.896	78.5
242.13	74.5
242.363	58.5
242.597	72.5
242.83	78.5
243.064	78.5
243.298	75.5
243.531	87.5
243.765	77.5
243.998	75.5
244.232	80.5
244.465	71.5
244.699	104.5
244.932	89.5
245.166	63.5
245.399	67.5
245.633	76.5
245.866	74.5
246.099	88.5
246.333	77.5
246.566	86.5
246.8	87.5
247.033	79.5
247.266	68.5
247.5	79.5
247.733	81.5
247.966	77.5
248.2	77.5
248.433	80.5
248.666	97.5
248.899	77.5
249.133	83.5
249.366	97.5
249.599	81.5
249.832	83.5
250.066	88.5
250.299	88.5
250.532	100.5
250.765	80.5
250.998	77.5
251.231	79.5
251.465	86.5
251.698	83.5
251.931	88.5
252.164	84.5
252.397	75.5
252.63	67.5
252.863	68.5
253.096	76.5
253.329	70.5
253.562	76.5
253.795	76.5
254.028	80.5
254.261	80.5
254.494	84.5
254.727	86.5
254.96	87.5
255.193	91.5
255.426	76.5
255.659	85.5
255.892	85.5
256.124	76.5
256.357	89.5
256.59	77.5
256.823	86.5
257.056	71.5
257.289	88.5
257.521	84.5
257.754	79.5
257.987	88.5
258.22	93.5
258.452	82.5
258.685	90.5
258.918	85.5
259.151	77.5
259.383	65.5
259.616	77.5
259.849	87.5
260.081	81.5
260.314	83.5
260.547	95.5
260.779	83.5
261.012	71.5
261.244	94.5
261.477	93.5
261.71	94.5
261.942	110.5
262.175	105.5
262.407	84.5
262.64	88.5
262.872	83.5
263.105	78.5
263.337	87.5
263.57	79.5
263.802	91.5
264.035	96.5
264.267	93.5
264.499	82.5
264.732	91.5
264.964	78.5
265.197	99.5
265.429	98.5
265.661	97.5
265.894	92.5
266.126	85.5
266.358	79.5
266.591	80.5
266.823	95.5
267.055	85.5
267.287	73.5
267.52	90.5
267.752	85.5
267.984	88.5
268.216	81.5
268.448	90.5
268.681	70.5
268.913	87.5
269.145	80.5
269.377	85.5
269.609	89.5
269.841	100.5
270.073	103.5
270.306	103.5
270.538	87.5
270.77	91.5
271.002	95.5
271.234	77.5
271.466	85.5
271.698	88.5
271.93	85.5
272.162	96.5
272.394	93.5
272.626	92.5
272.858	101.5
273.09	101.5
273.322	88.5
273.553	76.5
273.785	82.5
274.017	75.5
274.249	83.5
274.481	83.5
274.713	89.5
274.945	96.5
275.176	81.5
275.408	88.5
275.64	94.5
275.872	89.5
276.104	84.5
276.335	65.5
276.567	79.5
276.799	104.5
277.031	86.5
277.262	91.5
277.494	89.5
277.726	81.5
277.957	89.5
278.189	86.5
278.421	94.5
278.652	91.5
278.884	89.5
279.115	91.5
279.347	90.5
279.579	96.5
279.81	94.5
280.042	85.5
280.273	85.5
280.505	86.5
280.736	86.5
280.968	85.5
281.199	98.5
281.431	81.5
281.662	93.5
281.894	83.5
282.125	98.5
282.356	108.5
282.588	124.5
282.819	110.5
283.051	89.5
283.282	85.5
283.513	92.5
283.745	93.5
283.976	93.5
284.207	91.5
284.439	111.5
284.67	88.5
284.901	106.5
285.132	81.5
285.364	91.5
285.595	77.5
285.826	92.5
286.057	91.5
286.288	89.5
286.52	90.5
286.751	65.5
286.982	83.5
287.213	92.5
287.444	87.5
287.675	86.5
287.906	103.5
288.138	91.5
288.369	93.5
288.6	93.5
288.831	86.5
289.062	99.5
289.293	103.5
289.524	75.5
289.755	76.5
289.986	95.5
290.217	92.5
290.448	85.5
290.679	84.5
290.91	97.5
291.141	94.5
291.371	90.5
291.602	90.5
291.833	99.5
292.064	90.5
292.295	89.5
292.526	87.5
292.757	87.5
292.987	77.5
293.218	88.5
293.449	97.5
293.68	83.5
293.91	85.5
294.141	89.5
294.372	92.5
294.603	89.5
294.833	97.5
295.064	84.5
295.295	91.5
295.525	103.5
295.756	104.5
295.987	113.5
296.217	124.5
296.448	118.5
296.679	78.5
296.909	91.5
297.14	97.5
297.37	77.5
297.601	99.5
297.831	106.5
298.062	100.5
298.292	87.5
298.523	116.5
298.753	77.5
298.984	81.5
299.214	103.5
299.445	93.5
299.675	93.5
299.905	103.5
300.136	79.5
300.366	87.5
300.597	104.5
300.827	80.5
301.057	83.5
301.288	94.5
301.518	86.5
301.748	89.5
301.979	97.5
302.209	92.5
302.439	81.5
302.669	89.5
302.9	87.5
303.13	91.5
303.36	87.5
303.59	88.5
303.82	108.5
304.051	99.5
304.281	90.5
304.511	89.5
304.741	90.5
304.971	80.5
305.201	91.5
305.431	94.5
305.661	96.5
305.891	73.5
306.121	100.5
306.352	105.5
306.582	107.5
306.812	83.5
307.042	103.5
307.272	87.5
307.502	101.5
307.731	96.5
307.961	94.5
308.191	91.5
308.421	93.5
308.651	104.5
308.881	95.5
309.111	92.5
309.341	93.5
309.571	98.5
309.8	104.5
310.03	99.5
310.26	95.5
310.49	98.5
310.72	91.5
310.949	103.5
311.179	104.5
311.409	102.5
311.639	91.5
311.868	104.5
312.098	102.5
312.328	80.5
312.557	106.5
312.787	86.5
313.017	113.5
313.246	98.5
313.476	97.5
313.706	87.5
313.935	83.5
314.165	95.5
314.394	92.5
314.624	91.5
314.853	91.5
315.083	103.5
315.312	100.5
315.542	76.5
315.771	86.5
316.001	95.5
316.23	101.5
316.46	88.5
316.689	97.5
316.919	85.5
317.148	95.5
317.377	95.5
317.607	88.5
317.836	100.5
318.065	103.5
318.295	101.5
318.524	93.5
318.753	94.5
318.983	91.5
319.212	100.5
319.441	113.5
319.67	100.5
319.9	83.5
320.129	97.5
320.358	91.5
320.587	95.5
320.816	100.5
321.046	99.5
321.275	90.5
321.504	89.5
321.733	89.5
321.962	98.5
322.191	95.5
322.42	91.5
322.649	110.5
322.878	110.5
323.108	105.5
323.337	111.5
323.566	112.5
323.795	135.5
324.024	167.5
324.253	305.5
324.482	572.5
324.71	1201.5
324.939	1544.5
325.168	579.5
325.397	193.5
325.626	121.5
325.855	123.5
326.084	98.5
326.313	118.5
326.542	159.5
326.77	191.5
326.999	343.5
327.228	674.5
327.457	1211.5
327.686	963.5
327.914	275.5
328.143	167.5
328.372	123.5
328.6	111.5
328.829	95.5
329.058	114.5
329.287	111.5
329.515	96.5
329.744	111.5
329.972	105.5
330.201	110.5
330.43	124.5
330.658	95.5
330.887	126.5
331.115	110.5
331.344	101.5
331.572	86.5
331.801	101.5
332.03	103.5
332.258	104.5
332.486	98.5
332.715	89.5
332.943	82.5
333.172	94.5
333.4	89.5
333.629	99.5
333.857	106.5
334.085	104.5
334.314	123.5
334.542	123.5
334.771	103.5
334.999	93.5
335.227	90.5
335.455	89.5
335.684	104.5
335.912	100.5
336.14	96.5
336.369	99.5
336.597	106.5
336.825	109.5
337.053	100.5
337.281	85.5
337.51	91.5
337.738	103.5
337.966	81.5
338.194	82.5
338.422	90.5
338.65	100.5
338.878	78.5
339.106	81.5
339.334	98.5
339.562	105.5
339.79	94.5
340.018	91.5
340.246	93.5
340.474	103.5
340.702	93.5
340.93	90.5
341.158	95.5
341.386	81.5
341.614	101.5
341.842	91.5
342.07	103.5
342.298	97.5
342.526	82.5
342.754	103.5
342.981	99.5
343.209	89.5
343.437	103.5
343.665	107.5
343.893	99.5
344.12	95.5
344.348	80.5
344.576	93.5
344.804	92.5
345.031	93.5
345.259	78.5
345.487	91.5
345.714	91.5
345.942	96.5
346.17	109.5
346.397	81.5
346.625	111.5
346.853	97.5
347.08	98.5
347.308	98.5
347.535	80.5
347.763	84.5
347.99	109.5
348.218	102.5
348.445	94.5
348.673	99.5
348.9	92.5
349.128	97.5
349.355	83.5
349.583	92.5
349.81	97.5
350.037	112.5
350.265	84.5
350.492	95.5
350.72	87.5
350.947	111.5
351.174	87.5
351.402	105.5
351.629	106.5
351.856	98.5
352.083	103.5
352.311	110.5
352.538	110.5
352.765	106.5
352.992	102.5
353.22	92.5
353.447	97.5
353.674	106.5
353.901	94.5
354.128	99.5
354.355	98.5
354.583	109.5
354.81	102.5
355.037	99.5
355.264	92.5
355.491	100.5
355.718	83.5
355.945	107.5
356.172	88.5
356.399	93.5
356.626	87.5
356.853	102.5
357.08	103.5
357.307	104.5
357.534	93.5
357.761	87.5
357.988	92.5
358.215	84.5
358.441	88.5
358.668	100.5
358.895	92.5
359.122	78.5
359.349	77.5
359.576	77.5
359.802	83.5
360.029	104.5
360.256	109.5
360.483	99.5
360.709	88.5
360.936	81.5
361.163	93.5
361.39	87.5
361.616	96.5
361.843	84.5
362.07	88.5
362.296	96.5
362.523	96.5
362.749	83.5
362.976	91.5
363.203	93.5
363.429	90.5
363.656	87.5
363.882	94.5
364.109	95.5
364.335	105.5
364.562	100.5
364.788	87.5
365.015	86.5
365.241	91.5
365.468	86.5
365.694	96.5
365.92	91.5
366.147	89.5
366.373	89.5
366.599	103.5
366.826	75.5
367.052	85.5
367.278	95.5
367.505	88.5
367.731	94.5
367.957	69.5
368.184	90.5
368.41	99.5
368.636	98.5
368.862	108.5
369.089	91.5
369.315	89.5
369.541	89.5
369.767	93.5
369.993	97.5
370.219	100.5
370.445	80.5
370.672	92.5
370.898	91.5
371.124	78.5
371.35	93.5
371.576	83.5
371.802	86.5
372.028	90.5
372.254	86.5
372.48	92.5
372.706	81.5
372.932	93.5
373.158	89.5
373.384	96.5
373.61	77.5
373.835	83.5
374.061	108.5
374.287	93.5
374.513	93.5
374.739	99.5
374.965	86.5
375.191	85.5
375.416	95.5
375.642	97.5
375.868	88.5
376.094	96.5
376.319	88.5
376.545	88.5
376.771	92.5
376.997	87.5
377.222	92.5
377.448	87.5
377.674	95.5
377.899	96.5
378.125	92.5
378.35	103.5
378.576	91.5
378.802	97.5
379.027	87.5
379.253	97.5
379.478	88.5
379.704	89.5
379.929	89.5
380.155	89.5
380.38	73.5
380.606	98.5
380.831	96.5
381.057	97.5
381.282	89.5
381.507	76.5
381.733	103.5
381.958	91.5
382.184	106.5
382.409	88.5
382.634	98.5
382.86	99.5
383.085	105.5
383.31	97.5
383.535	107.5
383.761	85.5
383.986	102.5
384.211	102.5
384.436	94.5
384.662	110.5
384.887	96.5
385.112	113.5
385.337	125.5
385.562	112.5
385.787	113.5
386.013	103.5
386.238	116.5
386.463	105.5
386.688	116.5
386.913	109.5
387.138	83.5
387.363	94.5
387.588	110.5
387.813	118.5
388.038	106.5
388.263	119.5
388.488	102.5
388.713	93.5
388.938	94.5
389.163	110.5
389.387	91.5
389.612	93.5
389.837	99.5
390.062	91.5
390.287	89.5
390.512	91.5
390.736	91.5
390.961	88.5
391.186	76.5
391.411	96.5
391.636	71.5
391.86	95.5
392.085	92.5
392.31	92.5
392.534	91.5
392.759	93.5
392.984	92.5
393.208	88.5
393.433	91.5
393.658	96.5
393.882	94.5
394.107	83.5
394.331	107.5
394.556	94.5
394.78	82.5
395.005	92.5
395.229	68.5
395.454	78.5
395.678	79.5
395.903	91.5
396.127	89.5
396.352	91.5
396.576	91.5
396.801	98.5
397.025	85.5
397.249	91.5
397.474	108.5
397.698	93.5
397.922	88.5
398.147	83.5
398.371	80.5
398.595	76.5
398.82	96.5
399.044	85.5
399.268	75.5
399.492	99.5
399.717	91.5
399.941	97.5
400.165	93.5
400.389	90.5
400.613	97.5
400.837	94.5
401.062	97.5
401.286	83.5
401.51	94.5
401.734	94.5
401.958	96.5
402.182	116.5
402.406	117.5
402.63	103.5
402.854	103.5
403.078	97.5
403.302	88.5
403.526	87.5
403.75	90.5
403.974	96.5
404.198	99.5
404.422	85.5
404.645	88.5
404.869	95.5
405.093	92.5
405.317	101.5
405.541	97.5
405.765	114.5
405.988	105.5
406.212	135.5
406.436	179.5
406.66	136.5
406.883	99.5
407.107	85.5
407.331	96.5
407.555	89.5
407.778	102.5
408.002	92.5
408.226	90.5
408.449	86.5
408.673	96.5
408.896	106.5
409.12	83.5
409.344	82.5
409.567	100.5
409.791	77.5
410.014	100.5
410.238	84.5
410.461	80.5
410.685	94.5
410.908	95.5
411.132	104.5
411.355	110.5
411.578	97.5
411.802	91.5
412.025	102.5
412.249	87.5
412.472	96.5
412.695	113.5
412.919	91.5
413.142	104.5
413.365	98.5
413.589	97.5
413.812	93.5
414.035	101.5
414.258	91.5
414.482	85.5
414.705	92.5
414.928	99.5
415.151	97.5
415.374	100.5
415.597	105.5
415.821	98.5
416.044	88.5
416.267	99.5
416.49	95.5
416.713	92.5
416.936	85.5
417.159	93.5
417.382	88.5
417.605	92.5
417.828	86.5
418.051	94.5
418.274	84.5
418.497	88.5
418.72	83.5
418.943	85.5
419.166	92.5
419.389	86.5
419.611	93.5
419.834	96.5
420.057	79.5
420.28	89.5
420.503	91.5
420.726	90.5
420.948	86.5
421.171	97.5
421.394	81.5
421.617	92.5
421.839	99.5
422.062	94.5
422.285	109.5
422.507	80.5
422.73	113.5
422.953	93.5
423.175	95.5
423.398	94.5
423.621	85.5
423.843	105.5
424.066	91.5
424.288	86.5
424.511	89.5
424.733	96.5
424.956	97.5
425.178	113.5
425.401	96.5
425.623	104.5
425.846	97.5
426.068	79.5
426.291	79.5
426.513	102.5
426.735	91.5
426.958	94.5
427.18	102.5
427.402	117.5
427.625	131.5
427.847	117.5
428.069	111.5
428.292	89.5
428.514	87.5
428.736	87.5
428.958	86.5
429.181	84.5
429.403	75.5
429.625	87.5
429.847	104.5
430.069	98.5
430.292	87.5
430.514	86.5
430.736	87.5
430.958	96.5
431.18	91.5
431.402	92.5
431.624	87.5
431.846	85.5
432.068	95.5
432.29	91.5
432.512	89.5
432.734	88.5
432.956	99.5
433.178	101.5
433.4	94.5
433.622	85.5
433.844	87.5
434.066	77.5
434.287	75.5
434.509	80.5
434.731	104.5
434.953	68.5
435.175	84.5
435.397	83.5
435.618	84.5
435.84	99.5
436.062	111.5
436.284	128.5
436.505	89.5
436.727	103.5
436.949	92.5
437.17	93.5
437.392	91.5
437.614	95.5
437.835	84.5
438.057	100.5
438.278	103.5
438.5	98.5
438.721	109.5
438.943	95.5
439.165	97.5
439.386	83.5
439.608	96.5
439.829	101.5
440.05	111.5
440.272	114.5
440.493	90.5
440.715	83.5
440.936	83.5
441.158	97.5
441.379	94.5
441.6	87.5
441.822	97.5
442.043	111.5
442.264	98.5
442.486	104.5
442.707	81.5
442.928	108.5
443.149	111.5
443.371	108.5
443.592	121.5
443.813	97.5
444.034	94.5
444.255	102.5
444.476	92.5
444.698	88.5
444.919	85.5
445.14	131.5
445.361	107.5
445.582	95.5
445.803	124.5
446.024	123.5
446.245	124.5
446.466	95.5
446.687	80.5
446.908	76.5
447.129	87.5
447.35	85.5
447.571	81.5
447.792	95.5
448.013	95.5
448.234	86.5
448.455	91.5
448.675	125.5
448.896	111.5
449.117	113.5
449.338	99.5
449.559	119.5
449.779	123.5
450	103.5
450.221	85.5
450.442	74.5
450.662	97.5
450.883	96.5
451.104	102.5
451.324	92.5
451.545	95.5
451.766	80.5
451.986	97.5
452.207	94.5
452.428	89.5
452.648	80.5
452.869	109.5
453.089	94.5
453.31	103.5
453.53	104.5
453.751	98.5
453.971	105.5
454.192	96.5
454.412	98.5
454.633	82.5
454.853	79.5
455.073	78.5
455.294	83.5
455.514	96.5
455.734	95.5
455.955	91.5
456.175	87.5
456.395	81.5
456.616	85.5
456.836	87.5
457.056	76.5
457.276	91.5
457.497	90.5
457.717	91.5
457.937	92.5
458.157	88.5
458.377	92.5
458.598	91.5
458.818	129.5
459.038	133.5
459.258	112.5
459.478	84.5
459.698	89.5
459.918	64.5
460.138	79.5
460.358	75.5
460.578	84.5
460.798	99.5
461.018	85.5
461.238	77.5
461.458	85.5
461.678	87.5
461.898	92.5
462.118	85.5
462.338	76.5
462.558	93.5
462.777	84.5
462.997	79.5
463.217	86.5
463.437	86.5
463.657	99.5
463.876	87.5
464.096	78.5
464.316	88.5
464.536	91.5
464.755	96.5
464.975	114.5
465.195	131.5
465.414	122.5
465.634	91.5
465.854	101.5
466.073	99.5
466.293	78.5
466.512	93.5
466.732	87.5
466.951	90.5
467.171	85.5
467.391	102.5
467.61	84.5
467.829	81.5
468.049	95.5
468.268	94.5
468.488	98.5
468.707	101.5
468.927	78.5
469.146	93.5
469.365	81.5
469.585	92.5
469.804	79.5
470.023	82.5
470.243	94.5
470.462	99.5
470.681	94.5
470.901	80.5
471.12	85.5
471.339	86.5
471.558	85.5
471.777	88.5
471.997	107.5
472.216	111.5
472.435	120.5
472.654	99.5
472.873	99.5
473.092	86.5
473.311	87.5
473.53	95.5
473.749	80.5
473.968	97.5
474.187	95.5
474.406	94.5
474.625	85.5
474.844	95.5
475.063	75.5
475.282	84.5
475.501	87.5
475.72	88.5
475.939	93.5
476.158	92.5
476.377	89.5
476.596	96.5
476.814	116.5
477.033	84.5
477.252	77.5
477.471	85.5
477.69	78.5
477.908	73.5
478.127	87.5
478.346	98.5
478.564	87.5
478.783	91.5
479.002	92.5
479.22	96.5
479.439	98.5
479.658	96.5
479.876	94.5
480.095	94.5
480.313	92.5
480.532	80.5
480.751	107.5
480.969	103.5
481.188	164.5
481.406	138.5
481.624	89.5
481.843	83.5
482.061	89.5
482.28	86.5
482.498	80.5
482.717	98.5
482.935	94.5
483.153	85.5
483.372	83.5
483.59	90.5
483.808	92.5
484.027	93.5
484.245	92.5
484.463	88.5
484.681	99.5
484.9	92.5
485.118	99.5
485.336	99.5
485.554	93.5
485.772	85.5
485.99	92.5
486.209	100.5
486.427	107.5
486.645	110.5
486.863	104.5
487.081	112.5
487.299	91.5
487.517	92.5
487.735	70.5
487.953	87.5
488.171	96.5
488.389	92.5
488.607	97.5
488.825	87.5
489.043	83.5
489.261	91.5
489.479	79.5
489.696	102.5
489.914	97.5
490.132	79.5
490.35	95.5
490.568	91.5
490.786	90.5
491.003	99.5
491.221	103.5
491.439	96.5
491.657	94.5
491.874	89.5
492.092	91.5
492.31	97.5
492.527	94.5
492.745	91.5
492.963	89.5
493.18	85.5
493.398	100.5
493.615	102.5
493.833	96.5
494.05	82.5
494.268	94.5
494.485	88.5
494.703	100.5
494.92	78.5
495.138	94.5
495.355	79.5
495.573	88.5
495.79	83.5
496.008	89.5
496.225	91.5
496.442	83.5
496.66	87.5
496.877	80.5
497.094	87.5
497.312	87.5
497.529	94.5
497.746	84.5
497.963	98.5
498.181	99.5
498.398	79.5
498.615	108.5
498.832	99.5
499.049	77.5
499.267	93.5
499.484	85.5
499.701	95.5
499.918	93.5
500.135	102.5
500.352	85.5
500.569	111.5
500.786	102.5
501.003	89.5
501.22	81.5
501.437	72.5
501.654	113.5
501.871	96.5
502.088	101.5
502.305	90.5
502.522	85.5
502.739	97.5
502.956	85.5
503.172	88.5
503.389	92.5
503.606	94.5
503.823	106.5
504.04	86.5
504.256	94.5
504.473	84.5
504.69	91.5
504.907	92.5
505.123	96.5
505.34	91.5
505.557	79.5
505.773	97.5
505.99	100.5
506.207	91.5
506.423	79.5
506.64	96.5
506.856	101.5
507.073	70.5
507.289	96.5
507.506	95.5
507.722	94.5
507.939	108.5
508.155	94.5
508.372	95.5
508.588	89.5
508.805	93.5
509.021	99.5
509.238	99.5
509.454	101.5
509.67	97.5
509.887	101.5
510.103	103.5
510.319	176.5
510.536	591.5
510.752	1784.5
510.968	501.5
511.184	125.5
511.401	100.5
511.617	88.5
511.833	91.5
512.049	87.5
512.265	93.5
512.481	86.5
512.698	87.5
512.914	97.5
513.13	106.5
513.346	87.5
513.562	89.5
513.778	101.5
513.994	79.5
514.21	107.5
514.426	119.5
514.642	123.5
514.858	109.5
515.074	134.5
515.29	327.5
515.506	1036.5
515.721	390.5
515.937	123.5
516.153	107.5
516.369	108.5
516.585	91.5
516.801	87.5
517.016	96.5
517.232	91.5
517.448	94.5
517.664	100.5
517.879	88.5
518.095	104.5
518.311	93.5
518.527	108.5
518.742	98.5
518.958	95.5
519.173	93.5
519.389	90.5
519.605	111.5
519.82	87.5
520.036	113.5
520.251	107.5
520.467	118.5
520.682	102.5
520.898	109.5
521.113	108.5
521.329	131.5
521.544	175.5
521.76	404.5
521.975	1711.5
522.19	1040.5
522.406	235.5
522.621	112.5
522.836	86.5
523.052	93.5
523.267	105.5
523.482	85.5
523.698	100.5
523.913	109.5
524.128	87.5
524.343	94.5
524.559	99.5
524.774	87.5
524.989	107.5
525.204	96.5
525.419	96.5
525.634	91.5
525.849	108.5
526.064	83.5
526.28	79.5
526.495	87.5
526.71	94.5
526.925	94.5
527.14	73.5
527.355	80.5
527.57	101.5
527.785	87.5
527.999	94.5
528.214	94.5
528.429	77.5
528.644	89.5
528.859	101.5
529.074	91.5
529.289	93.5
529.503	150.5
529.718	93.5
529.933	86.5
530.148	91.5
530.363	87.5
530.577	90.5
530.792	84.5
531.007	75.5
531.221	84.5
531.436	89.5
531.651	97.5
531.865	95.5
532.08	97.5
532.295	96.5
532.509	87.5
532.724	99.5
532.938	91.5
533.153	109.5
533.367	88.5
533.582	99.5
533.796	95.5
534.011	98.5
534.225	107.5
534.44	93.5
534.654	75.5
534.868	91.5
535.083	87.5
535.297	77.5
535.511	93.5
