Data from Uncirc_1980_H10_HRD10591_00099.txt Node
Date: Wed Jan 03 12:37:15 EST 2024
User: Yrep
Spectrometer: HR+D1059
Trigger mode: 1
Integration Time (sec): 1.000000E-1
Scans to average: 1
Electric dark correction enabled: true
Nonlinearity correction enabled: false
Boxcar width: 0
XAxis mode: Wavelengths
Number of Pixels in Spectrum: 2048
>>>>>Begin Spectral Data<<<<<
223.165	-16.38
223.4	-16.38
223.635	-16.38
223.869	-8.38
224.104	-12.38
224.338	-24.38
224.573	-18.38
224.808	-16.38
225.042	0.62
225.277	2.62
225.511	-12.38
225.746	11.62
225.98	-4.38
226.215	7.62
226.449	18.62
226.683	19.62
226.918	12.62
227.152	39.62
227.387	46.62
227.621	33.62
227.856	31.62
228.09	49.62
228.324	41.62
228.559	65.62
228.793	51.62
229.027	63.62
229.262	65.62
229.496	51.62
229.73	75.62
229.964	73.62
230.199	79.62
230.433	58.62
230.667	79.62
230.901	81.62
231.136	72.62
231.37	79.62
231.604	83.62
231.838	76.62
232.072	82.62
232.306	85.62
232.541	88.62
232.775	67.62
233.009	85.62
233.243	68.62
233.477	74.62
233.711	84.62
233.945	73.62
234.179	85.62
234.413	69.62
234.647	66.62
234.881	69.62
235.115	83.62
235.349	87.62
235.583	75.62
235.817	85.62
236.051	69.62
236.285	91.62
236.519	79.62
236.753	86.62
236.987	86.62
237.221	73.62
237.455	76.62
237.689	77.62
237.922	79.62
238.156	65.62
238.39	73.62
238.624	91.62
238.858	86.62
239.091	84.62
239.325	73.62
239.559	86.62
239.793	78.62
240.027	72.62
240.26	92.62
240.494	75.62
240.728	73.62
240.961	80.62
241.195	81.62
241.429	94.62
241.662	79.62
241.896	77.62
242.13	71.62
242.363	94.62
242.597	79.62
242.83	78.62
243.064	71.62
243.298	59.62
243.531	81.62
243.765	80.62
243.998	69.62
244.232	90.62
244.465	88.62
244.699	75.62
244.932	80.62
245.166	65.62
245.399	80.62
245.633	84.62
245.866	85.62
246.099	75.62
246.333	73.62
246.566	88.62
246.8	80.62
247.033	79.62
247.266	91.62
247.5	73.62
247.733	70.62
247.966	77.62
248.2	82.62
248.433	81.62
248.666	76.62
248.899	82.62
249.133	73.62
249.366	76.62
249.599	76.62
249.832	74.62
250.066	76.62
250.299	64.62
250.532	72.62
250.765	96.62
250.998	70.62
251.231	84.62
251.465	67.62
251.698	83.62
251.931	77.62
252.164	83.62
252.397	73.62
252.63	66.62
252.863	58.62
253.096	82.62
253.329	74.62
253.562	78.62
253.795	83.62
254.028	83.62
254.261	84.62
254.494	75.62
254.727	79.62
254.96	88.62
255.193	73.62
255.426	92.62
255.659	84.62
255.892	74.62
256.124	85.62
256.357	72.62
256.59	64.62
256.823	79.62
257.056	81.62
257.289	70.62
257.521	72.62
257.754	73.62
257.987	75.62
258.22	85.62
258.452	83.62
258.685	66.62
258.918	73.62
259.151	89.62
259.383	71.62
259.616	76.62
259.849	82.62
260.081	81.62
260.314	76.62
260.547	75.62
260.779	80.62
261.012	71.62
261.244	79.62
261.477	80.62
261.71	97.62
261.942	97.62
262.175	92.62
262.407	88.62
262.64	84.62
262.872	90.62
263.105	92.62
263.337	96.62
263.57	87.62
263.802	88.62
264.035	73.62
264.267	77.62
264.499	79.62
264.732	73.62
264.964	93.62
265.197	84.62
265.429	66.62
265.661	79.62
265.894	95.62
266.126	91.62
266.358	85.62
266.591	68.62
266.823	90.62
267.055	86.62
267.287	76.62
267.52	87.62
267.752	68.62
267.984	69.62
268.216	96.62
268.448	73.62
268.681	84.62
268.913	91.62
269.145	81.62
269.377	85.62
269.609	69.62
269.841	86.62
270.073	98.62
270.306	88.62
270.538	75.62
270.77	58.62
271.002	101.62
271.234	80.62
271.466	81.62
271.698	87.62
271.93	73.62
272.162	76.62
272.394	88.62
272.626	85.62
272.858	76.62
273.09	79.62
273.322	87.62
273.553	80.62
273.785	78.62
274.017	74.62
274.249	87.62
274.481	69.62
274.713	79.62
274.945	81.62
275.176	91.62
275.408	85.62
275.64	89.62
275.872	84.62
276.104	83.62
276.335	77.62
276.567	83.62
276.799	94.62
277.031	99.62
277.262	86.62
277.494	93.62
277.726	89.62
277.957	87.62
278.189	81.62
278.421	61.62
278.652	84.62
278.884	80.62
279.115	86.62
279.347	81.62
279.579	76.62
279.81	93.62
280.042	98.62
280.273	80.62
280.505	79.62
280.736	97.62
280.968	79.62
281.199	85.62
281.431	87.62
281.662	85.62
281.894	90.62
282.125	84.62
282.356	118.62
282.588	108.62
282.819	93.62
283.051	95.62
283.282	84.62
283.513	84.62
283.745	80.62
283.976	93.62
284.207	87.62
284.439	77.62
284.67	90.62
284.901	81.62
285.132	67.62
285.364	82.62
285.595	83.62
285.826	95.62
286.057	93.62
286.288	78.62
286.52	75.62
286.751	79.62
286.982	90.62
287.213	79.62
287.444	84.62
287.675	71.62
287.906	85.62
288.138	92.62
288.369	90.62
288.6	81.62
288.831	84.62
289.062	101.62
289.293	84.62
289.524	70.62
289.755	82.62
289.986	77.62
290.217	84.62
290.448	92.62
290.679	88.62
290.91	73.62
291.141	96.62
291.371	98.62
291.602	77.62
291.833	95.62
292.064	89.62
292.295	90.62
292.526	87.62
292.757	77.62
292.987	93.62
293.218	87.62
293.449	81.62
293.68	92.62
293.91	70.62
294.141	97.62
294.372	74.62
294.603	70.62
294.833	87.62
295.064	92.62
295.295	87.62
295.525	90.62
295.756	85.62
295.987	118.62
296.217	117.62
296.448	109.62
296.679	88.62
296.909	100.62
297.14	81.62
297.37	86.62
297.601	81.62
297.831	107.62
298.062	96.62
298.292	73.62
298.523	85.62
298.753	85.62
298.984	93.62
299.214	101.62
299.445	83.62
299.675	85.62
299.905	88.62
300.136	85.62
300.366	94.62
300.597	100.62
300.827	86.62
301.057	76.62
301.288	80.62
301.518	90.62
301.748	82.62
301.979	95.62
302.209	98.62
302.439	89.62
302.669	91.62
302.9	71.62
303.13	90.62
303.36	98.62
303.59	85.62
303.82	85.62
304.051	102.62
304.281	86.62
304.511	88.62
304.741	99.62
304.971	95.62
305.201	84.62
305.431	102.62
305.661	99.62
305.891	80.62
306.121	94.62
306.352	100.62
306.582	89.62
306.812	100.62
307.042	87.62
307.272	83.62
307.502	87.62
307.731	90.62
307.961	88.62
308.191	83.62
308.421	87.62
308.651	87.62
308.881	83.62
309.111	88.62
309.341	94.62
309.571	99.62
309.8	93.62
310.03	93.62
310.26	93.62
310.49	78.62
310.72	99.62
310.949	95.62
311.179	94.62
311.409	88.62
311.639	83.62
311.868	89.62
312.098	100.62
312.328	92.62
312.557	90.62
312.787	97.62
313.017	95.62
313.246	79.62
313.476	77.62
313.706	99.62
313.935	80.62
314.165	101.62
314.394	95.62
314.624	97.62
314.853	98.62
315.083	84.62
315.312	88.62
315.542	97.62
315.771	90.62
316.001	71.62
316.23	91.62
316.46	84.62
316.689	97.62
316.919	88.62
317.148	99.62
317.377	76.62
317.607	101.62
317.836	83.62
318.065	86.62
318.295	89.62
318.524	86.62
318.753	88.62
318.983	83.62
319.212	92.62
319.441	101.62
319.67	86.62
319.9	107.62
320.129	90.62
320.358	89.62
320.587	91.62
320.816	93.62
321.046	83.62
321.275	94.62
321.504	87.62
321.733	85.62
321.962	91.62
322.191	98.62
322.42	89.62
322.649	107.62
322.878	101.62
323.108	96.62
323.337	101.62
323.566	99.62
323.795	149.62
324.024	174.62
324.253	311.62
324.482	637.62
324.71	1287.62
324.939	1714.62
325.168	618.62
325.397	199.62
325.626	122.62
325.855	124.62
326.084	112.62
326.313	122.62
326.542	127.62
326.77	180.62
326.999	359.62
327.228	697.62
327.457	1346.62
327.686	1089.62
327.914	309.62
328.143	176.62
328.372	129.62
328.6	113.62
328.829	96.62
329.058	108.62
329.287	106.62
329.515	99.62
329.744	114.62
329.972	124.62
330.201	113.62
330.43	109.62
330.658	112.62
330.887	121.62
331.115	105.62
331.344	103.62
331.572	98.62
331.801	92.62
332.03	100.62
332.258	84.62
332.486	103.62
332.715	104.62
332.943	90.62
333.172	86.62
333.4	85.62
333.629	97.62
333.857	92.62
334.085	80.62
334.314	106.62
334.542	123.62
334.771	109.62
334.999	103.62
335.227	93.62
335.455	99.62
335.684	93.62
335.912	77.62
336.14	100.62
336.369	85.62
336.597	92.62
336.825	91.62
337.053	91.62
337.281	87.62
337.51	80.62
337.738	85.62
337.966	94.62
338.194	85.62
338.422	81.62
338.65	97.62
338.878	94.62
339.106	81.62
339.334	96.62
339.562	81.62
339.79	90.62
340.018	86.62
340.246	90.62
340.474	94.62
340.702	83.62
340.93	74.62
341.158	100.62
341.386	97.62
341.614	95.62
341.842	81.62
342.07	108.62
342.298	85.62
342.526	87.62
342.754	72.62
342.981	91.62
343.209	87.62
343.437	93.62
343.665	85.62
343.893	86.62
344.12	91.62
344.348	87.62
344.576	100.62
344.804	83.62
345.031	93.62
345.259	96.62
345.487	90.62
345.714	91.62
345.942	79.62
346.17	83.62
346.397	91.62
346.625	107.62
346.853	102.62
347.08	92.62
347.308	92.62
347.535	96.62
347.763	87.62
347.99	98.62
348.218	98.62
348.445	107.62
348.673	85.62
348.9	86.62
349.128	96.62
349.355	106.62
349.583	84.62
349.81	88.62
350.037	97.62
350.265	85.62
350.492	90.62
350.72	86.62
350.947	94.62
351.174	103.62
351.402	101.62
351.629	91.62
351.856	108.62
352.083	97.62
352.311	101.62
352.538	101.62
352.765	111.62
352.992	107.62
353.22	117.62
353.447	100.62
353.674	93.62
353.901	92.62
354.128	96.62
354.355	88.62
354.583	93.62
354.81	86.62
355.037	92.62
355.264	92.62
355.491	99.62
355.718	97.62
355.945	91.62
356.172	102.62
356.399	98.62
356.626	93.62
356.853	83.62
357.08	77.62
357.307	84.62
357.534	81.62
357.761	89.62
357.988	89.62
358.215	87.62
358.441	76.62
358.668	83.62
358.895	93.62
359.122	84.62
359.349	87.62
359.576	91.62
359.802	101.62
360.029	97.62
360.256	102.62
360.483	88.62
360.709	84.62
360.936	92.62
361.163	85.62
361.39	82.62
361.616	100.62
361.843	97.62
362.07	93.62
362.296	76.62
362.523	84.62
362.749	79.62
362.976	78.62
363.203	76.62
363.429	76.62
363.656	92.62
363.882	86.62
364.109	96.62
364.335	81.62
364.562	94.62
364.788	89.62
365.015	98.62
365.241	94.62
365.468	100.62
365.694	105.62
365.92	85.62
366.147	96.62
366.373	86.62
366.599	77.62
366.826	79.62
367.052	91.62
367.278	92.62
367.505	86.62
367.731	88.62
367.957	89.62
368.184	81.62
368.41	91.62
368.636	112.62
368.862	105.62
369.089	101.62
369.315	66.62
369.541	81.62
369.767	77.62
369.993	91.62
370.219	87.62
370.445	103.62
370.672	81.62
370.898	79.62
371.124	79.62
371.35	83.62
371.576	89.62
371.802	76.62
372.028	81.62
372.254	85.62
372.48	88.62
372.706	86.62
372.932	75.62
373.158	92.62
373.384	86.62
373.61	92.62
373.835	77.62
374.061	95.62
374.287	87.62
374.513	97.62
374.739	88.62
374.965	90.62
375.191	88.62
375.416	85.62
375.642	79.62
375.868	80.62
376.094	87.62
376.319	99.62
376.545	88.62
376.771	83.62
376.997	83.62
377.222	95.62
377.448	88.62
377.674	84.62
377.899	92.62
378.125	84.62
378.35	87.62
378.576	79.62
378.802	83.62
379.027	83.62
379.253	89.62
379.478	83.62
379.704	74.62
379.929	89.62
380.155	85.62
380.38	93.62
380.606	113.62
380.831	90.62
381.057	93.62
381.282	100.62
381.507	75.62
381.733	97.62
381.958	94.62
382.184	90.62
382.409	100.62
382.634	86.62
382.86	83.62
383.085	103.62
383.31	111.62
383.535	94.62
383.761	79.62
383.986	96.62
384.211	94.62
384.436	99.62
384.662	94.62
384.887	102.62
385.112	79.62
385.337	95.62
385.562	89.62
385.787	95.62
386.013	101.62
386.238	99.62
386.463	101.62
386.688	95.62
386.913	91.62
387.138	98.62
387.363	101.62
387.588	81.62
387.813	92.62
388.038	100.62
388.263	113.62
388.488	101.62
388.713	103.62
388.938	85.62
389.163	94.62
389.387	88.62
389.612	91.62
389.837	96.62
390.062	87.62
390.287	86.62
390.512	83.62
390.736	96.62
390.961	85.62
391.186	88.62
391.411	98.62
391.636	81.62
391.86	85.62
392.085	79.62
392.31	87.62
392.534	91.62
392.759	86.62
392.984	84.62
393.208	90.62
393.433	95.62
393.658	85.62
393.882	79.62
394.107	92.62
394.331	95.62
394.556	96.62
394.78	101.62
395.005	90.62
395.229	91.62
395.454	88.62
395.678	82.62
395.903	95.62
396.127	65.62
396.352	81.62
396.576	76.62
396.801	100.62
397.025	87.62
397.249	80.62
397.474	77.62
397.698	82.62
397.922	85.62
398.147	76.62
398.371	107.62
398.595	90.62
398.82	80.62
399.044	85.62
399.268	87.62
399.492	99.62
399.717	92.62
399.941	95.62
400.165	90.62
400.389	73.62
400.613	73.62
400.837	83.62
401.062	82.62
401.286	73.62
401.51	100.62
401.734	92.62
401.958	94.62
402.182	114.62
402.406	137.62
402.63	98.62
402.854	86.62
403.078	85.62
403.302	75.62
403.526	81.62
403.75	91.62
403.974	77.62
404.198	77.62
404.422	77.62
404.645	83.62
404.869	83.62
405.093	87.62
405.317	89.62
405.541	103.62
405.765	107.62
405.988	96.62
406.212	134.62
406.436	188.62
406.66	126.62
406.883	99.62
407.107	96.62
407.331	99.62
407.555	96.62
407.778	83.62
408.002	101.62
408.226	97.62
408.449	67.62
408.673	90.62
408.896	84.62
409.12	97.62
409.344	98.62
409.567	89.62
409.791	84.62
410.014	97.62
410.238	97.62
410.461	90.62
410.685	103.62
410.908	93.62
411.132	98.62
411.355	91.62
411.578	97.62
411.802	107.62
412.025	84.62
412.249	89.62
412.472	85.62
412.695	89.62
412.919	92.62
413.142	87.62
413.365	91.62
413.589	88.62
413.812	80.62
414.035	98.62
414.258	82.62
414.482	79.62
414.705	83.62
414.928	100.62
415.151	82.62
415.374	90.62
415.597	81.62
415.821	95.62
416.044	97.62
416.267	82.62
416.49	84.62
416.713	75.62
416.936	87.62
417.159	93.62
417.382	79.62
417.605	84.62
417.828	83.62
418.051	93.62
418.274	92.62
418.497	82.62
418.72	81.62
418.943	89.62
419.166	84.62
419.389	89.62
419.611	100.62
419.834	89.62
420.057	92.62
420.28	95.62
420.503	101.62
420.726	87.62
420.948	86.62
421.171	86.62
421.394	86.62
421.617	91.62
421.839	86.62
422.062	69.62
422.285	95.62
422.507	112.62
422.73	88.62
422.953	84.62
423.175	88.62
423.398	80.62
423.621	80.62
423.843	71.62
424.066	91.62
424.288	80.62
424.511	81.62
424.733	94.62
424.956	86.62
425.178	93.62
425.401	93.62
425.623	106.62
425.846	101.62
426.068	87.62
426.291	84.62
426.513	96.62
426.735	91.62
426.958	92.62
427.18	112.62
427.402	143.62
427.625	138.62
427.847	107.62
428.069	107.62
428.292	76.62
428.514	94.62
428.736	80.62
428.958	84.62
429.181	80.62
429.403	84.62
429.625	94.62
429.847	82.62
430.069	98.62
430.292	81.62
430.514	73.62
430.736	87.62
430.958	94.62
431.18	106.62
431.402	92.62
431.624	93.62
431.846	77.62
432.068	89.62
432.29	72.62
432.512	77.62
432.734	88.62
432.956	99.62
433.178	91.62
433.4	111.62
433.622	99.62
433.844	89.62
434.066	87.62
434.287	70.62
434.509	77.62
434.731	80.62
434.953	78.62
435.175	80.62
435.397	101.62
435.618	88.62
435.84	95.62
436.062	107.62
436.284	117.62
436.505	89.62
436.727	93.62
436.949	109.62
437.17	79.62
437.392	88.62
437.614	101.62
437.835	85.62
438.057	112.62
438.278	90.62
438.5	95.62
438.721	112.62
438.943	91.62
439.165	92.62
439.386	81.62
439.608	89.62
439.829	104.62
440.05	106.62
440.272	137.62
440.493	92.62
440.715	93.62
440.936	90.62
441.158	91.62
441.379	83.62
441.6	86.62
441.822	84.62
442.043	80.62
442.264	92.62
442.486	97.62
442.707	95.62
442.928	112.62
443.149	112.62
443.371	103.62
443.592	106.62
443.813	114.62
444.034	95.62
444.255	92.62
444.476	98.62
444.698	70.62
444.919	98.62
445.14	137.62
445.361	107.62
445.582	102.62
445.803	119.62
446.024	125.62
446.245	120.62
446.466	104.62
446.687	80.62
446.908	85.62
447.129	80.62
447.35	98.62
447.571	87.62
447.792	98.62
448.013	91.62
448.234	110.62
448.455	81.62
448.675	100.62
448.896	99.62
449.117	95.62
449.338	92.62
449.559	150.62
449.779	120.62
450	100.62
450.221	95.62
450.442	98.62
450.662	82.62
450.883	105.62
451.104	109.62
451.324	105.62
451.545	87.62
451.766	91.62
451.986	86.62
452.207	84.62
452.428	76.62
452.648	98.62
452.869	108.62
453.089	105.62
453.31	112.62
453.53	86.62
453.751	83.62
453.971	90.62
454.192	109.62
454.412	90.62
454.633	87.62
454.853	79.62
455.073	88.62
455.294	96.62
455.514	87.62
455.734	83.62
455.955	90.62
456.175	82.62
456.395	75.62
456.616	81.62
456.836	82.62
457.056	79.62
457.276	72.62
457.497	83.62
457.717	97.62
457.937	81.62
458.157	80.62
458.377	82.62
458.598	93.62
458.818	132.62
459.038	126.62
459.258	97.62
459.478	84.62
459.698	79.62
459.918	83.62
460.138	77.62
460.358	84.62
460.578	91.62
460.798	79.62
461.018	91.62
461.238	90.62
461.458	87.62
461.678	84.62
461.898	80.62
462.118	86.62
462.338	85.62
462.558	85.62
462.777	76.62
462.997	80.62
463.217	85.62
463.437	84.62
463.657	83.62
463.876	69.62
464.096	79.62
464.316	77.62
464.536	84.62
464.755	92.62
464.975	110.62
465.195	135.62
465.414	128.62
465.634	108.62
465.854	93.62
466.073	98.62
466.293	89.62
466.512	101.62
466.732	89.62
466.951	91.62
467.171	99.62
467.391	88.62
467.61	94.62
467.829	73.62
468.049	96.62
468.268	97.62
468.488	80.62
468.707	81.62
468.927	84.62
469.146	70.62
469.365	97.62
469.585	86.62
469.804	88.62
470.023	84.62
470.243	103.62
470.462	95.62
470.681	96.62
470.901	95.62
471.12	81.62
471.339	102.62
471.558	83.62
471.777	84.62
471.997	88.62
472.216	101.62
472.435	125.62
472.654	105.62
472.873	97.62
473.092	95.62
473.311	92.62
473.53	101.62
473.749	81.62
473.968	94.62
474.187	100.62
474.406	100.62
474.625	84.62
474.844	91.62
475.063	88.62
475.282	73.62
475.501	87.62
475.72	82.62
475.939	90.62
476.158	92.62
476.377	95.62
476.596	89.62
476.814	98.62
477.033	99.62
477.252	79.62
477.471	84.62
477.69	75.62
477.908	76.62
478.127	91.62
478.346	99.62
478.564	90.62
478.783	94.62
479.002	90.62
479.22	84.62
479.439	86.62
479.658	101.62
479.876	95.62
480.095	104.62
480.313	92.62
480.532	84.62
480.751	83.62
480.969	103.62
481.188	179.62
481.406	139.62
481.624	106.62
481.843	101.62
482.061	96.62
482.28	95.62
482.498	94.62
482.717	76.62
482.935	84.62
483.153	90.62
483.372	91.62
483.59	82.62
483.808	96.62
484.027	98.62
484.245	89.62
484.463	104.62
484.681	93.62
484.9	100.62
485.118	92.62
485.336	85.62
485.554	85.62
485.772	88.62
485.99	108.62
486.209	87.62
486.427	86.62
486.645	108.62
486.863	116.62
487.081	102.62
487.299	107.62
487.517	97.62
487.735	87.62
487.953	89.62
488.171	91.62
488.389	79.62
488.607	83.62
488.825	113.62
489.043	83.62
489.261	94.62
489.479	87.62
489.696	88.62
489.914	88.62
490.132	82.62
490.35	93.62
490.568	67.62
490.786	80.62
491.003	91.62
491.221	88.62
491.439	87.62
491.657	87.62
491.874	88.62
492.092	93.62
492.31	88.62
492.527	100.62
492.745	96.62
492.963	108.62
493.18	92.62
493.398	88.62
493.615	84.62
493.833	94.62
494.05	91.62
494.268	91.62
494.485	81.62
494.703	83.62
494.92	90.62
495.138	105.62
495.355	81.62
495.573	68.62
495.79	79.62
496.008	98.62
496.225	87.62
496.442	92.62
496.66	77.62
496.877	70.62
497.094	93.62
497.312	91.62
497.529	77.62
497.746	100.62
497.963	104.62
498.181	91.62
498.398	93.62
498.615	112.62
498.832	98.62
499.049	93.62
499.267	91.62
499.484	83.62
499.701	78.62
499.918	83.62
500.135	101.62
500.352	91.62
500.569	87.62
500.786	75.62
501.003	79.62
501.22	89.62
501.437	92.62
501.654	76.62
501.871	97.62
502.088	89.62
502.305	96.62
502.522	92.62
502.739	100.62
502.956	96.62
503.172	89.62
503.389	93.62
503.606	95.62
503.823	106.62
504.04	82.62
504.256	101.62
504.473	91.62
504.69	89.62
504.907	97.62
505.123	81.62
505.34	95.62
505.557	92.62
505.773	104.62
505.99	78.62
506.207	81.62
506.423	86.62
506.64	95.62
506.856	90.62
507.073	104.62
507.289	93.62
507.506	87.62
507.722	85.62
507.939	95.62
508.155	86.62
508.372	87.62
508.588	96.62
508.805	79.62
509.021	93.62
509.238	85.62
509.454	88.62
509.67	85.62
509.887	95.62
510.103	114.62
510.319	191.62
510.536	594.62
510.752	1843.62
510.968	496.62
511.184	134.62
511.401	105.62
511.617	92.62
511.833	85.62
512.049	94.62
512.265	89.62
512.481	94.62
512.698	100.62
512.914	91.62
513.13	80.62
513.346	89.62
513.562	77.62
513.778	98.62
513.994	95.62
514.21	88.62
514.426	105.62
514.642	112.62
514.858	121.62
515.074	147.62
515.29	312.62
515.506	1047.62
515.721	392.62
515.937	147.62
516.153	115.62
516.369	92.62
516.585	109.62
516.801	86.62
