Data from Uncirc_1980_H10_HRD10591_00047.txt Node
Date: Wed Jan 03 12:37:04 EST 2024
User: Yrep
Spectrometer: HR+D1059
Trigger mode: 1
Integration Time (sec): 1.000000E-1
Scans to average: 1
Electric dark correction enabled: true
Nonlinearity correction enabled: false
Boxcar width: 0
XAxis mode: Wavelengths
Number of Pixels in Spectrum: 2048
>>>>>Begin Spectral Data<<<<<
223.165	-14.56
223.4	-14.56
223.635	-14.56
223.869	-14.56
224.104	-24.56
224.338	-1.56
224.573	-22.56
224.808	-17.56
225.042	-8.56
225.277	-15.56
225.511	-9.56
225.746	-3.56
225.98	21.44
226.215	24.44
226.449	24.44
226.683	10.44
226.918	23.44
227.152	28.44
227.387	30.44
227.621	40.44
227.856	51.44
228.09	37.44
228.324	45.44
228.559	46.44
228.793	66.44
229.027	59.44
229.262	58.44
229.496	70.44
229.73	80.44
229.964	86.44
230.199	73.44
230.433	76.44
230.667	91.44
230.901	76.44
231.136	74.44
231.37	80.44
231.604	76.44
231.838	86.44
232.072	93.44
232.306	69.44
232.541	83.44
232.775	85.44
233.009	71.44
233.243	90.44
233.477	84.44
233.711	84.44
233.945	79.44
234.179	73.44
234.413	93.44
234.647	84.44
234.881	75.44
235.115	86.44
235.349	77.44
235.583	88.44
235.817	64.44
236.051	85.44
236.285	99.44
236.519	85.44
236.753	70.44
236.987	81.44
237.221	76.44
237.455	78.44
237.689	83.44
237.922	64.44
238.156	66.44
238.39	74.44
238.624	63.44
238.858	65.44
239.091	72.44
239.325	67.44
239.559	88.44
239.793	86.44
240.027	92.44
240.26	61.44
240.494	75.44
240.728	84.44
240.961	66.44
241.195	76.44
241.429	79.44
241.662	84.44
241.896	80.44
242.13	66.44
242.363	83.44
242.597	68.44
242.83	89.44
243.064	80.44
243.298	86.44
243.531	87.44
243.765	83.44
243.998	70.44
244.232	93.44
244.465	86.44
244.699	73.44
244.932	64.44
245.166	50.44
245.399	76.44
245.633	82.44
245.866	75.44
246.099	86.44
246.333	72.44
246.566	81.44
246.8	91.44
247.033	83.44
247.266	60.44
247.5	59.44
247.733	76.44
247.966	74.44
248.2	78.44
248.433	74.44
248.666	81.44
248.899	77.44
249.133	81.44
249.366	89.44
249.599	77.44
249.832	78.44
250.066	83.44
250.299	82.44
250.532	90.44
250.765	67.44
250.998	71.44
251.231	96.44
251.465	64.44
251.698	65.44
251.931	80.44
252.164	64.44
252.397	80.44
252.63	86.44
252.863	72.44
253.096	80.44
253.329	80.44
253.562	88.44
253.795	92.44
254.028	74.44
254.261	78.44
254.494	70.44
254.727	78.44
254.96	82.44
255.193	64.44
255.426	77.44
255.659	73.44
255.892	70.44
256.124	85.44
256.357	77.44
256.59	64.44
256.823	75.44
257.056	81.44
257.289	62.44
257.521	85.44
257.754	61.44
257.987	75.44
258.22	78.44
258.452	85.44
258.685	92.44
258.918	83.44
259.151	73.44
259.383	74.44
259.616	78.44
259.849	84.44
260.081	66.44
260.314	79.44
260.547	65.44
260.779	87.44
261.012	70.44
261.244	88.44
261.477	100.44
261.71	85.44
261.942	100.44
262.175	110.44
262.407	100.44
262.64	74.44
262.872	88.44
263.105	95.44
263.337	80.44
263.57	74.44
263.802	80.44
264.035	80.44
264.267	78.44
264.499	90.44
264.732	88.44
264.964	81.44
265.197	82.44
265.429	86.44
265.661	88.44
265.894	93.44
266.126	75.44
266.358	88.44
266.591	84.44
266.823	83.44
267.055	77.44
267.287	94.44
267.52	80.44
267.752	90.44
267.984	86.44
268.216	75.44
268.448	85.44
268.681	85.44
268.913	89.44
269.145	88.44
269.377	70.44
269.609	71.44
269.841	87.44
270.073	89.44
270.306	87.44
270.538	91.44
270.77	73.44
271.002	96.44
271.234	92.44
271.466	89.44
271.698	93.44
271.93	73.44
272.162	85.44
272.394	91.44
272.626	93.44
272.858	77.44
273.09	92.44
273.322	87.44
273.553	86.44
273.785	102.44
274.017	89.44
274.249	80.44
274.481	87.44
274.713	85.44
274.945	87.44
275.176	66.44
275.408	88.44
275.64	92.44
275.872	87.44
276.104	80.44
276.335	75.44
276.567	86.44
276.799	88.44
277.031	87.44
277.262	85.44
277.494	92.44
277.726	84.44
277.957	81.44
278.189	88.44
278.421	82.44
278.652	74.44
278.884	97.44
279.115	90.44
279.347	85.44
279.579	92.44
279.81	83.44
280.042	82.44
280.273	84.44
280.505	76.44
280.736	72.44
280.968	76.44
281.199	71.44
281.431	84.44
281.662	84.44
281.894	102.44
282.125	94.44
282.356	113.44
282.588	117.44
282.819	99.44
283.051	81.44
283.282	83.44
283.513	93.44
283.745	98.44
283.976	74.44
284.207	84.44
284.439	90.44
284.67	76.44
284.901	93.44
285.132	79.44
285.364	101.44
285.595	82.44
285.826	65.44
286.057	81.44
286.288	89.44
286.52	87.44
286.751	72.44
286.982	89.44
287.213	85.44
287.444	70.44
287.675	93.44
287.906	80.44
288.138	76.44
288.369	92.44
288.6	86.44
288.831	82.44
289.062	87.44
289.293	83.44
289.524	84.44
289.755	81.44
289.986	89.44
290.217	81.44
290.448	92.44
290.679	81.44
290.91	92.44
291.141	73.44
291.371	82.44
291.602	78.44
291.833	88.44
292.064	77.44
292.295	84.44
292.526	84.44
292.757	98.44
292.987	95.44
293.218	94.44
293.449	85.44
293.68	86.44
293.91	103.44
294.141	90.44
294.372	78.44
294.603	91.44
294.833	88.44
295.064	87.44
295.295	103.44
295.525	97.44
295.756	86.44
295.987	101.44
296.217	123.44
296.448	115.44
296.679	92.44
296.909	88.44
297.14	82.44
297.37	90.44
297.601	97.44
297.831	97.44
298.062	84.44
298.292	100.44
298.523	99.44
298.753	83.44
298.984	70.44
299.214	98.44
299.445	83.44
299.675	92.44
299.905	94.44
300.136	85.44
300.366	87.44
300.597	74.44
300.827	100.44
301.057	89.44
301.288	99.44
301.518	85.44
301.748	101.44
301.979	88.44
302.209	103.44
302.439	81.44
302.669	82.44
302.9	89.44
303.13	101.44
303.36	91.44
303.59	96.44
303.82	98.44
304.051	91.44
304.281	90.44
304.511	99.44
304.741	100.44
304.971	80.44
305.201	78.44
305.431	88.44
305.661	90.44
305.891	100.44
306.121	91.44
306.352	99.44
306.582	102.44
306.812	105.44
307.042	89.44
307.272	82.44
307.502	94.44
307.731	81.44
307.961	83.44
308.191	84.44
308.421	102.44
308.651	97.44
308.881	77.44
309.111	87.44
309.341	90.44
309.571	87.44
309.8	96.44
310.03	84.44
310.26	93.44
310.49	91.44
310.72	99.44
310.949	100.44
311.179	90.44
311.409	93.44
311.639	89.44
311.868	105.44
312.098	89.44
312.328	92.44
312.557	121.44
312.787	105.44
313.017	97.44
313.246	100.44
313.476	98.44
313.706	87.44
313.935	105.44
314.165	92.44
314.394	91.44
314.624	78.44
314.853	102.44
315.083	83.44
315.312	105.44
315.542	96.44
315.771	88.44
316.001	99.44
316.23	98.44
316.46	96.44
316.689	97.44
316.919	92.44
317.148	92.44
317.377	93.44
317.607	93.44
317.836	93.44
318.065	91.44
318.295	96.44
318.524	86.44
318.753	89.44
318.983	96.44
319.212	87.44
319.441	98.44
319.67	89.44
319.9	86.44
320.129	92.44
320.358	93.44
320.587	108.44
320.816	80.44
321.046	89.44
321.275	88.44
321.504	94.44
321.733	83.44
321.962	96.44
322.191	104.44
322.42	102.44
322.649	93.44
322.878	90.44
323.108	110.44
323.337	109.44
323.566	115.44
323.795	131.44
324.024	164.44
324.253	289.44
324.482	575.44
324.71	1100.44
324.939	1452.44
325.168	572.44
325.397	191.44
325.626	124.44
325.855	114.44
326.084	121.44
326.313	104.44
326.542	125.44
326.77	188.44
326.999	323.44
327.228	632.44
327.457	1191.44
327.686	925.44
327.914	258.44
328.143	141.44
328.372	121.44
328.6	109.44
328.829	96.44
329.058	118.44
329.287	109.44
329.515	97.44
329.744	94.44
329.972	104.44
330.201	106.44
330.43	101.44
330.658	105.44
330.887	116.44
331.115	112.44
331.344	88.44
331.572	103.44
331.801	98.44
332.03	83.44
332.258	86.44
332.486	89.44
332.715	80.44
332.943	96.44
333.172	104.44
333.4	100.44
333.629	87.44
333.857	97.44
334.085	107.44
334.314	110.44
334.542	118.44
334.771	116.44
334.999	106.44
335.227	90.44
335.455	91.44
335.684	99.44
335.912	98.44
336.14	87.44
336.369	94.44
336.597	92.44
336.825	104.44
337.053	85.44
337.281	92.44
337.51	81.44
337.738	92.44
337.966	101.44
338.194	99.44
338.422	93.44
338.65	92.44
338.878	72.44
339.106	87.44
339.334	89.44
339.562	90.44
339.79	85.44
340.018	92.44
340.246	97.44
340.474	101.44
340.702	84.44
340.93	84.44
341.158	85.44
341.386	101.44
341.614	93.44
341.842	91.44
342.07	93.44
342.298	90.44
342.526	82.44
342.754	82.44
342.981	84.44
343.209	77.44
343.437	103.44
343.665	104.44
343.893	93.44
344.12	88.44
344.348	73.44
344.576	77.44
344.804	93.44
345.031	84.44
345.259	100.44
345.487	110.44
345.714	97.44
345.942	87.44
346.17	100.44
346.397	89.44
346.625	93.44
346.853	82.44
347.08	76.44
347.308	86.44
347.535	84.44
347.763	86.44
347.99	101.44
348.218	95.44
348.445	90.44
348.673	91.44
348.9	84.44
349.128	99.44
349.355	101.44
349.583	118.44
349.81	84.44
350.037	98.44
350.265	103.44
350.492	103.44
350.72	93.44
350.947	91.44
351.174	91.44
351.402	100.44
351.629	99.44
351.856	103.44
352.083	107.44
352.311	83.44
352.538	93.44
352.765	101.44
352.992	104.44
353.22	108.44
353.447	114.44
353.674	101.44
353.901	88.44
354.128	104.44
354.355	102.44
354.583	92.44
354.81	102.44
355.037	104.44
355.264	96.44
355.491	92.44
355.718	83.44
355.945	92.44
356.172	96.44
356.399	91.44
356.626	89.44
356.853	86.44
357.08	87.44
357.307	82.44
357.534	90.44
357.761	95.44
357.988	109.44
358.215	84.44
358.441	104.44
358.668	104.44
358.895	88.44
359.122	105.44
359.349	85.44
359.576	80.44
359.802	85.44
360.029	95.44
360.256	99.44
360.483	92.44
360.709	92.44
360.936	81.44
361.163	98.44
361.39	73.44
361.616	88.44
361.843	95.44
362.07	98.44
362.296	96.44
362.523	102.44
362.749	99.44
362.976	91.44
363.203	104.44
363.429	96.44
363.656	93.44
363.882	86.44
364.109	83.44
364.335	92.44
364.562	104.44
364.788	98.44
365.015	61.44
365.241	96.44
365.468	87.44
365.694	87.44
365.92	104.44
366.147	92.44
366.373	80.44
366.599	101.44
366.826	106.44
367.052	97.44
367.278	92.44
367.505	97.44
367.731	88.44
367.957	83.44
368.184	78.44
368.41	91.44
368.636	91.44
368.862	102.44
369.089	92.44
369.315	94.44
369.541	89.44
369.767	82.44
369.993	82.44
370.219	97.44
370.445	92.44
370.672	71.44
370.898	84.44
371.124	86.44
371.35	91.44
371.576	96.44
371.802	95.44
372.028	90.44
372.254	87.44
372.48	86.44
372.706	93.44
372.932	95.44
373.158	86.44
373.384	91.44
373.61	88.44
373.835	93.44
374.061	95.44
374.287	95.44
374.513	89.44
374.739	94.44
374.965	86.44
375.191	87.44
375.416	90.44
375.642	98.44
375.868	92.44
376.094	78.44
376.319	98.44
376.545	97.44
376.771	91.44
376.997	96.44
377.222	100.44
377.448	82.44
377.674	101.44
377.899	88.44
378.125	87.44
378.35	97.44
378.576	88.44
378.802	90.44
379.027	97.44
379.253	86.44
379.478	90.44
379.704	96.44
379.929	83.44
380.155	90.44
380.38	91.44
380.606	86.44
380.831	84.44
381.057	110.44
381.282	98.44
381.507	85.44
381.733	91.44
381.958	94.44
382.184	113.44
382.409	100.44
382.634	104.44
382.86	105.44
383.085	98.44
383.31	90.44
383.535	106.44
383.761	114.44
383.986	100.44
384.211	104.44
384.436	96.44
384.662	97.44
384.887	113.44
385.112	104.44
385.337	112.44
385.562	121.44
385.787	129.44
386.013	99.44
386.238	110.44
386.463	117.44
386.688	107.44
386.913	97.44
387.138	105.44
387.363	107.44
387.588	109.44
387.813	98.44
388.038	104.44
388.263	116.44
388.488	124.44
388.713	93.44
388.938	99.44
389.163	96.44
389.387	103.44
389.612	80.44
389.837	105.44
390.062	94.44
390.287	102.44
390.512	90.44
390.736	98.44
390.961	86.44
391.186	96.44
391.411	90.44
391.636	81.44
391.86	85.44
392.085	90.44
392.31	86.44
392.534	88.44
392.759	82.44
392.984	88.44
393.208	101.44
393.433	102.44
393.658	99.44
393.882	86.44
394.107	99.44
394.331	91.44
394.556	89.44
394.78	84.44
395.005	74.44
395.229	90.44
395.454	86.44
395.678	85.44
395.903	93.44
396.127	76.44
396.352	96.44
396.576	92.44
396.801	80.44
397.025	89.44
397.249	83.44
397.474	82.44
397.698	93.44
397.922	80.44
398.147	86.44
398.371	91.44
398.595	83.44
398.82	83.44
399.044	79.44
399.268	85.44
399.492	88.44
399.717	98.44
399.941	86.44
400.165	90.44
400.389	77.44
400.613	76.44
400.837	85.44
401.062	84.44
401.286	91.44
401.51	91.44
401.734	87.44
401.958	93.44
402.182	116.44
402.406	123.44
402.63	99.44
402.854	93.44
403.078	94.44
403.302	78.44
403.526	91.44
403.75	94.44
403.974	92.44
404.198	91.44
404.422	89.44
404.645	92.44
404.869	86.44
405.093	88.44
405.317	94.44
405.541	89.44
405.765	98.44
405.988	107.44
406.212	138.44
406.436	158.44
406.66	126.44
406.883	104.44
407.107	87.44
407.331	90.44
407.555	103.44
407.778	86.44
408.002	94.44
408.226	96.44
408.449	85.44
408.673	67.44
408.896	88.44
409.12	93.44
409.344	99.44
409.567	92.44
409.791	97.44
410.014	97.44
410.238	98.44
410.461	93.44
410.685	85.44
410.908	104.44
411.132	108.44
411.355	98.44
411.578	111.44
411.802	92.44
412.025	91.44
412.249	90.44
412.472	90.44
412.695	90.44
412.919	102.44
413.142	91.44
413.365	72.44
413.589	102.44
413.812	87.44
414.035	86.44
414.258	96.44
414.482	101.44
414.705	100.44
414.928	99.44
415.151	94.44
415.374	103.44
415.597	86.44
415.821	94.44
416.044	105.44
416.267	88.44
416.49	93.44
416.713	85.44
416.936	91.44
417.159	83.44
417.382	82.44
417.605	93.44
417.828	94.44
418.051	76.44
418.274	92.44
418.497	94.44
418.72	89.44
418.943	100.44
419.166	96.44
419.389	91.44
419.611	88.44
419.834	98.44
420.057	93.44
420.28	80.44
420.503	90.44
420.726	74.44
420.948	86.44
421.171	74.44
421.394	77.44
421.617	104.44
421.839	92.44
422.062	78.44
422.285	105.44
422.507	85.44
422.73	96.44
422.953	110.44
423.175	81.44
423.398	80.44
423.621	86.44
423.843	99.44
424.066	96.44
424.288	84.44
424.511	78.44
424.733	84.44
424.956	84.44
425.178	102.44
425.401	94.44
425.623	96.44
425.846	80.44
426.068	94.44
426.291	92.44
426.513	88.44
426.735	75.44
426.958	92.44
427.18	106.44
427.402	126.44
427.625	117.44
427.847	96.44
428.069	96.44
428.292	90.44
428.514	93.44
428.736	87.44
428.958	83.44
429.181	72.44
429.403	94.44
429.625	94.44
429.847	93.44
430.069	93.44
430.292	82.44
430.514	92.44
430.736	84.44
430.958	95.44
431.18	90.44
431.402	85.44
431.624	77.44
431.846	88.44
432.068	82.44
432.29	78.44
432.512	82.44
432.734	81.44
432.956	91.44
433.178	89.44
433.4	95.44
433.622	103.44
433.844	81.44
434.066	93.44
434.287	83.44
434.509	92.44
434.731	100.44
434.953	78.44
435.175	96.44
435.397	92.44
435.618	79.44
435.84	105.44
436.062	116.44
436.284	105.44
436.505	108.44
436.727	100.44
436.949	76.44
437.17	92.44
437.392	85.44
437.614	82.44
437.835	89.44
438.057	101.44
438.278	97.44
438.5	86.44
438.721	96.44
438.943	97.44
439.165	92.44
439.386	90.44
439.608	91.44
439.829	88.44
440.05	99.44
440.272	111.44
440.493	107.44
440.715	90.44
440.936	97.44
441.158	86.44
441.379	96.44
441.6	82.44
441.822	98.44
442.043	92.44
442.264	76.44
442.486	92.44
442.707	86.44
442.928	102.44
443.149	106.44
443.371	117.44
443.592	107.44
443.813	108.44
444.034	89.44
444.255	101.44
444.476	84.44
444.698	93.44
444.919	80.44
445.14	124.44
445.361	113.44
445.582	96.44
445.803	115.44
446.024	107.44
446.245	116.44
446.466	102.44
446.687	86.44
446.908	72.44
447.129	89.44
447.35	93.44
447.571	100.44
447.792	86.44
448.013	98.44
448.234	91.44
448.455	90.44
448.675	106.44
448.896	83.44
449.117	88.44
449.338	84.44
449.559	113.44
449.779	116.44
450	97.44
450.221	75.44
450.442	81.44
450.662	92.44
450.883	96.44
451.104	118.44
451.324	96.44
451.545	72.44
451.766	101.44
451.986	80.44
452.207	97.44
452.428	87.44
452.648	82.44
452.869	101.44
453.089	93.44
453.31	91.44
453.53	89.44
453.751	90.44
453.971	75.44
454.192	97.44
454.412	86.44
454.633	101.44
454.853	97.44
455.073	86.44
455.294	92.44
455.514	91.44
455.734	99.44
455.955	92.44
456.175	90.44
456.395	82.44
456.616	67.44
456.836	93.44
457.056	92.44
457.276	78.44
457.497	73.44
457.717	85.44
457.937	96.44
458.157	74.44
458.377	85.44
458.598	93.44
458.818	115.44
459.038	116.44
459.258	102.44
459.478	91.44
459.698	78.44
459.918	88.44
460.138	88.44
460.358	78.44
460.578	84.44
460.798	83.44
461.018	91.44
461.238	88.44
461.458	82.44
461.678	98.44
461.898	81.44
462.118	88.44
462.338	92.44
462.558	77.44
462.777	91.44
462.997	94.44
463.217	90.44
463.437	73.44
463.657	60.44
463.876	79.44
464.096	74.44
464.316	70.44
464.536	88.44
464.755	95.44
464.975	85.44
465.195	121.44
465.414	110.44
465.634	82.44
465.854	85.44
466.073	92.44
466.293	91.44
466.512	92.44
466.732	76.44
466.951	86.44
467.171	89.44
467.391	92.44
467.61	86.44
467.829	95.44
468.049	102.44
468.268	92.44
468.488	90.44
468.707	93.44
468.927	84.44
469.146	72.44
469.365	82.44
469.585	90.44
469.804	84.44
470.023	77.44
470.243	86.44
470.462	88.44
470.681	110.44
470.901	102.44
471.12	88.44
471.339	88.44
471.558	85.44
471.777	86.44
471.997	88.44
472.216	119.44
472.435	130.44
472.654	96.44
472.873	88.44
473.092	89.44
473.311	109.44
473.53	76.44
473.749	94.44
473.968	73.44
474.187	95.44
474.406	90.44
474.625	94.44
474.844	85.44
475.063	85.44
475.282	88.44
475.501	96.44
475.72	100.44
475.939	83.44
476.158	82.44
476.377	97.44
476.596	95.44
476.814	97.44
477.033	83.44
477.252	73.44
477.471	92.44
477.69	100.44
477.908	82.44
478.127	92.44
478.346	77.44
478.564	80.44
478.783	95.44
479.002	86.44
479.22	88.44
479.439	85.44
479.658	97.44
479.876	91.44
480.095	99.44
480.313	85.44
480.532	98.44
480.751	94.44
480.969	101.44
481.188	169.44
481.406	135.44
481.624	101.44
481.843	80.44
482.061	83.44
482.28	84.44
482.498	94.44
482.717	79.44
482.935	72.44
483.153	95.44
483.372	98.44
483.59	83.44
483.808	96.44
484.027	87.44
484.245	88.44
484.463	99.44
484.681	107.44
484.9	91.44
485.118	81.44
485.336	96.44
485.554	86.44
485.772	108.44
485.99	110.44
486.209	86.44
486.427	107.44
486.645	108.44
486.863	103.44
487.081	101.44
487.299	99.44
487.517	87.44
487.735	97.44
487.953	96.44
488.171	109.44
488.389	81.44
488.607	97.44
488.825	98.44
489.043	95.44
489.261	90.44
489.479	98.44
489.696	102.44
489.914	95.44
490.132	96.44
490.35	95.44
490.568	92.44
490.786	81.44
491.003	100.44
491.221	100.44
491.439	83.44
491.657	84.44
491.874	101.44
492.092	71.44
492.31	94.44
492.527	88.44
492.745	69.44
492.963	87.44
493.18	94.44
493.398	85.44
493.615	90.44
493.833	78.44
494.05	77.44
494.268	85.44
494.485	81.44
494.703	86.44
494.92	103.44
495.138	96.44
495.355	108.44
495.573	91.44
495.79	82.44
496.008	100.44
496.225	88.44
496.442	87.44
496.66	96.44
496.877	86.44
497.094	92.44
497.312	94.44
497.529	83.44
497.746	97.44
497.963	73.44
498.181	76.44
498.398	110.44
498.615	89.44
498.832	91.44
499.049	92.44
499.267	89.44
499.484	88.44
499.701	96.44
499.918	88.44
500.135	85.44
500.352	98.44
500.569	91.44
500.786	94.44
501.003	106.44
501.22	98.44
501.437	101.44
501.654	101.44
501.871	89.44
502.088	90.44
502.305	82.44
502.522	92.44
502.739	78.44
502.956	97.44
503.172	86.44
503.389	89.44
503.606	90.44
503.823	99.44
504.04	82.44
504.256	84.44
504.473	92.44
504.69	103.44
504.907	105.44
505.123	96.44
505.34	79.44
505.557	86.44
505.773	89.44
505.99	80.44
506.207	84.44
506.423	91.44
506.64	87.44
506.856	97.44
507.073	92.44
507.289	103.44
507.506	86.44
507.722	101.44
507.939	94.44
508.155	103.44
508.372	98.44
508.588	81.44
508.805	100.44
509.021	82.44
509.238	94.44
509.454	92.44
509.67	100.44
509.887	79.44
510.103	129.44
510.319	196.44
510.536	563.44
510.752	1704.44
510.968	468.44
511.184	110.44
511.401	98.44
511.617	93.44
511.833	96.44
512.049	97.44
512.265	97.44
512.481	96.44
512.698	72.44
512.914	82.44
513.13	100.44
513.346	94.44
513.562	95.44
513.778	93.44
513.994	109.44
514.21	99.44
514.426	94.44
514.642	108.44
514.858	107.44
515.074	124.44
515.29	312.44
515.506	950.44
515.721	362.44
515.937	120.44
516.153	100.44
516.369	94.44
