Data from Uncirc_1980_H10_HRD10591_00062.txt Node
Date: Wed Jan 03 12:37:07 EST 2024
User: Yrep
Spectrometer: HR+D1059
Trigger mode: 1
Integration Time (sec): 1.000000E-1
Scans to average: 1
Electric dark correction enabled: true
Nonlinearity correction enabled: false
Boxcar width: 0
XAxis mode: Wavelengths
Number of Pixels in Spectrum: 2048
>>>>>Begin Spectral Data<<<<<
223.165	-21.62
223.4	-21.62
223.635	-21.62
223.869	-12.62
224.104	-8.62
224.338	-16.62
224.573	-4.62
224.808	-18.62
225.042	-9.62
225.277	-9.62
225.511	-12.62
225.746	-0.62
225.98	6.38
226.215	-3.62
226.449	18.38
226.683	19.38
226.918	29.38
227.152	45.38
227.387	30.38
227.621	41.38
227.856	32.38
228.09	41.38
228.324	44.38
228.559	65.38
228.793	65.38
229.027	64.38
229.262	61.38
229.496	69.38
229.73	81.38
229.964	75.38
230.199	72.38
230.433	86.38
230.667	94.38
230.901	76.38
231.136	90.38
231.37	94.38
231.604	71.38
231.838	87.38
232.072	64.38
232.306	77.38
232.541	91.38
232.775	83.38
233.009	79.38
233.243	76.38
233.477	81.38
233.711	82.38
233.945	69.38
234.179	86.38
234.413	86.38
234.647	83.38
234.881	84.38
235.115	68.38
235.349	87.38
235.583	81.38
235.817	84.38
236.051	61.38
236.285	75.38
236.519	78.38
236.753	79.38
236.987	97.38
237.221	70.38
237.455	79.38
237.689	75.38
237.922	83.38
238.156	83.38
238.39	65.38
238.624	57.38
238.858	89.38
239.091	89.38
239.325	81.38
239.559	67.38
239.793	73.38
240.027	60.38
240.26	73.38
240.494	82.38
240.728	70.38
240.961	77.38
241.195	86.38
241.429	74.38
241.662	81.38
241.896	86.38
242.13	86.38
242.363	92.38
242.597	78.38
242.83	89.38
243.064	78.38
243.298	88.38
243.531	82.38
243.765	82.38
243.998	89.38
244.232	88.38
244.465	90.38
244.699	88.38
244.932	67.38
245.166	71.38
245.399	78.38
245.633	93.38
245.866	85.38
246.099	68.38
246.333	72.38
246.566	99.38
246.8	85.38
247.033	90.38
247.266	85.38
247.5	101.38
247.733	70.38
247.966	78.38
248.2	82.38
248.433	66.38
248.666	75.38
248.899	83.38
249.133	92.38
249.366	95.38
249.599	95.38
249.832	91.38
250.066	88.38
250.299	71.38
250.532	98.38
250.765	77.38
250.998	83.38
251.231	69.38
251.465	79.38
251.698	76.38
251.931	73.38
252.164	74.38
252.397	73.38
252.63	81.38
252.863	81.38
253.096	76.38
253.329	73.38
253.562	79.38
253.795	78.38
254.028	93.38
254.261	71.38
254.494	74.38
254.727	80.38
254.96	86.38
255.193	83.38
255.426	90.38
255.659	78.38
255.892	85.38
256.124	93.38
256.357	79.38
256.59	85.38
256.823	78.38
257.056	72.38
257.289	73.38
257.521	74.38
257.754	77.38
257.987	83.38
258.22	82.38
258.452	78.38
258.685	86.38
258.918	85.38
259.151	101.38
259.383	88.38
259.616	92.38
259.849	89.38
260.081	92.38
260.314	79.38
260.547	88.38
260.779	65.38
261.012	76.38
261.244	93.38
261.477	91.38
261.71	88.38
261.942	107.38
262.175	112.38
262.407	100.38
262.64	85.38
262.872	79.38
263.105	81.38
263.337	78.38
263.57	87.38
263.802	68.38
264.035	80.38
264.267	84.38
264.499	75.38
264.732	95.38
264.964	79.38
265.197	89.38
265.429	69.38
265.661	75.38
265.894	109.38
266.126	91.38
266.358	66.38
266.591	76.38
266.823	78.38
267.055	85.38
267.287	83.38
267.52	76.38
267.752	77.38
267.984	76.38
268.216	72.38
268.448	88.38
268.681	78.38
268.913	91.38
269.145	78.38
269.377	78.38
269.609	92.38
269.841	81.38
270.073	76.38
270.306	85.38
270.538	74.38
270.77	79.38
271.002	91.38
271.234	85.38
271.466	78.38
271.698	75.38
271.93	75.38
272.162	79.38
272.394	81.38
272.626	91.38
272.858	88.38
273.09	87.38
273.322	73.38
273.553	81.38
273.785	77.38
274.017	85.38
274.249	85.38
274.481	79.38
274.713	78.38
274.945	81.38
275.176	93.38
275.408	86.38
275.64	96.38
275.872	88.38
276.104	86.38
276.335	96.38
276.567	84.38
276.799	105.38
277.031	97.38
277.262	82.38
277.494	94.38
277.726	85.38
277.957	89.38
278.189	84.38
278.421	96.38
278.652	85.38
278.884	75.38
279.115	101.38
279.347	85.38
279.579	89.38
279.81	84.38
280.042	93.38
280.273	86.38
280.505	76.38
280.736	92.38
280.968	90.38
281.199	90.38
281.431	100.38
281.662	90.38
281.894	79.38
282.125	95.38
282.356	113.38
282.588	145.38
282.819	110.38
283.051	87.38
283.282	86.38
283.513	94.38
283.745	91.38
283.976	88.38
284.207	72.38
284.439	82.38
284.67	90.38
284.901	94.38
285.132	79.38
285.364	70.38
285.595	90.38
285.826	99.38
286.057	89.38
286.288	75.38
286.52	85.38
286.751	93.38
286.982	87.38
287.213	71.38
287.444	74.38
287.675	85.38
287.906	78.38
288.138	92.38
288.369	96.38
288.6	103.38
288.831	90.38
289.062	93.38
289.293	92.38
289.524	88.38
289.755	93.38
289.986	90.38
290.217	73.38
290.448	90.38
290.679	95.38
290.91	95.38
291.141	89.38
291.371	75.38
291.602	92.38
291.833	77.38
292.064	82.38
292.295	85.38
292.526	98.38
292.757	86.38
292.987	78.38
293.218	85.38
293.449	87.38
293.68	99.38
293.91	83.38
294.141	90.38
294.372	90.38
294.603	85.38
294.833	95.38
295.064	90.38
295.295	93.38
295.525	101.38
295.756	92.38
295.987	114.38
296.217	133.38
296.448	118.38
296.679	97.38
296.909	102.38
297.14	82.38
297.37	88.38
297.601	73.38
297.831	80.38
298.062	89.38
298.292	81.38
298.523	96.38
298.753	77.38
298.984	91.38
299.214	94.38
299.445	75.38
299.675	92.38
299.905	72.38
300.136	95.38
300.366	102.38
300.597	90.38
300.827	93.38
301.057	112.38
301.288	110.38
301.518	84.38
301.748	101.38
301.979	107.38
302.209	93.38
302.439	89.38
302.669	99.38
302.9	89.38
303.13	91.38
303.36	89.38
303.59	87.38
303.82	97.38
304.051	88.38
304.281	84.38
304.511	101.38
304.741	100.38
304.971	92.38
305.201	93.38
305.431	99.38
305.661	90.38
305.891	99.38
306.121	106.38
306.352	98.38
306.582	104.38
306.812	90.38
307.042	84.38
307.272	84.38
307.502	93.38
307.731	76.38
307.961	86.38
308.191	86.38
308.421	78.38
308.651	98.38
308.881	104.38
309.111	101.38
309.341	97.38
309.571	90.38
309.8	94.38
310.03	87.38
310.26	101.38
310.49	95.38
310.72	100.38
310.949	92.38
311.179	91.38
311.409	89.38
311.639	89.38
311.868	95.38
312.098	82.38
312.328	102.38
312.557	111.38
312.787	117.38
313.017	99.38
313.246	83.38
313.476	103.38
313.706	94.38
313.935	75.38
314.165	95.38
314.394	88.38
314.624	86.38
314.853	92.38
315.083	90.38
315.312	85.38
315.542	98.38
315.771	91.38
316.001	87.38
316.23	96.38
316.46	100.38
316.689	77.38
316.919	77.38
317.148	109.38
317.377	92.38
317.607	97.38
317.836	85.38
318.065	85.38
318.295	86.38
318.524	78.38
318.753	99.38
318.983	102.38
319.212	103.38
319.441	100.38
319.67	93.38
319.9	91.38
320.129	95.38
320.358	96.38
320.587	97.38
320.816	90.38
321.046	98.38
321.275	111.38
321.504	95.38
321.733	102.38
321.962	95.38
322.191	101.38
322.42	96.38
322.649	101.38
322.878	99.38
323.108	106.38
323.337	124.38
323.566	101.38
323.795	120.38
324.024	188.38
324.253	337.38
324.482	695.38
324.71	1438.38
324.939	1945.38
325.168	756.38
325.397	218.38
325.626	134.38
325.855	121.38
326.084	112.38
326.313	130.38
326.542	142.38
326.77	185.38
326.999	379.38
327.228	790.38
327.457	1509.38
327.686	1217.38
327.914	331.38
328.143	177.38
328.372	145.38
328.6	115.38
328.829	108.38
329.058	130.38
329.287	107.38
329.515	105.38
329.744	108.38
329.972	102.38
330.201	118.38
330.43	133.38
330.658	129.38
330.887	140.38
331.115	121.38
331.344	98.38
331.572	99.38
331.801	100.38
332.03	100.38
332.258	103.38
332.486	92.38
332.715	92.38
332.943	98.38
333.172	102.38
333.4	99.38
333.629	102.38
333.857	106.38
334.085	100.38
334.314	103.38
334.542	149.38
334.771	130.38
334.999	114.38
335.227	91.38
335.455	86.38
335.684	98.38
335.912	83.38
336.14	79.38
336.369	94.38
336.597	97.38
336.825	97.38
337.053	91.38
337.281	103.38
337.51	85.38
337.738	91.38
337.966	99.38
338.194	83.38
338.422	93.38
338.65	106.38
338.878	79.38
339.106	81.38
339.334	94.38
339.562	90.38
339.79	111.38
340.018	85.38
340.246	90.38
340.474	89.38
340.702	84.38
340.93	90.38
341.158	90.38
341.386	97.38
341.614	92.38
341.842	93.38
342.07	93.38
342.298	89.38
342.526	101.38
342.754	103.38
342.981	84.38
343.209	93.38
343.437	105.38
343.665	93.38
343.893	103.38
344.12	86.38
344.348	101.38
344.576	102.38
344.804	102.38
345.031	100.38
345.259	105.38
345.487	86.38
345.714	89.38
345.942	94.38
346.17	89.38
346.397	83.38
346.625	85.38
346.853	79.38
347.08	74.38
347.308	90.38
347.535	96.38
347.763	102.38
347.99	97.38
348.218	117.38
348.445	100.38
348.673	88.38
348.9	96.38
349.128	105.38
349.355	88.38
349.583	91.38
349.81	86.38
350.037	95.38
350.265	103.38
350.492	91.38
350.72	82.38
350.947	106.38
351.174	108.38
351.402	107.38
351.629	94.38
351.856	97.38
352.083	102.38
352.311	112.38
352.538	111.38
352.765	105.38
352.992	113.38
353.22	112.38
353.447	101.38
353.674	115.38
353.901	87.38
354.128	102.38
354.355	101.38
354.583	92.38
354.81	94.38
355.037	90.38
355.264	91.38
355.491	96.38
355.718	82.38
355.945	90.38
356.172	93.38
356.399	98.38
356.626	87.38
356.853	90.38
357.08	110.38
357.307	99.38
357.534	87.38
357.761	93.38
357.988	101.38
358.215	81.38
358.441	96.38
358.668	79.38
358.895	101.38
359.122	93.38
359.349	85.38
359.576	88.38
359.802	97.38
360.029	115.38
360.256	112.38
360.483	84.38
360.709	83.38
360.936	99.38
361.163	81.38
361.39	93.38
361.616	99.38
361.843	86.38
362.07	94.38
362.296	85.38
362.523	91.38
362.749	104.38
362.976	106.38
363.203	90.38
363.429	93.38
363.656	99.38
363.882	97.38
364.109	89.38
364.335	86.38
364.562	89.38
364.788	76.38
365.015	93.38
365.241	99.38
365.468	93.38
365.694	118.38
365.92	109.38
366.147	84.38
366.373	75.38
366.599	86.38
366.826	94.38
367.052	105.38
367.278	99.38
367.505	81.38
367.731	79.38
367.957	91.38
368.184	89.38
368.41	83.38
368.636	93.38
368.862	113.38
369.089	92.38
369.315	86.38
369.541	92.38
369.767	88.38
369.993	91.38
370.219	89.38
370.445	89.38
370.672	85.38
370.898	82.38
371.124	100.38
371.35	89.38
371.576	93.38
371.802	78.38
372.028	91.38
372.254	86.38
372.48	90.38
372.706	85.38
372.932	95.38
373.158	77.38
373.384	94.38
373.61	101.38
373.835	97.38
374.061	94.38
374.287	77.38
374.513	78.38
374.739	95.38
374.965	83.38
375.191	81.38
375.416	78.38
375.642	93.38
375.868	95.38
376.094	98.38
376.319	95.38
376.545	86.38
376.771	88.38
376.997	98.38
377.222	102.38
377.448	93.38
377.674	83.38
377.899	90.38
378.125	97.38
378.35	91.38
378.576	86.38
378.802	77.38
379.027	87.38
379.253	92.38
379.478	97.38
379.704	99.38
379.929	94.38
380.155	89.38
380.38	100.38
380.606	74.38
380.831	99.38
381.057	97.38
381.282	86.38
381.507	91.38
381.733	106.38
381.958	85.38
382.184	104.38
382.409	91.38
382.634	113.38
382.86	102.38
383.085	101.38
383.31	99.38
383.535	97.38
383.761	90.38
383.986	86.38
384.211	85.38
384.436	101.38
384.662	95.38
384.887	90.38
385.112	92.38
385.337	94.38
385.562	108.38
385.787	119.38
386.013	116.38
386.238	111.38
386.463	106.38
386.688	108.38
386.913	106.38
387.138	93.38
387.363	93.38
387.588	108.38
387.813	93.38
388.038	114.38
388.263	105.38
388.488	107.38
388.713	99.38
388.938	85.38
389.163	101.38
389.387	99.38
389.612	73.38
389.837	76.38
390.062	91.38
390.287	85.38
390.512	77.38
390.736	81.38
390.961	106.38
391.186	92.38
391.411	84.38
391.636	79.38
391.86	96.38
392.085	75.38
392.31	88.38
392.534	80.38
392.759	69.38
392.984	84.38
393.208	72.38
393.433	90.38
393.658	93.38
393.882	86.38
394.107	82.38
394.331	75.38
394.556	76.38
394.78	90.38
395.005	81.38
395.229	91.38
395.454	95.38
395.678	87.38
395.903	84.38
396.127	81.38
396.352	87.38
396.576	87.38
396.801	81.38
397.025	91.38
397.249	93.38
397.474	83.38
397.698	87.38
397.922	82.38
398.147	75.38
398.371	76.38
398.595	83.38
398.82	91.38
399.044	87.38
399.268	85.38
399.492	81.38
399.717	91.38
399.941	84.38
400.165	95.38
400.389	75.38
400.613	77.38
400.837	89.38
401.062	72.38
401.286	92.38
401.51	84.38
401.734	98.38
401.958	101.38
402.182	115.38
402.406	159.38
402.63	121.38
402.854	90.38
403.078	88.38
403.302	87.38
403.526	86.38
403.75	86.38
403.974	86.38
404.198	76.38
404.422	83.38
404.645	69.38
404.869	97.38
405.093	97.38
405.317	105.38
405.541	98.38
405.765	87.38
405.988	103.38
406.212	156.38
406.436	202.38
406.66	138.38
406.883	108.38
407.107	83.38
407.331	92.38
407.555	101.38
407.778	91.38
408.002	92.38
408.226	85.38
408.449	82.38
408.673	99.38
408.896	109.38
409.12	105.38
409.344	90.38
409.567	90.38
409.791	87.38
410.014	86.38
410.238	105.38
410.461	87.38
410.685	107.38
410.908	93.38
411.132	92.38
411.355	94.38
411.578	93.38
411.802	87.38
412.025	81.38
412.249	87.38
412.472	93.38
412.695	91.38
412.919	87.38
413.142	96.38
413.365	92.38
413.589	98.38
413.812	92.38
414.035	82.38
414.258	86.38
414.482	75.38
414.705	87.38
414.928	85.38
415.151	92.38
415.374	78.38
415.597	78.38
415.821	82.38
416.044	79.38
416.267	90.38
416.49	81.38
416.713	69.38
416.936	96.38
417.159	95.38
417.382	93.38
417.605	103.38
417.828	92.38
418.051	76.38
418.274	87.38
418.497	96.38
418.72	93.38
418.943	106.38
419.166	89.38
419.389	91.38
419.611	85.38
419.834	86.38
420.057	73.38
420.28	66.38
420.503	86.38
420.726	103.38
420.948	94.38
421.171	86.38
421.394	79.38
421.617	89.38
421.839	93.38
422.062	84.38
422.285	80.38
422.507	95.38
422.73	100.38
422.953	97.38
423.175	99.38
423.398	86.38
423.621	75.38
423.843	78.38
424.066	87.38
424.288	94.38
424.511	93.38
424.733	92.38
424.956	92.38
425.178	98.38
425.401	88.38
425.623	98.38
425.846	77.38
426.068	84.38
426.291	77.38
426.513	93.38
426.735	75.38
426.958	105.38
427.18	101.38
427.402	133.38
427.625	148.38
427.847	124.38
428.069	118.38
428.292	101.38
428.514	74.38
428.736	78.38
428.958	98.38
429.181	70.38
429.403	102.38
429.625	100.38
429.847	94.38
430.069	111.38
430.292	87.38
430.514	83.38
430.736	98.38
430.958	76.38
431.18	91.38
431.402	72.38
431.624	92.38
431.846	85.38
432.068	78.38
432.29	84.38
432.512	86.38
432.734	86.38
432.956	79.38
433.178	94.38
433.4	92.38
433.622	89.38
433.844	89.38
434.066	100.38
434.287	76.38
434.509	89.38
434.731	99.38
434.953	90.38
435.175	100.38
435.397	87.38
435.618	65.38
435.84	103.38
436.062	95.38
436.284	108.38
436.505	97.38
436.727	88.38
436.949	86.38
437.17	83.38
437.392	78.38
437.614	100.38
437.835	108.38
438.057	120.38
438.278	105.38
438.5	99.38
438.721	121.38
438.943	93.38
439.165	78.38
439.386	81.38
439.608	62.38
439.829	85.38
440.05	116.38
440.272	133.38
440.493	101.38
440.715	88.38
440.936	87.38
441.158	76.38
441.379	87.38
441.6	95.38
441.822	89.38
442.043	91.38
442.264	98.38
442.486	91.38
442.707	83.38
442.928	100.38
443.149	107.38
443.371	130.38
443.592	83.38
443.813	105.38
444.034	100.38
444.255	93.38
444.476	81.38
444.698	85.38
444.919	72.38
445.14	129.38
445.361	129.38
445.582	114.38
445.803	138.38
446.024	120.38
446.245	122.38
446.466	106.38
446.687	78.38
446.908	75.38
447.129	90.38
447.35	88.38
447.571	90.38
447.792	105.38
448.013	85.38
448.234	95.38
448.455	103.38
448.675	117.38
448.896	100.38
449.117	88.38
449.338	87.38
449.559	116.38
449.779	135.38
450	92.38
450.221	84.38
450.442	84.38
450.662	80.38
450.883	95.38
451.104	97.38
451.324	102.38
451.545	82.38
451.766	74.38
451.986	99.38
452.207	102.38
452.428	71.38
452.648	93.38
452.869	102.38
453.089	94.38
453.31	107.38
453.53	90.38
453.751	90.38
453.971	108.38
454.192	97.38
454.412	88.38
454.633	100.38
454.853	88.38
455.073	86.38
455.294	83.38
455.514	92.38
455.734	88.38
455.955	90.38
456.175	86.38
456.395	86.38
456.616	87.38
456.836	85.38
457.056	83.38
457.276	82.38
457.497	84.38
457.717	89.38
457.937	97.38
458.157	95.38
458.377	84.38
458.598	106.38
458.818	142.38
459.038	138.38
459.258	103.38
459.478	87.38
459.698	79.38
459.918	75.38
460.138	89.38
460.358	87.38
460.578	73.38
460.798	102.38
461.018	85.38
461.238	65.38
461.458	83.38
461.678	84.38
461.898	81.38
462.118	90.38
462.338	76.38
462.558	93.38
462.777	79.38
462.997	77.38
463.217	61.38
463.437	98.38
463.657	78.38
463.876	93.38
464.096	91.38
464.316	94.38
464.536	77.38
464.755	80.38
464.975	85.38
465.195	141.38
465.414	140.38
465.634	102.38
465.854	90.38
466.073	87.38
466.293	83.38
466.512	77.38
466.732	100.38
466.951	86.38
467.171	94.38
467.391	85.38
467.61	98.38
467.829	88.38
468.049	86.38
468.268	93.38
468.488	82.38
468.707	69.38
468.927	72.38
469.146	85.38
469.365	93.38
469.585	74.38
469.804	107.38
470.023	97.38
470.243	86.38
470.462	88.38
470.681	94.38
470.901	76.38
471.12	86.38
471.339	72.38
471.558	92.38
471.777	87.38
471.997	96.38
472.216	123.38
472.435	136.38
472.654	96.38
472.873	90.38
473.092	82.38
473.311	95.38
473.53	78.38
473.749	86.38
473.968	100.38
474.187	97.38
474.406	85.38
474.625	82.38
474.844	84.38
475.063	74.38
475.282	79.38
475.501	82.38
475.72	93.38
475.939	79.38
476.158	97.38
476.377	82.38
476.596	86.38
476.814	87.38
477.033	85.38
477.252	84.38
477.471	77.38
477.69	82.38
477.908	81.38
478.127	92.38
478.346	59.38
478.564	84.38
478.783	91.38
479.002	86.38
479.22	95.38
479.439	93.38
479.658	108.38
479.876	93.38
480.095	89.38
480.313	78.38
480.532	93.38
480.751	99.38
480.969	123.38
481.188	213.38
481.406	153.38
481.624	87.38
481.843	85.38
482.061	83.38
482.28	87.38
482.498	91.38
482.717	81.38
482.935	71.38
483.153	93.38
483.372	93.38
483.59	82.38
483.808	93.38
484.027	87.38
484.245	93.38
484.463	73.38
484.681	79.38
484.9	75.38
485.118	98.38
485.336	89.38
485.554	92.38
485.772	102.38
485.99	97.38
486.209	110.38
486.427	98.38
486.645	99.38
486.863	112.38
487.081	106.38
487.299	71.38
487.517	97.38
487.735	91.38
487.953	88.38
488.171	87.38
488.389	85.38
488.607	91.38
488.825	100.38
489.043	77.38
489.261	83.38
489.479	101.38
489.696	88.38
489.914	85.38
490.132	79.38
490.35	97.38
490.568	87.38
490.786	81.38
491.003	96.38
491.221	82.38
491.439	72.38
491.657	77.38
491.874	100.38
492.092	82.38
492.31	74.38
492.527	94.38
492.745	88.38
492.963	91.38
493.18	78.38
493.398	86.38
493.615	89.38
493.833	87.38
494.05	84.38
494.268	90.38
494.485	94.38
494.703	98.38
494.92	86.38
495.138	82.38
495.355	76.38
495.573	90.38
495.79	100.38
496.008	94.38
496.225	97.38
496.442	90.38
496.66	83.38
496.877	103.38
497.094	96.38
497.312	82.38
497.529	96.38
497.746	93.38
497.963	95.38
498.181	87.38
498.398	88.38
498.615	119.38
498.832	102.38
499.049	94.38
499.267	92.38
499.484	94.38
499.701	93.38
499.918	81.38
500.135	95.38
500.352	87.38
500.569	94.38
500.786	104.38
501.003	85.38
501.22	86.38
501.437	88.38
501.654	91.38
501.871	105.38
502.088	90.38
502.305	87.38
502.522	108.38
502.739	85.38
502.956	94.38
503.172	91.38
503.389	75.38
503.606	103.38
503.823	100.38
504.04	97.38
504.256	89.38
504.473	92.38
504.69	77.38
504.907	94.38
505.123	102.38
505.34	74.38
505.557	100.38
505.773	83.38
505.99	90.38
506.207	92.38
506.423	86.38
506.64	101.38
506.856	94.38
507.073	85.38
507.289	82.38
507.506	87.38
507.722	101.38
507.939	101.38
508.155	86.38
508.372	113.38
508.588	91.38
508.805	105.38
509.021	87.38
509.238	100.38
509.454	88.38
509.67	105.38
509.887	100.38
510.103	119.38
510.319	206.38
510.536	664.38
510.752	2162.38
510.968	612.38
511.184	140.38
511.401	106.38
511.617	101.38
511.833	94.38
512.049	93.38
512.265	97.38
512.481	91.38
512.698	92.38
512.914	95.38
513.13	90.38
513.346	91.38
513.562	98.38
513.778	101.38
513.994	99.38
514.21	91.38
514.426	113.38
514.642	123.38
514.858	115.38
515.074	129.38
515.29	418.38
515.506	1381.38
515.721	514.38
515.937	158.38
516.153	103.38
