Data from Uncirc_1980_H10_HRD10591_00095.txt Node
Date: Wed Jan 03 12:37:14 EST 2024
User: Yrep
Spectrometer: HR+D1059
Trigger mode: 1
Integration Time (sec): 1.000000E-1
Scans to average: 1
Electric dark correction enabled: true
Nonlinearity correction enabled: false
Boxcar width: 0
XAxis mode: Wavelengths
Number of Pixels in Spectrum: 2048
>>>>>Begin Spectral Data<<<<<
223.165	-35.06
223.4	-35.06
223.635	-35.06
223.869	-29.06
224.104	-30.06
224.338	-20.06
224.573	-15.06
224.808	1.94
225.042	-4.06
225.277	13.94
225.511	0.94
225.746	-4.06
225.98	9.94
226.215	10.94
226.449	12.94
226.683	9.94
226.918	33.94
227.152	42.94
227.387	33.94
227.621	51.94
227.856	35.94
228.09	34.94
228.324	49.94
228.559	53.94
228.793	55.94
229.027	79.94
229.262	64.94
229.496	65.94
229.73	86.94
229.964	68.94
230.199	69.94
230.433	72.94
230.667	63.94
230.901	83.94
231.136	75.94
231.37	76.94
231.604	66.94
231.838	84.94
232.072	85.94
232.306	84.94
232.541	75.94
232.775	83.94
233.009	93.94
233.243	74.94
233.477	77.94
233.711	83.94
233.945	81.94
234.179	74.94
234.413	62.94
234.647	80.94
234.881	90.94
235.115	84.94
235.349	71.94
235.583	79.94
235.817	80.94
236.051	81.94
236.285	75.94
236.519	71.94
236.753	66.94
236.987	78.94
237.221	75.94
237.455	75.94
237.689	75.94
237.922	92.94
238.156	81.94
238.39	81.94
238.624	76.94
238.858	81.94
239.091	81.94
239.325	85.94
239.559	82.94
239.793	75.94
240.027	83.94
240.26	59.94
240.494	58.94
240.728	60.94
240.961	81.94
241.195	74.94
241.429	66.94
241.662	85.94
241.896	65.94
242.13	72.94
242.363	74.94
242.597	69.94
242.83	81.94
243.064	75.94
243.298	87.94
243.531	67.94
243.765	91.94
243.998	85.94
244.232	69.94
244.465	71.94
244.699	87.94
244.932	75.94
245.166	81.94
245.399	76.94
245.633	67.94
245.866	76.94
246.099	80.94
246.333	81.94
246.566	77.94
246.8	77.94
247.033	75.94
247.266	71.94
247.5	80.94
247.733	80.94
247.966	73.94
248.2	79.94
248.433	63.94
248.666	79.94
248.899	77.94
249.133	82.94
249.366	86.94
249.599	82.94
249.832	64.94
250.066	73.94
250.299	69.94
250.532	79.94
250.765	77.94
250.998	82.94
251.231	78.94
251.465	70.94
251.698	79.94
251.931	85.94
252.164	80.94
252.397	78.94
252.63	78.94
252.863	77.94
253.096	86.94
253.329	77.94
253.562	85.94
253.795	75.94
254.028	81.94
254.261	94.94
254.494	71.94
254.727	83.94
254.96	88.94
255.193	79.94
255.426	66.94
255.659	88.94
255.892	79.94
256.124	72.94
256.357	89.94
256.59	100.94
256.823	76.94
257.056	83.94
257.289	85.94
257.521	89.94
257.754	88.94
257.987	84.94
258.22	100.94
258.452	83.94
258.685	87.94
258.918	82.94
259.151	73.94
259.383	97.94
259.616	88.94
259.849	81.94
260.081	76.94
260.314	83.94
260.547	74.94
260.779	70.94
261.012	71.94
261.244	96.94
261.477	74.94
261.71	90.94
261.942	105.94
262.175	114.94
262.407	81.94
262.64	76.94
262.872	90.94
263.105	86.94
263.337	69.94
263.57	87.94
263.802	85.94
264.035	76.94
264.267	79.94
264.499	87.94
264.732	97.94
264.964	92.94
265.197	83.94
265.429	79.94
265.661	85.94
265.894	69.94
266.126	82.94
266.358	88.94
266.591	77.94
266.823	84.94
267.055	91.94
267.287	81.94
267.52	89.94
267.752	82.94
267.984	93.94
268.216	80.94
268.448	83.94
268.681	75.94
268.913	90.94
269.145	92.94
269.377	75.94
269.609	75.94
269.841	84.94
270.073	84.94
270.306	80.94
270.538	93.94
270.77	69.94
271.002	92.94
271.234	87.94
271.466	83.94
271.698	85.94
271.93	78.94
272.162	74.94
272.394	90.94
272.626	77.94
272.858	77.94
273.09	74.94
273.322	81.94
273.553	86.94
273.785	73.94
274.017	75.94
274.249	69.94
274.481	82.94
274.713	80.94
274.945	79.94
275.176	95.94
275.408	74.94
275.64	82.94
275.872	74.94
276.104	85.94
276.335	73.94
276.567	97.94
276.799	99.94
277.031	92.94
277.262	67.94
277.494	91.94
277.726	68.94
277.957	83.94
278.189	76.94
278.421	90.94
278.652	100.94
278.884	90.94
279.115	81.94
279.347	85.94
279.579	89.94
279.81	77.94
280.042	90.94
280.273	94.94
280.505	74.94
280.736	81.94
280.968	74.94
281.199	90.94
281.431	88.94
281.662	84.94
281.894	96.94
282.125	89.94
282.356	111.94
282.588	136.94
282.819	107.94
283.051	87.94
283.282	70.94
283.513	79.94
283.745	107.94
283.976	85.94
284.207	80.94
284.439	84.94
284.67	84.94
284.901	85.94
285.132	98.94
285.364	79.94
285.595	97.94
285.826	85.94
286.057	88.94
286.288	100.94
286.52	83.94
286.751	97.94
286.982	91.94
287.213	84.94
287.444	85.94
287.675	92.94
287.906	94.94
288.138	87.94
288.369	83.94
288.6	83.94
288.831	88.94
289.062	76.94
289.293	86.94
289.524	75.94
289.755	94.94
289.986	71.94
290.217	89.94
290.448	72.94
290.679	82.94
290.91	91.94
291.141	88.94
291.371	82.94
291.602	99.94
291.833	92.94
292.064	92.94
292.295	102.94
292.526	74.94
292.757	88.94
292.987	93.94
293.218	87.94
293.449	84.94
293.68	87.94
293.91	87.94
294.141	81.94
294.372	94.94
294.603	92.94
294.833	82.94
295.064	87.94
295.295	98.94
295.525	83.94
295.756	99.94
295.987	104.94
296.217	124.94
296.448	110.94
296.679	83.94
296.909	86.94
297.14	107.94
297.37	93.94
297.601	88.94
297.831	81.94
298.062	99.94
298.292	89.94
298.523	83.94
298.753	79.94
298.984	89.94
299.214	83.94
299.445	94.94
299.675	86.94
299.905	90.94
300.136	80.94
300.366	88.94
300.597	84.94
300.827	99.94
301.057	85.94
301.288	93.94
301.518	72.94
301.748	97.94
301.979	106.94
302.209	76.94
302.439	95.94
302.669	81.94
302.9	78.94
303.13	98.94
303.36	93.94
303.59	95.94
303.82	106.94
304.051	82.94
304.281	93.94
304.511	81.94
304.741	89.94
304.971	85.94
305.201	75.94
305.431	83.94
305.661	76.94
305.891	93.94
306.121	97.94
306.352	97.94
306.582	96.94
306.812	91.94
307.042	83.94
307.272	90.94
307.502	90.94
307.731	97.94
307.961	74.94
308.191	88.94
308.421	97.94
308.651	92.94
308.881	91.94
309.111	83.94
309.341	86.94
309.571	93.94
309.8	92.94
310.03	107.94
310.26	96.94
310.49	101.94
310.72	85.94
310.949	89.94
311.179	95.94
311.409	94.94
311.639	90.94
311.868	85.94
312.098	93.94
312.328	85.94
312.557	107.94
312.787	102.94
313.017	95.94
313.246	101.94
313.476	91.94
313.706	93.94
313.935	83.94
314.165	88.94
314.394	92.94
314.624	92.94
314.853	68.94
315.083	93.94
315.312	96.94
315.542	81.94
315.771	100.94
316.001	81.94
316.23	99.94
316.46	86.94
316.689	87.94
316.919	88.94
317.148	85.94
317.377	96.94
317.607	92.94
317.836	98.94
318.065	82.94
318.295	97.94
318.524	90.94
318.753	96.94
318.983	97.94
319.212	115.94
319.441	106.94
319.67	108.94
319.9	93.94
320.129	86.94
320.358	86.94
320.587	88.94
320.816	87.94
321.046	101.94
321.275	88.94
321.504	95.94
321.733	90.94
321.962	94.94
322.191	100.94
322.42	103.94
322.649	104.94
322.878	99.94
323.108	100.94
323.337	112.94
323.566	119.94
323.795	123.94
324.024	169.94
324.253	321.94
324.482	667.94
324.71	1361.94
324.939	1881.94
325.168	696.94
325.397	215.94
325.626	135.94
325.855	123.94
326.084	125.94
326.313	122.94
326.542	141.94
326.77	201.94
326.999	386.94
327.228	799.94
327.457	1411.94
327.686	1182.94
327.914	330.94
328.143	170.94
328.372	148.94
328.6	103.94
328.829	112.94
329.058	124.94
329.287	125.94
329.515	107.94
329.744	108.94
329.972	105.94
330.201	107.94
330.43	134.94
330.658	133.94
330.887	140.94
331.115	130.94
331.344	108.94
331.572	88.94
331.801	98.94
332.03	87.94
332.258	74.94
332.486	97.94
332.715	89.94
332.943	107.94
333.172	89.94
333.4	91.94
333.629	94.94
333.857	115.94
334.085	115.94
334.314	131.94
334.542	126.94
334.771	134.94
334.999	108.94
335.227	103.94
335.455	84.94
335.684	102.94
335.912	94.94
336.14	85.94
336.369	77.94
336.597	79.94
336.825	85.94
337.053	83.94
337.281	88.94
337.51	85.94
337.738	88.94
337.966	78.94
338.194	100.94
338.422	99.94
338.65	100.94
338.878	86.94
339.106	92.94
339.334	94.94
339.562	88.94
339.79	90.94
340.018	100.94
340.246	87.94
340.474	88.94
340.702	83.94
340.93	82.94
341.158	98.94
341.386	99.94
341.614	96.94
341.842	101.94
342.07	86.94
342.298	90.94
342.526	82.94
342.754	93.94
342.981	87.94
343.209	86.94
343.437	99.94
343.665	95.94
343.893	100.94
344.12	93.94
344.348	83.94
344.576	86.94
344.804	84.94
345.031	96.94
345.259	90.94
345.487	88.94
345.714	87.94
345.942	97.94
346.17	95.94
346.397	85.94
346.625	96.94
346.853	89.94
347.08	74.94
347.308	94.94
347.535	95.94
347.763	93.94
347.99	107.94
348.218	96.94
348.445	98.94
348.673	89.94
348.9	101.94
349.128	90.94
349.355	100.94
349.583	88.94
349.81	86.94
350.037	83.94
350.265	91.94
350.492	76.94
350.72	99.94
350.947	110.94
351.174	108.94
351.402	101.94
351.629	93.94
351.856	94.94
352.083	101.94
352.311	103.94
352.538	95.94
352.765	103.94
352.992	99.94
353.22	97.94
353.447	113.94
353.674	85.94
353.901	89.94
354.128	99.94
354.355	93.94
354.583	103.94
354.81	98.94
355.037	87.94
355.264	93.94
355.491	102.94
355.718	91.94
355.945	94.94
356.172	89.94
356.399	108.94
356.626	99.94
356.853	86.94
357.08	91.94
357.307	95.94
357.534	91.94
357.761	93.94
357.988	101.94
358.215	92.94
358.441	84.94
358.668	92.94
358.895	91.94
359.122	84.94
359.349	89.94
359.576	83.94
359.802	98.94
360.029	100.94
360.256	100.94
360.483	99.94
360.709	77.94
360.936	89.94
361.163	87.94
361.39	95.94
361.616	86.94
361.843	96.94
362.07	84.94
362.296	99.94
362.523	92.94
362.749	92.94
362.976	80.94
363.203	96.94
363.429	91.94
363.656	99.94
363.882	83.94
364.109	91.94
364.335	81.94
364.562	88.94
364.788	86.94
365.015	104.94
365.241	85.94
365.468	121.94
365.694	101.94
365.92	88.94
366.147	91.94
366.373	83.94
366.599	74.94
366.826	90.94
367.052	84.94
367.278	91.94
367.505	97.94
367.731	88.94
367.957	79.94
368.184	88.94
368.41	106.94
368.636	101.94
368.862	127.94
369.089	102.94
369.315	93.94
369.541	98.94
369.767	88.94
369.993	77.94
370.219	91.94
370.445	79.94
370.672	85.94
370.898	92.94
371.124	97.94
371.35	74.94
371.576	82.94
371.802	105.94
372.028	93.94
372.254	80.94
372.48	75.94
372.706	71.94
372.932	71.94
373.158	83.94
373.384	102.94
373.61	79.94
373.835	97.94
374.061	101.94
374.287	104.94
374.513	84.94
374.739	97.94
374.965	87.94
375.191	84.94
375.416	91.94
375.642	98.94
375.868	97.94
376.094	89.94
376.319	80.94
376.545	88.94
376.771	87.94
376.997	70.94
377.222	89.94
377.448	89.94
377.674	94.94
377.899	97.94
378.125	85.94
378.35	93.94
378.576	92.94
378.802	83.94
379.027	85.94
379.253	95.94
379.478	75.94
379.704	91.94
379.929	83.94
380.155	91.94
380.38	87.94
380.606	93.94
380.831	81.94
381.057	101.94
381.282	87.94
381.507	97.94
381.733	91.94
381.958	101.94
382.184	102.94
382.409	93.94
382.634	86.94
382.86	91.94
383.085	101.94
383.31	108.94
383.535	82.94
383.761	81.94
383.986	84.94
384.211	83.94
384.436	74.94
384.662	82.94
384.887	101.94
385.112	100.94
385.337	127.94
385.562	107.94
385.787	93.94
386.013	117.94
386.238	113.94
386.463	99.94
386.688	111.94
386.913	103.94
387.138	96.94
387.363	77.94
387.588	99.94
387.813	85.94
388.038	85.94
388.263	110.94
388.488	93.94
388.713	97.94
388.938	97.94
389.163	96.94
389.387	84.94
389.612	87.94
389.837	84.94
390.062	101.94
390.287	84.94
390.512	86.94
390.736	82.94
390.961	93.94
391.186	89.94
391.411	85.94
391.636	100.94
391.86	91.94
392.085	85.94
392.31	86.94
392.534	82.94
392.759	91.94
392.984	73.94
393.208	79.94
393.433	99.94
393.658	76.94
393.882	83.94
394.107	72.94
394.331	81.94
394.556	93.94
394.78	69.94
395.005	90.94
395.229	93.94
395.454	84.94
395.678	96.94
395.903	90.94
396.127	85.94
396.352	92.94
396.576	78.94
396.801	85.94
397.025	70.94
397.249	90.94
397.474	67.94
397.698	92.94
397.922	83.94
398.147	71.94
398.371	65.94
398.595	96.94
398.82	69.94
399.044	76.94
399.268	87.94
399.492	83.94
399.717	84.94
399.941	89.94
400.165	96.94
400.389	96.94
400.613	85.94
400.837	85.94
401.062	67.94
401.286	80.94
401.51	101.94
401.734	99.94
401.958	85.94
402.182	101.94
402.406	139.94
402.63	113.94
402.854	93.94
403.078	100.94
403.302	83.94
403.526	77.94
403.75	95.94
403.974	69.94
404.198	85.94
404.422	95.94
404.645	88.94
404.869	86.94
405.093	86.94
405.317	92.94
405.541	96.94
405.765	90.94
405.988	106.94
406.212	143.94
406.436	216.94
406.66	131.94
406.883	85.94
407.107	84.94
407.331	80.94
407.555	84.94
407.778	100.94
408.002	82.94
408.226	100.94
408.449	94.94
408.673	87.94
408.896	89.94
409.12	106.94
409.344	93.94
409.567	89.94
409.791	95.94
410.014	88.94
410.238	69.94
410.461	93.94
410.685	94.94
410.908	89.94
411.132	97.94
411.355	87.94
411.578	83.94
411.802	90.94
412.025	92.94
412.249	86.94
412.472	83.94
412.695	95.94
412.919	84.94
413.142	74.94
413.365	84.94
413.589	81.94
413.812	77.94
414.035	95.94
414.258	84.94
414.482	89.94
414.705	90.94
414.928	85.94
415.151	96.94
415.374	83.94
415.597	86.94
415.821	80.94
416.044	89.94
416.267	93.94
416.49	73.94
416.713	81.94
416.936	85.94
417.159	91.94
417.382	73.94
417.605	94.94
417.828	87.94
418.051	75.94
418.274	85.94
418.497	78.94
418.72	76.94
418.943	103.94
419.166	83.94
419.389	93.94
419.611	105.94
419.834	74.94
420.057	90.94
420.28	99.94
420.503	87.94
420.726	65.94
420.948	79.94
421.171	91.94
421.394	93.94
421.617	90.94
421.839	84.94
422.062	79.94
422.285	91.94
422.507	93.94
422.73	80.94
422.953	87.94
423.175	89.94
423.398	97.94
423.621	83.94
423.843	83.94
424.066	77.94
424.288	83.94
424.511	87.94
424.733	87.94
424.956	103.94
425.178	72.94
425.401	93.94
425.623	109.94
425.846	91.94
426.068	70.94
426.291	91.94
426.513	71.94
426.735	85.94
426.958	76.94
427.18	107.94
427.402	115.94
427.625	150.94
427.847	121.94
428.069	116.94
428.292	75.94
428.514	93.94
428.736	92.94
428.958	73.94
429.181	89.94
429.403	86.94
429.625	94.94
429.847	84.94
430.069	88.94
430.292	85.94
430.514	91.94
430.736	80.94
430.958	71.94
431.18	72.94
431.402	87.94
431.624	67.94
431.846	73.94
432.068	79.94
432.29	86.94
432.512	92.94
432.734	80.94
432.956	81.94
433.178	101.94
433.4	97.94
433.622	92.94
433.844	97.94
434.066	86.94
434.287	85.94
434.509	102.94
434.731	90.94
434.953	87.94
435.175	85.94
435.397	93.94
435.618	92.94
435.84	93.94
436.062	104.94
436.284	99.94
436.505	91.94
436.727	95.94
436.949	103.94
437.17	74.94
437.392	71.94
437.614	96.94
437.835	104.94
438.057	112.94
438.278	100.94
438.5	96.94
438.721	116.94
438.943	107.94
439.165	85.94
439.386	94.94
439.608	93.94
439.829	104.94
440.05	118.94
440.272	120.94
440.493	87.94
440.715	71.94
440.936	90.94
441.158	96.94
441.379	86.94
441.6	95.94
441.822	85.94
442.043	79.94
442.264	101.94
442.486	119.94
442.707	100.94
442.928	91.94
443.149	118.94
443.371	140.94
443.592	101.94
443.813	95.94
444.034	100.94
444.255	72.94
444.476	84.94
444.698	85.94
444.919	85.94
445.14	140.94
445.361	128.94
445.582	95.94
445.803	123.94
446.024	113.94
446.245	111.94
446.466	92.94
446.687	82.94
446.908	104.94
447.129	84.94
447.35	86.94
447.571	87.94
447.792	103.94
448.013	94.94
448.234	97.94
448.455	91.94
448.675	97.94
448.896	106.94
449.117	101.94
449.338	91.94
449.559	107.94
449.779	129.94
450	115.94
450.221	89.94
450.442	84.94
450.662	83.94
450.883	92.94
451.104	109.94
451.324	96.94
451.545	88.94
451.766	79.94
451.986	71.94
452.207	107.94
452.428	99.94
452.648	91.94
452.869	108.94
453.089	100.94
453.31	100.94
453.53	88.94
453.751	95.94
453.971	104.94
454.192	103.94
454.412	98.94
454.633	84.94
454.853	89.94
455.073	95.94
455.294	87.94
455.514	102.94
455.734	86.94
455.955	71.94
456.175	81.94
456.395	81.94
456.616	98.94
456.836	87.94
457.056	71.94
457.276	65.94
457.497	83.94
457.717	65.94
457.937	95.94
458.157	94.94
458.377	86.94
458.598	97.94
458.818	132.94
459.038	135.94
459.258	107.94
459.478	86.94
459.698	84.94
459.918	73.94
460.138	78.94
460.358	95.94
460.578	81.94
460.798	88.94
461.018	80.94
461.238	67.94
461.458	83.94
461.678	85.94
461.898	82.94
462.118	83.94
462.338	82.94
462.558	92.94
462.777	84.94
462.997	81.94
463.217	76.94
463.437	88.94
463.657	83.94
463.876	82.94
464.096	96.94
464.316	91.94
464.536	77.94
464.755	111.94
464.975	102.94
465.195	153.94
465.414	136.94
465.634	98.94
465.854	93.94
466.073	97.94
466.293	97.94
466.512	96.94
466.732	75.94
466.951	79.94
467.171	88.94
467.391	91.94
467.61	100.94
467.829	91.94
468.049	92.94
468.268	101.94
468.488	84.94
468.707	86.94
468.927	86.94
469.146	77.94
469.365	94.94
469.585	83.94
469.804	92.94
470.023	107.94
470.243	91.94
470.462	100.94
470.681	91.94
470.901	103.94
471.12	67.94
471.339	87.94
471.558	91.94
471.777	75.94
471.997	89.94
472.216	119.94
472.435	147.94
472.654	99.94
472.873	89.94
473.092	68.94
473.311	74.94
473.53	92.94
473.749	87.94
473.968	96.94
474.187	101.94
474.406	104.94
474.625	96.94
474.844	92.94
475.063	93.94
475.282	89.94
475.501	90.94
475.72	82.94
475.939	97.94
476.158	89.94
476.377	99.94
476.596	96.94
476.814	103.94
477.033	98.94
477.252	82.94
477.471	96.94
477.69	94.94
477.908	99.94
478.127	90.94
478.346	85.94
478.564	67.94
478.783	89.94
479.002	88.94
479.22	100.94
479.439	105.94
479.658	95.94
479.876	102.94
480.095	92.94
480.313	107.94
480.532	95.94
480.751	80.94
480.969	113.94
481.188	205.94
481.406	164.94
481.624	92.94
481.843	81.94
482.061	89.94
482.28	91.94
482.498	75.94
482.717	84.94
482.935	70.94
483.153	87.94
483.372	88.94
483.59	88.94
483.808	76.94
484.027	85.94
484.245	87.94
484.463	97.94
484.681	90.94
484.9	81.94
485.118	105.94
485.336	88.94
485.554	94.94
485.772	101.94
485.99	93.94
486.209	106.94
486.427	101.94
486.645	104.94
486.863	112.94
487.081	92.94
487.299	91.94
487.517	91.94
487.735	88.94
487.953	104.94
488.171	106.94
488.389	87.94
488.607	97.94
488.825	96.94
489.043	88.94
489.261	87.94
489.479	95.94
489.696	92.94
489.914	103.94
490.132	91.94
490.35	95.94
490.568	92.94
490.786	88.94
491.003	93.94
491.221	88.94
491.439	76.94
491.657	79.94
491.874	94.94
492.092	92.94
492.31	85.94
492.527	71.94
492.745	89.94
492.963	81.94
493.18	102.94
493.398	96.94
493.615	83.94
493.833	104.94
494.05	96.94
494.268	92.94
494.485	88.94
494.703	85.94
494.92	99.94
495.138	97.94
495.355	95.94
495.573	73.94
495.79	84.94
496.008	97.94
496.225	92.94
496.442	83.94
496.66	88.94
496.877	91.94
497.094	93.94
497.312	79.94
497.529	78.94
497.746	93.94
497.963	87.94
498.181	84.94
498.398	86.94
498.615	89.94
498.832	92.94
499.049	87.94
499.267	91.94
499.484	81.94
499.701	81.94
499.918	84.94
500.135	89.94
500.352	91.94
500.569	88.94
500.786	103.94
501.003	91.94
501.22	107.94
501.437	84.94
501.654	85.94
501.871	84.94
502.088	96.94
502.305	76.94
502.522	82.94
502.739	92.94
502.956	97.94
503.172	87.94
503.389	100.94
503.606	81.94
503.823	81.94
504.04	102.94
504.256	84.94
504.473	91.94
504.69	95.94
504.907	94.94
505.123	80.94
505.34	90.94
505.557	91.94
505.773	90.94
505.99	103.94
506.207	94.94
506.423	92.94
506.64	89.94
506.856	93.94
507.073	85.94
507.289	93.94
507.506	86.94
507.722	114.94
507.939	114.94
508.155	85.94
508.372	82.94
508.588	90.94
508.805	93.94
509.021	99.94
509.238	88.94
509.454	101.94
509.67	116.94
509.887	104.94
510.103	121.94
510.319	194.94
510.536	685.94
510.752	2188.94
510.968	581.94
511.184	148.94
511.401	91.94
511.617	89.94
511.833	94.94
512.049	90.94
512.265	98.94
512.481	73.94
512.698	90.94
512.914	99.94
513.13	93.94
513.346	87.94
513.562	107.94
513.778	92.94
513.994	101.94
514.21	115.94
514.426	101.94
514.642	127.94
514.858	115.94
515.074	137.94
515.29	389.94
515.506	1315.94
515.721	492.94
515.937	137.94
516.153	105.94
516.369	103.94
516.585	110.94
