Data from Uncirc_1980_H10_HRD10591_00029.txt Node
Date: Wed Jan 03 12:37:01 EST 2024
User: Yrep
Spectrometer: HR+D1059
Trigger mode: 1
Integration Time (sec): 1.000000E-1
Scans to average: 1
Electric dark correction enabled: true
Nonlinearity correction enabled: false
Boxcar width: 0
XAxis mode: Wavelengths
Number of Pixels in Spectrum: 2048
>>>>>Begin Spectral Data<<<<<
223.165	-15.06
223.4	-15.06
223.635	-15.06
223.869	-13.06
224.104	-21.06
224.338	-20.06
224.573	-7.06
224.808	1.94
225.042	-4.06
225.277	-10.06
225.511	-1.06
225.746	-9.06
225.98	5.94
226.215	16.94
226.449	14.94
226.683	4.94
226.918	23.94
227.152	31.94
227.387	30.94
227.621	42.94
227.856	44.94
228.09	52.94
228.324	57.94
228.559	60.94
228.793	55.94
229.027	63.94
229.262	60.94
229.496	64.94
229.73	85.94
229.964	75.94
230.199	68.94
230.433	66.94
230.667	83.94
230.901	65.94
231.136	66.94
231.37	75.94
231.604	87.94
231.838	84.94
232.072	84.94
232.306	79.94
232.541	81.94
232.775	75.94
233.009	72.94
233.243	99.94
233.477	77.94
233.711	88.94
233.945	81.94
234.179	70.94
234.413	74.94
234.647	79.94
234.881	89.94
235.115	92.94
235.349	77.94
235.583	76.94
235.817	77.94
236.051	79.94
236.285	71.94
236.519	65.94
236.753	92.94
236.987	81.94
237.221	91.94
237.455	86.94
237.689	70.94
237.922	76.94
238.156	69.94
238.39	65.94
238.624	60.94
238.858	79.94
239.091	76.94
239.325	76.94
239.559	80.94
239.793	74.94
240.027	80.94
240.26	68.94
240.494	80.94
240.728	74.94
240.961	74.94
241.195	74.94
241.429	63.94
241.662	71.94
241.896	72.94
242.13	81.94
242.363	78.94
242.597	88.94
242.83	79.94
243.064	84.94
243.298	83.94
243.531	86.94
243.765	72.94
243.998	69.94
244.232	64.94
244.465	70.94
244.699	70.94
244.932	76.94
245.166	91.94
245.399	92.94
245.633	74.94
245.866	78.94
246.099	67.94
246.333	79.94
246.566	83.94
246.8	87.94
247.033	92.94
247.266	71.94
247.5	73.94
247.733	84.94
247.966	78.94
248.2	89.94
248.433	93.94
248.666	90.94
248.899	85.94
249.133	85.94
249.366	105.94
249.599	104.94
249.832	77.94
250.066	89.94
250.299	85.94
250.532	74.94
250.765	80.94
250.998	88.94
251.231	81.94
251.465	73.94
251.698	85.94
251.931	74.94
252.164	76.94
252.397	95.94
252.63	83.94
252.863	67.94
253.096	73.94
253.329	74.94
253.562	87.94
253.795	83.94
254.028	88.94
254.261	78.94
254.494	86.94
254.727	69.94
254.96	75.94
255.193	84.94
255.426	84.94
255.659	85.94
255.892	92.94
256.124	85.94
256.357	88.94
256.59	76.94
256.823	89.94
257.056	81.94
257.289	77.94
257.521	70.94
257.754	67.94
257.987	83.94
258.22	91.94
258.452	98.94
258.685	79.94
258.918	85.94
259.151	91.94
259.383	84.94
259.616	77.94
259.849	92.94
260.081	99.94
260.314	89.94
260.547	92.94
260.779	86.94
261.012	63.94
261.244	73.94
261.477	87.94
261.71	76.94
261.942	83.94
262.175	110.94
262.407	101.94
262.64	99.94
262.872	92.94
263.105	73.94
263.337	93.94
263.57	83.94
263.802	79.94
264.035	69.94
264.267	90.94
264.499	81.94
264.732	71.94
264.964	91.94
265.197	76.94
265.429	80.94
265.661	93.94
265.894	78.94
266.126	75.94
266.358	96.94
266.591	91.94
266.823	61.94
267.055	79.94
267.287	91.94
267.52	100.94
267.752	84.94
267.984	88.94
268.216	93.94
268.448	81.94
268.681	95.94
268.913	87.94
269.145	92.94
269.377	79.94
269.609	72.94
269.841	81.94
270.073	75.94
270.306	87.94
270.538	74.94
270.77	90.94
271.002	88.94
271.234	85.94
271.466	87.94
271.698	95.94
271.93	84.94
272.162	91.94
272.394	85.94
272.626	93.94
272.858	80.94
273.09	95.94
273.322	73.94
273.553	81.94
273.785	105.94
274.017	82.94
274.249	96.94
274.481	91.94
274.713	93.94
274.945	101.94
275.176	84.94
275.408	87.94
275.64	87.94
275.872	85.94
276.104	95.94
276.335	91.94
276.567	87.94
276.799	91.94
277.031	80.94
277.262	85.94
277.494	93.94
277.726	97.94
277.957	81.94
278.189	87.94
278.421	84.94
278.652	84.94
278.884	102.94
279.115	85.94
279.347	87.94
279.579	98.94
279.81	81.94
280.042	96.94
280.273	85.94
280.505	93.94
280.736	91.94
280.968	85.94
281.199	83.94
281.431	76.94
281.662	78.94
281.894	85.94
282.125	100.94
282.356	114.94
282.588	126.94
282.819	108.94
283.051	89.94
283.282	87.94
283.513	77.94
283.745	91.94
283.976	72.94
284.207	89.94
284.439	93.94
284.67	96.94
284.901	89.94
285.132	74.94
285.364	85.94
285.595	93.94
285.826	81.94
286.057	89.94
286.288	86.94
286.52	80.94
286.751	77.94
286.982	91.94
287.213	79.94
287.444	107.94
287.675	78.94
287.906	98.94
288.138	78.94
288.369	92.94
288.6	95.94
288.831	103.94
289.062	91.94
289.293	101.94
289.524	86.94
289.755	70.94
289.986	85.94
290.217	83.94
290.448	99.94
290.679	90.94
290.91	94.94
291.141	85.94
291.371	100.94
291.602	89.94
291.833	77.94
292.064	94.94
292.295	84.94
292.526	93.94
292.757	85.94
292.987	88.94
293.218	85.94
293.449	85.94
293.68	90.94
293.91	73.94
294.141	85.94
294.372	96.94
294.603	73.94
294.833	92.94
295.064	83.94
295.295	88.94
295.525	99.94
295.756	88.94
295.987	109.94
296.217	121.94
296.448	120.94
296.679	95.94
296.909	93.94
297.14	83.94
297.37	83.94
297.601	81.94
297.831	105.94
298.062	72.94
298.292	79.94
298.523	86.94
298.753	77.94
298.984	94.94
299.214	99.94
299.445	88.94
299.675	86.94
299.905	85.94
300.136	96.94
300.366	83.94
300.597	94.94
300.827	81.94
301.057	89.94
301.288	95.94
301.518	85.94
301.748	74.94
301.979	97.94
302.209	85.94
302.439	92.94
302.669	89.94
302.9	81.94
303.13	94.94
303.36	97.94
303.59	94.94
303.82	83.94
304.051	94.94
304.281	78.94
304.511	97.94
304.741	92.94
304.971	101.94
305.201	89.94
305.431	100.94
305.661	99.94
305.891	85.94
306.121	88.94
306.352	85.94
306.582	100.94
306.812	99.94
307.042	89.94
307.272	87.94
307.502	90.94
307.731	100.94
307.961	87.94
308.191	93.94
308.421	91.94
308.651	90.94
308.881	86.94
309.111	93.94
309.341	99.94
309.571	103.94
309.8	96.94
310.03	95.94
310.26	87.94
310.49	94.94
310.72	94.94
310.949	108.94
311.179	96.94
311.409	92.94
311.639	100.94
311.868	89.94
312.098	89.94
312.328	97.94
312.557	111.94
312.787	78.94
313.017	77.94
313.246	102.94
313.476	103.94
313.706	91.94
313.935	78.94
314.165	99.94
314.394	98.94
314.624	86.94
314.853	115.94
315.083	97.94
315.312	78.94
315.542	101.94
315.771	96.94
316.001	92.94
316.23	91.94
316.46	91.94
316.689	86.94
316.919	89.94
317.148	99.94
317.377	83.94
317.607	94.94
317.836	87.94
318.065	109.94
318.295	74.94
318.524	94.94
318.753	103.94
318.983	94.94
319.212	105.94
319.441	103.94
319.67	102.94
319.9	93.94
320.129	92.94
320.358	83.94
320.587	96.94
320.816	88.94
321.046	100.94
321.275	104.94
321.504	93.94
321.733	104.94
321.962	100.94
322.191	102.94
322.42	106.94
322.649	111.94
322.878	97.94
323.108	108.94
323.337	112.94
323.566	128.94
323.795	135.94
324.024	153.94
324.253	280.94
324.482	587.94
324.71	1143.94
324.939	1475.94
325.168	587.94
325.397	180.94
325.626	127.94
325.855	127.94
326.084	114.94
326.313	105.94
326.542	131.94
326.77	185.94
326.999	348.94
327.228	696.94
327.457	1221.94
327.686	964.94
327.914	282.94
328.143	159.94
328.372	131.94
328.6	116.94
328.829	113.94
329.058	100.94
329.287	117.94
329.515	92.94
329.744	93.94
329.972	110.94
330.201	111.94
330.43	115.94
330.658	105.94
330.887	121.94
331.115	118.94
331.344	95.94
331.572	97.94
331.801	91.94
332.03	107.94
332.258	99.94
332.486	104.94
332.715	103.94
332.943	92.94
333.172	89.94
333.4	99.94
333.629	102.94
333.857	98.94
334.085	105.94
334.314	99.94
334.542	139.94
334.771	114.94
334.999	86.94
335.227	106.94
335.455	88.94
335.684	111.94
335.912	104.94
336.14	90.94
336.369	97.94
336.597	94.94
336.825	101.94
337.053	77.94
337.281	87.94
337.51	101.94
337.738	96.94
337.966	95.94
338.194	93.94
338.422	97.94
338.65	83.94
338.878	96.94
339.106	89.94
339.334	72.94
339.562	94.94
339.79	85.94
340.018	78.94
340.246	103.94
340.474	86.94
340.702	92.94
340.93	75.94
341.158	95.94
341.386	91.94
341.614	113.94
341.842	86.94
342.07	89.94
342.298	85.94
342.526	85.94
342.754	89.94
342.981	88.94
343.209	95.94
343.437	95.94
343.665	103.94
343.893	103.94
344.12	95.94
344.348	98.94
344.576	93.94
344.804	84.94
345.031	103.94
345.259	97.94
345.487	90.94
345.714	98.94
345.942	87.94
346.17	99.94
346.397	89.94
346.625	98.94
346.853	102.94
347.08	93.94
347.308	96.94
347.535	95.94
347.763	96.94
347.99	100.94
348.218	113.94
348.445	100.94
348.673	82.94
348.9	99.94
349.128	87.94
349.355	98.94
349.583	84.94
349.81	91.94
350.037	101.94
350.265	102.94
350.492	89.94
350.72	96.94
350.947	111.94
351.174	113.94
351.402	104.94
351.629	99.94
351.856	103.94
352.083	102.94
352.311	104.94
352.538	111.94
352.765	112.94
352.992	105.94
353.22	108.94
353.447	110.94
353.674	108.94
353.901	109.94
354.128	91.94
354.355	107.94
354.583	100.94
354.81	103.94
355.037	102.94
355.264	87.94
355.491	86.94
355.718	89.94
355.945	112.94
356.172	97.94
356.399	89.94
356.626	101.94
356.853	107.94
357.08	80.94
357.307	100.94
357.534	93.94
357.761	93.94
357.988	95.94
358.215	94.94
358.441	95.94
358.668	92.94
358.895	90.94
359.122	97.94
359.349	95.94
359.576	86.94
359.802	116.94
360.029	111.94
360.256	99.94
360.483	95.94
360.709	97.94
360.936	103.94
361.163	90.94
361.39	100.94
361.616	83.94
361.843	89.94
362.07	84.94
362.296	95.94
362.523	87.94
362.749	97.94
362.976	91.94
363.203	97.94
363.429	96.94
363.656	94.94
363.882	81.94
364.109	97.94
364.335	85.94
364.562	89.94
364.788	100.94
365.015	107.94
365.241	89.94
365.468	107.94
365.694	97.94
365.92	99.94
366.147	85.94
366.373	109.94
366.599	79.94
366.826	87.94
367.052	97.94
367.278	103.94
367.505	95.94
367.731	95.94
367.957	78.94
368.184	96.94
368.41	115.94
368.636	104.94
368.862	104.94
369.089	88.94
369.315	87.94
369.541	94.94
369.767	99.94
369.993	89.94
370.219	105.94
370.445	92.94
370.672	85.94
370.898	80.94
371.124	85.94
371.35	92.94
371.576	94.94
371.802	101.94
372.028	91.94
372.254	87.94
372.48	81.94
372.706	88.94
372.932	85.94
373.158	96.94
373.384	100.94
373.61	89.94
373.835	93.94
374.061	99.94
374.287	93.94
374.513	81.94
374.739	87.94
374.965	86.94
375.191	89.94
375.416	80.94
375.642	96.94
375.868	107.94
376.094	100.94
376.319	91.94
376.545	105.94
376.771	86.94
376.997	98.94
377.222	99.94
377.448	98.94
377.674	89.94
377.899	89.94
378.125	87.94
378.35	87.94
378.576	103.94
378.802	99.94
379.027	79.94
379.253	101.94
379.478	99.94
379.704	88.94
379.929	93.94
380.155	92.94
380.38	105.94
380.606	101.94
380.831	94.94
381.057	89.94
381.282	103.94
381.507	100.94
381.733	97.94
381.958	99.94
382.184	96.94
382.409	114.94
382.634	121.94
382.86	101.94
383.085	104.94
383.31	94.94
383.535	104.94
383.761	127.94
383.986	93.94
384.211	108.94
384.436	108.94
384.662	118.94
384.887	113.94
385.112	108.94
385.337	118.94
385.562	112.94
385.787	102.94
386.013	125.94
386.238	112.94
386.463	106.94
386.688	109.94
386.913	110.94
387.138	111.94
387.363	109.94
387.588	96.94
387.813	122.94
388.038	120.94
388.263	119.94
388.488	91.94
388.713	91.94
388.938	90.94
389.163	105.94
389.387	88.94
389.612	99.94
389.837	99.94
390.062	95.94
390.287	104.94
390.512	94.94
390.736	96.94
390.961	84.94
391.186	101.94
391.411	92.94
391.636	115.94
391.86	83.94
392.085	94.94
392.31	107.94
392.534	91.94
392.759	90.94
392.984	80.94
393.208	99.94
393.433	100.94
393.658	90.94
393.882	87.94
394.107	85.94
394.331	106.94
394.556	79.94
394.78	87.94
395.005	103.94
395.229	95.94
395.454	85.94
395.678	84.94
395.903	84.94
396.127	77.94
396.352	91.94
396.576	94.94
396.801	97.94
397.025	77.94
397.249	85.94
397.474	95.94
397.698	91.94
397.922	95.94
398.147	85.94
398.371	93.94
398.595	100.94
398.82	94.94
399.044	92.94
399.268	88.94
399.492	104.94
399.717	90.94
399.941	91.94
400.165	109.94
400.389	86.94
400.613	67.94
400.837	81.94
401.062	86.94
401.286	81.94
401.51	110.94
401.734	87.94
401.958	94.94
402.182	95.94
402.406	124.94
402.63	99.94
402.854	110.94
403.078	101.94
403.302	95.94
403.526	92.94
403.75	89.94
403.974	93.94
404.198	94.94
404.422	99.94
404.645	92.94
404.869	96.94
405.093	96.94
405.317	93.94
405.541	99.94
405.765	99.94
405.988	109.94
406.212	142.94
406.436	169.94
406.66	115.94
406.883	74.94
407.107	81.94
407.331	95.94
407.555	95.94
407.778	94.94
408.002	99.94
408.226	108.94
408.449	97.94
408.673	78.94
408.896	86.94
409.12	99.94
409.344	87.94
409.567	89.94
409.791	103.94
410.014	107.94
410.238	93.94
410.461	91.94
410.685	101.94
410.908	101.94
411.132	109.94
411.355	97.94
411.578	90.94
411.802	91.94
412.025	105.94
412.249	96.94
412.472	92.94
412.695	104.94
412.919	92.94
413.142	88.94
413.365	94.94
413.589	88.94
413.812	95.94
414.035	94.94
414.258	91.94
414.482	90.94
414.705	95.94
414.928	75.94
415.151	93.94
415.374	96.94
415.597	86.94
415.821	89.94
416.044	102.94
416.267	79.94
416.49	91.94
416.713	95.94
416.936	83.94
417.159	97.94
417.382	101.94
417.605	89.94
417.828	87.94
418.051	95.94
418.274	90.94
418.497	92.94
418.72	94.94
418.943	87.94
419.166	105.94
419.389	92.94
419.611	93.94
419.834	95.94
420.057	105.94
420.28	84.94
420.503	83.94
420.726	85.94
420.948	97.94
421.171	85.94
421.394	94.94
421.617	90.94
421.839	90.94
422.062	88.94
422.285	92.94
422.507	101.94
422.73	96.94
422.953	109.94
423.175	100.94
423.398	93.94
423.621	94.94
423.843	91.94
424.066	86.94
424.288	104.94
424.511	79.94
424.733	98.94
424.956	91.94
425.178	92.94
425.401	97.94
425.623	86.94
425.846	86.94
426.068	101.94
426.291	95.94
426.513	85.94
426.735	94.94
426.958	83.94
427.18	85.94
427.402	122.94
427.625	136.94
427.847	114.94
428.069	99.94
428.292	95.94
428.514	86.94
428.736	87.94
428.958	84.94
429.181	89.94
429.403	81.94
429.625	88.94
429.847	77.94
430.069	113.94
430.292	81.94
430.514	87.94
430.736	88.94
430.958	78.94
431.18	96.94
431.402	84.94
431.624	78.94
431.846	89.94
432.068	97.94
432.29	83.94
432.512	71.94
432.734	101.94
432.956	110.94
433.178	99.94
433.4	98.94
433.622	92.94
433.844	75.94
434.066	103.94
434.287	97.94
434.509	96.94
434.731	96.94
434.953	99.94
435.175	99.94
435.397	101.94
435.618	94.94
435.84	90.94
436.062	114.94
436.284	109.94
436.505	110.94
436.727	93.94
436.949	92.94
437.17	85.94
437.392	92.94
437.614	80.94
437.835	98.94
438.057	100.94
438.278	100.94
438.5	103.94
438.721	121.94
438.943	100.94
439.165	89.94
439.386	88.94
439.608	95.94
439.829	91.94
440.05	98.94
440.272	113.94
440.493	91.94
440.715	77.94
440.936	84.94
441.158	80.94
441.379	73.94
441.6	80.94
441.822	85.94
442.043	92.94
442.264	95.94
442.486	107.94
442.707	96.94
442.928	109.94
443.149	113.94
443.371	116.94
443.592	107.94
443.813	99.94
444.034	91.94
444.255	85.94
444.476	91.94
444.698	97.94
444.919	80.94
445.14	140.94
445.361	125.94
445.582	102.94
445.803	105.94
446.024	127.94
446.245	119.94
446.466	97.94
446.687	89.94
446.908	86.94
447.129	94.94
447.35	95.94
447.571	87.94
447.792	90.94
448.013	97.94
448.234	101.94
448.455	93.94
448.675	100.94
448.896	101.94
449.117	103.94
449.338	100.94
449.559	124.94
449.779	112.94
450	93.94
450.221	74.94
450.442	93.94
450.662	93.94
450.883	91.94
451.104	104.94
451.324	85.94
451.545	87.94
451.766	91.94
451.986	74.94
452.207	89.94
452.428	83.94
452.648	98.94
452.869	109.94
453.089	111.94
453.31	92.94
453.53	95.94
453.751	87.94
453.971	112.94
454.192	94.94
454.412	90.94
454.633	92.94
454.853	93.94
455.073	89.94
455.294	78.94
455.514	106.94
455.734	101.94
455.955	82.94
456.175	85.94
456.395	77.94
456.616	78.94
456.836	84.94
457.056	85.94
457.276	99.94
457.497	104.94
457.717	95.94
457.937	85.94
458.157	73.94
458.377	74.94
458.598	95.94
458.818	128.94
459.038	136.94
459.258	79.94
459.478	91.94
459.698	72.94
459.918	83.94
460.138	91.94
460.358	97.94
460.578	96.94
460.798	95.94
461.018	87.94
461.238	77.94
461.458	79.94
461.678	87.94
461.898	83.94
462.118	89.94
462.338	100.94
462.558	88.94
462.777	94.94
462.997	84.94
463.217	87.94
463.437	81.94
463.657	81.94
463.876	76.94
464.096	90.94
464.316	95.94
464.536	87.94
464.755	79.94
464.975	97.94
465.195	121.94
465.414	116.94
465.634	99.94
465.854	80.94
466.073	95.94
466.293	89.94
466.512	81.94
466.732	79.94
466.951	86.94
467.171	85.94
467.391	84.94
467.61	97.94
467.829	89.94
468.049	93.94
468.268	96.94
468.488	91.94
468.707	91.94
468.927	92.94
469.146	86.94
469.365	79.94
469.585	94.94
469.804	94.94
470.023	88.94
470.243	84.94
470.462	93.94
470.681	104.94
470.901	104.94
471.12	82.94
471.339	91.94
471.558	81.94
471.777	77.94
471.997	96.94
472.216	112.94
472.435	126.94
472.654	95.94
472.873	86.94
473.092	80.94
473.311	94.94
473.53	78.94
473.749	80.94
473.968	86.94
474.187	85.94
474.406	83.94
474.625	92.94
474.844	80.94
475.063	80.94
475.282	82.94
475.501	85.94
475.72	82.94
475.939	78.94
476.158	89.94
476.377	91.94
476.596	88.94
476.814	93.94
477.033	80.94
477.252	97.94
477.471	93.94
477.69	97.94
477.908	91.94
478.127	89.94
478.346	83.94
478.564	88.94
478.783	106.94
479.002	94.94
479.22	102.94
479.439	99.94
479.658	119.94
479.876	97.94
480.095	87.94
480.313	107.94
480.532	81.94
480.751	92.94
480.969	117.94
481.188	177.94
481.406	139.94
481.624	86.94
481.843	95.94
482.061	84.94
482.28	93.94
482.498	83.94
482.717	87.94
482.935	92.94
483.153	93.94
483.372	77.94
483.59	88.94
483.808	89.94
484.027	92.94
484.245	87.94
484.463	93.94
484.681	91.94
484.9	96.94
485.118	100.94
485.336	78.94
485.554	75.94
485.772	102.94
485.99	102.94
486.209	99.94
486.427	83.94
486.645	111.94
486.863	112.94
487.081	98.94
487.299	91.94
487.517	99.94
487.735	84.94
487.953	98.94
488.171	103.94
488.389	95.94
488.607	105.94
488.825	91.94
489.043	100.94
489.261	95.94
489.479	75.94
489.696	96.94
489.914	84.94
490.132	88.94
490.35	77.94
490.568	95.94
490.786	100.94
491.003	108.94
491.221	94.94
491.439	101.94
491.657	93.94
491.874	98.94
492.092	96.94
492.31	95.94
492.527	99.94
492.745	87.94
492.963	73.94
493.18	88.94
493.398	89.94
493.615	90.94
493.833	91.94
494.05	88.94
494.268	94.94
494.485	90.94
494.703	92.94
494.92	89.94
495.138	73.94
495.355	94.94
495.573	98.94
495.79	96.94
496.008	96.94
496.225	73.94
496.442	105.94
496.66	96.94
496.877	85.94
497.094	75.94
497.312	95.94
497.529	86.94
497.746	101.94
497.963	95.94
498.181	92.94
498.398	87.94
498.615	104.94
498.832	92.94
499.049	77.94
499.267	75.94
499.484	85.94
499.701	85.94
499.918	90.94
500.135	113.94
500.352	103.94
500.569	97.94
500.786	87.94
501.003	90.94
501.22	104.94
501.437	87.94
501.654	97.94
501.871	95.94
502.088	91.94
502.305	89.94
502.522	100.94
502.739	87.94
502.956	84.94
503.172	104.94
503.389	87.94
503.606	83.94
503.823	87.94
504.04	81.94
504.256	103.94
504.473	88.94
504.69	98.94
504.907	94.94
505.123	102.94
505.34	91.94
505.557	77.94
505.773	100.94
505.99	85.94
506.207	83.94
506.423	99.94
506.64	92.94
506.856	85.94
507.073	87.94
507.289	91.94
507.506	99.94
507.722	110.94
507.939	104.94
508.155	102.94
508.372	88.94
508.588	96.94
508.805	95.94
509.021	94.94
509.238	102.94
509.454	105.94
509.67	96.94
509.887	107.94
510.103	126.94
510.319	178.94
510.536	603.94
510.752	1744.94
510.968	488.94
511.184	127.94
511.401	93.94
511.617	89.94
511.833	81.94
512.049	88.94
512.265	90.94
512.481	90.94
512.698	96.94
512.914	88.94
513.13	103.94
513.346	91.94
513.562	90.94
513.778	88.94
513.994	91.94
514.21	87.94
514.426	124.94
514.642	119.94
514.858	102.94
515.074	143.94
515.29	316.94
515.506	970.94
515.721	376.94
