Data from Uncirc_1980_H10_HRD10591_00027.txt Node
Date: Wed Jan 03 12:37:00 EST 2024
User: Yrep
Spectrometer: HR+D1059
Trigger mode: 1
Integration Time (sec): 1.000000E-1
Scans to average: 1
Electric dark correction enabled: true
Nonlinearity correction enabled: false
Boxcar width: 0
XAxis mode: Wavelengths
Number of Pixels in Spectrum: 2048
>>>>>Begin Spectral Data<<<<<
223.165	-29.56
223.4	-29.56
223.635	-29.56
223.869	-19.56
224.104	-23.56
224.338	-4.56
224.573	-24.56
224.808	-8.56
225.042	-11.56
225.277	-11.56
225.511	-3.56
225.746	23.44
225.98	11.44
226.215	3.44
226.449	29.44
226.683	10.44
226.918	30.44
227.152	28.44
227.387	35.44
227.621	36.44
227.856	46.44
228.09	55.44
228.324	52.44
228.559	55.44
228.793	59.44
229.027	57.44
229.262	56.44
229.496	66.44
229.73	76.44
229.964	70.44
230.199	69.44
230.433	69.44
230.667	72.44
230.901	64.44
231.136	65.44
231.37	78.44
231.604	100.44
231.838	96.44
232.072	74.44
232.306	85.44
232.541	76.44
232.775	92.44
233.009	71.44
233.243	80.44
233.477	78.44
233.711	80.44
233.945	86.44
234.179	77.44
234.413	85.44
234.647	82.44
234.881	88.44
235.115	75.44
235.349	87.44
235.583	72.44
235.817	74.44
236.051	64.44
236.285	76.44
236.519	82.44
236.753	86.44
236.987	88.44
237.221	78.44
237.455	85.44
237.689	88.44
237.922	73.44
238.156	76.44
238.39	71.44
238.624	59.44
238.858	85.44
239.091	89.44
239.325	74.44
239.559	83.44
239.793	73.44
240.027	70.44
240.26	75.44
240.494	74.44
240.728	83.44
240.961	69.44
241.195	74.44
241.429	71.44
241.662	82.44
241.896	83.44
242.13	70.44
242.363	77.44
242.597	71.44
242.83	75.44
243.064	77.44
243.298	82.44
243.531	79.44
243.765	101.44
243.998	72.44
244.232	85.44
244.465	80.44
244.699	77.44
244.932	87.44
245.166	76.44
245.399	80.44
245.633	84.44
245.866	66.44
246.099	75.44
246.333	74.44
246.566	82.44
246.8	69.44
247.033	74.44
247.266	75.44
247.5	83.44
247.733	77.44
247.966	82.44
248.2	68.44
248.433	64.44
248.666	83.44
248.899	61.44
249.133	77.44
249.366	92.44
249.599	100.44
249.832	60.44
250.066	90.44
250.299	83.44
250.532	77.44
250.765	74.44
250.998	65.44
251.231	85.44
251.465	77.44
251.698	70.44
251.931	73.44
252.164	77.44
252.397	67.44
252.63	63.44
252.863	73.44
253.096	70.44
253.329	86.44
253.562	87.44
253.795	71.44
254.028	60.44
254.261	84.44
254.494	77.44
254.727	84.44
254.96	83.44
255.193	100.44
255.426	77.44
255.659	85.44
255.892	80.44
256.124	92.44
256.357	83.44
256.59	72.44
256.823	80.44
257.056	86.44
257.289	71.44
257.521	86.44
257.754	86.44
257.987	70.44
258.22	88.44
258.452	74.44
258.685	73.44
258.918	71.44
259.151	93.44
259.383	80.44
259.616	86.44
259.849	68.44
260.081	77.44
260.314	68.44
260.547	86.44
260.779	74.44
261.012	90.44
261.244	84.44
261.477	89.44
261.71	74.44
261.942	91.44
262.175	105.44
262.407	92.44
262.64	92.44
262.872	82.44
263.105	75.44
263.337	72.44
263.57	82.44
263.802	77.44
264.035	85.44
264.267	81.44
264.499	88.44
264.732	91.44
264.964	86.44
265.197	73.44
265.429	76.44
265.661	81.44
265.894	94.44
266.126	92.44
266.358	94.44
266.591	95.44
266.823	94.44
267.055	99.44
267.287	78.44
267.52	77.44
267.752	81.44
267.984	77.44
268.216	83.44
268.448	76.44
268.681	80.44
268.913	96.44
269.145	79.44
269.377	72.44
269.609	74.44
269.841	68.44
270.073	79.44
270.306	86.44
270.538	81.44
270.77	101.44
271.002	68.44
271.234	80.44
271.466	73.44
271.698	84.44
271.93	88.44
272.162	69.44
272.394	102.44
272.626	93.44
272.858	89.44
273.09	88.44
273.322	88.44
273.553	89.44
273.785	73.44
274.017	91.44
274.249	74.44
274.481	92.44
274.713	102.44
274.945	86.44
275.176	81.44
275.408	96.44
275.64	72.44
275.872	75.44
276.104	84.44
276.335	95.44
276.567	91.44
276.799	89.44
277.031	89.44
277.262	79.44
277.494	83.44
277.726	84.44
277.957	86.44
278.189	90.44
278.421	87.44
278.652	90.44
278.884	85.44
279.115	94.44
279.347	73.44
279.579	72.44
279.81	81.44
280.042	78.44
280.273	93.44
280.505	82.44
280.736	88.44
280.968	84.44
281.199	69.44
281.431	95.44
281.662	80.44
281.894	85.44
282.125	93.44
282.356	112.44
282.588	119.44
282.819	90.44
283.051	98.44
283.282	89.44
283.513	93.44
283.745	75.44
283.976	77.44
284.207	94.44
284.439	94.44
284.67	86.44
284.901	75.44
285.132	86.44
285.364	72.44
285.595	93.44
285.826	85.44
286.057	83.44
286.288	85.44
286.52	111.44
286.751	99.44
286.982	87.44
287.213	84.44
287.444	83.44
287.675	91.44
287.906	93.44
288.138	81.44
288.369	98.44
288.6	84.44
288.831	83.44
289.062	85.44
289.293	103.44
289.524	82.44
289.755	66.44
289.986	70.44
290.217	87.44
290.448	88.44
290.679	76.44
290.91	84.44
291.141	85.44
291.371	98.44
291.602	69.44
291.833	88.44
292.064	84.44
292.295	78.44
292.526	91.44
292.757	96.44
292.987	94.44
293.218	77.44
293.449	98.44
293.68	76.44
293.91	105.44
294.141	83.44
294.372	89.44
294.603	82.44
294.833	93.44
295.064	75.44
295.295	84.44
295.525	92.44
295.756	110.44
295.987	109.44
296.217	119.44
296.448	110.44
296.679	93.44
296.909	92.44
297.14	77.44
297.37	89.44
297.601	76.44
297.831	82.44
298.062	78.44
298.292	82.44
298.523	88.44
298.753	93.44
298.984	84.44
299.214	90.44
299.445	86.44
299.675	88.44
299.905	94.44
300.136	90.44
300.366	80.44
300.597	90.44
300.827	78.44
301.057	93.44
301.288	92.44
301.518	92.44
301.748	94.44
301.979	88.44
302.209	90.44
302.439	87.44
302.669	77.44
302.9	82.44
303.13	93.44
303.36	76.44
303.59	108.44
303.82	102.44
304.051	96.44
304.281	98.44
304.511	95.44
304.741	76.44
304.971	86.44
305.201	78.44
305.431	87.44
305.661	90.44
305.891	77.44
306.121	95.44
306.352	94.44
306.582	72.44
306.812	100.44
307.042	80.44
307.272	86.44
307.502	80.44
307.731	86.44
307.961	92.44
308.191	84.44
308.421	85.44
308.651	83.44
308.881	92.44
309.111	80.44
309.341	79.44
309.571	104.44
309.8	87.44
310.03	99.44
310.26	73.44
310.49	98.44
310.72	98.44
310.949	89.44
311.179	86.44
311.409	97.44
311.639	86.44
311.868	96.44
312.098	96.44
312.328	91.44
312.557	84.44
312.787	90.44
313.017	97.44
313.246	88.44
313.476	73.44
313.706	97.44
313.935	88.44
314.165	103.44
314.394	85.44
314.624	98.44
314.853	86.44
315.083	104.44
315.312	98.44
315.542	89.44
315.771	100.44
316.001	78.44
316.23	92.44
316.46	81.44
316.689	84.44
316.919	88.44
317.148	103.44
317.377	96.44
317.607	98.44
317.836	91.44
318.065	82.44
318.295	78.44
318.524	94.44
318.753	80.44
318.983	105.44
319.212	110.44
319.441	84.44
319.67	87.44
319.9	86.44
320.129	104.44
320.358	76.44
320.587	82.44
320.816	88.44
321.046	96.44
321.275	84.44
321.504	96.44
321.733	101.44
321.962	96.44
322.191	95.44
322.42	87.44
322.649	102.44
322.878	112.44
323.108	98.44
323.337	109.44
323.566	119.44
323.795	109.44
324.024	164.44
324.253	258.44
324.482	498.44
324.71	1024.44
324.939	1323.44
325.168	488.44
325.397	169.44
325.626	116.44
325.855	97.44
326.084	106.44
326.313	98.44
326.542	130.44
326.77	170.44
326.999	305.44
327.228	587.44
327.457	1044.44
327.686	846.44
327.914	253.44
328.143	140.44
328.372	128.44
328.6	111.44
328.829	92.44
329.058	110.44
329.287	95.44
329.515	101.44
329.744	89.44
329.972	90.44
330.201	105.44
330.43	108.44
330.658	108.44
330.887	96.44
331.115	96.44
331.344	85.44
331.572	89.44
331.801	98.44
332.03	102.44
332.258	97.44
332.486	82.44
332.715	104.44
332.943	106.44
333.172	92.44
333.4	104.44
333.629	91.44
333.857	108.44
334.085	109.44
334.314	101.44
334.542	117.44
334.771	110.44
334.999	94.44
335.227	83.44
335.455	84.44
335.684	81.44
335.912	102.44
336.14	80.44
336.369	76.44
336.597	107.44
336.825	101.44
337.053	93.44
337.281	91.44
337.51	84.44
337.738	73.44
337.966	90.44
338.194	92.44
338.422	91.44
338.65	81.44
338.878	98.44
339.106	80.44
339.334	99.44
339.562	92.44
339.79	81.44
340.018	92.44
340.246	87.44
340.474	83.44
340.702	81.44
340.93	89.44
341.158	98.44
341.386	84.44
341.614	93.44
341.842	73.44
342.07	96.44
342.298	94.44
342.526	86.44
342.754	78.44
342.981	92.44
343.209	98.44
343.437	97.44
343.665	84.44
343.893	86.44
344.12	84.44
344.348	91.44
344.576	90.44
344.804	91.44
345.031	88.44
345.259	94.44
345.487	89.44
345.714	75.44
345.942	85.44
346.17	80.44
346.397	70.44
346.625	103.44
346.853	104.44
347.08	94.44
347.308	100.44
347.535	96.44
347.763	93.44
347.99	76.44
348.218	94.44
348.445	96.44
348.673	77.44
348.9	94.44
349.128	77.44
349.355	80.44
349.583	101.44
349.81	90.44
350.037	84.44
350.265	92.44
350.492	83.44
350.72	97.44
350.947	82.44
351.174	95.44
351.402	100.44
351.629	96.44
351.856	93.44
352.083	97.44
352.311	103.44
352.538	106.44
352.765	95.44
352.992	83.44
353.22	104.44
353.447	93.44
353.674	98.44
353.901	98.44
354.128	105.44
354.355	84.44
354.583	96.44
354.81	87.44
355.037	97.44
355.264	89.44
355.491	93.44
355.718	93.44
355.945	82.44
356.172	98.44
356.399	93.44
356.626	86.44
356.853	97.44
357.08	88.44
357.307	98.44
357.534	96.44
357.761	99.44
357.988	90.44
358.215	110.44
358.441	82.44
358.668	93.44
358.895	96.44
359.122	82.44
359.349	96.44
359.576	82.44
359.802	94.44
360.029	108.44
360.256	84.44
360.483	83.44
360.709	80.44
360.936	97.44
361.163	72.44
361.39	95.44
361.616	94.44
361.843	83.44
362.07	94.44
362.296	88.44
362.523	83.44
362.749	91.44
362.976	90.44
363.203	84.44
363.429	77.44
363.656	91.44
363.882	87.44
364.109	69.44
364.335	92.44
364.562	82.44
364.788	91.44
365.015	90.44
365.241	82.44
365.468	109.44
365.694	101.44
365.92	90.44
366.147	80.44
366.373	76.44
366.599	79.44
366.826	71.44
367.052	97.44
367.278	90.44
367.505	85.44
367.731	92.44
367.957	94.44
368.184	87.44
368.41	81.44
368.636	103.44
368.862	105.44
369.089	96.44
369.315	85.44
369.541	93.44
369.767	89.44
369.993	78.44
370.219	93.44
370.445	99.44
370.672	93.44
370.898	96.44
371.124	72.44
371.35	99.44
371.576	80.44
371.802	86.44
372.028	92.44
372.254	95.44
372.48	100.44
372.706	67.44
372.932	80.44
373.158	84.44
373.384	95.44
373.61	90.44
373.835	86.44
374.061	84.44
374.287	87.44
374.513	84.44
374.739	83.44
374.965	85.44
375.191	81.44
375.416	75.44
375.642	76.44
375.868	95.44
376.094	94.44
376.319	86.44
376.545	88.44
376.771	70.44
376.997	74.44
377.222	86.44
377.448	75.44
377.674	101.44
377.899	88.44
378.125	92.44
378.35	99.44
378.576	98.44
378.802	88.44
379.027	84.44
379.253	81.44
379.478	79.44
379.704	90.44
379.929	88.44
380.155	88.44
380.38	76.44
380.606	91.44
380.831	87.44
381.057	106.44
381.282	91.44
381.507	105.44
381.733	88.44
381.958	90.44
382.184	98.44
382.409	104.44
382.634	109.44
382.86	97.44
383.085	117.44
383.31	96.44
383.535	117.44
383.761	108.44
383.986	100.44
384.211	101.44
384.436	108.44
384.662	115.44
384.887	111.44
385.112	116.44
385.337	113.44
385.562	124.44
385.787	114.44
386.013	121.44
386.238	117.44
386.463	102.44
386.688	135.44
386.913	108.44
387.138	101.44
387.363	109.44
387.588	88.44
387.813	97.44
388.038	100.44
388.263	114.44
388.488	123.44
388.713	108.44
388.938	90.44
389.163	92.44
389.387	84.44
389.612	82.44
389.837	93.44
390.062	92.44
390.287	89.44
390.512	104.44
390.736	98.44
390.961	79.44
391.186	92.44
391.411	99.44
391.636	89.44
391.86	86.44
392.085	66.44
392.31	85.44
392.534	73.44
392.759	77.44
392.984	82.44
393.208	93.44
393.433	85.44
393.658	109.44
393.882	92.44
394.107	92.44
394.331	77.44
394.556	84.44
394.78	89.44
395.005	93.44
395.229	85.44
395.454	84.44
395.678	72.44
395.903	83.44
396.127	91.44
396.352	82.44
396.576	92.44
396.801	88.44
397.025	84.44
397.249	91.44
397.474	92.44
397.698	86.44
397.922	82.44
398.147	91.44
398.371	88.44
398.595	72.44
398.82	77.44
399.044	78.44
399.268	64.44
399.492	69.44
399.717	92.44
399.941	73.44
400.165	92.44
400.389	84.44
400.613	75.44
400.837	89.44
401.062	75.44
401.286	90.44
401.51	96.44
401.734	84.44
401.958	88.44
402.182	82.44
402.406	111.44
402.63	103.44
402.854	86.44
403.078	80.44
403.302	90.44
403.526	85.44
403.75	86.44
403.974	85.44
404.198	81.44
404.422	74.44
404.645	82.44
404.869	97.44
405.093	80.44
405.317	105.44
405.541	96.44
405.765	88.44
405.988	95.44
406.212	123.44
406.436	149.44
406.66	124.44
406.883	86.44
407.107	84.44
407.331	91.44
407.555	90.44
407.778	102.44
408.002	94.44
408.226	92.44
408.449	81.44
408.673	69.44
408.896	86.44
409.12	77.44
409.344	86.44
409.567	67.44
409.791	85.44
410.014	95.44
410.238	85.44
410.461	85.44
410.685	77.44
410.908	101.44
411.132	98.44
411.355	93.44
411.578	102.44
411.802	104.44
412.025	88.44
412.249	76.44
412.472	86.44
412.695	87.44
412.919	87.44
413.142	84.44
413.365	81.44
413.589	80.44
413.812	78.44
414.035	86.44
414.258	100.44
414.482	77.44
414.705	85.44
414.928	76.44
415.151	88.44
415.374	96.44
415.597	84.44
415.821	92.44
416.044	105.44
416.267	94.44
416.49	88.44
416.713	90.44
416.936	82.44
417.159	92.44
417.382	76.44
417.605	89.44
417.828	94.44
418.051	83.44
418.274	77.44
418.497	76.44
418.72	78.44
418.943	76.44
419.166	85.44
419.389	81.44
419.611	101.44
419.834	90.44
420.057	96.44
420.28	70.44
420.503	92.44
420.726	78.44
420.948	92.44
421.171	92.44
421.394	95.44
421.617	82.44
421.839	96.44
422.062	80.44
422.285	81.44
422.507	98.44
422.73	84.44
422.953	86.44
423.175	85.44
423.398	90.44
423.621	84.44
423.843	86.44
424.066	91.44
424.288	84.44
424.511	96.44
424.733	75.44
424.956	98.44
425.178	98.44
425.401	98.44
425.623	88.44
425.846	85.44
426.068	91.44
426.291	89.44
426.513	86.44
426.735	85.44
426.958	82.44
427.18	88.44
427.402	117.44
427.625	124.44
427.847	104.44
428.069	112.44
428.292	75.44
428.514	91.44
428.736	93.44
428.958	85.44
429.181	81.44
429.403	93.44
429.625	76.44
429.847	81.44
430.069	101.44
430.292	98.44
430.514	86.44
430.736	73.44
430.958	91.44
431.18	82.44
431.402	83.44
431.624	102.44
431.846	84.44
432.068	76.44
432.29	69.44
432.512	90.44
432.734	88.44
432.956	84.44
433.178	94.44
433.4	105.44
433.622	71.44
433.844	73.44
434.066	88.44
434.287	80.44
434.509	92.44
434.731	86.44
434.953	84.44
435.175	91.44
435.397	92.44
435.618	86.44
435.84	77.44
436.062	98.44
436.284	86.44
436.505	76.44
436.727	78.44
436.949	91.44
437.17	90.44
437.392	75.44
437.614	80.44
437.835	89.44
438.057	101.44
438.278	99.44
438.5	93.44
438.721	84.44
438.943	99.44
439.165	95.44
439.386	86.44
439.608	88.44
439.829	88.44
440.05	101.44
440.272	105.44
440.493	83.44
440.715	95.44
440.936	89.44
441.158	78.44
441.379	84.44
441.6	87.44
441.822	99.44
442.043	85.44
442.264	78.44
442.486	86.44
442.707	97.44
442.928	100.44
443.149	104.44
443.371	110.44
443.592	99.44
443.813	98.44
444.034	93.44
444.255	110.44
444.476	98.44
444.698	94.44
444.919	100.44
445.14	126.44
445.361	111.44
445.582	110.44
445.803	115.44
446.024	108.44
446.245	104.44
446.466	99.44
446.687	86.44
446.908	99.44
447.129	92.44
447.35	93.44
447.571	83.44
447.792	86.44
448.013	94.44
448.234	95.44
448.455	100.44
448.675	108.44
448.896	94.44
449.117	98.44
449.338	99.44
449.559	118.44
449.779	96.44
450	92.44
450.221	71.44
450.442	83.44
450.662	83.44
450.883	94.44
451.104	93.44
451.324	83.44
451.545	82.44
451.766	99.44
451.986	78.44
452.207	65.44
452.428	84.44
452.648	80.44
452.869	91.44
453.089	96.44
453.31	84.44
453.53	89.44
453.751	74.44
453.971	81.44
454.192	104.44
454.412	89.44
454.633	90.44
454.853	89.44
455.073	77.44
455.294	78.44
455.514	98.44
455.734	88.44
455.955	88.44
456.175	70.44
456.395	74.44
456.616	86.44
456.836	84.44
457.056	80.44
457.276	84.44
457.497	74.44
457.717	92.44
457.937	77.44
458.157	86.44
458.377	86.44
458.598	98.44
458.818	108.44
459.038	115.44
459.258	92.44
459.478	87.44
459.698	85.44
459.918	82.44
460.138	78.44
460.358	84.44
460.578	102.44
460.798	77.44
461.018	92.44
461.238	82.44
461.458	85.44
461.678	97.44
461.898	82.44
462.118	83.44
462.338	82.44
462.558	98.44
462.777	79.44
462.997	84.44
463.217	92.44
463.437	80.44
463.657	88.44
463.876	90.44
464.096	71.44
464.316	92.44
464.536	76.44
464.755	91.44
464.975	82.44
465.195	96.44
465.414	124.44
465.634	96.44
465.854	89.44
466.073	85.44
466.293	85.44
466.512	98.44
466.732	85.44
466.951	72.44
467.171	92.44
467.391	91.44
467.61	89.44
467.829	87.44
468.049	91.44
468.268	89.44
468.488	83.44
468.707	74.44
468.927	84.44
469.146	77.44
469.365	88.44
469.585	95.44
469.804	84.44
470.023	84.44
470.243	94.44
470.462	90.44
470.681	89.44
470.901	84.44
471.12	72.44
471.339	85.44
471.558	84.44
471.777	85.44
471.997	89.44
472.216	116.44
472.435	116.44
472.654	81.44
472.873	90.44
473.092	80.44
473.311	96.44
473.53	91.44
473.749	85.44
473.968	86.44
474.187	98.44
474.406	105.44
474.625	82.44
474.844	81.44
475.063	90.44
475.282	97.44
475.501	94.44
475.72	99.44
475.939	91.44
476.158	91.44
476.377	90.44
476.596	82.44
476.814	86.44
477.033	72.44
477.252	77.44
477.471	93.44
477.69	92.44
477.908	91.44
478.127	95.44
478.346	90.44
478.564	85.44
478.783	97.44
479.002	93.44
479.22	99.44
479.439	91.44
479.658	93.44
479.876	104.44
480.095	76.44
480.313	83.44
480.532	95.44
480.751	89.44
480.969	82.44
481.188	166.44
481.406	122.44
481.624	78.44
481.843	84.44
482.061	96.44
482.28	92.44
482.498	92.44
482.717	83.44
482.935	88.44
483.153	84.44
483.372	97.44
483.59	91.44
483.808	91.44
484.027	95.44
484.245	90.44
484.463	93.44
484.681	97.44
484.9	85.44
485.118	82.44
485.336	108.44
485.554	91.44
485.772	98.44
485.99	109.44
486.209	110.44
486.427	96.44
486.645	105.44
486.863	107.44
487.081	98.44
487.299	96.44
487.517	92.44
487.735	86.44
487.953	84.44
488.171	84.44
488.389	85.44
488.607	74.44
488.825	83.44
489.043	90.44
489.261	92.44
489.479	81.44
489.696	87.44
489.914	93.44
490.132	89.44
490.35	97.44
490.568	89.44
490.786	70.44
491.003	96.44
491.221	97.44
491.439	100.44
491.657	87.44
491.874	92.44
492.092	106.44
492.31	76.44
492.527	93.44
492.745	100.44
492.963	71.44
493.18	77.44
493.398	84.44
493.615	94.44
493.833	105.44
494.05	86.44
494.268	86.44
494.485	90.44
494.703	86.44
494.92	100.44
495.138	84.44
495.355	101.44
495.573	92.44
495.79	91.44
496.008	93.44
496.225	85.44
496.442	86.44
496.66	82.44
496.877	93.44
497.094	98.44
497.312	89.44
497.529	85.44
497.746	98.44
497.963	82.44
498.181	77.44
498.398	100.44
498.615	86.44
498.832	99.44
499.049	86.44
499.267	88.44
499.484	74.44
499.701	90.44
499.918	89.44
500.135	71.44
500.352	110.44
500.569	96.44
500.786	94.44
501.003	89.44
501.22	105.44
501.437	94.44
501.654	88.44
501.871	100.44
502.088	78.44
502.305	88.44
502.522	96.44
502.739	80.44
502.956	101.44
503.172	101.44
503.389	92.44
503.606	93.44
503.823	95.44
504.04	94.44
504.256	93.44
504.473	77.44
504.69	92.44
504.907	80.44
505.123	93.44
505.34	94.44
505.557	94.44
505.773	78.44
505.99	77.44
506.207	86.44
506.423	85.44
506.64	93.44
506.856	84.44
507.073	86.44
507.289	94.44
507.506	80.44
507.722	76.44
507.939	92.44
508.155	81.44
508.372	92.44
508.588	92.44
508.805	86.44
509.021	89.44
509.238	89.44
509.454	92.44
509.67	91.44
509.887	97.44
510.103	114.44
510.319	168.44
510.536	493.44
510.752	1444.44
510.968	438.44
511.184	126.44
511.401	106.44
511.617	100.44
511.833	96.44
512.049	81.44
512.265	94.44
512.481	88.44
512.698	84.44
512.914	93.44
513.13	88.44
513.346	89.44
513.562	92.44
513.778	97.44
513.994	88.44
514.21	92.44
514.426	106.44
514.642	115.44
514.858	103.44
515.074	120.44
515.29	284.44
515.506	839.44
515.721	322.44
515.937	126.44
516.153	100.44
516.369	92.44
516.585	92.44
516.801	82.44
517.016	96.44
517.232	84.44
