Data from Uncirc_1980_H10_HRD10591_00050.txt Node
Date: Wed Jan 03 12:37:05 EST 2024
User: Yrep
Spectrometer: HR+D1059
Trigger mode: 1
Integration Time (sec): 1.000000E-1
Scans to average: 1
Electric dark correction enabled: true
Nonlinearity correction enabled: false
Boxcar width: 0
XAxis mode: Wavelengths
Number of Pixels in Spectrum: 2048
>>>>>Begin Spectral Data<<<<<
223.165	-18.5
223.4	-18.5
223.635	-18.5
223.869	-20.5
224.104	-16.5
224.338	-13.5
224.573	-16.5
224.808	-11.5
225.042	-0.5
225.277	-10.5
225.511	-14.5
225.746	13.5
225.98	6.5
226.215	15.5
226.449	24.5
226.683	11.5
226.918	31.5
227.152	19.5
227.387	33.5
227.621	39.5
227.856	53.5
228.09	45.5
228.324	45.5
228.559	63.5
228.793	64.5
229.027	64.5
229.262	80.5
229.496	78.5
229.73	62.5
229.964	64.5
230.199	76.5
230.433	76.5
230.667	81.5
230.901	65.5
231.136	58.5
231.37	69.5
231.604	78.5
231.838	81.5
232.072	79.5
232.306	90.5
232.541	78.5
232.775	73.5
233.009	80.5
233.243	76.5
233.477	81.5
233.711	73.5
233.945	80.5
234.179	88.5
234.413	88.5
234.647	71.5
234.881	100.5
235.115	73.5
235.349	75.5
235.583	77.5
235.817	74.5
236.051	84.5
236.285	76.5
236.519	93.5
236.753	77.5
236.987	91.5
237.221	93.5
237.455	59.5
237.689	75.5
237.922	80.5
238.156	88.5
238.39	77.5
238.624	91.5
238.858	76.5
239.091	80.5
239.325	69.5
239.559	96.5
239.793	81.5
240.027	88.5
240.26	83.5
240.494	68.5
240.728	68.5
240.961	80.5
241.195	82.5
241.429	73.5
241.662	85.5
241.896	82.5
242.13	88.5
242.363	71.5
242.597	75.5
242.83	72.5
243.064	86.5
243.298	71.5
243.531	79.5
243.765	72.5
243.998	73.5
244.232	75.5
244.465	78.5
244.699	92.5
244.932	84.5
245.166	89.5
245.399	88.5
245.633	77.5
245.866	76.5
246.099	81.5
246.333	81.5
246.566	72.5
246.8	86.5
247.033	87.5
247.266	88.5
247.5	71.5
247.733	70.5
247.966	84.5
248.2	73.5
248.433	87.5
248.666	92.5
248.899	79.5
249.133	89.5
249.366	85.5
249.599	84.5
249.832	69.5
250.066	90.5
250.299	91.5
250.532	74.5
250.765	90.5
250.998	81.5
251.231	93.5
251.465	89.5
251.698	70.5
251.931	70.5
252.164	78.5
252.397	84.5
252.63	93.5
252.863	91.5
253.096	76.5
253.329	83.5
253.562	87.5
253.795	68.5
254.028	75.5
254.261	76.5
254.494	70.5
254.727	79.5
254.96	80.5
255.193	70.5
255.426	88.5
255.659	95.5
255.892	73.5
256.124	80.5
256.357	77.5
256.59	69.5
256.823	92.5
257.056	91.5
257.289	76.5
257.521	88.5
257.754	94.5
257.987	84.5
258.22	76.5
258.452	83.5
258.685	92.5
258.918	87.5
259.151	80.5
259.383	76.5
259.616	88.5
259.849	78.5
260.081	85.5
260.314	91.5
260.547	92.5
260.779	86.5
261.012	87.5
261.244	86.5
261.477	83.5
261.71	76.5
261.942	102.5
262.175	108.5
262.407	97.5
262.64	93.5
262.872	94.5
263.105	85.5
263.337	80.5
263.57	82.5
263.802	89.5
264.035	87.5
264.267	94.5
264.499	91.5
264.732	83.5
264.964	85.5
265.197	77.5
265.429	87.5
265.661	83.5
265.894	68.5
266.126	90.5
266.358	78.5
266.591	87.5
266.823	72.5
267.055	73.5
267.287	101.5
267.52	80.5
267.752	90.5
267.984	76.5
268.216	83.5
268.448	89.5
268.681	85.5
268.913	84.5
269.145	80.5
269.377	95.5
269.609	83.5
269.841	85.5
270.073	89.5
270.306	80.5
270.538	83.5
270.77	99.5
271.002	92.5
271.234	83.5
271.466	100.5
271.698	95.5
271.93	86.5
272.162	104.5
272.394	80.5
272.626	85.5
272.858	73.5
273.09	88.5
273.322	91.5
273.553	79.5
273.785	92.5
274.017	88.5
274.249	64.5
274.481	81.5
274.713	89.5
274.945	86.5
275.176	83.5
275.408	97.5
275.64	87.5
275.872	90.5
276.104	97.5
276.335	69.5
276.567	87.5
276.799	99.5
277.031	93.5
277.262	84.5
277.494	75.5
277.726	86.5
277.957	91.5
278.189	80.5
278.421	87.5
278.652	83.5
278.884	86.5
279.115	88.5
279.347	91.5
279.579	77.5
279.81	89.5
280.042	92.5
280.273	96.5
280.505	79.5
280.736	79.5
280.968	87.5
281.199	101.5
281.431	94.5
281.662	100.5
281.894	83.5
282.125	102.5
282.356	103.5
282.588	125.5
282.819	119.5
283.051	93.5
283.282	85.5
283.513	91.5
283.745	87.5
283.976	84.5
284.207	87.5
284.439	99.5
284.67	77.5
284.901	88.5
285.132	69.5
285.364	98.5
285.595	83.5
285.826	80.5
286.057	91.5
286.288	94.5
286.52	92.5
286.751	97.5
286.982	92.5
287.213	86.5
287.444	91.5
287.675	91.5
287.906	103.5
288.138	79.5
288.369	91.5
288.6	78.5
288.831	81.5
289.062	74.5
289.293	91.5
289.524	90.5
289.755	94.5
289.986	99.5
290.217	103.5
290.448	88.5
290.679	93.5
290.91	86.5
291.141	94.5
291.371	91.5
291.602	78.5
291.833	79.5
292.064	87.5
292.295	96.5
292.526	77.5
292.757	84.5
292.987	99.5
293.218	93.5
293.449	99.5
293.68	94.5
293.91	78.5
294.141	103.5
294.372	100.5
294.603	94.5
294.833	87.5
295.064	92.5
295.295	91.5
295.525	97.5
295.756	79.5
295.987	104.5
296.217	132.5
296.448	126.5
296.679	85.5
296.909	101.5
297.14	91.5
297.37	86.5
297.601	85.5
297.831	92.5
298.062	84.5
298.292	93.5
298.523	93.5
298.753	104.5
298.984	95.5
299.214	93.5
299.445	86.5
299.675	84.5
299.905	83.5
300.136	80.5
300.366	87.5
300.597	78.5
300.827	98.5
301.057	101.5
301.288	106.5
301.518	89.5
301.748	91.5
301.979	112.5
302.209	95.5
302.439	86.5
302.669	98.5
302.9	93.5
303.13	85.5
303.36	84.5
303.59	92.5
303.82	99.5
304.051	110.5
304.281	91.5
304.511	100.5
304.741	92.5
304.971	95.5
305.201	89.5
305.431	91.5
305.661	94.5
305.891	96.5
306.121	104.5
306.352	95.5
306.582	110.5
306.812	94.5
307.042	87.5
307.272	85.5
307.502	107.5
307.731	88.5
307.961	89.5
308.191	90.5
308.421	84.5
308.651	89.5
308.881	103.5
309.111	83.5
309.341	85.5
309.571	88.5
309.8	87.5
310.03	83.5
310.26	98.5
310.49	96.5
310.72	87.5
310.949	105.5
311.179	89.5
311.409	95.5
311.639	90.5
311.868	96.5
312.098	109.5
312.328	103.5
312.557	97.5
312.787	96.5
313.017	93.5
313.246	107.5
313.476	88.5
313.706	107.5
313.935	92.5
314.165	93.5
314.394	104.5
314.624	105.5
314.853	97.5
315.083	109.5
315.312	99.5
315.542	88.5
315.771	95.5
316.001	80.5
316.23	84.5
316.46	99.5
316.689	85.5
316.919	103.5
317.148	87.5
317.377	84.5
317.607	94.5
317.836	86.5
318.065	96.5
318.295	100.5
318.524	90.5
318.753	95.5
318.983	93.5
319.212	107.5
319.441	89.5
319.67	90.5
319.9	89.5
320.129	104.5
320.358	90.5
320.587	102.5
320.816	88.5
321.046	98.5
321.275	88.5
321.504	93.5
321.733	95.5
321.962	93.5
322.191	102.5
322.42	97.5
322.649	87.5
322.878	109.5
323.108	95.5
323.337	115.5
323.566	121.5
323.795	129.5
324.024	164.5
324.253	311.5
324.482	576.5
324.71	1192.5
324.939	1579.5
325.168	617.5
325.397	203.5
325.626	134.5
325.855	115.5
326.084	128.5
326.313	120.5
326.542	131.5
326.77	191.5
326.999	351.5
327.228	685.5
327.457	1244.5
327.686	981.5
327.914	281.5
328.143	164.5
328.372	132.5
328.6	131.5
328.829	119.5
329.058	97.5
329.287	112.5
329.515	100.5
329.744	101.5
329.972	94.5
330.201	113.5
330.43	119.5
330.658	121.5
330.887	129.5
331.115	104.5
331.344	86.5
331.572	104.5
331.801	100.5
332.03	104.5
332.258	103.5
332.486	104.5
332.715	100.5
332.943	102.5
333.172	102.5
333.4	96.5
333.629	103.5
333.857	105.5
334.085	104.5
334.314	121.5
334.542	120.5
334.771	116.5
334.999	104.5
335.227	100.5
335.455	92.5
335.684	102.5
335.912	93.5
336.14	109.5
336.369	104.5
336.597	90.5
336.825	101.5
337.053	90.5
337.281	100.5
337.51	92.5
337.738	95.5
337.966	100.5
338.194	97.5
338.422	104.5
338.65	102.5
338.878	84.5
339.106	93.5
339.334	96.5
339.562	84.5
339.79	103.5
340.018	90.5
340.246	85.5
340.474	89.5
340.702	90.5
340.93	78.5
341.158	82.5
341.386	82.5
341.614	87.5
341.842	95.5
342.07	80.5
342.298	100.5
342.526	77.5
342.754	84.5
342.981	88.5
343.209	95.5
343.437	101.5
343.665	106.5
343.893	87.5
344.12	103.5
344.348	88.5
344.576	96.5
344.804	99.5
345.031	88.5
345.259	93.5
345.487	93.5
345.714	96.5
345.942	78.5
346.17	75.5
346.397	93.5
346.625	99.5
346.853	97.5
347.08	83.5
347.308	91.5
347.535	96.5
347.763	89.5
347.99	94.5
348.218	94.5
348.445	80.5
348.673	90.5
348.9	83.5
349.128	99.5
349.355	99.5
349.583	94.5
349.81	121.5
350.037	97.5
350.265	92.5
350.492	94.5
350.72	103.5
350.947	96.5
351.174	99.5
351.402	99.5
351.629	102.5
351.856	104.5
352.083	91.5
352.311	108.5
352.538	111.5
352.765	109.5
352.992	113.5
353.22	111.5
353.447	107.5
353.674	95.5
353.901	107.5
354.128	94.5
354.355	108.5
354.583	105.5
354.81	94.5
355.037	98.5
355.264	114.5
355.491	85.5
355.718	85.5
355.945	94.5
356.172	89.5
356.399	92.5
356.626	100.5
356.853	96.5
357.08	72.5
357.307	92.5
357.534	80.5
357.761	97.5
357.988	99.5
358.215	101.5
358.441	99.5
358.668	100.5
358.895	87.5
359.122	88.5
359.349	76.5
359.576	80.5
359.802	89.5
360.029	96.5
360.256	106.5
360.483	92.5
360.709	77.5
360.936	94.5
361.163	85.5
361.39	94.5
361.616	112.5
361.843	98.5
362.07	96.5
362.296	85.5
362.523	94.5
362.749	104.5
362.976	91.5
363.203	106.5
363.429	90.5
363.656	89.5
363.882	83.5
364.109	97.5
364.335	87.5
364.562	101.5
364.788	97.5
365.015	101.5
365.241	88.5
365.468	107.5
365.694	96.5
365.92	87.5
366.147	94.5
366.373	99.5
366.599	109.5
366.826	83.5
367.052	83.5
367.278	97.5
367.505	89.5
367.731	100.5
367.957	99.5
368.184	83.5
368.41	105.5
368.636	117.5
368.862	113.5
369.089	106.5
369.315	91.5
369.541	101.5
369.767	92.5
369.993	90.5
370.219	97.5
370.445	77.5
370.672	80.5
370.898	87.5
371.124	100.5
371.35	93.5
371.576	85.5
371.802	89.5
372.028	87.5
372.254	100.5
372.48	85.5
372.706	99.5
372.932	96.5
373.158	99.5
373.384	88.5
373.61	102.5
373.835	93.5
374.061	93.5
374.287	91.5
374.513	92.5
374.739	91.5
374.965	93.5
375.191	88.5
375.416	89.5
375.642	97.5
375.868	94.5
376.094	99.5
376.319	77.5
376.545	92.5
376.771	80.5
376.997	88.5
377.222	96.5
377.448	95.5
377.674	111.5
377.899	101.5
378.125	89.5
378.35	96.5
378.576	97.5
378.802	94.5
379.027	93.5
379.253	100.5
379.478	96.5
379.704	107.5
379.929	97.5
380.155	83.5
380.38	94.5
380.606	97.5
380.831	95.5
381.057	95.5
381.282	97.5
381.507	81.5
381.733	107.5
381.958	92.5
382.184	99.5
382.409	99.5
382.634	94.5
382.86	101.5
383.085	103.5
383.31	108.5
383.535	95.5
383.761	94.5
383.986	106.5
384.211	104.5
384.436	92.5
384.662	108.5
384.887	106.5
385.112	105.5
385.337	109.5
385.562	110.5
385.787	112.5
386.013	101.5
386.238	114.5
386.463	105.5
386.688	120.5
386.913	114.5
387.138	109.5
387.363	116.5
387.588	105.5
387.813	108.5
388.038	99.5
388.263	103.5
388.488	97.5
388.713	113.5
388.938	89.5
389.163	96.5
389.387	100.5
389.612	90.5
389.837	101.5
390.062	95.5
390.287	92.5
390.512	105.5
390.736	105.5
390.961	99.5
391.186	86.5
391.411	105.5
391.636	87.5
391.86	88.5
392.085	88.5
392.31	80.5
392.534	93.5
392.759	93.5
392.984	85.5
393.208	96.5
393.433	81.5
393.658	86.5
393.882	84.5
394.107	93.5
394.331	92.5
394.556	88.5
394.78	92.5
395.005	92.5
395.229	87.5
395.454	89.5
395.678	101.5
395.903	94.5
396.127	92.5
396.352	94.5
396.576	89.5
396.801	88.5
397.025	85.5
397.249	89.5
397.474	85.5
397.698	92.5
397.922	91.5
398.147	91.5
398.371	93.5
398.595	74.5
398.82	101.5
399.044	92.5
399.268	104.5
399.492	103.5
399.717	94.5
399.941	89.5
400.165	88.5
400.389	98.5
400.613	72.5
400.837	84.5
401.062	99.5
401.286	85.5
401.51	86.5
401.734	93.5
401.958	95.5
402.182	108.5
402.406	125.5
402.63	102.5
402.854	87.5
403.078	102.5
403.302	57.5
403.526	104.5
403.75	84.5
403.974	87.5
404.198	98.5
404.422	102.5
404.645	93.5
404.869	83.5
405.093	102.5
405.317	93.5
405.541	89.5
405.765	100.5
405.988	109.5
406.212	132.5
406.436	183.5
406.66	127.5
406.883	91.5
407.107	90.5
407.331	79.5
407.555	115.5
407.778	83.5
408.002	84.5
408.226	90.5
408.449	95.5
408.673	103.5
408.896	100.5
409.12	108.5
409.344	83.5
409.567	87.5
409.791	94.5
410.014	97.5
410.238	103.5
410.461	96.5
410.685	102.5
410.908	93.5
411.132	102.5
411.355	109.5
411.578	94.5
411.802	88.5
412.025	94.5
412.249	87.5
412.472	87.5
412.695	98.5
412.919	83.5
413.142	95.5
413.365	91.5
413.589	91.5
413.812	94.5
414.035	89.5
414.258	87.5
414.482	106.5
414.705	96.5
414.928	88.5
415.151	92.5
415.374	89.5
415.597	96.5
415.821	103.5
416.044	83.5
416.267	88.5
416.49	92.5
416.713	81.5
416.936	95.5
417.159	95.5
417.382	78.5
417.605	80.5
417.828	88.5
418.051	90.5
418.274	79.5
418.497	81.5
418.72	88.5
418.943	90.5
419.166	102.5
419.389	93.5
419.611	93.5
419.834	87.5
420.057	89.5
420.28	92.5
420.503	88.5
420.726	86.5
420.948	97.5
421.171	89.5
421.394	104.5
421.617	91.5
421.839	96.5
422.062	87.5
422.285	96.5
422.507	107.5
422.73	95.5
422.953	91.5
423.175	101.5
423.398	104.5
423.621	94.5
423.843	89.5
424.066	93.5
424.288	79.5
424.511	86.5
424.733	85.5
424.956	96.5
425.178	79.5
425.401	93.5
425.623	107.5
425.846	89.5
426.068	91.5
426.291	89.5
426.513	80.5
426.735	96.5
426.958	103.5
427.18	94.5
427.402	106.5
427.625	142.5
427.847	115.5
428.069	108.5
428.292	97.5
428.514	91.5
428.736	88.5
428.958	86.5
429.181	96.5
429.403	90.5
429.625	95.5
429.847	91.5
430.069	97.5
430.292	98.5
430.514	84.5
430.736	97.5
430.958	91.5
431.18	79.5
431.402	79.5
431.624	92.5
431.846	81.5
432.068	86.5
432.29	94.5
432.512	84.5
432.734	103.5
432.956	94.5
433.178	86.5
433.4	86.5
433.622	88.5
433.844	97.5
434.066	81.5
434.287	78.5
434.509	109.5
434.731	93.5
434.953	87.5
435.175	92.5
435.397	103.5
435.618	91.5
435.84	87.5
436.062	109.5
436.284	107.5
436.505	84.5
436.727	105.5
436.949	87.5
437.17	78.5
437.392	78.5
437.614	97.5
437.835	96.5
438.057	103.5
438.278	107.5
438.5	97.5
438.721	105.5
438.943	103.5
439.165	80.5
439.386	70.5
439.608	89.5
439.829	87.5
440.05	117.5
440.272	117.5
440.493	104.5
440.715	99.5
440.936	89.5
441.158	91.5
441.379	76.5
441.6	81.5
441.822	77.5
442.043	101.5
442.264	90.5
442.486	97.5
442.707	95.5
442.928	105.5
443.149	107.5
443.371	133.5
443.592	99.5
443.813	105.5
444.034	106.5
444.255	80.5
444.476	87.5
444.698	87.5
444.919	96.5
445.14	117.5
445.361	127.5
445.582	112.5
445.803	125.5
446.024	118.5
446.245	119.5
446.466	83.5
446.687	90.5
446.908	87.5
447.129	85.5
447.35	93.5
447.571	85.5
447.792	86.5
448.013	97.5
448.234	92.5
448.455	87.5
448.675	105.5
448.896	104.5
449.117	90.5
449.338	116.5
449.559	139.5
449.779	130.5
450	89.5
450.221	105.5
450.442	90.5
450.662	106.5
450.883	112.5
451.104	97.5
451.324	94.5
451.545	86.5
451.766	77.5
451.986	85.5
452.207	90.5
452.428	96.5
452.648	100.5
452.869	92.5
453.089	95.5
453.31	101.5
453.53	102.5
453.751	87.5
453.971	89.5
454.192	94.5
454.412	80.5
454.633	87.5
454.853	83.5
455.073	90.5
455.294	88.5
455.514	102.5
455.734	89.5
455.955	88.5
456.175	77.5
456.395	91.5
456.616	93.5
456.836	89.5
457.056	77.5
457.276	78.5
457.497	79.5
457.717	99.5
457.937	95.5
458.157	88.5
458.377	81.5
458.598	100.5
458.818	125.5
459.038	134.5
459.258	103.5
459.478	102.5
459.698	93.5
459.918	95.5
460.138	89.5
460.358	77.5
460.578	98.5
460.798	100.5
461.018	98.5
461.238	87.5
461.458	93.5
461.678	86.5
461.898	87.5
462.118	85.5
462.338	83.5
462.558	91.5
462.777	80.5
462.997	103.5
463.217	92.5
463.437	98.5
463.657	87.5
463.876	89.5
464.096	94.5
464.316	91.5
464.536	97.5
464.755	92.5
464.975	99.5
465.195	128.5
465.414	139.5
465.634	87.5
465.854	91.5
466.073	91.5
466.293	75.5
466.512	80.5
466.732	102.5
466.951	101.5
467.171	97.5
467.391	88.5
467.61	89.5
467.829	90.5
468.049	101.5
468.268	104.5
468.488	87.5
468.707	67.5
468.927	84.5
469.146	80.5
469.365	73.5
469.585	95.5
469.804	105.5
470.023	102.5
470.243	92.5
470.462	93.5
470.681	101.5
470.901	86.5
471.12	90.5
471.339	86.5
471.558	94.5
471.777	104.5
471.997	113.5
472.216	98.5
472.435	133.5
472.654	106.5
472.873	92.5
473.092	92.5
473.311	86.5
473.53	74.5
473.749	100.5
473.968	84.5
474.187	96.5
474.406	101.5
474.625	89.5
474.844	118.5
475.063	80.5
475.282	70.5
475.501	81.5
475.72	88.5
475.939	79.5
476.158	76.5
476.377	77.5
476.596	88.5
476.814	75.5
477.033	81.5
477.252	89.5
477.471	79.5
477.69	87.5
477.908	87.5
478.127	106.5
478.346	75.5
478.564	89.5
478.783	104.5
479.002	89.5
479.22	99.5
479.439	107.5
479.658	89.5
479.876	86.5
480.095	105.5
480.313	98.5
480.532	88.5
480.751	86.5
480.969	104.5
481.188	170.5
481.406	149.5
481.624	93.5
481.843	83.5
482.061	89.5
482.28	94.5
482.498	81.5
482.717	95.5
482.935	94.5
483.153	83.5
483.372	101.5
483.59	88.5
483.808	92.5
484.027	91.5
484.245	79.5
484.463	97.5
484.681	103.5
484.9	92.5
485.118	90.5
485.336	88.5
485.554	92.5
485.772	94.5
485.99	98.5
486.209	112.5
486.427	101.5
486.645	119.5
486.863	103.5
487.081	92.5
487.299	94.5
487.517	103.5
487.735	91.5
487.953	95.5
488.171	89.5
488.389	92.5
488.607	99.5
488.825	90.5
489.043	75.5
489.261	100.5
489.479	92.5
489.696	96.5
489.914	96.5
490.132	87.5
490.35	96.5
490.568	88.5
490.786	90.5
491.003	83.5
491.221	105.5
491.439	88.5
491.657	84.5
491.874	96.5
492.092	94.5
492.31	88.5
492.527	87.5
492.745	81.5
492.963	89.5
493.18	95.5
493.398	95.5
493.615	95.5
493.833	89.5
494.05	99.5
494.268	79.5
494.485	85.5
494.703	89.5
494.92	79.5
495.138	111.5
495.355	107.5
495.573	98.5
495.79	101.5
496.008	96.5
496.225	77.5
496.442	97.5
496.66	109.5
496.877	89.5
497.094	84.5
497.312	92.5
497.529	97.5
497.746	87.5
497.963	83.5
498.181	84.5
498.398	96.5
498.615	110.5
498.832	106.5
499.049	97.5
499.267	93.5
499.484	100.5
499.701	88.5
499.918	80.5
500.135	92.5
500.352	101.5
500.569	90.5
500.786	85.5
501.003	91.5
501.22	102.5
501.437	88.5
501.654	99.5
501.871	106.5
502.088	88.5
502.305	100.5
502.522	72.5
502.739	85.5
502.956	95.5
503.172	98.5
503.389	102.5
503.606	85.5
503.823	93.5
504.04	103.5
504.256	89.5
504.473	92.5
504.69	85.5
504.907	94.5
505.123	85.5
505.34	98.5
505.557	76.5
505.773	96.5
505.99	91.5
506.207	91.5
506.423	91.5
506.64	103.5
506.856	105.5
507.073	91.5
507.289	99.5
507.506	93.5
507.722	112.5
507.939	105.5
508.155	86.5
508.372	96.5
508.588	95.5
508.805	100.5
509.021	96.5
509.238	104.5
509.454	87.5
509.67	83.5
509.887	104.5
510.103	107.5
510.319	175.5
510.536	596.5
510.752	1729.5
510.968	506.5
511.184	126.5
511.401	97.5
511.617	100.5
511.833	81.5
512.049	90.5
512.265	97.5
512.481	81.5
512.698	86.5
512.914	94.5
513.13	97.5
513.346	96.5
513.562	100.5
513.778	99.5
513.994	87.5
514.21	108.5
514.426	119.5
514.642	113.5
514.858	104.5
515.074	137.5
515.29	343.5
515.506	1036.5
515.721	395.5
515.937	132.5
516.153	113.5
516.369	92.5
516.585	98.5
516.801	96.5
517.016	109.5
517.232	107.5
517.448	82.5
517.664	97.5
517.879	88.5
518.095	92.5
518.311	100.5
518.527	99.5
518.742	88.5
518.958	98.5
519.173	90.5
519.389	89.5
519.605	96.5
519.82	101.5
520.036	99.5
520.251	113.5
520.467	115.5
520.682	104.5
520.898	108.5
521.113	108.5
521.329	115.5
521.544	153.5
521.76	421.5
521.975	1723.5
522.19	1003.5
522.406	254.5
522.621	103.5
522.836	90.5
523.052	90.5
523.267	94.5
523.482	91.5
523.698	99.5
523.913	107.5
524.128	99.5
524.343	91.5
524.559	98.5
524.774	95.5
524.989	99.5
525.204	109.5
525.419	103.5
525.634	76.5
525.849	85.5
526.064	99.5
526.28	92.5
526.495	94.5
526.71	77.5
526.925	83.5
527.14	91.5
527.355	84.5
527.57	91.5
527.785	95.5
527.999	92.5
528.214	83.5
528.429	96.5
528.644	91.5
528.859	105.5
529.074	102.5
529.289	122.5
529.503	135.5
529.718	95.5
529.933	92.5
530.148	85.5
530.363	86.5
530.577	96.5
530.792	84.5
531.007	85.5
531.221	87.5
531.436	95.5
531.651	78.5
531.865	100.5
532.08	104.5
532.295	90.5
532.509	105.5
532.724	96.5
532.938	94.5
533.153	102.5
533.367	72.5
533.582	86.5
533.796	94.5
534.011	101.5
534.225	95.5
534.44	96.5
534.654	100.5
534.868	98.5
535.083	92.5
