Data from Uncirc_1980_H10_HRD10591_00042.txt Node
Date: Wed Jan 03 12:37:03 EST 2024
User: Yrep
Spectrometer: HR+D1059
Trigger mode: 1
Integration Time (sec): 1.000000E-1
Scans to average: 1
Electric dark correction enabled: true
Nonlinearity correction enabled: false
Boxcar width: 0
XAxis mode: Wavelengths
Number of Pixels in Spectrum: 2048
>>>>>Begin Spectral Data<<<<<
223.165	-17
223.4	-17
223.635	-17
223.869	-13
224.104	-15
224.338	-10
224.573	-10
224.808	-10
225.042	-14
225.277	-1
225.511	-2
225.746	-1
225.98	-11
226.215	1
226.449	26
226.683	9
226.918	39
227.152	29
227.387	51
227.621	45
227.856	47
228.09	59
228.324	43
228.559	57
228.793	64
229.027	75
229.262	65
229.496	84
229.73	83
229.964	83
230.199	77
230.433	82
230.667	81
230.901	69
231.136	76
231.37	94
231.604	86
231.838	84
232.072	85
232.306	86
232.541	80
232.775	83
233.009	82
233.243	85
233.477	71
233.711	70
233.945	74
234.179	66
234.413	82
234.647	81
234.881	86
235.115	74
235.349	90
235.583	85
235.817	80
236.051	66
236.285	84
236.519	90
236.753	87
236.987	72
237.221	84
237.455	76
237.689	85
237.922	71
238.156	75
238.39	73
238.624	68
238.858	74
239.091	81
239.325	56
239.559	85
239.793	75
240.027	81
240.26	101
240.494	81
240.728	79
240.961	89
241.195	78
241.429	87
241.662	81
241.896	84
242.13	75
242.363	81
242.597	73
242.83	82
243.064	85
243.298	82
243.531	80
243.765	78
243.998	85
244.232	78
244.465	73
244.699	91
244.932	80
245.166	90
245.399	77
245.633	83
245.866	86
246.099	67
246.333	69
246.566	86
246.8	61
247.033	72
247.266	76
247.5	77
247.733	84
247.966	67
248.2	87
248.433	74
248.666	77
248.899	82
249.133	89
249.366	101
249.599	103
249.832	81
250.066	89
250.299	76
250.532	62
250.765	70
250.998	86
251.231	83
251.465	79
251.698	76
251.931	86
252.164	85
252.397	77
252.63	80
252.863	68
253.096	86
253.329	85
253.562	69
253.795	92
254.028	84
254.261	79
254.494	84
254.727	74
254.96	67
255.193	93
255.426	75
255.659	86
255.892	84
256.124	73
256.357	86
256.59	80
256.823	75
257.056	86
257.289	90
257.521	74
257.754	76
257.987	91
258.22	84
258.452	75
258.685	82
258.918	77
259.151	79
259.383	72
259.616	73
259.849	79
260.081	88
260.314	79
260.547	78
260.779	93
261.012	97
261.244	78
261.477	89
261.71	99
261.942	99
262.175	104
262.407	95
262.64	84
262.872	82
263.105	78
263.337	79
263.57	91
263.802	96
264.035	86
264.267	81
264.499	88
264.732	85
264.964	84
265.197	76
265.429	105
265.661	81
265.894	94
266.126	81
266.358	86
266.591	87
266.823	73
267.055	78
267.287	78
267.52	79
267.752	81
267.984	92
268.216	81
268.448	100
268.681	92
268.913	75
269.145	87
269.377	73
269.609	76
269.841	92
270.073	69
270.306	76
270.538	93
270.77	85
271.002	71
271.234	74
271.466	82
271.698	68
271.93	85
272.162	81
272.394	87
272.626	81
272.858	70
273.09	85
273.322	85
273.553	67
273.785	83
274.017	94
274.249	73
274.481	73
274.713	100
274.945	97
275.176	83
275.408	83
275.64	78
275.872	82
276.104	81
276.335	101
276.567	91
276.799	108
277.031	93
277.262	83
277.494	100
277.726	83
277.957	85
278.189	87
278.421	77
278.652	59
278.884	74
279.115	89
279.347	87
279.579	82
279.81	82
280.042	88
280.273	93
280.505	98
280.736	91
280.968	86
281.199	89
281.431	78
281.662	83
281.894	98
282.125	88
282.356	101
282.588	131
282.819	110
283.051	87
283.282	85
283.513	86
283.745	74
283.976	79
284.207	95
284.439	97
284.67	81
284.901	88
285.132	88
285.364	88
285.595	82
285.826	84
286.057	97
286.288	85
286.52	85
286.751	72
286.982	93
287.213	89
287.444	97
287.675	92
287.906	81
288.138	101
288.369	95
288.6	91
288.831	90
289.062	77
289.293	85
289.524	82
289.755	93
289.986	71
290.217	91
290.448	83
290.679	96
290.91	83
291.141	88
291.371	94
291.602	99
291.833	85
292.064	97
292.295	93
292.526	93
292.757	95
292.987	86
293.218	99
293.449	81
293.68	88
293.91	87
294.141	104
294.372	94
294.603	84
294.833	98
295.064	81
295.295	78
295.525	93
295.756	104
295.987	98
296.217	127
296.448	123
296.679	86
296.909	91
297.14	90
297.37	93
297.601	78
297.831	86
298.062	90
298.292	99
298.523	105
298.753	91
298.984	84
299.214	85
299.445	97
299.675	79
299.905	90
300.136	87
300.366	95
300.597	95
300.827	92
301.057	90
301.288	99
301.518	89
301.748	82
301.979	113
302.209	89
302.439	88
302.669	81
302.9	87
303.13	84
303.36	101
303.59	97
303.82	95
304.051	81
304.281	88
304.511	87
304.741	97
304.971	89
305.201	83
305.431	78
305.661	66
305.891	75
306.121	111
306.352	109
306.582	98
306.812	99
307.042	100
307.272	83
307.502	93
307.731	95
307.961	87
308.191	88
308.421	92
308.651	92
308.881	96
309.111	104
309.341	105
309.571	92
309.8	94
310.03	90
310.26	103
310.49	75
310.72	93
310.949	106
311.179	94
311.409	107
311.639	89
311.868	81
312.098	103
312.328	87
312.557	82
312.787	88
313.017	86
313.246	86
313.476	82
313.706	88
313.935	93
314.165	90
314.394	96
314.624	90
314.853	90
315.083	98
315.312	90
315.542	91
315.771	101
316.001	88
316.23	88
316.46	101
316.689	93
316.919	85
317.148	105
317.377	87
317.607	86
317.836	92
318.065	96
318.295	91
318.524	86
318.753	100
318.983	93
319.212	84
319.441	101
319.67	94
319.9	99
320.129	94
320.358	108
320.587	90
320.816	87
321.046	89
321.275	93
321.504	92
321.733	90
321.962	98
322.191	95
322.42	89
322.649	95
322.878	97
323.108	91
323.337	107
323.566	124
323.795	127
324.024	167
324.253	296
324.482	609
324.71	1173
324.939	1509
325.168	577
325.397	198
325.626	132
325.855	126
326.084	106
326.313	119
326.542	122
326.77	183
326.999	339
327.228	649
327.457	1145
327.686	954
327.914	285
328.143	172
328.372	147
328.6	108
328.829	107
329.058	105
329.287	105
329.515	98
329.744	102
329.972	102
330.201	121
330.43	121
330.658	114
330.887	115
331.115	110
331.344	92
331.572	104
331.801	97
332.03	94
332.258	103
332.486	99
332.715	87
332.943	97
333.172	91
333.4	109
333.629	102
333.857	104
334.085	116
334.314	100
334.542	124
334.771	127
334.999	91
335.227	98
335.455	110
335.684	105
335.912	92
336.14	104
336.369	95
336.597	94
336.825	102
337.053	89
337.281	97
337.51	102
337.738	111
337.966	74
338.194	91
338.422	95
338.65	84
338.878	77
339.106	94
339.334	101
339.562	100
339.79	85
340.018	89
340.246	97
340.474	100
340.702	98
340.93	90
341.158	84
341.386	97
341.614	94
341.842	89
342.07	97
342.298	93
342.526	96
342.754	77
342.981	94
343.209	87
343.437	105
343.665	91
343.893	85
344.12	94
344.348	93
344.576	75
344.804	94
345.031	89
345.259	89
345.487	84
345.714	89
345.942	90
346.17	83
346.397	102
346.625	107
346.853	86
347.08	91
347.308	87
347.535	94
347.763	89
347.99	93
348.218	103
348.445	83
348.673	88
348.9	82
349.128	76
349.355	93
349.583	94
349.81	95
350.037	101
350.265	98
350.492	96
350.72	92
350.947	100
351.174	113
351.402	108
351.629	102
351.856	93
352.083	105
352.311	83
352.538	106
352.765	97
352.992	111
353.22	100
353.447	104
353.674	101
353.901	109
354.128	106
354.355	83
354.583	95
354.81	91
355.037	79
355.264	89
355.491	94
355.718	102
355.945	88
356.172	98
356.399	93
356.626	101
356.853	99
357.08	90
357.307	96
357.534	79
357.761	99
357.988	102
358.215	107
358.441	97
358.668	83
358.895	89
359.122	80
359.349	92
359.576	91
359.802	103
360.029	98
360.256	95
360.483	105
360.709	84
360.936	94
361.163	82
361.39	98
361.616	105
361.843	95
362.07	94
362.296	100
362.523	74
362.749	91
362.976	86
363.203	93
363.429	96
363.656	93
363.882	97
364.109	88
364.335	92
364.562	79
364.788	84
365.015	93
365.241	97
365.468	100
365.694	108
365.92	94
366.147	88
366.373	87
366.599	78
366.826	93
367.052	89
367.278	95
367.505	92
367.731	83
367.957	71
368.184	88
368.41	91
368.636	103
368.862	104
369.089	108
369.315	102
369.541	76
369.767	83
369.993	89
370.219	90
370.445	98
370.672	83
370.898	89
371.124	94
371.35	86
371.576	97
371.802	85
372.028	88
372.254	83
372.48	82
372.706	90
372.932	96
373.158	77
373.384	87
373.61	100
373.835	99
374.061	97
374.287	92
374.513	93
374.739	79
374.965	78
375.191	89
375.416	95
375.642	81
375.868	93
376.094	74
376.319	91
376.545	92
376.771	81
376.997	92
377.222	96
377.448	104
377.674	76
377.899	87
378.125	89
378.35	93
378.576	81
378.802	87
379.027	118
379.253	97
379.478	97
379.704	92
379.929	94
380.155	104
380.38	81
380.606	104
380.831	97
381.057	94
381.282	91
381.507	101
381.733	91
381.958	99
382.184	111
382.409	106
382.634	110
382.86	111
383.085	105
383.31	91
383.535	115
383.761	90
383.986	101
384.211	113
384.436	102
384.662	98
384.887	95
385.112	105
385.337	99
385.562	105
385.787	102
386.013	112
386.238	105
386.463	111
386.688	104
386.913	112
387.138	108
387.363	103
387.588	106
387.813	102
388.038	112
388.263	106
388.488	121
388.713	93
388.938	91
389.163	83
389.387	95
389.612	94
389.837	92
390.062	90
390.287	87
390.512	89
390.736	99
390.961	84
391.186	89
391.411	89
391.636	103
391.86	81
392.085	85
392.31	90
392.534	81
392.759	81
392.984	87
393.208	91
393.433	103
393.658	90
393.882	95
394.107	83
394.331	93
394.556	99
394.78	76
395.005	89
395.229	90
395.454	99
395.678	89
395.903	86
396.127	78
396.352	94
396.576	84
396.801	88
397.025	77
397.249	89
397.474	105
397.698	101
397.922	99
398.147	88
398.371	90
398.595	89
398.82	82
399.044	84
399.268	92
399.492	90
399.717	98
399.941	92
400.165	78
400.389	87
400.613	109
400.837	98
401.062	76
401.286	78
401.51	85
401.734	96
401.958	97
402.182	111
402.406	146
402.63	98
402.854	88
403.078	83
403.302	87
403.526	81
403.75	87
403.974	90
404.198	78
404.422	84
404.645	96
404.869	87
405.093	89
405.317	106
405.541	95
405.765	85
405.988	94
406.212	151
406.436	201
406.66	136
406.883	83
407.107	86
407.331	105
407.555	92
407.778	89
408.002	94
408.226	88
408.449	88
408.673	89
408.896	85
409.12	104
409.344	105
409.567	85
409.791	86
410.014	101
410.238	88
410.461	74
410.685	82
410.908	95
411.132	87
411.355	86
411.578	87
411.802	97
412.025	89
412.249	92
412.472	83
412.695	89
412.919	79
413.142	88
413.365	88
413.589	86
413.812	69
414.035	77
414.258	96
414.482	98
414.705	84
414.928	91
415.151	78
415.374	103
415.597	75
415.821	85
416.044	84
416.267	83
416.49	87
416.713	90
416.936	91
417.159	77
417.382	78
417.605	78
417.828	99
418.051	89
418.274	83
418.497	93
418.72	85
418.943	98
419.166	93
419.389	94
419.611	97
419.834	87
420.057	97
420.28	83
420.503	95
420.726	99
420.948	82
421.171	95
421.394	109
421.617	88
421.839	93
422.062	83
422.285	89
422.507	99
422.73	99
422.953	107
423.175	79
423.398	89
423.621	79
423.843	93
424.066	84
424.288	94
424.511	91
424.733	92
424.956	96
425.178	100
425.401	92
425.623	111
425.846	79
426.068	88
426.291	90
426.513	88
426.735	90
426.958	98
427.18	103
427.402	110
427.625	135
427.847	104
428.069	93
428.292	93
428.514	90
428.736	85
428.958	78
429.181	91
429.403	87
429.625	97
429.847	91
430.069	100
430.292	91
430.514	87
430.736	85
430.958	94
431.18	83
431.402	78
431.624	97
431.846	91
432.068	91
432.29	84
432.512	93
432.734	79
432.956	83
433.178	104
433.4	95
433.622	105
433.844	85
434.066	85
434.287	99
434.509	103
434.731	96
434.953	89
435.175	93
435.397	95
435.618	98
435.84	103
436.062	119
436.284	106
436.505	94
436.727	101
436.949	89
437.17	93
437.392	87
437.614	97
437.835	91
438.057	112
438.278	99
438.5	93
438.721	105
438.943	107
439.165	76
439.386	106
439.608	85
439.829	103
440.05	105
440.272	120
440.493	90
440.715	73
440.936	94
441.158	95
441.379	76
441.6	93
441.822	77
442.043	87
442.264	99
442.486	98
442.707	106
442.928	106
443.149	107
443.371	110
443.592	96
443.813	102
444.034	107
444.255	88
444.476	93
444.698	74
444.919	87
445.14	130
445.361	115
445.582	100
445.803	111
446.024	107
446.245	121
446.466	105
446.687	92
446.908	87
447.129	85
447.35	96
447.571	87
447.792	100
448.013	99
448.234	106
448.455	92
448.675	83
448.896	94
449.117	94
449.338	102
449.559	109
449.779	119
450	92
450.221	102
450.442	87
450.662	105
450.883	98
451.104	95
451.324	100
451.545	102
451.766	90
451.986	97
452.207	89
452.428	92
452.648	96
452.869	101
453.089	114
453.31	103
453.53	101
453.751	99
453.971	89
454.192	107
454.412	90
454.633	89
454.853	93
455.073	94
455.294	94
455.514	90
455.734	81
455.955	78
456.175	87
456.395	69
456.616	92
456.836	83
457.056	84
457.276	82
457.497	90
457.717	90
457.937	83
458.157	71
458.377	91
458.598	91
458.818	129
459.038	140
459.258	98
459.478	85
459.698	93
459.918	91
460.138	97
460.358	85
460.578	87
460.798	95
461.018	92
461.238	87
461.458	87
461.678	83
461.898	79
462.118	87
462.338	88
462.558	91
462.777	93
462.997	94
463.217	90
463.437	86
463.657	77
463.876	98
464.096	105
464.316	107
464.536	104
464.755	86
464.975	104
465.195	136
465.414	139
465.634	100
465.854	86
466.073	96
466.293	82
466.512	93
466.732	86
466.951	87
467.171	104
467.391	78
467.61	98
467.829	94
468.049	93
468.268	99
468.488	73
468.707	81
468.927	94
469.146	84
469.365	94
469.585	91
469.804	94
470.023	85
470.243	96
470.462	103
470.681	91
470.901	86
471.12	82
471.339	94
471.558	100
471.777	81
471.997	93
472.216	106
472.435	127
472.654	96
472.873	91
473.092	78
473.311	71
473.53	74
473.749	78
473.968	86
474.187	105
474.406	91
474.625	84
474.844	84
475.063	85
475.282	79
475.501	85
475.72	87
475.939	75
476.158	88
476.377	95
476.596	90
476.814	84
477.033	85
477.252	89
477.471	81
477.69	83
477.908	82
478.127	89
478.346	83
478.564	89
478.783	97
479.002	99
479.22	107
479.439	104
479.658	106
479.876	101
480.095	97
480.313	85
480.532	67
480.751	100
480.969	112
481.188	182
481.406	135
481.624	104
481.843	92
482.061	85
482.28	92
482.498	106
482.717	93
482.935	85
483.153	95
483.372	103
483.59	88
483.808	80
484.027	92
484.245	88
484.463	89
484.681	87
484.9	93
485.118	86
485.336	98
485.554	105
485.772	99
485.99	102
486.209	91
486.427	94
486.645	101
486.863	122
487.081	97
487.299	99
487.517	102
487.735	85
487.953	83
488.171	102
488.389	94
488.607	93
488.825	97
489.043	99
489.261	90
489.479	94
489.696	100
489.914	88
490.132	101
490.35	92
490.568	92
490.786	86
491.003	87
491.221	81
491.439	91
491.657	86
491.874	81
492.092	79
492.31	78
492.527	92
492.745	100
492.963	93
493.18	87
493.398	100
493.615	85
493.833	92
494.05	94
494.268	79
494.485	88
494.703	96
494.92	79
495.138	91
495.355	89
495.573	99
495.79	95
496.008	99
496.225	96
496.442	84
496.66	107
496.877	86
497.094	85
497.312	94
497.529	86
497.746	94
497.963	85
498.181	98
498.398	92
498.615	97
498.832	108
499.049	82
499.267	98
499.484	87
499.701	89
499.918	92
500.135	100
500.352	95
500.569	81
500.786	85
501.003	88
501.22	103
501.437	101
501.654	93
501.871	102
502.088	84
502.305	99
502.522	89
502.739	83
502.956	103
503.172	93
503.389	93
503.606	89
503.823	100
504.04	71
504.256	82
504.473	86
504.69	85
504.907	93
505.123	91
505.34	89
505.557	78
505.773	83
505.99	97
506.207	84
506.423	78
506.64	97
506.856	101
507.073	92
507.289	94
507.506	89
507.722	118
507.939	110
508.155	95
508.372	96
508.588	99
508.805	91
509.021	111
509.238	101
509.454	94
509.67	102
509.887	108
510.103	129
510.319	181
510.536	608
510.752	1916
510.968	549
511.184	141
511.401	101
511.617	91
511.833	107
512.049	94
512.265	79
512.481	92
512.698	85
512.914	77
513.13	89
513.346	92
513.562	90
513.778	102
513.994	98
514.21	93
514.426	118
514.642	110
514.858	124
515.074	149
515.29	353
515.506	1105
515.721	419
515.937	142
516.153	97
516.369	108
516.585	101
516.801	90
517.016	86
517.232	90
517.448	89
517.664	100
517.879	81
518.095	93
518.311	100
518.527	94
518.742	99
518.958	95
519.173	93
519.389	86
519.605	97
519.82	94
520.036	103
520.251	120
520.467	86
520.682	103
520.898	95
521.113	104
521.329	106
521.544	167
521.76	443
521.975	1843
522.19	1085
522.406	244
522.621	119
522.836	79
523.052	90
523.267	82
523.482	92
523.698	117
523.913	108
524.128	109
524.343	98
524.559	92
524.774	95
524.989	104
525.204	113
525.419	94
525.634	113
525.849	99
526.064	90
526.28	84
526.495	79
526.71	93
526.925	102
527.14	89
527.355	104
527.57	86
527.785	92
527.999	88
528.214	101
528.429	100
528.644	85
528.859	85
529.074	83
529.289	116
529.503	135
529.718	101
529.933	89
530.148	89
530.363	77
530.577	74
530.792	91
531.007	104
531.221	95
531.436	111
531.651	86
531.865	85
532.08	87
532.295	92
532.509	97
532.724	87
532.938	89
533.153	102
533.367	100
533.582	86
533.796	81
534.011	96
534.225	78
534.44	81
534.654	81
534.868	97
535.083	104
535.297	93
535.511	92
535.726	86
535.94	82
536.154	87
536.369	93
536.583	82
536.797	91
537.011	83
537.225	88
537.44	83
537.654	100
537.868	102
538.082	99
538.296	89
538.51	83
538.724	83
538.938	86
539.153	98
539.367	101
539.581	86
539.795	82
540.009	94
540.222	97
540.436	94
540.65	96
540.864	91
541.078	102
541.292	103
541.506	90
541.72	103
541.934	82
542.147	86
542.361	77
542.575	87
542.789	77
543.002	71
543.216	89
543.43	93
543.644	89
543.857	100
544.071	102
544.285	80
544.498	91
544.712	89
544.925	96
545.139	89
545.352	91
545.566	110
545.779	93
545.993	90
546.206	88
546.42	96
546.633	91
546.847	97
547.06	89
547.274	92
547.487	99
547.7	94
547.914	89
548.127	77
548.34	78
548.554	84
548.767	82
548.98	98
549.193	83
549.407	83
549.62	100
549.833	84
550.046	90
550.259	99
550.473	95
550.686	92
550.899	101
551.112	81
551.325	101
551.538	91
551.751	91
551.964	104
552.177	92
552.39	86
552.603	93
552.816	85
553.029	79
553.242	101
553.455	95
553.667	97
553.88	83
554.093	84
554.306	77
554.519	87
554.732	83
554.944	87
555.157	89
555.37	95
555.583	92
555.795	90
556.008	100
556.221	85
556.433	92
556.646	93
556.859	95
557.071	89
557.284	102
557.496	85
557.709	78
557.921	99
558.134	97
558.346	96
558.559	84
558.771	82
558.984	89
559.196	89
559.409	87
559.621	76
559.833	95
560.046	92
560.258	88
560.47	88
560.683	95
560.895	91
561.107	94
561.32	84
561.532	87
561.744	84
561.956	92
562.168	75
562.381	97
562.593	94
562.805	87
563.017	90
563.229	90
563.441	101
563.653	85
563.865	84
564.077	92
564.289	84
564.501	86
564.713	84
564.925	99
565.137	96
565.349	91
565.561	99
565.773	94
565.985	87
566.197	86
566.408	76
566.62	74
566.832	76
567.044	93
567.255	78
567.467	94
567.679	93
567.891	81
568.102	85
568.314	73
568.526	86
568.737	89
568.949	99
569.161	97
569.372	87
569.584	89
569.795	93
570.007	111
570.218	223
570.43	136
570.641	88
570.853	88
571.064	98
571.276	81
571.487	87
571.698	78
571.91	87
572.121	83
572.333	100
572.544	76
572.755	100
572.966	82
573.178	86
573.389	82
573.6	84
573.811	84
574.023	100
574.234	87
574.445	103
574.656	84
574.867	84
575.078	90
575.289	99
575.501	91
575.712	82
575.923	89
576.134	82
576.345	90
576.556	92
576.767	78
576.978	85
577.188	76
577.399	89
577.61	97
577.821	101
578.032	105
578.243	221
578.454	623
578.665	193
578.875	97
579.086	90
579.297	78
579.508	85
579.718	90
579.929	84
580.14	84
580.35	90
580.561	74
580.772	99
580.982	91
581.193	92
581.403	86
581.614	83
581.825	98
582.035	81
582.246	87
582.456	87
582.667	96
582.877	91
583.087	85
583.298	88
583.508	89
583.719	84
583.929	93
584.139	93
584.35	79
584.56	104
584.77	89
