Data from Uncirc_1980_H10_HRD10591_00092.txt Node
Date: Wed Jan 03 12:37:13 EST 2024
User: Yrep
Spectrometer: HR+D1059
Trigger mode: 1
Integration Time (sec): 1.000000E-1
Scans to average: 1
Electric dark correction enabled: true
Nonlinearity correction enabled: false
Boxcar width: 0
XAxis mode: Wavelengths
Number of Pixels in Spectrum: 2048
>>>>>Begin Spectral Data<<<<<
223.165	-20
223.4	-20
223.635	-20
223.869	-34
224.104	-5
224.338	-13
224.573	-22
224.808	-8
225.042	-5
225.277	-17
225.511	-6
225.746	-7
225.98	2
226.215	13
226.449	24
226.683	29
226.918	28
227.152	41
227.387	37
227.621	49
227.856	34
228.09	32
228.324	54
228.559	44
228.793	60
229.027	51
229.262	70
229.496	71
229.73	94
229.964	79
230.199	91
230.433	70
230.667	75
230.901	73
231.136	83
231.37	82
231.604	80
231.838	80
232.072	67
232.306	84
232.541	79
232.775	77
233.009	69
233.243	75
233.477	94
233.711	78
233.945	92
234.179	58
234.413	73
234.647	60
234.881	83
235.115	82
235.349	62
235.583	66
235.817	78
236.051	69
236.285	75
236.519	58
236.753	72
236.987	69
237.221	85
237.455	73
237.689	63
237.922	78
238.156	78
238.39	81
238.624	71
238.858	65
239.091	68
239.325	82
239.559	62
239.793	66
240.027	83
240.26	78
240.494	76
240.728	74
240.961	73
241.195	73
241.429	78
241.662	80
241.896	57
242.13	66
242.363	76
242.597	72
242.83	80
243.064	75
243.298	70
243.531	67
243.765	66
243.998	84
244.232	73
244.465	77
244.699	74
244.932	78
245.166	69
245.399	86
245.633	75
245.866	65
246.099	78
246.333	68
246.566	65
246.8	78
247.033	70
247.266	69
247.5	74
247.733	89
247.966	73
248.2	68
248.433	81
248.666	59
248.899	84
249.133	73
249.366	78
249.599	94
249.832	77
250.066	88
250.299	72
250.532	82
250.765	73
250.998	58
251.231	79
251.465	86
251.698	69
251.931	80
252.164	77
252.397	79
252.63	83
252.863	69
253.096	83
253.329	98
253.562	78
253.795	78
254.028	76
254.261	75
254.494	74
254.727	79
254.96	81
255.193	66
255.426	92
255.659	73
255.892	69
256.124	80
256.357	90
256.59	86
256.823	87
257.056	79
257.289	79
257.521	81
257.754	84
257.987	70
258.22	71
258.452	72
258.685	86
258.918	82
259.151	84
259.383	82
259.616	71
259.849	78
260.081	86
260.314	79
260.547	87
260.779	86
261.012	94
261.244	81
261.477	90
261.71	95
261.942	105
262.175	89
262.407	78
262.64	85
262.872	85
263.105	76
263.337	87
263.57	78
263.802	74
264.035	84
264.267	66
264.499	86
264.732	65
264.964	61
265.197	75
265.429	81
265.661	81
265.894	86
266.126	67
266.358	59
266.591	83
266.823	83
267.055	84
267.287	81
267.52	70
267.752	86
267.984	95
268.216	78
268.448	84
268.681	72
268.913	90
269.145	62
269.377	90
269.609	71
269.841	109
270.073	71
270.306	80
270.538	83
270.77	94
271.002	76
271.234	82
271.466	75
271.698	94
271.93	86
272.162	89
272.394	83
272.626	65
272.858	82
273.09	90
273.322	86
273.553	70
273.785	88
274.017	86
274.249	94
274.481	81
274.713	70
274.945	82
275.176	70
275.408	75
275.64	83
275.872	76
276.104	89
276.335	81
276.567	91
276.799	90
277.031	100
277.262	67
277.494	83
277.726	69
277.957	86
278.189	83
278.421	81
278.652	87
278.884	74
279.115	83
279.347	84
279.579	71
279.81	85
280.042	86
280.273	76
280.505	84
280.736	86
280.968	72
281.199	70
281.431	83
281.662	86
281.894	88
282.125	111
282.356	105
282.588	127
282.819	97
283.051	75
283.282	80
283.513	84
283.745	88
283.976	84
284.207	78
284.439	88
284.67	81
284.901	85
285.132	86
285.364	82
285.595	81
285.826	87
286.057	92
286.288	75
286.52	94
286.751	84
286.982	84
287.213	77
287.444	94
287.675	86
287.906	94
288.138	83
288.369	90
288.6	82
288.831	83
289.062	87
289.293	72
289.524	96
289.755	87
289.986	94
290.217	73
290.448	92
290.679	84
290.91	101
291.141	81
291.371	78
291.602	86
291.833	80
292.064	79
292.295	74
292.526	76
292.757	73
292.987	88
293.218	71
293.449	90
293.68	80
293.91	79
294.141	92
294.372	73
294.603	78
294.833	80
295.064	85
295.295	91
295.525	76
295.756	102
295.987	106
296.217	120
296.448	112
296.679	94
296.909	87
297.14	82
297.37	99
297.601	81
297.831	73
298.062	94
298.292	82
298.523	90
298.753	96
298.984	80
299.214	93
299.445	78
299.675	79
299.905	85
300.136	86
300.366	92
300.597	86
300.827	82
301.057	96
301.288	101
301.518	91
301.748	95
301.979	113
302.209	89
302.439	86
302.669	88
302.9	78
303.13	77
303.36	89
303.59	89
303.82	87
304.051	98
304.281	104
304.511	83
304.741	84
304.971	87
305.201	92
305.431	75
305.661	84
305.891	86
306.121	98
306.352	94
306.582	101
306.812	91
307.042	65
307.272	89
307.502	103
307.731	98
307.961	94
308.191	91
308.421	82
308.651	86
308.881	73
309.111	94
309.341	82
309.571	85
309.8	94
310.03	93
310.26	93
310.49	107
310.72	87
310.949	99
311.179	87
311.409	85
311.639	94
311.868	104
312.098	96
312.328	92
312.557	104
312.787	95
313.017	95
313.246	85
313.476	88
313.706	80
313.935	91
314.165	95
314.394	96
314.624	90
314.853	82
315.083	81
315.312	88
315.542	87
315.771	91
316.001	87
316.23	98
316.46	74
316.689	94
316.919	76
317.148	103
317.377	88
317.607	92
317.836	73
318.065	90
318.295	78
318.524	84
318.753	94
318.983	79
319.212	101
319.441	90
319.67	102
319.9	97
320.129	92
320.358	71
320.587	91
320.816	91
321.046	91
321.275	91
321.504	96
321.733	98
321.962	97
322.191	94
322.42	94
322.649	110
322.878	107
323.108	118
323.337	108
323.566	114
323.795	124
324.024	175
324.253	325
324.482	645
324.71	1346
324.939	1768
325.168	629
325.397	199
325.626	127
325.855	121
326.084	113
326.313	112
326.542	135
326.77	187
326.999	377
327.228	763
327.457	1376
327.686	1082
327.914	306
328.143	183
328.372	129
328.6	111
328.829	105
329.058	105
329.287	106
329.515	98
329.744	100
329.972	103
330.201	112
330.43	122
330.658	117
330.887	121
331.115	106
331.344	95
331.572	105
331.801	89
332.03	93
332.258	96
332.486	95
332.715	107
332.943	101
333.172	94
333.4	83
333.629	104
333.857	100
334.085	102
334.314	116
334.542	127
334.771	135
334.999	99
335.227	90
335.455	99
335.684	91
335.912	96
336.14	90
336.369	107
336.597	100
336.825	88
337.053	94
337.281	94
337.51	85
337.738	100
337.966	93
338.194	100
338.422	102
338.65	96
338.878	83
339.106	83
339.334	94
339.562	87
339.79	78
340.018	73
340.246	80
340.474	84
340.702	83
340.93	88
341.158	90
341.386	92
341.614	80
341.842	95
342.07	84
342.298	99
342.526	87
342.754	84
342.981	85
343.209	72
343.437	88
343.665	90
343.893	91
344.12	86
344.348	74
344.576	85
344.804	83
345.031	99
345.259	87
345.487	95
345.714	98
345.942	84
346.17	91
346.397	92
346.625	90
346.853	91
347.08	98
347.308	100
347.535	91
347.763	79
347.99	109
348.218	98
348.445	86
348.673	103
348.9	95
349.128	86
349.355	99
349.583	86
349.81	78
350.037	84
350.265	89
350.492	85
350.72	96
350.947	91
351.174	106
351.402	91
351.629	102
351.856	104
352.083	91
352.311	109
352.538	103
352.765	103
352.992	108
353.22	111
353.447	94
353.674	109
353.901	87
354.128	89
354.355	82
354.583	86
354.81	95
355.037	95
355.264	90
355.491	93
355.718	80
355.945	93
356.172	98
356.399	84
356.626	101
356.853	94
357.08	100
357.307	92
357.534	94
357.761	83
357.988	104
358.215	92
358.441	97
358.668	90
358.895	92
359.122	77
359.349	88
359.576	79
359.802	90
360.029	96
360.256	106
360.483	98
360.709	96
360.936	90
361.163	89
361.39	94
361.616	98
361.843	87
362.07	87
362.296	89
362.523	84
362.749	86
362.976	88
363.203	90
363.429	74
363.656	92
363.882	87
364.109	87
364.335	80
364.562	86
364.788	83
365.015	73
365.241	100
365.468	95
365.694	82
365.92	94
366.147	89
366.373	84
366.599	79
366.826	96
367.052	88
367.278	89
367.505	85
367.731	90
367.957	83
368.184	69
368.41	98
368.636	101
368.862	105
369.089	102
369.315	95
369.541	95
369.767	81
369.993	66
370.219	80
370.445	68
370.672	70
370.898	79
371.124	85
371.35	65
371.576	78
371.802	100
372.028	87
372.254	80
372.48	74
372.706	82
372.932	84
373.158	86
373.384	87
373.61	96
373.835	90
374.061	98
374.287	91
374.513	82
374.739	86
374.965	80
375.191	96
375.416	86
375.642	83
375.868	89
376.094	89
376.319	78
376.545	82
376.771	97
376.997	94
377.222	84
377.448	83
377.674	100
377.899	83
378.125	75
378.35	97
378.576	86
378.802	87
379.027	88
379.253	87
379.478	91
379.704	87
379.929	71
380.155	70
380.38	95
380.606	88
380.831	75
381.057	89
381.282	90
381.507	89
381.733	89
381.958	99
382.184	97
382.409	98
382.634	100
382.86	100
383.085	112
383.31	88
383.535	86
383.761	100
383.986	95
384.211	93
384.436	93
384.662	101
384.887	86
385.112	87
385.337	109
385.562	82
385.787	89
386.013	95
386.238	111
386.463	98
386.688	104
386.913	92
387.138	106
387.363	96
387.588	94
387.813	91
388.038	112
388.263	103
388.488	101
388.713	101
388.938	83
389.163	102
389.387	107
389.612	92
389.837	81
390.062	99
390.287	93
390.512	91
390.736	83
390.961	85
391.186	87
391.411	100
391.636	84
391.86	87
392.085	103
392.31	79
392.534	78
392.759	80
392.984	79
393.208	82
393.433	70
393.658	64
393.882	82
394.107	91
394.331	90
394.556	88
394.78	79
395.005	81
395.229	91
395.454	80
395.678	82
395.903	85
396.127	80
396.352	94
396.576	101
396.801	73
397.025	90
397.249	80
397.474	97
397.698	78
397.922	81
398.147	77
398.371	76
398.595	96
398.82	82
399.044	78
399.268	75
399.492	89
399.717	79
399.941	88
400.165	102
400.389	81
400.613	84
400.837	86
401.062	84
401.286	78
401.51	90
401.734	85
401.958	95
402.182	120
402.406	143
402.63	108
402.854	94
403.078	84
403.302	74
403.526	83
403.75	86
403.974	90
404.198	95
404.422	107
404.645	95
404.869	96
405.093	82
405.317	81
405.541	102
405.765	97
405.988	108
406.212	158
406.436	177
406.66	124
406.883	98
407.107	84
407.331	88
407.555	99
407.778	80
408.002	84
408.226	89
408.449	95
408.673	92
408.896	91
409.12	92
409.344	73
409.567	87
409.791	82
410.014	90
410.238	94
410.461	78
410.685	94
410.908	85
411.132	102
411.355	73
411.578	92
411.802	94
412.025	81
412.249	90
412.472	107
412.695	82
412.919	85
413.142	83
413.365	82
413.589	88
413.812	82
414.035	94
414.258	82
414.482	96
414.705	90
414.928	87
415.151	95
415.374	79
415.597	80
415.821	94
416.044	91
416.267	93
416.49	92
416.713	71
416.936	80
417.159	101
417.382	87
417.605	88
417.828	87
418.051	71
418.274	73
418.497	74
418.72	76
418.943	79
419.166	84
419.389	75
419.611	94
419.834	74
420.057	93
420.28	101
420.503	82
420.726	69
420.948	72
421.171	87
421.394	82
421.617	97
421.839	89
422.062	75
422.285	82
422.507	90
422.73	84
422.953	94
423.175	91
423.398	82
423.621	74
423.843	75
424.066	91
424.288	91
424.511	93
424.733	90
424.956	100
425.178	95
425.401	95
425.623	87
425.846	87
426.068	89
426.291	86
426.513	90
426.735	91
426.958	78
427.18	92
427.402	106
427.625	119
427.847	116
428.069	102
428.292	88
428.514	80
428.736	81
428.958	77
429.181	73
429.403	78
429.625	88
429.847	78
430.069	89
430.292	82
430.514	90
430.736	83
430.958	81
431.18	85
431.402	86
431.624	97
431.846	92
432.068	83
432.29	79
432.512	91
432.734	80
432.956	81
433.178	93
433.4	90
433.622	92
433.844	91
434.066	71
434.287	92
434.509	86
434.731	102
434.953	88
435.175	98
435.397	94
435.618	80
435.84	95
436.062	113
436.284	109
436.505	99
436.727	88
436.949	79
437.17	94
437.392	87
437.614	82
437.835	88
438.057	104
438.278	107
438.5	87
438.721	111
438.943	90
439.165	85
439.386	78
439.608	82
439.829	88
440.05	108
440.272	106
440.493	87
440.715	89
440.936	81
441.158	92
441.379	78
441.6	78
441.822	96
442.043	97
442.264	98
442.486	87
442.707	98
442.928	104
443.149	109
443.371	125
443.592	87
443.813	99
444.034	100
444.255	92
444.476	84
444.698	101
444.919	80
445.14	134
445.361	115
445.582	106
445.803	112
446.024	124
446.245	123
446.466	102
446.687	92
446.908	74
447.129	83
447.35	90
447.571	90
447.792	85
448.013	95
448.234	98
448.455	96
448.675	101
448.896	112
449.117	81
449.338	101
449.559	122
449.779	120
450	90
450.221	96
450.442	92
450.662	101
450.883	103
451.104	105
451.324	93
451.545	73
451.766	84
451.986	96
452.207	100
452.428	98
452.648	92
452.869	97
453.089	108
453.31	107
453.53	88
453.751	98
453.971	93
454.192	103
454.412	97
454.633	94
454.853	83
455.073	90
455.294	90
455.514	90
455.734	82
455.955	98
456.175	74
456.395	106
456.616	83
456.836	90
457.056	88
457.276	70
457.497	81
457.717	86
457.937	82
458.157	78
458.377	78
458.598	90
458.818	114
459.038	135
459.258	102
459.478	88
459.698	81
459.918	83
460.138	88
460.358	80
460.578	79
460.798	83
461.018	77
461.238	78
461.458	86
461.678	82
461.898	94
462.118	83
462.338	88
462.558	82
462.777	82
462.997	93
463.217	99
463.437	90
463.657	90
463.876	86
464.096	81
464.316	90
464.536	86
464.755	92
464.975	89
465.195	128
465.414	151
465.634	91
465.854	95
466.073	96
466.293	79
466.512	86
466.732	89
466.951	100
467.171	76
467.391	104
467.61	108
467.829	93
468.049	70
468.268	101
468.488	78
468.707	97
468.927	79
469.146	86
469.365	82
469.585	100
469.804	88
470.023	98
470.243	73
470.462	94
470.681	84
470.901	74
471.12	78
471.339	80
471.558	83
471.777	98
471.997	94
472.216	106
472.435	145
472.654	94
472.873	93
473.092	82
473.311	80
473.53	80
473.749	79
473.968	89
474.187	87
474.406	81
474.625	100
474.844	80
475.063	78
475.282	90
475.501	82
475.72	89
475.939	80
476.158	91
476.377	72
476.596	81
476.814	92
477.033	96
477.252	96
477.471	85
477.69	90
477.908	85
478.127	87
478.346	95
478.564	96
478.783	104
479.002	103
479.22	87
479.439	107
479.658	78
479.876	84
480.095	93
480.313	88
480.532	90
480.751	90
480.969	122
481.188	190
481.406	127
481.624	99
481.843	84
482.061	95
482.28	104
482.498	81
482.717	88
482.935	79
483.153	78
483.372	92
483.59	82
483.808	86
484.027	85
484.245	85
484.463	105
484.681	98
484.9	89
485.118	94
485.336	106
485.554	92
485.772	92
485.99	105
486.209	96
486.427	103
486.645	112
486.863	115
487.081	106
487.299	98
487.517	70
487.735	99
487.953	87
488.171	99
488.389	99
488.607	112
488.825	86
489.043	85
489.261	98
489.479	92
489.696	94
489.914	94
490.132	80
490.35	79
490.568	89
490.786	86
491.003	90
491.221	93
491.439	75
491.657	98
491.874	84
492.092	78
492.31	81
492.527	79
492.745	82
492.963	91
493.18	89
493.398	95
493.615	79
493.833	101
494.05	83
494.268	91
494.485	98
494.703	83
494.92	91
495.138	102
495.355	73
495.573	90
495.79	82
496.008	82
496.225	82
496.442	88
496.66	93
496.877	80
497.094	94
497.312	89
497.529	83
497.746	95
497.963	98
498.181	77
498.398	96
498.615	108
498.832	83
499.049	86
499.267	83
499.484	91
499.701	101
499.918	86
500.135	95
500.352	89
500.569	89
500.786	91
501.003	90
501.22	92
501.437	97
501.654	93
501.871	96
502.088	89
502.305	99
502.522	87
502.739	81
502.956	87
503.172	84
503.389	98
503.606	85
503.823	93
504.04	83
504.256	80
504.473	99
504.69	92
504.907	86
505.123	81
505.34	82
505.557	82
505.773	83
505.99	74
506.207	84
506.423	81
506.64	85
506.856	83
507.073	101
507.289	97
507.506	104
507.722	103
507.939	112
508.155	92
508.372	76
508.588	94
508.805	90
509.021	96
509.238	94
509.454	98
509.67	88
509.887	114
510.103	139
510.319	200
510.536	677
510.752	2080
510.968	556
511.184	154
511.401	91
511.617	95
511.833	95
512.049	87
512.265	102
512.481	91
512.698	84
512.914	100
513.13	96
513.346	87
513.562	101
513.778	98
513.994	107
514.21	80
514.426	92
514.642	118
514.858	116
515.074	158
515.29	378
515.506	1207
515.721	454
515.937	123
516.153	98
516.369	82
516.585	89
516.801	99
517.016	95
517.232	92
517.448	98
517.664	84
517.879	106
518.095	94
518.311	83
518.527	86
518.742	84
518.958	93
519.173	87
519.389	85
519.605	83
519.82	92
520.036	108
520.251	105
520.467	100
520.682	107
520.898	104
521.113	108
521.329	128
521.544	185
521.76	465
521.975	1999
522.19	1177
522.406	274
522.621	106
522.836	91
523.052	82
523.267	93
523.482	98
523.698	92
523.913	103
524.128	95
524.343	83
524.559	92
524.774	89
524.989	75
525.204	91
525.419	88
525.634	67
525.849	80
526.064	95
526.28	87
526.495	98
526.71	112
526.925	86
527.14	82
527.355	88
527.57	80
527.785	82
527.999	100
528.214	101
528.429	86
528.644	93
528.859	85
529.074	90
529.289	115
529.503	152
529.718	102
529.933	83
530.148	91
530.363	84
530.577	86
530.792	79
531.007	88
531.221	89
531.436	78
531.651	90
531.865	81
532.08	100
532.295	92
532.509	81
532.724	82
532.938	92
533.153	85
533.367	80
533.582	83
533.796	89
534.011	89
534.225	88
534.44	84
534.654	74
534.868	86
535.083	89
535.297	99
535.511	99
535.726	96
535.94	101
536.154	90
536.369	88
536.583	92
536.797	86
537.011	85
537.225	86
537.44	97
537.654	89
537.868	79
538.082	90
538.296	80
538.51	89
538.724	80
538.938	92
539.153	87
539.367	94
539.581	99
539.795	96
540.009	91
540.222	84
540.436	89
540.65	85
540.864	98
541.078	87
541.292	75
541.506	76
541.72	87
541.934	74
542.147	92
542.361	94
542.575	89
542.789	87
543.002	81
543.216	94
543.43	83
543.644	96
543.857	84
544.071	87
544.285	88
544.498	88
544.712	92
544.925	102
545.139	80
545.352	69
545.566	90
545.779	80
545.993	93
546.206	84
546.42	87
546.633	95
546.847	96
547.06	78
547.274	71
547.487	82
547.7	72
547.914	88
548.127	88
548.34	94
548.554	99
548.767	102
548.98	94
549.193	86
549.407	94
549.62	100
549.833	98
550.046	84
550.259	83
550.473	78
550.686	82
550.899	84
551.112	95
551.325	75
551.538	89
551.751	96
551.964	104
552.177	101
552.39	83
552.603	83
552.816	88
553.029	94
553.242	97
553.455	96
553.667	85
553.88	105
554.093	97
554.306	81
554.519	87
554.732	80
554.944	92
555.157	87
555.37	90
555.583	79
555.795	90
556.008	88
556.221	79
556.433	65
556.646	79
556.859	84
557.071	89
557.284	94
557.496	94
557.709	100
557.921	74
558.134	94
558.346	79
558.559	81
558.771	83
558.984	95
559.196	90
559.409	73
559.621	78
559.833	91
560.046	82
560.258	91
560.47	91
560.683	87
560.895	88
561.107	97
561.32	82
561.532	82
561.744	78
561.956	84
562.168	95
562.381	88
562.593	88
562.805	90
563.017	83
563.229	86
563.441	94
563.653	88
563.865	85
564.077	91
564.289	78
564.501	72
564.713	80
564.925	83
565.137	74
565.349	84
565.561	93
565.773	84
565.985	88
566.197	77
566.408	81
566.62	85
566.832	85
567.044	87
567.255	90
567.467	85
567.679	86
567.891	72
568.102	77
568.314	92
568.526	81
568.737	83
568.949	89
569.161	90
569.372	90
569.584	73
569.795	91
570.007	121
570.218	235
570.43	110
570.641	84
570.853	97
571.064	99
571.276	79
571.487	81
571.698	92
571.91	80
572.121	86
572.333	79
572.544	85
572.755	91
572.966	90
573.178	88
573.389	86
573.6	81
573.811	89
574.023	68
574.234	79
574.445	88
574.656	64
574.867	68
575.078	80
575.289	81
575.501	88
575.712	93
575.923	95
576.134	81
576.345	81
576.556	87
576.767	95
576.978	99
577.188	95
577.399	83
577.61	91
577.821	92
578.032	110
578.243	252
578.454	677
578.665	182
578.875	98
579.086	90
579.297	88
579.508	98
579.718	83
579.929	90
580.14	82
580.35	71
580.561	64
580.772	80
580.982	94
581.193	82
581.403	80
581.614	82
581.825	79
582.035	83
582.246	83
582.456	90
582.667	72
582.877	80
583.087	87
583.298	82
583.508	83
583.719	70
583.929	71
584.139	84
584.35	95
584.56	98
584.77	97
584.981	82
585.191	84
585.401	84
585.611	65
585.821	87
586.032	84
586.242	91
