Data from Uncirc_1980_H10_HRD10591_00049.txt Node
Date: Wed Jan 03 12:37:05 EST 2024
User: Yrep
Spectrometer: HR+D1059
Trigger mode: 1
Integration Time (sec): 1.000000E-1
Scans to average: 1
Electric dark correction enabled: true
Nonlinearity correction enabled: false
Boxcar width: 0
XAxis mode: Wavelengths
Number of Pixels in Spectrum: 2048
>>>>>Begin Spectral Data<<<<<
223.165	-25.81
223.4	-25.81
223.635	-25.81
223.869	-26.81
224.104	-18.81
224.338	-3.81
224.573	-24.81
224.808	-6.81
225.042	4.19
225.277	-0.81
225.511	-2.81
225.746	-6.81
225.98	10.19
226.215	13.19
226.449	11.19
226.683	8.19
226.918	30.19
227.152	40.19
227.387	28.19
227.621	38.19
227.856	37.19
228.09	45.19
228.324	51.19
228.559	59.19
228.793	54.19
229.027	59.19
229.262	59.19
229.496	55.19
229.73	67.19
229.964	77.19
230.199	76.19
230.433	86.19
230.667	87.19
230.901	77.19
231.136	77.19
231.37	77.19
231.604	79.19
231.838	85.19
232.072	65.19
232.306	89.19
232.541	87.19
232.775	82.19
233.009	82.19
233.243	79.19
233.477	78.19
233.711	71.19
233.945	87.19
234.179	86.19
234.413	87.19
234.647	83.19
234.881	82.19
235.115	81.19
235.349	73.19
235.583	73.19
235.817	86.19
236.051	81.19
236.285	76.19
236.519	88.19
236.753	77.19
236.987	89.19
237.221	72.19
237.455	86.19
237.689	71.19
237.922	76.19
238.156	60.19
238.39	83.19
238.624	75.19
238.858	65.19
239.091	75.19
239.325	71.19
239.559	75.19
239.793	80.19
240.027	78.19
240.26	92.19
240.494	82.19
240.728	73.19
240.961	71.19
241.195	61.19
241.429	72.19
241.662	72.19
241.896	82.19
242.13	85.19
242.363	78.19
242.597	85.19
242.83	87.19
243.064	74.19
243.298	87.19
243.531	79.19
243.765	78.19
243.998	84.19
244.232	67.19
244.465	70.19
244.699	77.19
244.932	85.19
245.166	79.19
245.399	69.19
245.633	75.19
245.866	65.19
246.099	84.19
246.333	70.19
246.566	83.19
246.8	77.19
247.033	75.19
247.266	82.19
247.5	81.19
247.733	85.19
247.966	85.19
248.2	92.19
248.433	89.19
248.666	88.19
248.899	72.19
249.133	78.19
249.366	90.19
249.599	88.19
249.832	85.19
250.066	72.19
250.299	73.19
250.532	87.19
250.765	89.19
250.998	88.19
251.231	80.19
251.465	72.19
251.698	89.19
251.931	66.19
252.164	72.19
252.397	93.19
252.63	85.19
252.863	83.19
253.096	72.19
253.329	87.19
253.562	92.19
253.795	80.19
254.028	96.19
254.261	78.19
254.494	62.19
254.727	86.19
254.96	91.19
255.193	77.19
255.426	81.19
255.659	73.19
255.892	71.19
256.124	97.19
256.357	81.19
256.59	86.19
256.823	86.19
257.056	88.19
257.289	82.19
257.521	66.19
257.754	94.19
257.987	87.19
258.22	92.19
258.452	71.19
258.685	79.19
258.918	99.19
259.151	76.19
259.383	72.19
259.616	79.19
259.849	76.19
260.081	71.19
260.314	85.19
260.547	89.19
260.779	93.19
261.012	83.19
261.244	89.19
261.477	91.19
261.71	87.19
261.942	96.19
262.175	86.19
262.407	85.19
262.64	73.19
262.872	81.19
263.105	87.19
263.337	86.19
263.57	84.19
263.802	81.19
264.035	85.19
264.267	81.19
264.499	78.19
264.732	89.19
264.964	83.19
265.197	78.19
265.429	88.19
265.661	97.19
265.894	69.19
266.126	83.19
266.358	83.19
266.591	80.19
266.823	80.19
267.055	87.19
267.287	72.19
267.52	88.19
267.752	100.19
267.984	89.19
268.216	81.19
268.448	97.19
268.681	87.19
268.913	90.19
269.145	68.19
269.377	84.19
269.609	92.19
269.841	65.19
270.073	90.19
270.306	85.19
270.538	79.19
270.77	79.19
271.002	92.19
271.234	83.19
271.466	92.19
271.698	75.19
271.93	93.19
272.162	87.19
272.394	87.19
272.626	87.19
272.858	92.19
273.09	76.19
273.322	81.19
273.553	94.19
273.785	96.19
274.017	81.19
274.249	96.19
274.481	83.19
274.713	92.19
274.945	83.19
275.176	95.19
275.408	91.19
275.64	81.19
275.872	90.19
276.104	94.19
276.335	73.19
276.567	101.19
276.799	94.19
277.031	84.19
277.262	82.19
277.494	89.19
277.726	94.19
277.957	83.19
278.189	74.19
278.421	69.19
278.652	76.19
278.884	81.19
279.115	85.19
279.347	95.19
279.579	91.19
279.81	84.19
280.042	83.19
280.273	87.19
280.505	90.19
280.736	81.19
280.968	85.19
281.199	68.19
281.431	86.19
281.662	97.19
281.894	82.19
282.125	90.19
282.356	100.19
282.588	99.19
282.819	103.19
283.051	98.19
283.282	87.19
283.513	89.19
283.745	70.19
283.976	91.19
284.207	90.19
284.439	89.19
284.67	76.19
284.901	88.19
285.132	81.19
285.364	77.19
285.595	91.19
285.826	83.19
286.057	76.19
286.288	74.19
286.52	88.19
286.751	82.19
286.982	88.19
287.213	91.19
287.444	90.19
287.675	91.19
287.906	96.19
288.138	78.19
288.369	86.19
288.6	89.19
288.831	88.19
289.062	89.19
289.293	85.19
289.524	90.19
289.755	90.19
289.986	89.19
290.217	73.19
290.448	74.19
290.679	82.19
290.91	78.19
291.141	93.19
291.371	89.19
291.602	85.19
291.833	94.19
292.064	85.19
292.295	88.19
292.526	88.19
292.757	81.19
292.987	91.19
293.218	96.19
293.449	86.19
293.68	102.19
293.91	96.19
294.141	91.19
294.372	89.19
294.603	85.19
294.833	82.19
295.064	79.19
295.295	84.19
295.525	93.19
295.756	91.19
295.987	110.19
296.217	122.19
296.448	114.19
296.679	90.19
296.909	88.19
297.14	87.19
297.37	88.19
297.601	85.19
297.831	81.19
298.062	99.19
298.292	97.19
298.523	88.19
298.753	86.19
298.984	90.19
299.214	99.19
299.445	90.19
299.675	91.19
299.905	102.19
300.136	90.19
300.366	83.19
300.597	90.19
300.827	95.19
301.057	95.19
301.288	98.19
301.518	102.19
301.748	94.19
301.979	94.19
302.209	85.19
302.439	96.19
302.669	97.19
302.9	84.19
303.13	91.19
303.36	105.19
303.59	110.19
303.82	104.19
304.051	110.19
304.281	98.19
304.511	103.19
304.741	90.19
304.971	91.19
305.201	89.19
305.431	81.19
305.661	90.19
305.891	102.19
306.121	94.19
306.352	98.19
306.582	108.19
306.812	102.19
307.042	86.19
307.272	83.19
307.502	95.19
307.731	97.19
307.961	106.19
308.191	86.19
308.421	97.19
308.651	87.19
308.881	97.19
309.111	82.19
309.341	93.19
309.571	91.19
309.8	86.19
310.03	96.19
310.26	86.19
310.49	93.19
310.72	88.19
310.949	89.19
311.179	91.19
311.409	82.19
311.639	77.19
311.868	90.19
312.098	89.19
312.328	87.19
312.557	93.19
312.787	99.19
313.017	90.19
313.246	94.19
313.476	83.19
313.706	80.19
313.935	87.19
314.165	95.19
314.394	86.19
314.624	85.19
314.853	97.19
315.083	82.19
315.312	96.19
315.542	100.19
315.771	95.19
316.001	103.19
316.23	101.19
316.46	99.19
316.689	85.19
316.919	87.19
317.148	97.19
317.377	84.19
317.607	93.19
317.836	82.19
318.065	97.19
318.295	87.19
318.524	85.19
318.753	94.19
318.983	82.19
319.212	78.19
319.441	98.19
319.67	95.19
319.9	94.19
320.129	91.19
320.358	92.19
320.587	91.19
320.816	95.19
321.046	94.19
321.275	99.19
321.504	85.19
321.733	101.19
321.962	109.19
322.191	90.19
322.42	97.19
322.649	107.19
322.878	98.19
323.108	109.19
323.337	100.19
323.566	115.19
323.795	133.19
324.024	171.19
324.253	279.19
324.482	589.19
324.71	1180.19
324.939	1540.19
325.168	595.19
325.397	195.19
325.626	139.19
325.855	111.19
326.084	114.19
326.313	118.19
326.542	125.19
326.77	187.19
326.999	341.19
327.228	673.19
327.457	1224.19
327.686	957.19
327.914	280.19
328.143	156.19
328.372	140.19
328.6	101.19
328.829	107.19
329.058	108.19
329.287	100.19
329.515	103.19
329.744	97.19
329.972	107.19
330.201	92.19
330.43	107.19
330.658	99.19
330.887	124.19
331.115	115.19
331.344	78.19
331.572	97.19
331.801	97.19
332.03	96.19
332.258	94.19
332.486	85.19
332.715	101.19
332.943	83.19
333.172	100.19
333.4	90.19
333.629	94.19
333.857	91.19
334.085	114.19
334.314	98.19
334.542	115.19
334.771	122.19
334.999	100.19
335.227	94.19
335.455	101.19
335.684	93.19
335.912	89.19
336.14	105.19
336.369	93.19
336.597	103.19
336.825	91.19
337.053	94.19
337.281	90.19
337.51	90.19
337.738	89.19
337.966	83.19
338.194	78.19
338.422	93.19
338.65	104.19
338.878	87.19
339.106	88.19
339.334	90.19
339.562	91.19
339.79	76.19
340.018	75.19
340.246	93.19
340.474	103.19
340.702	83.19
340.93	88.19
341.158	89.19
341.386	94.19
341.614	98.19
341.842	79.19
342.07	107.19
342.298	92.19
342.526	91.19
342.754	90.19
342.981	88.19
343.209	93.19
343.437	96.19
343.665	78.19
343.893	89.19
344.12	81.19
344.348	81.19
344.576	80.19
344.804	86.19
345.031	95.19
345.259	89.19
345.487	97.19
345.714	103.19
345.942	86.19
346.17	85.19
346.397	83.19
346.625	89.19
346.853	87.19
347.08	93.19
347.308	91.19
347.535	90.19
347.763	90.19
347.99	106.19
348.218	92.19
348.445	87.19
348.673	94.19
348.9	108.19
349.128	86.19
349.355	73.19
349.583	97.19
349.81	89.19
350.037	99.19
350.265	85.19
350.492	85.19
350.72	94.19
350.947	93.19
351.174	100.19
351.402	110.19
351.629	94.19
351.856	90.19
352.083	105.19
352.311	106.19
352.538	97.19
352.765	121.19
352.992	119.19
353.22	100.19
353.447	105.19
353.674	94.19
353.901	86.19
354.128	96.19
354.355	101.19
354.583	89.19
354.81	97.19
355.037	102.19
355.264	86.19
355.491	85.19
355.718	98.19
355.945	99.19
356.172	90.19
356.399	93.19
356.626	101.19
356.853	90.19
357.08	95.19
357.307	81.19
357.534	91.19
357.761	84.19
357.988	93.19
358.215	98.19
358.441	77.19
358.668	84.19
358.895	88.19
359.122	88.19
359.349	74.19
359.576	73.19
359.802	96.19
360.029	110.19
360.256	88.19
360.483	106.19
360.709	85.19
360.936	107.19
361.163	95.19
361.39	93.19
361.616	74.19
361.843	84.19
362.07	91.19
362.296	101.19
362.523	91.19
362.749	90.19
362.976	87.19
363.203	90.19
363.429	79.19
363.656	81.19
363.882	79.19
364.109	90.19
364.335	100.19
364.562	71.19
364.788	83.19
365.015	88.19
365.241	95.19
365.468	97.19
365.694	103.19
365.92	80.19
366.147	89.19
366.373	91.19
366.599	88.19
366.826	97.19
367.052	87.19
367.278	82.19
367.505	80.19
367.731	84.19
367.957	89.19
368.184	77.19
368.41	91.19
368.636	89.19
368.862	101.19
369.089	78.19
369.315	91.19
369.541	75.19
369.767	86.19
369.993	95.19
370.219	85.19
370.445	94.19
370.672	90.19
370.898	105.19
371.124	94.19
371.35	89.19
371.576	86.19
371.802	89.19
372.028	103.19
372.254	97.19
372.48	93.19
372.706	83.19
372.932	78.19
373.158	87.19
373.384	87.19
373.61	101.19
373.835	85.19
374.061	93.19
374.287	95.19
374.513	98.19
374.739	83.19
374.965	103.19
375.191	97.19
375.416	86.19
375.642	104.19
375.868	93.19
376.094	98.19
376.319	87.19
376.545	78.19
376.771	89.19
376.997	78.19
377.222	97.19
377.448	95.19
377.674	82.19
377.899	87.19
378.125	68.19
378.35	81.19
378.576	104.19
378.802	89.19
379.027	94.19
379.253	86.19
379.478	94.19
379.704	100.19
379.929	108.19
380.155	94.19
380.38	87.19
380.606	89.19
380.831	93.19
381.057	88.19
381.282	105.19
381.507	90.19
381.733	96.19
381.958	96.19
382.184	95.19
382.409	92.19
382.634	96.19
382.86	108.19
383.085	94.19
383.31	105.19
383.535	96.19
383.761	106.19
383.986	101.19
384.211	90.19
384.436	91.19
384.662	110.19
384.887	103.19
385.112	103.19
385.337	104.19
385.562	93.19
385.787	121.19
386.013	97.19
386.238	115.19
386.463	94.19
386.688	111.19
386.913	98.19
387.138	99.19
387.363	99.19
387.588	96.19
387.813	97.19
388.038	99.19
388.263	107.19
388.488	103.19
388.713	87.19
388.938	93.19
389.163	97.19
389.387	91.19
389.612	87.19
389.837	98.19
390.062	76.19
390.287	93.19
390.512	91.19
390.736	81.19
390.961	98.19
391.186	105.19
391.411	97.19
391.636	87.19
391.86	85.19
392.085	81.19
392.31	92.19
392.534	85.19
392.759	89.19
392.984	70.19
393.208	91.19
393.433	87.19
393.658	82.19
393.882	93.19
394.107	87.19
394.331	96.19
394.556	89.19
394.78	89.19
395.005	97.19
395.229	77.19
395.454	84.19
395.678	86.19
395.903	76.19
396.127	87.19
396.352	59.19
396.576	92.19
396.801	102.19
397.025	86.19
397.249	78.19
397.474	83.19
397.698	84.19
397.922	98.19
398.147	98.19
398.371	83.19
398.595	85.19
398.82	101.19
399.044	89.19
399.268	87.19
399.492	83.19
399.717	89.19
399.941	86.19
400.165	105.19
400.389	97.19
400.613	97.19
400.837	97.19
401.062	107.19
401.286	84.19
401.51	87.19
401.734	90.19
401.958	86.19
402.182	104.19
402.406	134.19
402.63	109.19
402.854	91.19
403.078	98.19
403.302	86.19
403.526	105.19
403.75	78.19
403.974	84.19
404.198	81.19
404.422	75.19
404.645	87.19
404.869	74.19
405.093	112.19
405.317	95.19
405.541	92.19
405.765	104.19
405.988	105.19
406.212	133.19
406.436	166.19
406.66	116.19
406.883	95.19
407.107	89.19
407.331	88.19
407.555	90.19
407.778	91.19
408.002	96.19
408.226	93.19
408.449	87.19
408.673	94.19
408.896	91.19
409.12	106.19
409.344	86.19
409.567	93.19
409.791	97.19
410.014	82.19
410.238	95.19
410.461	93.19
410.685	88.19
410.908	94.19
411.132	99.19
411.355	87.19
411.578	86.19
411.802	93.19
412.025	94.19
412.249	86.19
412.472	117.19
412.695	94.19
412.919	76.19
413.142	81.19
413.365	81.19
413.589	93.19
413.812	95.19
414.035	86.19
414.258	89.19
414.482	93.19
414.705	93.19
414.928	86.19
415.151	99.19
415.374	91.19
415.597	86.19
415.821	89.19
416.044	107.19
416.267	82.19
416.49	92.19
416.713	89.19
416.936	94.19
417.159	83.19
417.382	81.19
417.605	81.19
417.828	95.19
418.051	83.19
418.274	84.19
418.497	85.19
418.72	84.19
418.943	97.19
419.166	91.19
419.389	90.19
419.611	68.19
419.834	85.19
420.057	79.19
420.28	92.19
420.503	93.19
420.726	88.19
420.948	85.19
421.171	77.19
421.394	93.19
421.617	95.19
421.839	90.19
422.062	91.19
422.285	90.19
422.507	99.19
422.73	85.19
422.953	103.19
423.175	84.19
423.398	74.19
423.621	71.19
423.843	88.19
424.066	85.19
424.288	72.19
424.511	85.19
424.733	82.19
424.956	90.19
425.178	93.19
425.401	98.19
425.623	115.19
425.846	74.19
426.068	89.19
426.291	101.19
426.513	104.19
426.735	93.19
426.958	88.19
427.18	99.19
427.402	117.19
427.625	140.19
427.847	128.19
428.069	106.19
428.292	81.19
428.514	81.19
428.736	83.19
428.958	77.19
429.181	88.19
429.403	82.19
429.625	87.19
429.847	86.19
430.069	81.19
430.292	92.19
430.514	92.19
430.736	89.19
430.958	69.19
431.18	67.19
431.402	83.19
431.624	85.19
431.846	83.19
432.068	89.19
432.29	77.19
432.512	101.19
432.734	70.19
432.956	90.19
433.178	101.19
433.4	94.19
433.622	93.19
433.844	84.19
434.066	101.19
434.287	85.19
434.509	92.19
434.731	98.19
434.953	90.19
435.175	73.19
435.397	70.19
435.618	74.19
435.84	83.19
436.062	117.19
436.284	117.19
436.505	85.19
436.727	98.19
436.949	94.19
437.17	81.19
437.392	73.19
437.614	90.19
437.835	81.19
438.057	95.19
438.278	88.19
438.5	92.19
438.721	107.19
438.943	94.19
439.165	75.19
439.386	99.19
439.608	88.19
439.829	86.19
440.05	94.19
440.272	107.19
440.493	76.19
440.715	93.19
440.936	83.19
441.158	93.19
441.379	87.19
441.6	87.19
441.822	74.19
442.043	87.19
442.264	106.19
442.486	95.19
442.707	76.19
442.928	93.19
443.149	114.19
443.371	111.19
443.592	91.19
443.813	103.19
444.034	104.19
444.255	87.19
444.476	79.19
444.698	98.19
444.919	82.19
445.14	118.19
445.361	117.19
445.582	99.19
445.803	116.19
446.024	126.19
446.245	111.19
446.466	105.19
446.687	101.19
446.908	99.19
447.129	92.19
447.35	91.19
447.571	93.19
447.792	86.19
448.013	89.19
448.234	90.19
448.455	87.19
448.675	92.19
448.896	104.19
449.117	87.19
449.338	91.19
449.559	97.19
449.779	107.19
450	89.19
450.221	81.19
450.442	87.19
450.662	75.19
450.883	81.19
451.104	92.19
451.324	92.19
451.545	97.19
451.766	86.19
451.986	95.19
452.207	79.19
452.428	76.19
452.648	90.19
452.869	99.19
453.089	92.19
453.31	110.19
453.53	99.19
453.751	101.19
453.971	102.19
454.192	94.19
454.412	92.19
454.633	83.19
454.853	93.19
455.073	92.19
455.294	92.19
455.514	91.19
455.734	92.19
455.955	101.19
456.175	79.19
456.395	76.19
456.616	77.19
456.836	86.19
457.056	95.19
457.276	83.19
457.497	78.19
457.717	85.19
457.937	87.19
458.157	76.19
458.377	79.19
458.598	88.19
458.818	115.19
459.038	118.19
459.258	98.19
459.478	101.19
459.698	83.19
459.918	83.19
460.138	89.19
460.358	65.19
460.578	78.19
460.798	74.19
461.018	82.19
461.238	88.19
461.458	77.19
461.678	88.19
461.898	88.19
462.118	90.19
462.338	87.19
462.558	74.19
462.777	87.19
462.997	85.19
463.217	88.19
463.437	79.19
463.657	77.19
463.876	83.19
464.096	97.19
464.316	87.19
464.536	95.19
464.755	93.19
464.975	93.19
465.195	122.19
465.414	122.19
465.634	90.19
465.854	81.19
466.073	83.19
466.293	82.19
466.512	84.19
466.732	77.19
466.951	87.19
467.171	96.19
467.391	85.19
467.61	92.19
467.829	90.19
468.049	91.19
468.268	87.19
468.488	91.19
468.707	84.19
468.927	99.19
469.146	97.19
469.365	102.19
469.585	91.19
469.804	94.19
470.023	85.19
470.243	81.19
470.462	102.19
470.681	89.19
470.901	91.19
471.12	75.19
471.339	73.19
471.558	90.19
471.777	85.19
471.997	92.19
472.216	118.19
472.435	139.19
472.654	94.19
472.873	92.19
473.092	98.19
473.311	83.19
473.53	95.19
473.749	90.19
473.968	87.19
474.187	105.19
474.406	98.19
474.625	86.19
474.844	93.19
475.063	74.19
475.282	94.19
475.501	83.19
475.72	81.19
475.939	82.19
476.158	83.19
476.377	81.19
476.596	70.19
476.814	96.19
477.033	97.19
477.252	70.19
477.471	84.19
477.69	85.19
477.908	82.19
478.127	95.19
478.346	85.19
478.564	96.19
478.783	93.19
479.002	87.19
479.22	104.19
479.439	87.19
479.658	109.19
479.876	96.19
480.095	86.19
480.313	100.19
480.532	79.19
480.751	111.19
480.969	131.19
481.188	159.19
481.406	135.19
481.624	93.19
481.843	91.19
482.061	74.19
482.28	94.19
482.498	91.19
482.717	99.19
482.935	94.19
483.153	89.19
483.372	82.19
483.59	85.19
483.808	79.19
484.027	103.19
484.245	98.19
484.463	96.19
484.681	101.19
484.9	88.19
485.118	91.19
485.336	102.19
485.554	90.19
485.772	88.19
485.99	110.19
486.209	97.19
486.427	106.19
486.645	102.19
486.863	106.19
487.081	107.19
487.299	92.19
487.517	99.19
487.735	94.19
487.953	94.19
488.171	93.19
488.389	99.19
488.607	112.19
488.825	93.19
489.043	82.19
489.261	109.19
489.479	93.19
489.696	110.19
489.914	88.19
490.132	90.19
490.35	90.19
490.568	86.19
490.786	91.19
491.003	78.19
491.221	97.19
491.439	87.19
491.657	100.19
491.874	93.19
492.092	91.19
492.31	77.19
492.527	103.19
492.745	87.19
492.963	96.19
493.18	86.19
493.398	92.19
493.615	90.19
493.833	104.19
494.05	90.19
494.268	96.19
494.485	78.19
494.703	91.19
494.92	86.19
495.138	85.19
495.355	90.19
495.573	93.19
495.79	81.19
496.008	103.19
496.225	91.19
496.442	102.19
496.66	98.19
496.877	78.19
497.094	99.19
497.312	88.19
497.529	84.19
497.746	89.19
497.963	94.19
498.181	82.19
498.398	90.19
498.615	112.19
498.832	101.19
499.049	89.19
499.267	91.19
499.484	99.19
499.701	99.19
499.918	98.19
500.135	93.19
500.352	81.19
500.569	87.19
500.786	79.19
501.003	91.19
501.22	95.19
501.437	88.19
501.654	98.19
501.871	108.19
502.088	97.19
502.305	83.19
502.522	91.19
502.739	88.19
502.956	74.19
503.172	97.19
503.389	102.19
503.606	104.19
503.823	95.19
504.04	85.19
504.256	85.19
504.473	91.19
504.69	85.19
504.907	88.19
505.123	84.19
505.34	91.19
505.557	94.19
505.773	101.19
505.99	85.19
506.207	98.19
506.423	83.19
506.64	96.19
506.856	106.19
507.073	82.19
507.289	83.19
507.506	103.19
507.722	92.19
507.939	103.19
508.155	83.19
508.372	84.19
508.588	86.19
508.805	95.19
509.021	96.19
509.238	91.19
509.454	100.19
509.67	97.19
509.887	98.19
510.103	123.19
510.319	185.19
510.536	602.19
510.752	1763.19
510.968	485.19
511.184	134.19
511.401	97.19
511.617	101.19
511.833	81.19
512.049	88.19
512.265	107.19
512.481	105.19
512.698	82.19
512.914	93.19
513.13	94.19
513.346	89.19
513.562	99.19
513.778	98.19
513.994	94.19
514.21	102.19
514.426	108.19
514.642	115.19
514.858	112.19
515.074	139.19
515.29	316.19
515.506	993.19
515.721	387.19
515.937	126.19
516.153	102.19
516.369	86.19
516.585	88.19
516.801	87.19
