Data from Uncirc_1980_H10_HRD10591_00093.txt Node
Date: Wed Jan 03 12:37:14 EST 2024
User: Yrep
Spectrometer: HR+D1059
Trigger mode: 1
Integration Time (sec): 1.000000E-1
Scans to average: 1
Electric dark correction enabled: true
Nonlinearity correction enabled: false
Boxcar width: 0
XAxis mode: Wavelengths
Number of Pixels in Spectrum: 2048
>>>>>Begin Spectral Data<<<<<
223.165	-12.56
223.4	-12.56
223.635	-12.56
223.869	-13.56
224.104	-20.56
224.338	-20.56
224.573	-12.56
224.808	-12.56
225.042	-7.56
225.277	2.44
225.511	-2.56
225.746	3.44
225.98	-1.56
226.215	19.44
226.449	16.44
226.683	21.44
226.918	17.44
227.152	23.44
227.387	31.44
227.621	41.44
227.856	46.44
228.09	30.44
228.324	50.44
228.559	56.44
228.793	70.44
229.027	61.44
229.262	67.44
229.496	78.44
229.73	86.44
229.964	78.44
230.199	81.44
230.433	78.44
230.667	84.44
230.901	84.44
231.136	59.44
231.37	87.44
231.604	68.44
231.838	73.44
232.072	82.44
232.306	79.44
232.541	78.44
232.775	96.44
233.009	77.44
233.243	84.44
233.477	85.44
233.711	80.44
233.945	84.44
234.179	68.44
234.413	78.44
234.647	78.44
234.881	88.44
235.115	79.44
235.349	83.44
235.583	88.44
235.817	69.44
236.051	81.44
236.285	62.44
236.519	84.44
236.753	71.44
236.987	85.44
237.221	76.44
237.455	79.44
237.689	79.44
237.922	72.44
238.156	78.44
238.39	85.44
238.624	91.44
238.858	65.44
239.091	78.44
239.325	72.44
239.559	64.44
239.793	68.44
240.027	87.44
240.26	74.44
240.494	80.44
240.728	85.44
240.961	76.44
241.195	91.44
241.429	74.44
241.662	55.44
241.896	73.44
242.13	75.44
242.363	74.44
242.597	67.44
242.83	76.44
243.064	76.44
243.298	78.44
243.531	72.44
243.765	89.44
243.998	90.44
244.232	100.44
244.465	74.44
244.699	73.44
244.932	77.44
245.166	76.44
245.399	84.44
245.633	70.44
245.866	71.44
246.099	67.44
246.333	76.44
246.566	83.44
246.8	83.44
247.033	76.44
247.266	87.44
247.5	78.44
247.733	74.44
247.966	76.44
248.2	76.44
248.433	90.44
248.666	85.44
248.899	85.44
249.133	70.44
249.366	89.44
249.599	92.44
249.832	88.44
250.066	72.44
250.299	87.44
250.532	66.44
250.765	85.44
250.998	78.44
251.231	79.44
251.465	79.44
251.698	82.44
251.931	79.44
252.164	82.44
252.397	91.44
252.63	71.44
252.863	80.44
253.096	89.44
253.329	83.44
253.562	68.44
253.795	83.44
254.028	103.44
254.261	76.44
254.494	71.44
254.727	86.44
254.96	91.44
255.193	81.44
255.426	95.44
255.659	82.44
255.892	94.44
256.124	88.44
256.357	79.44
256.59	83.44
256.823	71.44
257.056	73.44
257.289	86.44
257.521	68.44
257.754	83.44
257.987	76.44
258.22	75.44
258.452	79.44
258.685	90.44
258.918	92.44
259.151	79.44
259.383	87.44
259.616	88.44
259.849	79.44
260.081	75.44
260.314	92.44
260.547	75.44
260.779	90.44
261.012	89.44
261.244	86.44
261.477	79.44
261.71	96.44
261.942	100.44
262.175	102.44
262.407	95.44
262.64	80.44
262.872	81.44
263.105	77.44
263.337	89.44
263.57	95.44
263.802	87.44
264.035	83.44
264.267	81.44
264.499	76.44
264.732	69.44
264.964	94.44
265.197	87.44
265.429	80.44
265.661	71.44
265.894	88.44
266.126	88.44
266.358	85.44
266.591	78.44
266.823	85.44
267.055	79.44
267.287	104.44
267.52	89.44
267.752	83.44
267.984	82.44
268.216	86.44
268.448	97.44
268.681	76.44
268.913	77.44
269.145	81.44
269.377	94.44
269.609	78.44
269.841	92.44
270.073	91.44
270.306	94.44
270.538	88.44
270.77	80.44
271.002	88.44
271.234	91.44
271.466	87.44
271.698	87.44
271.93	99.44
272.162	87.44
272.394	91.44
272.626	75.44
272.858	85.44
273.09	70.44
273.322	81.44
273.553	91.44
273.785	80.44
274.017	89.44
274.249	85.44
274.481	101.44
274.713	93.44
274.945	103.44
275.176	92.44
275.408	79.44
275.64	87.44
275.872	107.44
276.104	97.44
276.335	90.44
276.567	78.44
276.799	93.44
277.031	100.44
277.262	98.44
277.494	88.44
277.726	81.44
277.957	77.44
278.189	76.44
278.421	78.44
278.652	83.44
278.884	87.44
279.115	85.44
279.347	88.44
279.579	92.44
279.81	88.44
280.042	84.44
280.273	89.44
280.505	88.44
280.736	94.44
280.968	86.44
281.199	88.44
281.431	91.44
281.662	85.44
281.894	98.44
282.125	86.44
282.356	99.44
282.588	131.44
282.819	108.44
283.051	87.44
283.282	93.44
283.513	84.44
283.745	93.44
283.976	83.44
284.207	90.44
284.439	83.44
284.67	82.44
284.901	83.44
285.132	84.44
285.364	78.44
285.595	87.44
285.826	103.44
286.057	96.44
286.288	94.44
286.52	97.44
286.751	83.44
286.982	92.44
287.213	95.44
287.444	84.44
287.675	79.44
287.906	97.44
288.138	88.44
288.369	95.44
288.6	101.44
288.831	83.44
289.062	100.44
289.293	85.44
289.524	83.44
289.755	71.44
289.986	91.44
290.217	81.44
290.448	91.44
290.679	71.44
290.91	97.44
291.141	97.44
291.371	96.44
291.602	100.44
291.833	94.44
292.064	85.44
292.295	85.44
292.526	104.44
292.757	91.44
292.987	96.44
293.218	86.44
293.449	100.44
293.68	78.44
293.91	86.44
294.141	87.44
294.372	85.44
294.603	91.44
294.833	92.44
295.064	81.44
295.295	83.44
295.525	92.44
295.756	101.44
295.987	120.44
296.217	128.44
296.448	108.44
296.679	97.44
296.909	90.44
297.14	83.44
297.37	104.44
297.601	95.44
297.831	92.44
298.062	98.44
298.292	99.44
298.523	95.44
298.753	91.44
298.984	79.44
299.214	78.44
299.445	92.44
299.675	90.44
299.905	99.44
300.136	96.44
300.366	83.44
300.597	77.44
300.827	101.44
301.057	101.44
301.288	91.44
301.518	87.44
301.748	89.44
301.979	97.44
302.209	104.44
302.439	92.44
302.669	93.44
302.9	80.44
303.13	91.44
303.36	94.44
303.59	93.44
303.82	105.44
304.051	93.44
304.281	93.44
304.511	91.44
304.741	79.44
304.971	97.44
305.201	83.44
305.431	95.44
305.661	91.44
305.891	96.44
306.121	93.44
306.352	91.44
306.582	89.44
306.812	102.44
307.042	92.44
307.272	100.44
307.502	88.44
307.731	90.44
307.961	99.44
308.191	101.44
308.421	84.44
308.651	95.44
308.881	87.44
309.111	84.44
309.341	84.44
309.571	101.44
309.8	96.44
310.03	92.44
310.26	88.44
310.49	91.44
310.72	104.44
310.949	87.44
311.179	103.44
311.409	80.44
311.639	95.44
311.868	88.44
312.098	86.44
312.328	90.44
312.557	104.44
312.787	87.44
313.017	85.44
313.246	94.44
313.476	84.44
313.706	109.44
313.935	81.44
314.165	101.44
314.394	103.44
314.624	88.44
314.853	90.44
315.083	88.44
315.312	96.44
315.542	94.44
315.771	95.44
316.001	83.44
316.23	86.44
316.46	84.44
316.689	90.44
316.919	92.44
317.148	86.44
317.377	101.44
317.607	89.44
317.836	89.44
318.065	102.44
318.295	94.44
318.524	90.44
318.753	91.44
318.983	95.44
319.212	87.44
319.441	99.44
319.67	99.44
319.9	94.44
320.129	77.44
320.358	88.44
320.587	82.44
320.816	99.44
321.046	92.44
321.275	99.44
321.504	97.44
321.733	104.44
321.962	110.44
322.191	103.44
322.42	105.44
322.649	112.44
322.878	111.44
323.108	114.44
323.337	107.44
323.566	113.44
323.795	136.44
324.024	176.44
324.253	297.44
324.482	588.44
324.71	1150.44
324.939	1519.44
325.168	591.44
325.397	202.44
325.626	125.44
325.855	108.44
326.084	103.44
326.313	112.44
326.542	137.44
326.77	193.44
326.999	334.44
327.228	672.44
327.457	1187.44
327.686	963.44
327.914	277.44
328.143	153.44
328.372	141.44
328.6	99.44
328.829	100.44
329.058	101.44
329.287	117.44
329.515	100.44
329.744	91.44
329.972	89.44
330.201	103.44
330.43	112.44
330.658	115.44
330.887	128.44
331.115	108.44
331.344	95.44
331.572	94.44
331.801	95.44
332.03	91.44
332.258	110.44
332.486	89.44
332.715	102.44
332.943	99.44
333.172	89.44
333.4	96.44
333.629	113.44
333.857	92.44
334.085	99.44
334.314	120.44
334.542	118.44
334.771	120.44
334.999	97.44
335.227	101.44
335.455	89.44
335.684	94.44
335.912	94.44
336.14	88.44
336.369	95.44
336.597	91.44
336.825	80.44
337.053	93.44
337.281	89.44
337.51	91.44
337.738	88.44
337.966	92.44
338.194	85.44
338.422	95.44
338.65	91.44
338.878	104.44
339.106	96.44
339.334	97.44
339.562	98.44
339.79	78.44
340.018	91.44
340.246	104.44
340.474	78.44
340.702	97.44
340.93	94.44
341.158	95.44
341.386	89.44
341.614	93.44
341.842	88.44
342.07	85.44
342.298	87.44
342.526	93.44
342.754	83.44
342.981	83.44
343.209	107.44
343.437	87.44
343.665	93.44
343.893	89.44
344.12	102.44
344.348	83.44
344.576	100.44
344.804	91.44
345.031	92.44
345.259	96.44
345.487	95.44
345.714	88.44
345.942	110.44
346.17	87.44
346.397	93.44
346.625	108.44
346.853	79.44
347.08	95.44
347.308	98.44
347.535	94.44
347.763	106.44
347.99	105.44
348.218	95.44
348.445	92.44
348.673	92.44
348.9	81.44
349.128	95.44
349.355	98.44
349.583	100.44
349.81	99.44
350.037	100.44
350.265	98.44
350.492	99.44
350.72	90.44
350.947	101.44
351.174	100.44
351.402	100.44
351.629	92.44
351.856	97.44
352.083	86.44
352.311	87.44
352.538	111.44
352.765	115.44
352.992	113.44
353.22	107.44
353.447	104.44
353.674	103.44
353.901	110.44
354.128	97.44
354.355	104.44
354.583	98.44
354.81	108.44
355.037	92.44
355.264	101.44
355.491	91.44
355.718	87.44
355.945	90.44
356.172	103.44
356.399	105.44
356.626	100.44
356.853	101.44
357.08	101.44
357.307	97.44
357.534	95.44
357.761	109.44
357.988	96.44
358.215	106.44
358.441	101.44
358.668	91.44
358.895	90.44
359.122	104.44
359.349	97.44
359.576	99.44
359.802	99.44
360.029	90.44
360.256	104.44
360.483	101.44
360.709	99.44
360.936	99.44
361.163	100.44
361.39	92.44
361.616	93.44
361.843	99.44
362.07	93.44
362.296	85.44
362.523	92.44
362.749	104.44
362.976	93.44
363.203	90.44
363.429	95.44
363.656	84.44
363.882	95.44
364.109	81.44
364.335	87.44
364.562	73.44
364.788	93.44
365.015	83.44
365.241	96.44
365.468	114.44
365.694	97.44
365.92	93.44
366.147	85.44
366.373	86.44
366.599	78.44
366.826	96.44
367.052	93.44
367.278	104.44
367.505	89.44
367.731	95.44
367.957	88.44
368.184	86.44
368.41	92.44
368.636	108.44
368.862	114.44
369.089	112.44
369.315	87.44
369.541	80.44
369.767	89.44
369.993	79.44
370.219	87.44
370.445	90.44
370.672	89.44
370.898	91.44
371.124	92.44
371.35	94.44
371.576	88.44
371.802	94.44
372.028	94.44
372.254	95.44
372.48	94.44
372.706	99.44
372.932	88.44
373.158	90.44
373.384	91.44
373.61	99.44
373.835	68.44
374.061	76.44
374.287	98.44
374.513	97.44
374.739	85.44
374.965	90.44
375.191	93.44
375.416	86.44
375.642	87.44
375.868	94.44
376.094	91.44
376.319	88.44
376.545	96.44
376.771	88.44
376.997	87.44
377.222	85.44
377.448	85.44
377.674	91.44
377.899	86.44
378.125	83.44
378.35	87.44
378.576	94.44
378.802	99.44
379.027	71.44
379.253	85.44
379.478	90.44
379.704	85.44
379.929	101.44
380.155	104.44
380.38	113.44
380.606	92.44
380.831	90.44
381.057	104.44
381.282	93.44
381.507	110.44
381.733	96.44
381.958	95.44
382.184	76.44
382.409	100.44
382.634	103.44
382.86	94.44
383.085	101.44
383.31	94.44
383.535	106.44
383.761	108.44
383.986	95.44
384.211	93.44
384.436	93.44
384.662	102.44
384.887	91.44
385.112	112.44
385.337	110.44
385.562	96.44
385.787	107.44
386.013	103.44
386.238	94.44
386.463	122.44
386.688	106.44
386.913	113.44
387.138	103.44
387.363	110.44
387.588	103.44
387.813	93.44
388.038	104.44
388.263	107.44
388.488	112.44
388.713	92.44
388.938	95.44
389.163	99.44
389.387	102.44
389.612	94.44
389.837	99.44
390.062	86.44
390.287	87.44
390.512	92.44
390.736	82.44
390.961	95.44
391.186	86.44
391.411	102.44
391.636	89.44
391.86	95.44
392.085	73.44
392.31	80.44
392.534	96.44
392.759	103.44
392.984	91.44
393.208	89.44
393.433	107.44
393.658	100.44
393.882	94.44
394.107	89.44
394.331	86.44
394.556	97.44
394.78	96.44
395.005	87.44
395.229	81.44
395.454	92.44
395.678	95.44
395.903	95.44
396.127	91.44
396.352	84.44
396.576	89.44
396.801	81.44
397.025	91.44
397.249	93.44
397.474	92.44
397.698	105.44
397.922	92.44
398.147	81.44
398.371	86.44
398.595	92.44
398.82	79.44
399.044	96.44
399.268	85.44
399.492	78.44
399.717	94.44
399.941	92.44
400.165	87.44
400.389	80.44
400.613	76.44
400.837	104.44
401.062	97.44
401.286	70.44
401.51	87.44
401.734	101.44
401.958	102.44
402.182	104.44
402.406	135.44
402.63	112.44
402.854	73.44
403.078	80.44
403.302	94.44
403.526	80.44
403.75	72.44
403.974	91.44
404.198	93.44
404.422	88.44
404.645	82.44
404.869	94.44
405.093	115.44
405.317	95.44
405.541	101.44
405.765	95.44
405.988	105.44
406.212	147.44
406.436	173.44
406.66	128.44
406.883	106.44
407.107	99.44
407.331	93.44
407.555	99.44
407.778	91.44
408.002	89.44
408.226	84.44
408.449	90.44
408.673	88.44
408.896	100.44
409.12	86.44
409.344	83.44
409.567	80.44
409.791	83.44
410.014	90.44
410.238	91.44
410.461	86.44
410.685	88.44
410.908	105.44
411.132	95.44
411.355	93.44
411.578	90.44
411.802	66.44
412.025	103.44
412.249	80.44
412.472	83.44
412.695	103.44
412.919	107.44
413.142	96.44
413.365	91.44
413.589	95.44
413.812	94.44
414.035	90.44
414.258	99.44
414.482	98.44
414.705	84.44
414.928	96.44
415.151	89.44
415.374	93.44
415.597	102.44
415.821	88.44
416.044	87.44
416.267	92.44
416.49	89.44
416.713	88.44
416.936	97.44
417.159	112.44
417.382	99.44
417.605	90.44
417.828	96.44
418.051	92.44
418.274	75.44
418.497	94.44
418.72	71.44
418.943	85.44
419.166	91.44
419.389	84.44
419.611	113.44
419.834	86.44
420.057	89.44
420.28	91.44
420.503	77.44
420.726	83.44
420.948	80.44
421.171	79.44
421.394	83.44
421.617	85.44
421.839	94.44
422.062	97.44
422.285	94.44
422.507	90.44
422.73	103.44
422.953	105.44
423.175	91.44
423.398	76.44
423.621	90.44
423.843	95.44
424.066	102.44
424.288	88.44
424.511	100.44
424.733	99.44
424.956	105.44
425.178	92.44
425.401	95.44
425.623	77.44
425.846	107.44
426.068	84.44
426.291	95.44
426.513	89.44
426.735	93.44
426.958	90.44
427.18	104.44
427.402	111.44
427.625	140.44
427.847	114.44
428.069	95.44
428.292	90.44
428.514	95.44
428.736	100.44
428.958	85.44
429.181	93.44
429.403	94.44
429.625	80.44
429.847	85.44
430.069	97.44
430.292	103.44
430.514	87.44
430.736	85.44
430.958	72.44
431.18	93.44
431.402	105.44
431.624	80.44
431.846	94.44
432.068	77.44
432.29	75.44
432.512	83.44
432.734	88.44
432.956	87.44
433.178	92.44
433.4	85.44
433.622	92.44
433.844	90.44
434.066	96.44
434.287	88.44
434.509	77.44
434.731	80.44
434.953	84.44
435.175	89.44
435.397	78.44
435.618	96.44
435.84	103.44
436.062	111.44
436.284	96.44
436.505	94.44
436.727	103.44
436.949	95.44
437.17	101.44
437.392	82.44
437.614	100.44
437.835	105.44
438.057	107.44
438.278	91.44
438.5	108.44
438.721	102.44
438.943	90.44
439.165	92.44
439.386	64.44
439.608	95.44
439.829	97.44
440.05	107.44
440.272	120.44
440.493	95.44
440.715	86.44
440.936	89.44
441.158	107.44
441.379	80.44
441.6	84.44
441.822	110.44
442.043	90.44
442.264	98.44
442.486	88.44
442.707	103.44
442.928	108.44
443.149	106.44
443.371	111.44
443.592	103.44
443.813	100.44
444.034	103.44
444.255	97.44
444.476	78.44
444.698	93.44
444.919	91.44
445.14	128.44
445.361	110.44
445.582	92.44
445.803	110.44
446.024	112.44
446.245	114.44
446.466	105.44
446.687	88.44
446.908	69.44
447.129	86.44
447.35	88.44
447.571	98.44
447.792	105.44
448.013	105.44
448.234	86.44
448.455	93.44
448.675	81.44
448.896	102.44
449.117	81.44
449.338	112.44
449.559	108.44
449.779	132.44
450	90.44
450.221	73.44
450.442	81.44
450.662	87.44
450.883	91.44
451.104	108.44
451.324	89.44
451.545	87.44
451.766	80.44
451.986	87.44
452.207	86.44
452.428	78.44
452.648	79.44
452.869	89.44
453.089	117.44
453.31	113.44
453.53	80.44
453.751	97.44
453.971	95.44
454.192	112.44
454.412	94.44
454.633	91.44
454.853	84.44
455.073	89.44
455.294	95.44
455.514	104.44
455.734	94.44
455.955	105.44
456.175	87.44
456.395	86.44
456.616	76.44
456.836	79.44
457.056	91.44
457.276	82.44
457.497	88.44
457.717	98.44
457.937	95.44
458.157	89.44
458.377	87.44
458.598	94.44
458.818	113.44
459.038	116.44
459.258	104.44
459.478	96.44
459.698	82.44
459.918	108.44
460.138	89.44
460.358	91.44
460.578	89.44
460.798	77.44
461.018	92.44
461.238	88.44
461.458	81.44
461.678	80.44
461.898	91.44
462.118	89.44
462.338	91.44
462.558	89.44
462.777	98.44
462.997	88.44
463.217	80.44
463.437	83.44
463.657	107.44
463.876	88.44
464.096	95.44
464.316	92.44
464.536	102.44
464.755	91.44
464.975	97.44
465.195	133.44
465.414	126.44
465.634	87.44
465.854	89.44
466.073	86.44
466.293	76.44
466.512	87.44
466.732	91.44
466.951	106.44
467.171	94.44
467.391	91.44
467.61	94.44
467.829	89.44
468.049	99.44
468.268	108.44
468.488	89.44
468.707	77.44
468.927	71.44
469.146	94.44
469.365	100.44
469.585	81.44
469.804	85.44
470.023	90.44
470.243	98.44
470.462	79.44
470.681	101.44
470.901	89.44
471.12	90.44
471.339	93.44
471.558	92.44
471.777	93.44
471.997	92.44
472.216	99.44
472.435	119.44
472.654	97.44
472.873	84.44
473.092	97.44
473.311	90.44
473.53	78.44
473.749	80.44
473.968	92.44
474.187	94.44
474.406	96.44
474.625	101.44
474.844	96.44
475.063	89.44
475.282	92.44
475.501	91.44
475.72	96.44
475.939	93.44
476.158	76.44
476.377	96.44
476.596	98.44
476.814	94.44
477.033	95.44
477.252	97.44
477.471	80.44
477.69	80.44
477.908	96.44
478.127	89.44
478.346	91.44
478.564	103.44
478.783	73.44
479.002	79.44
479.22	92.44
479.439	93.44
479.658	91.44
479.876	101.44
480.095	86.44
480.313	107.44
480.532	87.44
480.751	91.44
480.969	124.44
481.188	190.44
481.406	155.44
481.624	112.44
481.843	81.44
482.061	91.44
482.28	96.44
482.498	94.44
482.717	81.44
482.935	96.44
483.153	97.44
483.372	87.44
483.59	88.44
483.808	90.44
484.027	93.44
484.245	84.44
484.463	92.44
484.681	105.44
484.9	100.44
485.118	87.44
485.336	101.44
485.554	89.44
485.772	99.44
485.99	103.44
486.209	113.44
486.427	96.44
486.645	106.44
486.863	95.44
487.081	113.44
487.299	94.44
487.517	88.44
487.735	110.44
487.953	95.44
488.171	102.44
488.389	105.44
488.607	107.44
488.825	97.44
489.043	91.44
489.261	87.44
489.479	77.44
489.696	94.44
489.914	90.44
490.132	103.44
490.35	105.44
490.568	89.44
490.786	97.44
491.003	87.44
491.221	98.44
491.439	93.44
491.657	101.44
491.874	95.44
492.092	93.44
492.31	87.44
492.527	95.44
492.745	88.44
492.963	95.44
493.18	95.44
493.398	79.44
493.615	90.44
493.833	101.44
494.05	92.44
494.268	79.44
494.485	97.44
494.703	95.44
494.92	94.44
495.138	90.44
495.355	89.44
495.573	94.44
495.79	84.44
496.008	94.44
496.225	99.44
496.442	79.44
496.66	104.44
496.877	99.44
497.094	83.44
497.312	92.44
497.529	84.44
497.746	81.44
497.963	107.44
498.181	88.44
498.398	103.44
498.615	90.44
498.832	91.44
499.049	88.44
499.267	95.44
499.484	87.44
499.701	93.44
499.918	86.44
500.135	88.44
500.352	87.44
500.569	86.44
500.786	92.44
501.003	99.44
501.22	83.44
501.437	90.44
501.654	89.44
501.871	101.44
502.088	99.44
502.305	102.44
502.522	94.44
502.739	77.44
502.956	98.44
503.172	91.44
503.389	105.44
503.606	95.44
503.823	104.44
504.04	108.44
504.256	99.44
504.473	84.44
504.69	94.44
504.907	96.44
505.123	79.44
505.34	94.44
505.557	91.44
505.773	87.44
505.99	94.44
506.207	79.44
506.423	79.44
506.64	72.44
506.856	98.44
507.073	83.44
507.289	89.44
507.506	95.44
507.722	105.44
507.939	93.44
508.155	107.44
508.372	107.44
508.588	96.44
508.805	93.44
509.021	94.44
509.238	93.44
509.454	118.44
509.67	104.44
509.887	98.44
510.103	110.44
510.319	184.44
510.536	592.44
510.752	1791.44
510.968	527.44
511.184	142.44
511.401	103.44
511.617	90.44
511.833	83.44
512.049	102.44
512.265	101.44
512.481	95.44
512.698	94.44
512.914	81.44
513.13	96.44
513.346	94.44
513.562	91.44
513.778	87.44
513.994	107.44
514.21	105.44
514.426	120.44
514.642	114.44
514.858	115.44
515.074	127.44
515.29	327.44
515.506	1011.44
515.721	410.44
515.937	133.44
