Data from Uncirc_1980_H10_HRD10591_00020.txt Node
Date: Wed Jan 03 12:36:59 EST 2024
User: Yrep
Spectrometer: HR+D1059
Trigger mode: 1
Integration Time (sec): 1.000000E-1
Scans to average: 1
Electric dark correction enabled: true
Nonlinearity correction enabled: false
Boxcar width: 0
XAxis mode: Wavelengths
Number of Pixels in Spectrum: 2048
>>>>>Begin Spectral Data<<<<<
223.165	-25.12
223.4	-25.12
223.635	-25.12
223.869	-18.12
224.104	-12.12
224.338	-13.12
224.573	-13.12
224.808	-25.12
225.042	-9.12
225.277	-7.12
225.511	-9.12
225.746	8.88
225.98	6.88
226.215	12.88
226.449	30.88
226.683	24.88
226.918	27.88
227.152	19.88
227.387	28.88
227.621	13.88
227.856	40.88
228.09	44.88
228.324	47.88
228.559	59.88
228.793	49.88
229.027	57.88
229.262	61.88
229.496	68.88
229.73	70.88
229.964	73.88
230.199	73.88
230.433	81.88
230.667	89.88
230.901	70.88
231.136	75.88
231.37	81.88
231.604	70.88
231.838	90.88
232.072	73.88
232.306	81.88
232.541	85.88
232.775	77.88
233.009	83.88
233.243	77.88
233.477	83.88
233.711	85.88
233.945	79.88
234.179	86.88
234.413	82.88
234.647	63.88
234.881	78.88
235.115	80.88
235.349	85.88
235.583	79.88
235.817	85.88
236.051	70.88
236.285	81.88
236.519	85.88
236.753	67.88
236.987	67.88
237.221	68.88
237.455	78.88
237.689	81.88
237.922	77.88
238.156	82.88
238.39	84.88
238.624	76.88
238.858	74.88
239.091	72.88
239.325	73.88
239.559	76.88
239.793	67.88
240.027	62.88
240.26	83.88
240.494	74.88
240.728	67.88
240.961	90.88
241.195	70.88
241.429	90.88
241.662	73.88
241.896	60.88
242.13	69.88
242.363	89.88
242.597	88.88
242.83	79.88
243.064	76.88
243.298	78.88
243.531	63.88
243.765	85.88
243.998	90.88
244.232	80.88
244.465	84.88
244.699	87.88
244.932	88.88
245.166	78.88
245.399	74.88
245.633	87.88
245.866	78.88
246.099	81.88
246.333	85.88
246.566	83.88
246.8	66.88
247.033	62.88
247.266	83.88
247.5	72.88
247.733	90.88
247.966	85.88
248.2	88.88
248.433	77.88
248.666	71.88
248.899	85.88
249.133	89.88
249.366	92.88
249.599	99.88
249.832	77.88
250.066	93.88
250.299	71.88
250.532	90.88
250.765	68.88
250.998	65.88
251.231	79.88
251.465	81.88
251.698	70.88
251.931	92.88
252.164	93.88
252.397	91.88
252.63	87.88
252.863	87.88
253.096	75.88
253.329	91.88
253.562	85.88
253.795	90.88
254.028	79.88
254.261	77.88
254.494	83.88
254.727	88.88
254.96	78.88
255.193	79.88
255.426	87.88
255.659	83.88
255.892	92.88
256.124	76.88
256.357	71.88
256.59	81.88
256.823	93.88
257.056	77.88
257.289	87.88
257.521	89.88
257.754	92.88
257.987	86.88
258.22	73.88
258.452	75.88
258.685	71.88
258.918	78.88
259.151	88.88
259.383	77.88
259.616	73.88
259.849	81.88
260.081	70.88
260.314	79.88
260.547	71.88
260.779	82.88
261.012	83.88
261.244	83.88
261.477	107.88
261.71	89.88
261.942	85.88
262.175	93.88
262.407	80.88
262.64	90.88
262.872	86.88
263.105	74.88
263.337	82.88
263.57	70.88
263.802	81.88
264.035	81.88
264.267	78.88
264.499	72.88
264.732	82.88
264.964	80.88
265.197	81.88
265.429	82.88
265.661	83.88
265.894	63.88
266.126	82.88
266.358	76.88
266.591	72.88
266.823	87.88
267.055	70.88
267.287	74.88
267.52	78.88
267.752	85.88
267.984	81.88
268.216	88.88
268.448	85.88
268.681	79.88
268.913	91.88
269.145	88.88
269.377	71.88
269.609	81.88
269.841	83.88
270.073	75.88
270.306	101.88
270.538	83.88
270.77	90.88
271.002	86.88
271.234	84.88
271.466	91.88
271.698	94.88
271.93	91.88
272.162	82.88
272.394	79.88
272.626	75.88
272.858	88.88
273.09	87.88
273.322	82.88
273.553	90.88
273.785	81.88
274.017	74.88
274.249	90.88
274.481	81.88
274.713	88.88
274.945	75.88
275.176	79.88
275.408	103.88
275.64	77.88
275.872	69.88
276.104	81.88
276.335	93.88
276.567	99.88
276.799	94.88
277.031	93.88
277.262	88.88
277.494	87.88
277.726	89.88
277.957	76.88
278.189	83.88
278.421	89.88
278.652	93.88
278.884	82.88
279.115	85.88
279.347	78.88
279.579	94.88
279.81	79.88
280.042	77.88
280.273	90.88
280.505	81.88
280.736	85.88
280.968	73.88
281.199	87.88
281.431	95.88
281.662	83.88
281.894	83.88
282.125	85.88
282.356	101.88
282.588	117.88
282.819	115.88
283.051	93.88
283.282	69.88
283.513	87.88
283.745	79.88
283.976	82.88
284.207	92.88
284.439	88.88
284.67	82.88
284.901	81.88
285.132	73.88
285.364	85.88
285.595	79.88
285.826	89.88
286.057	91.88
286.288	83.88
286.52	94.88
286.751	83.88
286.982	100.88
287.213	92.88
287.444	82.88
287.675	92.88
287.906	85.88
288.138	90.88
288.369	92.88
288.6	91.88
288.831	79.88
289.062	93.88
289.293	89.88
289.524	83.88
289.755	77.88
289.986	93.88
290.217	83.88
290.448	91.88
290.679	83.88
290.91	80.88
291.141	83.88
291.371	96.88
291.602	88.88
291.833	77.88
292.064	89.88
292.295	87.88
292.526	76.88
292.757	89.88
292.987	85.88
293.218	73.88
293.449	86.88
293.68	81.88
293.91	86.88
294.141	88.88
294.372	87.88
294.603	81.88
294.833	106.88
295.064	91.88
295.295	70.88
295.525	93.88
295.756	85.88
295.987	91.88
296.217	110.88
296.448	107.88
296.679	96.88
296.909	88.88
297.14	92.88
297.37	99.88
297.601	84.88
297.831	92.88
298.062	93.88
298.292	90.88
298.523	92.88
298.753	82.88
298.984	84.88
299.214	87.88
299.445	85.88
299.675	88.88
299.905	83.88
300.136	80.88
300.366	77.88
300.597	88.88
300.827	95.88
301.057	92.88
301.288	90.88
301.518	101.88
301.748	71.88
301.979	99.88
302.209	85.88
302.439	89.88
302.669	93.88
302.9	86.88
303.13	72.88
303.36	96.88
303.59	84.88
303.82	91.88
304.051	89.88
304.281	80.88
304.511	87.88
304.741	86.88
304.971	79.88
305.201	104.88
305.431	89.88
305.661	93.88
305.891	90.88
306.121	86.88
306.352	81.88
306.582	105.88
306.812	86.88
307.042	99.88
307.272	82.88
307.502	83.88
307.731	87.88
307.961	104.88
308.191	102.88
308.421	99.88
308.651	88.88
308.881	105.88
309.111	78.88
309.341	85.88
309.571	107.88
309.8	89.88
310.03	82.88
310.26	85.88
310.49	95.88
310.72	93.88
310.949	98.88
311.179	109.88
311.409	80.88
311.639	84.88
311.868	89.88
312.098	90.88
312.328	90.88
312.557	94.88
312.787	88.88
313.017	108.88
313.246	93.88
313.476	86.88
313.706	92.88
313.935	91.88
314.165	88.88
314.394	87.88
314.624	98.88
314.853	97.88
315.083	88.88
315.312	85.88
315.542	80.88
315.771	87.88
316.001	86.88
316.23	86.88
316.46	84.88
316.689	94.88
316.919	87.88
317.148	90.88
317.377	80.88
317.607	82.88
317.836	91.88
318.065	79.88
318.295	81.88
318.524	82.88
318.753	92.88
318.983	89.88
319.212	98.88
319.441	106.88
319.67	91.88
319.9	77.88
320.129	89.88
320.358	101.88
320.587	107.88
320.816	106.88
321.046	96.88
321.275	85.88
321.504	77.88
321.733	77.88
321.962	89.88
322.191	108.88
322.42	100.88
322.649	105.88
322.878	111.88
323.108	98.88
323.337	108.88
323.566	101.88
323.795	118.88
324.024	149.88
324.253	268.88
324.482	557.88
324.71	1049.88
324.939	1399.88
325.168	542.88
325.397	188.88
325.626	129.88
325.855	106.88
326.084	99.88
326.313	124.88
326.542	125.88
326.77	183.88
326.999	325.88
327.228	638.88
327.457	1130.88
327.686	924.88
327.914	268.88
328.143	160.88
328.372	121.88
328.6	107.88
328.829	88.88
329.058	102.88
329.287	107.88
329.515	95.88
329.744	109.88
329.972	93.88
330.201	104.88
330.43	107.88
330.658	110.88
330.887	108.88
331.115	106.88
331.344	94.88
331.572	89.88
331.801	106.88
332.03	88.88
332.258	100.88
332.486	88.88
332.715	87.88
332.943	101.88
333.172	101.88
333.4	100.88
333.629	98.88
333.857	93.88
334.085	111.88
334.314	105.88
334.542	94.88
334.771	99.88
334.999	97.88
335.227	87.88
335.455	97.88
335.684	100.88
335.912	92.88
336.14	81.88
336.369	89.88
336.597	99.88
336.825	93.88
337.053	93.88
337.281	90.88
337.51	91.88
337.738	92.88
337.966	92.88
338.194	94.88
338.422	85.88
338.65	100.88
338.878	95.88
339.106	85.88
339.334	84.88
339.562	93.88
339.79	91.88
340.018	83.88
340.246	88.88
340.474	86.88
340.702	86.88
340.93	77.88
341.158	101.88
341.386	93.88
341.614	95.88
341.842	84.88
342.07	88.88
342.298	92.88
342.526	79.88
342.754	87.88
342.981	79.88
343.209	105.88
343.437	100.88
343.665	89.88
343.893	86.88
344.12	75.88
344.348	97.88
344.576	78.88
344.804	98.88
345.031	88.88
345.259	99.88
345.487	83.88
345.714	96.88
345.942	83.88
346.17	85.88
346.397	82.88
346.625	93.88
346.853	104.88
347.08	92.88
347.308	90.88
347.535	89.88
347.763	97.88
347.99	92.88
348.218	98.88
348.445	84.88
348.673	97.88
348.9	83.88
349.128	81.88
349.355	103.88
349.583	87.88
349.81	98.88
350.037	102.88
350.265	91.88
350.492	104.88
350.72	79.88
350.947	101.88
351.174	94.88
351.402	105.88
351.629	90.88
351.856	121.88
352.083	93.88
352.311	108.88
352.538	105.88
352.765	99.88
352.992	105.88
353.22	107.88
353.447	93.88
353.674	93.88
353.901	102.88
354.128	97.88
354.355	97.88
354.583	109.88
354.81	110.88
355.037	99.88
355.264	86.88
355.491	101.88
355.718	107.88
355.945	95.88
356.172	103.88
356.399	97.88
356.626	98.88
356.853	86.88
357.08	69.88
357.307	98.88
357.534	85.88
357.761	99.88
357.988	105.88
358.215	102.88
358.441	95.88
358.668	100.88
358.895	98.88
359.122	90.88
359.349	83.88
359.576	77.88
359.802	99.88
360.029	107.88
360.256	101.88
360.483	98.88
360.709	88.88
360.936	90.88
361.163	76.88
361.39	87.88
361.616	83.88
361.843	82.88
362.07	100.88
362.296	97.88
362.523	99.88
362.749	86.88
362.976	88.88
363.203	85.88
363.429	101.88
363.656	87.88
363.882	82.88
364.109	84.88
364.335	88.88
364.562	88.88
364.788	88.88
365.015	100.88
365.241	85.88
365.468	106.88
365.694	91.88
365.92	95.88
366.147	85.88
366.373	90.88
366.599	91.88
366.826	77.88
367.052	91.88
367.278	88.88
367.505	89.88
367.731	83.88
367.957	90.88
368.184	89.88
368.41	95.88
368.636	98.88
368.862	96.88
369.089	90.88
369.315	83.88
369.541	76.88
369.767	89.88
369.993	87.88
370.219	86.88
370.445	89.88
370.672	83.88
370.898	84.88
371.124	95.88
371.35	90.88
371.576	70.88
371.802	94.88
372.028	94.88
372.254	84.88
372.48	86.88
372.706	94.88
372.932	86.88
373.158	86.88
373.384	98.88
373.61	88.88
373.835	113.88
374.061	92.88
374.287	83.88
374.513	87.88
374.739	88.88
374.965	100.88
375.191	94.88
375.416	101.88
375.642	78.88
375.868	93.88
376.094	97.88
376.319	87.88
376.545	98.88
376.771	96.88
376.997	106.88
377.222	102.88
377.448	97.88
377.674	93.88
377.899	104.88
378.125	101.88
378.35	99.88
378.576	97.88
378.802	93.88
379.027	100.88
379.253	97.88
379.478	98.88
379.704	89.88
379.929	86.88
380.155	101.88
380.38	83.88
380.606	102.88
380.831	115.88
381.057	113.88
381.282	94.88
381.507	88.88
381.733	105.88
381.958	101.88
382.184	108.88
382.409	111.88
382.634	105.88
382.86	102.88
383.085	97.88
383.31	111.88
383.535	108.88
383.761	97.88
383.986	115.88
384.211	102.88
384.436	105.88
384.662	105.88
384.887	120.88
385.112	122.88
385.337	128.88
385.562	122.88
385.787	109.88
386.013	104.88
386.238	118.88
386.463	129.88
386.688	122.88
386.913	129.88
387.138	124.88
387.363	115.88
387.588	121.88
387.813	107.88
388.038	125.88
388.263	136.88
388.488	135.88
388.713	92.88
388.938	97.88
389.163	89.88
389.387	97.88
389.612	85.88
389.837	86.88
390.062	86.88
390.287	101.88
390.512	102.88
390.736	87.88
390.961	105.88
391.186	100.88
391.411	83.88
391.636	110.88
391.86	88.88
392.085	87.88
392.31	69.88
392.534	87.88
392.759	83.88
392.984	86.88
393.208	102.88
393.433	101.88
393.658	89.88
393.882	85.88
394.107	91.88
394.331	77.88
394.556	83.88
394.78	96.88
395.005	91.88
395.229	75.88
395.454	84.88
395.678	69.88
395.903	92.88
396.127	91.88
396.352	85.88
396.576	91.88
396.801	83.88
397.025	79.88
397.249	92.88
397.474	91.88
397.698	88.88
397.922	91.88
398.147	88.88
398.371	95.88
398.595	86.88
398.82	79.88
399.044	99.88
399.268	82.88
399.492	79.88
399.717	92.88
399.941	91.88
400.165	75.88
400.389	81.88
400.613	93.88
400.837	85.88
401.062	90.88
401.286	87.88
401.51	89.88
401.734	82.88
401.958	98.88
402.182	110.88
402.406	118.88
402.63	98.88
402.854	88.88
403.078	97.88
403.302	84.88
403.526	73.88
403.75	76.88
403.974	74.88
404.198	93.88
404.422	92.88
404.645	93.88
404.869	87.88
405.093	109.88
405.317	98.88
405.541	93.88
405.765	107.88
405.988	95.88
406.212	120.88
406.436	163.88
406.66	128.88
406.883	97.88
407.107	98.88
407.331	78.88
407.555	92.88
407.778	91.88
408.002	89.88
408.226	92.88
408.449	86.88
408.673	91.88
408.896	109.88
409.12	93.88
409.344	96.88
409.567	89.88
409.791	93.88
410.014	98.88
410.238	82.88
410.461	89.88
410.685	99.88
410.908	110.88
411.132	105.88
411.355	101.88
411.578	79.88
411.802	90.88
412.025	101.88
412.249	95.88
412.472	95.88
412.695	95.88
412.919	95.88
413.142	78.88
413.365	86.88
413.589	88.88
413.812	89.88
414.035	94.88
414.258	101.88
414.482	93.88
414.705	75.88
414.928	83.88
415.151	91.88
415.374	106.88
415.597	98.88
415.821	77.88
416.044	93.88
416.267	92.88
416.49	83.88
416.713	87.88
416.936	93.88
417.159	97.88
417.382	108.88
417.605	81.88
417.828	86.88
418.051	98.88
418.274	87.88
418.497	93.88
418.72	78.88
418.943	83.88
419.166	89.88
419.389	89.88
419.611	84.88
419.834	81.88
420.057	88.88
420.28	78.88
420.503	90.88
420.726	87.88
420.948	75.88
421.171	88.88
421.394	93.88
421.617	91.88
421.839	92.88
422.062	97.88
422.285	97.88
422.507	99.88
422.73	105.88
422.953	101.88
423.175	83.88
423.398	90.88
423.621	86.88
423.843	89.88
424.066	83.88
424.288	96.88
424.511	89.88
424.733	97.88
424.956	98.88
425.178	92.88
425.401	78.88
425.623	92.88
425.846	72.88
426.068	108.88
426.291	89.88
426.513	98.88
426.735	77.88
426.958	86.88
427.18	101.88
427.402	112.88
427.625	129.88
427.847	109.88
428.069	103.88
428.292	98.88
428.514	81.88
428.736	91.88
428.958	88.88
429.181	87.88
429.403	89.88
429.625	77.88
429.847	98.88
430.069	92.88
430.292	86.88
430.514	77.88
430.736	86.88
430.958	81.88
431.18	82.88
431.402	79.88
431.624	88.88
431.846	83.88
432.068	99.88
432.29	84.88
432.512	76.88
432.734	85.88
432.956	89.88
433.178	86.88
433.4	100.88
433.622	76.88
433.844	86.88
434.066	94.88
434.287	85.88
434.509	99.88
434.731	89.88
434.953	82.88
435.175	76.88
435.397	86.88
435.618	83.88
435.84	97.88
436.062	110.88
436.284	100.88
436.505	108.88
436.727	108.88
436.949	103.88
437.17	88.88
437.392	87.88
437.614	99.88
437.835	99.88
438.057	99.88
438.278	103.88
438.5	94.88
438.721	98.88
438.943	87.88
439.165	98.88
439.386	91.88
439.608	92.88
439.829	85.88
440.05	92.88
440.272	101.88
440.493	77.88
440.715	70.88
440.936	90.88
441.158	79.88
441.379	91.88
441.6	100.88
441.822	99.88
442.043	88.88
442.264	86.88
442.486	93.88
442.707	99.88
442.928	101.88
443.149	110.88
443.371	105.88
443.592	93.88
443.813	93.88
444.034	84.88
444.255	89.88
444.476	93.88
444.698	70.88
444.919	90.88
445.14	128.88
445.361	109.88
445.582	115.88
445.803	106.88
446.024	114.88
446.245	105.88
446.466	98.88
446.687	104.88
446.908	90.88
447.129	86.88
447.35	90.88
447.571	86.88
447.792	100.88
448.013	84.88
448.234	97.88
448.455	93.88
448.675	114.88
448.896	117.88
449.117	79.88
449.338	98.88
449.559	103.88
449.779	111.88
450	93.88
450.221	95.88
450.442	100.88
450.662	84.88
450.883	85.88
451.104	101.88
451.324	85.88
451.545	81.88
451.766	75.88
451.986	78.88
452.207	72.88
452.428	89.88
452.648	93.88
452.869	105.88
453.089	105.88
453.31	88.88
453.53	94.88
453.751	91.88
453.971	95.88
454.192	99.88
454.412	87.88
454.633	83.88
454.853	91.88
455.073	81.88
455.294	76.88
455.514	105.88
455.734	96.88
455.955	102.88
456.175	90.88
456.395	67.88
456.616	95.88
456.836	93.88
457.056	89.88
457.276	90.88
457.497	78.88
457.717	87.88
457.937	76.88
458.157	91.88
458.377	94.88
458.598	104.88
458.818	119.88
459.038	118.88
459.258	98.88
459.478	92.88
459.698	101.88
459.918	85.88
460.138	86.88
460.358	78.88
460.578	75.88
460.798	80.88
461.018	98.88
461.238	94.88
461.458	82.88
461.678	99.88
461.898	97.88
462.118	89.88
462.338	73.88
462.558	79.88
462.777	90.88
462.997	83.88
463.217	81.88
463.437	91.88
463.657	92.88
463.876	79.88
464.096	94.88
464.316	85.88
464.536	88.88
464.755	98.88
464.975	90.88
465.195	122.88
465.414	124.88
465.634	95.88
465.854	85.88
466.073	93.88
466.293	92.88
466.512	96.88
466.732	99.88
466.951	85.88
467.171	90.88
467.391	78.88
467.61	92.88
467.829	88.88
468.049	110.88
468.268	86.88
468.488	89.88
468.707	77.88
468.927	94.88
469.146	88.88
469.365	70.88
469.585	100.88
469.804	100.88
470.023	105.88
470.243	88.88
470.462	95.88
470.681	86.88
470.901	91.88
471.12	95.88
471.339	101.88
471.558	97.88
471.777	85.88
471.997	76.88
472.216	102.88
472.435	129.88
472.654	93.88
472.873	81.88
473.092	78.88
473.311	100.88
473.53	83.88
473.749	91.88
473.968	87.88
474.187	100.88
474.406	72.88
474.625	93.88
474.844	92.88
475.063	87.88
475.282	70.88
475.501	98.88
475.72	107.88
475.939	94.88
476.158	85.88
476.377	87.88
476.596	96.88
476.814	91.88
477.033	81.88
477.252	88.88
477.471	75.88
477.69	87.88
477.908	76.88
478.127	97.88
478.346	83.88
478.564	89.88
478.783	109.88
479.002	86.88
479.22	81.88
479.439	85.88
479.658	94.88
479.876	78.88
480.095	85.88
480.313	89.88
480.532	91.88
480.751	93.88
480.969	109.88
481.188	163.88
481.406	123.88
481.624	96.88
481.843	84.88
482.061	85.88
482.28	98.88
482.498	77.88
482.717	92.88
482.935	91.88
483.153	94.88
483.372	97.88
483.59	86.88
483.808	74.88
484.027	85.88
484.245	95.88
484.463	91.88
484.681	106.88
484.9	86.88
485.118	94.88
485.336	103.88
485.554	89.88
485.772	96.88
485.99	106.88
486.209	104.88
486.427	90.88
486.645	102.88
486.863	108.88
487.081	101.88
487.299	81.88
487.517	91.88
487.735	77.88
487.953	96.88
488.171	91.88
488.389	89.88
488.607	104.88
488.825	101.88
489.043	73.88
489.261	86.88
489.479	89.88
489.696	76.88
489.914	97.88
490.132	83.88
490.35	90.88
490.568	88.88
490.786	99.88
491.003	89.88
491.221	89.88
491.439	97.88
491.657	100.88
491.874	101.88
492.092	91.88
492.31	93.88
492.527	94.88
492.745	93.88
492.963	93.88
493.18	95.88
493.398	80.88
493.615	92.88
493.833	89.88
494.05	76.88
494.268	85.88
494.485	85.88
494.703	96.88
494.92	78.88
495.138	95.88
495.355	82.88
495.573	92.88
495.79	95.88
496.008	85.88
496.225	81.88
496.442	89.88
496.66	108.88
496.877	91.88
497.094	95.88
497.312	84.88
497.529	85.88
497.746	97.88
497.963	91.88
498.181	99.88
498.398	93.88
498.615	87.88
498.832	93.88
499.049	91.88
499.267	90.88
499.484	85.88
499.701	91.88
499.918	95.88
500.135	97.88
500.352	85.88
500.569	94.88
500.786	84.88
501.003	77.88
501.22	77.88
501.437	81.88
501.654	85.88
501.871	90.88
502.088	98.88
502.305	89.88
502.522	92.88
502.739	93.88
502.956	82.88
503.172	81.88
503.389	97.88
503.606	101.88
503.823	94.88
504.04	101.88
504.256	92.88
504.473	94.88
504.69	87.88
504.907	93.88
505.123	85.88
505.34	71.88
505.557	86.88
505.773	101.88
505.99	88.88
506.207	87.88
506.423	98.88
506.64	97.88
506.856	93.88
507.073	100.88
507.289	80.88
507.506	101.88
507.722	87.88
507.939	100.88
508.155	94.88
508.372	95.88
508.588	95.88
508.805	84.88
509.021	89.88
509.238	83.88
509.454	93.88
509.67	100.88
509.887	107.88
510.103	117.88
510.319	168.88
510.536	534.88
510.752	1553.88
510.968	441.88
511.184	115.88
511.401	85.88
511.617	96.88
511.833	86.88
512.049	95.88
512.265	89.88
512.481	87.88
512.698	83.88
512.914	87.88
513.13	99.88
513.346	93.88
513.562	97.88
513.778	84.88
513.994	111.88
514.21	94.88
514.426	105.88
514.642	120.88
514.858	108.88
515.074	141.88
515.29	293.88
515.506	864.88
515.721	345.88
515.937	117.88
516.153	86.88
516.369	105.88
516.585	81.88
