Data from Uncirc_1980_H10_HRD10591_00005.txt Node
Date: Wed Jan 03 12:36:56 EST 2024
User: Yrep
Spectrometer: HR+D1059
Trigger mode: 1
Integration Time (sec): 1.000000E-1
Scans to average: 1
Electric dark correction enabled: true
Nonlinearity correction enabled: false
Boxcar width: 0
XAxis mode: Wavelengths
Number of Pixels in Spectrum: 2048
>>>>>Begin Spectral Data<<<<<
223.165	-19.62
223.4	-19.62
223.635	-19.62
223.869	-14.62
224.104	-27.62
224.338	-3.62
224.573	-10.62
224.808	-13.62
225.042	-8.62
225.277	0.38
225.511	-7.62
225.746	7.38
225.98	-3.62
226.215	12.38
226.449	17.38
226.683	9.38
226.918	29.38
227.152	33.38
227.387	38.38
227.621	50.38
227.856	47.38
228.09	45.38
228.324	52.38
228.559	69.38
228.793	52.38
229.027	72.38
229.262	54.38
229.496	76.38
229.73	81.38
229.964	84.38
230.199	84.38
230.433	77.38
230.667	84.38
230.901	68.38
231.136	86.38
231.37	86.38
231.604	80.38
231.838	84.38
232.072	84.38
232.306	81.38
232.541	76.38
232.775	77.38
233.009	98.38
233.243	86.38
233.477	80.38
233.711	87.38
233.945	86.38
234.179	78.38
234.413	90.38
234.647	85.38
234.881	84.38
235.115	72.38
235.349	68.38
235.583	92.38
235.817	91.38
236.051	88.38
236.285	68.38
236.519	77.38
236.753	79.38
236.987	79.38
237.221	81.38
237.455	86.38
237.689	85.38
237.922	77.38
238.156	75.38
238.39	64.38
238.624	84.38
238.858	76.38
239.091	94.38
239.325	74.38
239.559	73.38
239.793	90.38
240.027	61.38
240.26	76.38
240.494	85.38
240.728	77.38
240.961	82.38
241.195	85.38
241.429	86.38
241.662	90.38
241.896	77.38
242.13	73.38
242.363	81.38
242.597	68.38
242.83	78.38
243.064	73.38
243.298	96.38
243.531	65.38
243.765	82.38
243.998	85.38
244.232	88.38
244.465	90.38
244.699	79.38
244.932	84.38
245.166	78.38
245.399	76.38
245.633	79.38
245.866	95.38
246.099	78.38
246.333	88.38
246.566	77.38
246.8	73.38
247.033	81.38
247.266	81.38
247.5	82.38
247.733	85.38
247.966	83.38
248.2	88.38
248.433	83.38
248.666	73.38
248.899	77.38
249.133	84.38
249.366	91.38
249.599	101.38
249.832	82.38
250.066	90.38
250.299	88.38
250.532	94.38
250.765	72.38
250.998	73.38
251.231	78.38
251.465	66.38
251.698	70.38
251.931	84.38
252.164	95.38
252.397	79.38
252.63	89.38
252.863	86.38
253.096	87.38
253.329	94.38
253.562	90.38
253.795	75.38
254.028	100.38
254.261	81.38
254.494	72.38
254.727	78.38
254.96	84.38
255.193	81.38
255.426	88.38
255.659	76.38
255.892	86.38
256.124	70.38
256.357	80.38
256.59	74.38
256.823	80.38
257.056	97.38
257.289	77.38
257.521	82.38
257.754	77.38
257.987	82.38
258.22	84.38
258.452	81.38
258.685	84.38
258.918	68.38
259.151	78.38
259.383	89.38
259.616	81.38
259.849	73.38
260.081	96.38
260.314	86.38
260.547	88.38
260.779	72.38
261.012	90.38
261.244	79.38
261.477	88.38
261.71	104.38
261.942	93.38
262.175	111.38
262.407	72.38
262.64	82.38
262.872	77.38
263.105	82.38
263.337	79.38
263.57	78.38
263.802	92.38
264.035	90.38
264.267	88.38
264.499	90.38
264.732	89.38
264.964	93.38
265.197	83.38
265.429	84.38
265.661	86.38
265.894	89.38
266.126	81.38
266.358	92.38
266.591	88.38
266.823	77.38
267.055	76.38
267.287	87.38
267.52	74.38
267.752	74.38
267.984	92.38
268.216	93.38
268.448	95.38
268.681	80.38
268.913	88.38
269.145	93.38
269.377	94.38
269.609	78.38
269.841	86.38
270.073	82.38
270.306	76.38
270.538	73.38
270.77	90.38
271.002	85.38
271.234	96.38
271.466	82.38
271.698	83.38
271.93	84.38
272.162	88.38
272.394	95.38
272.626	82.38
272.858	88.38
273.09	83.38
273.322	102.38
273.553	96.38
273.785	77.38
274.017	96.38
274.249	81.38
274.481	93.38
274.713	97.38
274.945	88.38
275.176	85.38
275.408	91.38
275.64	97.38
275.872	85.38
276.104	87.38
276.335	83.38
276.567	103.38
276.799	108.38
277.031	88.38
277.262	85.38
277.494	94.38
277.726	90.38
277.957	86.38
278.189	102.38
278.421	79.38
278.652	90.38
278.884	84.38
279.115	74.38
279.347	83.38
279.579	84.38
279.81	95.38
280.042	80.38
280.273	100.38
280.505	79.38
280.736	101.38
280.968	90.38
281.199	88.38
281.431	94.38
281.662	94.38
281.894	79.38
282.125	76.38
282.356	110.38
282.588	118.38
282.819	95.38
283.051	77.38
283.282	93.38
283.513	93.38
283.745	93.38
283.976	98.38
284.207	79.38
284.439	78.38
284.67	97.38
284.901	91.38
285.132	94.38
285.364	88.38
285.595	88.38
285.826	80.38
286.057	90.38
286.288	84.38
286.52	88.38
286.751	89.38
286.982	84.38
287.213	82.38
287.444	97.38
287.675	90.38
287.906	90.38
288.138	109.38
288.369	93.38
288.6	80.38
288.831	90.38
289.062	96.38
289.293	102.38
289.524	93.38
289.755	84.38
289.986	94.38
290.217	89.38
290.448	92.38
290.679	84.38
290.91	95.38
291.141	83.38
291.371	92.38
291.602	84.38
291.833	79.38
292.064	88.38
292.295	84.38
292.526	84.38
292.757	94.38
292.987	90.38
293.218	88.38
293.449	77.38
293.68	95.38
293.91	95.38
294.141	92.38
294.372	88.38
294.603	89.38
294.833	74.38
295.064	92.38
295.295	84.38
295.525	83.38
295.756	105.38
295.987	119.38
296.217	107.38
296.448	115.38
296.679	111.38
296.909	99.38
297.14	99.38
297.37	90.38
297.601	91.38
297.831	92.38
298.062	94.38
298.292	89.38
298.523	86.38
298.753	88.38
298.984	95.38
299.214	106.38
299.445	88.38
299.675	95.38
299.905	103.38
300.136	93.38
300.366	85.38
300.597	92.38
300.827	96.38
301.057	88.38
301.288	89.38
301.518	100.38
301.748	96.38
301.979	115.38
302.209	102.38
302.439	103.38
302.669	90.38
302.9	98.38
303.13	89.38
303.36	102.38
303.59	105.38
303.82	105.38
304.051	103.38
304.281	82.38
304.511	105.38
304.741	92.38
304.971	92.38
305.201	78.38
305.431	88.38
305.661	87.38
305.891	91.38
306.121	84.38
306.352	98.38
306.582	91.38
306.812	97.38
307.042	103.38
307.272	108.38
307.502	95.38
307.731	98.38
307.961	84.38
308.191	98.38
308.421	84.38
308.651	90.38
308.881	98.38
309.111	89.38
309.341	90.38
309.571	104.38
309.8	84.38
310.03	106.38
310.26	95.38
310.49	95.38
310.72	93.38
310.949	97.38
311.179	95.38
311.409	105.38
311.639	91.38
311.868	77.38
312.098	70.38
312.328	91.38
312.557	94.38
312.787	91.38
313.017	87.38
313.246	83.38
313.476	77.38
313.706	104.38
313.935	81.38
314.165	113.38
314.394	93.38
314.624	96.38
314.853	98.38
315.083	87.38
315.312	100.38
315.542	100.38
315.771	96.38
316.001	86.38
316.23	85.38
316.46	94.38
316.689	101.38
316.919	84.38
317.148	88.38
317.377	109.38
317.607	71.38
317.836	96.38
318.065	104.38
318.295	87.38
318.524	93.38
318.753	104.38
318.983	94.38
319.212	105.38
319.441	96.38
319.67	106.38
319.9	88.38
320.129	93.38
320.358	111.38
320.587	104.38
320.816	99.38
321.046	100.38
321.275	104.38
321.504	103.38
321.733	89.38
321.962	77.38
322.191	97.38
322.42	100.38
322.649	103.38
322.878	111.38
323.108	112.38
323.337	106.38
323.566	128.38
323.795	135.38
324.024	158.38
324.253	278.38
324.482	558.38
324.71	1129.38
324.939	1482.38
325.168	570.38
325.397	215.38
325.626	125.38
325.855	117.38
326.084	112.38
326.313	131.38
326.542	142.38
326.77	166.38
326.999	332.38
327.228	630.38
327.457	1195.38
327.686	978.38
327.914	279.38
328.143	164.38
328.372	140.38
328.6	115.38
328.829	109.38
329.058	116.38
329.287	109.38
329.515	108.38
329.744	112.38
329.972	95.38
330.201	94.38
330.43	109.38
330.658	102.38
330.887	132.38
331.115	116.38
331.344	109.38
331.572	91.38
331.801	105.38
332.03	92.38
332.258	92.38
332.486	101.38
332.715	98.38
332.943	101.38
333.172	92.38
333.4	93.38
333.629	100.38
333.857	93.38
334.085	88.38
334.314	118.38
334.542	127.38
334.771	108.38
334.999	100.38
335.227	98.38
335.455	93.38
335.684	88.38
335.912	94.38
336.14	103.38
336.369	95.38
336.597	88.38
336.825	106.38
337.053	95.38
337.281	92.38
337.51	97.38
337.738	100.38
337.966	97.38
338.194	84.38
338.422	84.38
338.65	103.38
338.878	85.38
339.106	94.38
339.334	99.38
339.562	112.38
339.79	86.38
340.018	97.38
340.246	95.38
340.474	86.38
340.702	79.38
340.93	99.38
341.158	80.38
341.386	97.38
341.614	102.38
341.842	90.38
342.07	93.38
342.298	108.38
342.526	84.38
342.754	99.38
342.981	97.38
343.209	94.38
343.437	85.38
343.665	95.38
343.893	78.38
344.12	87.38
344.348	94.38
344.576	93.38
344.804	104.38
345.031	92.38
345.259	92.38
345.487	91.38
345.714	107.38
345.942	105.38
346.17	98.38
346.397	86.38
346.625	101.38
346.853	99.38
347.08	85.38
347.308	110.38
347.535	86.38
347.763	101.38
347.99	95.38
348.218	91.38
348.445	97.38
348.673	94.38
348.9	102.38
349.128	82.38
349.355	90.38
349.583	96.38
349.81	88.38
350.037	102.38
350.265	102.38
350.492	97.38
350.72	103.38
350.947	97.38
351.174	108.38
351.402	97.38
351.629	107.38
351.856	101.38
352.083	104.38
352.311	113.38
352.538	97.38
352.765	100.38
352.992	117.38
353.22	96.38
353.447	100.38
353.674	113.38
353.901	100.38
354.128	98.38
354.355	98.38
354.583	113.38
354.81	114.38
355.037	113.38
355.264	94.38
355.491	101.38
355.718	96.38
355.945	116.38
356.172	97.38
356.399	114.38
356.626	95.38
356.853	90.38
357.08	108.38
357.307	96.38
357.534	101.38
357.761	88.38
357.988	106.38
358.215	119.38
358.441	108.38
358.668	109.38
358.895	103.38
359.122	108.38
359.349	88.38
359.576	86.38
359.802	94.38
360.029	93.38
360.256	97.38
360.483	89.38
360.709	84.38
360.936	93.38
361.163	98.38
361.39	108.38
361.616	100.38
361.843	91.38
362.07	92.38
362.296	94.38
362.523	84.38
362.749	89.38
362.976	96.38
363.203	96.38
363.429	82.38
363.656	96.38
363.882	72.38
364.109	97.38
364.335	97.38
364.562	91.38
364.788	97.38
365.015	97.38
365.241	97.38
365.468	112.38
365.694	98.38
365.92	94.38
366.147	95.38
366.373	94.38
366.599	90.38
366.826	95.38
367.052	83.38
367.278	85.38
367.505	78.38
367.731	102.38
367.957	95.38
368.184	88.38
368.41	94.38
368.636	105.38
368.862	108.38
369.089	111.38
369.315	102.38
369.541	94.38
369.767	100.38
369.993	90.38
370.219	90.38
370.445	111.38
370.672	99.38
370.898	105.38
371.124	88.38
371.35	91.38
371.576	84.38
371.802	86.38
372.028	93.38
372.254	78.38
372.48	82.38
372.706	94.38
372.932	86.38
373.158	92.38
373.384	103.38
373.61	117.38
373.835	102.38
374.061	81.38
374.287	79.38
374.513	79.38
374.739	89.38
374.965	103.38
375.191	114.38
375.416	87.38
375.642	108.38
375.868	113.38
376.094	108.38
376.319	105.38
376.545	104.38
376.771	94.38
376.997	88.38
377.222	103.38
377.448	114.38
377.674	104.38
377.899	99.38
378.125	94.38
378.35	105.38
378.576	100.38
378.802	104.38
379.027	93.38
379.253	112.38
379.478	107.38
379.704	101.38
379.929	111.38
380.155	97.38
380.38	112.38
380.606	110.38
380.831	111.38
381.057	107.38
381.282	130.38
381.507	118.38
381.733	111.38
381.958	111.38
382.184	114.38
382.409	104.38
382.634	139.38
382.86	112.38
383.085	124.38
383.31	124.38
383.535	126.38
383.761	116.38
383.986	127.38
384.211	112.38
384.436	124.38
384.662	138.38
384.887	134.38
385.112	148.38
385.337	138.38
385.562	135.38
385.787	148.38
386.013	160.38
386.238	134.38
386.463	120.38
386.688	121.38
386.913	153.38
387.138	145.38
387.363	151.38
387.588	118.38
387.813	134.38
388.038	155.38
388.263	166.38
388.488	152.38
388.713	125.38
388.938	91.38
389.163	105.38
389.387	94.38
389.612	87.38
389.837	90.38
390.062	95.38
390.287	97.38
390.512	97.38
390.736	94.38
390.961	102.38
391.186	98.38
391.411	92.38
391.636	82.38
391.86	77.38
392.085	91.38
392.31	78.38
392.534	94.38
392.759	107.38
392.984	89.38
393.208	98.38
393.433	83.38
393.658	77.38
393.882	98.38
394.107	96.38
394.331	81.38
394.556	84.38
394.78	95.38
395.005	92.38
395.229	76.38
395.454	81.38
395.678	88.38
395.903	81.38
396.127	88.38
396.352	99.38
396.576	88.38
396.801	109.38
397.025	97.38
397.249	94.38
397.474	92.38
397.698	110.38
397.922	104.38
398.147	89.38
398.371	95.38
398.595	88.38
398.82	79.38
399.044	81.38
399.268	82.38
399.492	104.38
399.717	84.38
399.941	91.38
400.165	87.38
400.389	89.38
400.613	102.38
400.837	84.38
401.062	98.38
401.286	88.38
401.51	94.38
401.734	91.38
401.958	107.38
402.182	98.38
402.406	125.38
402.63	113.38
402.854	87.38
403.078	101.38
403.302	94.38
403.526	88.38
403.75	91.38
403.974	89.38
404.198	85.38
404.422	81.38
404.645	88.38
404.869	103.38
405.093	99.38
405.317	95.38
405.541	103.38
405.765	103.38
405.988	110.38
406.212	152.38
406.436	164.38
406.66	124.38
406.883	96.38
407.107	82.38
407.331	85.38
407.555	100.38
407.778	109.38
408.002	92.38
408.226	77.38
408.449	93.38
408.673	84.38
408.896	92.38
409.12	101.38
409.344	86.38
409.567	86.38
409.791	85.38
410.014	93.38
410.238	98.38
410.461	102.38
410.685	91.38
410.908	102.38
411.132	96.38
411.355	96.38
411.578	108.38
411.802	92.38
412.025	86.38
412.249	84.38
412.472	98.38
412.695	101.38
412.919	105.38
413.142	95.38
413.365	84.38
413.589	100.38
413.812	90.38
414.035	102.38
414.258	81.38
414.482	93.38
414.705	104.38
414.928	98.38
415.151	102.38
415.374	110.38
415.597	103.38
415.821	96.38
416.044	102.38
416.267	85.38
416.49	97.38
416.713	94.38
416.936	88.38
417.159	88.38
417.382	95.38
417.605	94.38
417.828	80.38
418.051	103.38
418.274	87.38
418.497	105.38
418.72	84.38
418.943	89.38
419.166	86.38
419.389	96.38
419.611	106.38
419.834	94.38
420.057	90.38
420.28	88.38
420.503	81.38
420.726	96.38
420.948	94.38
421.171	82.38
421.394	92.38
421.617	92.38
421.839	88.38
422.062	93.38
422.285	92.38
422.507	101.38
422.73	122.38
422.953	104.38
423.175	96.38
423.398	87.38
423.621	88.38
423.843	88.38
424.066	91.38
424.288	80.38
424.511	97.38
424.733	102.38
424.956	98.38
425.178	94.38
425.401	90.38
425.623	100.38
425.846	97.38
426.068	93.38
426.291	87.38
426.513	92.38
426.735	76.38
426.958	102.38
427.18	103.38
427.402	117.38
427.625	136.38
427.847	122.38
428.069	129.38
428.292	88.38
428.514	88.38
428.736	98.38
428.958	91.38
429.181	91.38
429.403	75.38
429.625	93.38
429.847	89.38
430.069	75.38
430.292	92.38
430.514	78.38
430.736	91.38
430.958	86.38
431.18	94.38
431.402	97.38
431.624	91.38
431.846	85.38
432.068	85.38
432.29	87.38
432.512	91.38
432.734	69.38
432.956	92.38
433.178	95.38
433.4	87.38
433.622	97.38
433.844	88.38
434.066	88.38
434.287	107.38
434.509	88.38
434.731	89.38
434.953	109.38
435.175	102.38
435.397	102.38
435.618	108.38
435.84	107.38
436.062	105.38
436.284	104.38
436.505	94.38
436.727	95.38
436.949	102.38
437.17	101.38
437.392	99.38
437.614	102.38
437.835	108.38
438.057	89.38
438.278	96.38
438.5	97.38
438.721	112.38
438.943	104.38
439.165	92.38
439.386	84.38
439.608	81.38
439.829	91.38
440.05	109.38
440.272	125.38
440.493	99.38
440.715	89.38
440.936	99.38
441.158	91.38
441.379	67.38
441.6	96.38
441.822	95.38
442.043	95.38
442.264	97.38
442.486	84.38
442.707	88.38
442.928	93.38
443.149	108.38
443.371	106.38
443.592	106.38
443.813	103.38
444.034	100.38
444.255	102.38
444.476	100.38
444.698	79.38
444.919	107.38
445.14	137.38
445.361	126.38
445.582	96.38
445.803	118.38
446.024	120.38
446.245	111.38
446.466	85.38
446.687	94.38
446.908	88.38
447.129	88.38
447.35	81.38
447.571	97.38
447.792	105.38
448.013	95.38
448.234	96.38
448.455	94.38
448.675	93.38
448.896	117.38
449.117	94.38
449.338	101.38
449.559	124.38
449.779	113.38
450	101.38
450.221	102.38
450.442	98.38
450.662	80.38
450.883	108.38
451.104	99.38
451.324	107.38
451.545	86.38
451.766	90.38
451.986	78.38
452.207	97.38
452.428	90.38
452.648	96.38
452.869	92.38
453.089	120.38
453.31	104.38
453.53	80.38
453.751	91.38
453.971	105.38
454.192	96.38
454.412	95.38
454.633	96.38
454.853	87.38
455.073	96.38
455.294	86.38
455.514	82.38
455.734	79.38
455.955	86.38
456.175	92.38
456.395	88.38
456.616	77.38
456.836	86.38
457.056	79.38
457.276	91.38
457.497	83.38
457.717	84.38
457.937	86.38
458.157	101.38
458.377	77.38
458.598	97.38
458.818	129.38
459.038	122.38
459.258	101.38
459.478	82.38
459.698	84.38
459.918	90.38
460.138	76.38
460.358	88.38
460.578	92.38
460.798	94.38
461.018	89.38
461.238	85.38
461.458	106.38
461.678	88.38
461.898	76.38
462.118	101.38
462.338	103.38
462.558	91.38
462.777	94.38
462.997	90.38
463.217	85.38
463.437	95.38
463.657	69.38
463.876	88.38
464.096	96.38
464.316	95.38
464.536	85.38
464.755	81.38
464.975	95.38
465.195	112.38
465.414	122.38
465.634	79.38
465.854	102.38
466.073	102.38
466.293	90.38
466.512	94.38
466.732	97.38
466.951	89.38
467.171	81.38
467.391	92.38
467.61	111.38
467.829	95.38
468.049	103.38
468.268	106.38
468.488	84.38
468.707	94.38
468.927	88.38
469.146	93.38
469.365	92.38
469.585	72.38
469.804	90.38
470.023	95.38
470.243	92.38
470.462	94.38
470.681	89.38
470.901	85.38
471.12	86.38
471.339	96.38
471.558	100.38
471.777	93.38
471.997	104.38
472.216	107.38
472.435	119.38
472.654	104.38
472.873	95.38
473.092	84.38
473.311	78.38
473.53	89.38
473.749	94.38
473.968	89.38
474.187	105.38
474.406	98.38
474.625	82.38
474.844	89.38
475.063	100.38
475.282	88.38
475.501	97.38
475.72	104.38
475.939	96.38
476.158	82.38
476.377	84.38
476.596	75.38
476.814	96.38
477.033	97.38
477.252	91.38
477.471	88.38
477.69	91.38
477.908	90.38
478.127	90.38
478.346	92.38
478.564	96.38
478.783	101.38
479.002	100.38
479.22	89.38
479.439	87.38
479.658	106.38
479.876	78.38
480.095	88.38
480.313	104.38
480.532	94.38
480.751	102.38
480.969	110.38
481.188	158.38
481.406	131.38
481.624	104.38
481.843	88.38
482.061	101.38
482.28	105.38
482.498	96.38
482.717	94.38
482.935	85.38
483.153	95.38
483.372	92.38
483.59	87.38
483.808	93.38
484.027	104.38
484.245	93.38
484.463	93.38
484.681	94.38
484.9	82.38
485.118	96.38
485.336	113.38
485.554	99.38
485.772	119.38
485.99	102.38
486.209	106.38
486.427	98.38
486.645	109.38
486.863	108.38
487.081	110.38
487.299	104.38
487.517	95.38
487.735	92.38
487.953	109.38
488.171	97.38
488.389	91.38
488.607	101.38
488.825	83.38
489.043	93.38
489.261	100.38
489.479	87.38
489.696	88.38
489.914	86.38
490.132	81.38
490.35	84.38
490.568	84.38
490.786	93.38
491.003	99.38
491.221	74.38
491.439	84.38
491.657	84.38
491.874	106.38
492.092	91.38
492.31	85.38
492.527	87.38
492.745	103.38
492.963	97.38
493.18	88.38
493.398	98.38
493.615	98.38
493.833	95.38
494.05	84.38
494.268	89.38
494.485	97.38
494.703	93.38
494.92	80.38
495.138	87.38
495.355	86.38
495.573	89.38
495.79	97.38
496.008	112.38
496.225	110.38
496.442	84.38
496.66	86.38
496.877	94.38
497.094	96.38
497.312	80.38
497.529	86.38
497.746	90.38
497.963	99.38
498.181	98.38
498.398	95.38
498.615	100.38
498.832	97.38
499.049	93.38
499.267	102.38
499.484	85.38
499.701	87.38
499.918	91.38
500.135	92.38
500.352	93.38
500.569	108.38
500.786	93.38
501.003	94.38
501.22	72.38
501.437	88.38
501.654	86.38
501.871	99.38
502.088	86.38
502.305	92.38
502.522	85.38
502.739	93.38
502.956	91.38
503.172	85.38
503.389	79.38
503.606	88.38
503.823	92.38
504.04	96.38
504.256	85.38
504.473	71.38
504.69	104.38
504.907	93.38
505.123	96.38
505.34	86.38
505.557	88.38
505.773	98.38
505.99	75.38
506.207	86.38
506.423	89.38
506.64	105.38
506.856	102.38
507.073	101.38
507.289	96.38
507.506	84.38
507.722	100.38
507.939	102.38
508.155	90.38
508.372	97.38
508.588	89.38
508.805	86.38
509.021	91.38
509.238	106.38
509.454	86.38
509.67	99.38
509.887	101.38
510.103	109.38
510.319	165.38
510.536	495.38
510.752	1526.38
510.968	437.38
511.184	120.38
511.401	92.38
511.617	113.38
511.833	103.38
512.049	101.38
512.265	90.38
512.481	88.38
512.698	86.38
512.914	99.38
513.13	95.38
513.346	88.38
513.562	87.38
513.778	88.38
513.994	88.38
514.21	103.38
514.426	97.38
514.642	120.38
514.858	104.38
