Data from Uncirc_1980_H10_HRD10591_00065.txt Node
Date: Wed Jan 03 12:37:08 EST 2024
User: Yrep
Spectrometer: HR+D1059
Trigger mode: 1
Integration Time (sec): 1.000000E-1
Scans to average: 1
Electric dark correction enabled: true
Nonlinearity correction enabled: false
Boxcar width: 0
XAxis mode: Wavelengths
Number of Pixels in Spectrum: 2048
>>>>>Begin Spectral Data<<<<<
223.165	-23.69
223.4	-23.69
223.635	-23.69
223.869	-11.69
224.104	-15.69
224.338	-6.69
224.573	-8.69
224.808	-12.69
225.042	-2.69
225.277	-12.69
225.511	-3.69
225.746	-8.69
225.98	5.31
226.215	9.31
226.449	8.31
226.683	29.31
226.918	26.31
227.152	28.31
227.387	34.31
227.621	42.31
227.856	41.31
228.09	47.31
228.324	49.31
228.559	63.31
228.793	83.31
229.027	74.31
229.262	70.31
229.496	77.31
229.73	87.31
229.964	90.31
230.199	71.31
230.433	59.31
230.667	95.31
230.901	78.31
231.136	78.31
231.37	77.31
231.604	81.31
231.838	78.31
232.072	78.31
232.306	71.31
232.541	79.31
232.775	88.31
233.009	77.31
233.243	93.31
233.477	84.31
233.711	82.31
233.945	80.31
234.179	92.31
234.413	91.31
234.647	88.31
234.881	90.31
235.115	77.31
235.349	93.31
235.583	86.31
235.817	87.31
236.051	87.31
236.285	78.31
236.519	74.31
236.753	91.31
236.987	76.31
237.221	84.31
237.455	89.31
237.689	66.31
237.922	64.31
238.156	77.31
238.39	78.31
238.624	75.31
238.858	87.31
239.091	74.31
239.325	69.31
239.559	86.31
239.793	68.31
240.027	72.31
240.26	56.31
240.494	80.31
240.728	98.31
240.961	96.31
241.195	91.31
241.429	94.31
241.662	54.31
241.896	86.31
242.13	75.31
242.363	84.31
242.597	70.31
242.83	63.31
243.064	79.31
243.298	87.31
243.531	96.31
243.765	77.31
243.998	86.31
244.232	79.31
244.465	73.31
244.699	83.31
244.932	65.31
245.166	73.31
245.399	73.31
245.633	82.31
245.866	77.31
246.099	88.31
246.333	78.31
246.566	76.31
246.8	82.31
247.033	90.31
247.266	76.31
247.5	88.31
247.733	86.31
247.966	78.31
248.2	66.31
248.433	77.31
248.666	77.31
248.899	96.31
249.133	88.31
249.366	90.31
249.599	94.31
249.832	74.31
250.066	86.31
250.299	84.31
250.532	83.31
250.765	80.31
250.998	80.31
251.231	85.31
251.465	85.31
251.698	82.31
251.931	83.31
252.164	77.31
252.397	82.31
252.63	75.31
252.863	76.31
253.096	90.31
253.329	91.31
253.562	79.31
253.795	75.31
254.028	89.31
254.261	79.31
254.494	72.31
254.727	75.31
254.96	76.31
255.193	83.31
255.426	82.31
255.659	84.31
255.892	83.31
256.124	93.31
256.357	77.31
256.59	79.31
256.823	93.31
257.056	80.31
257.289	76.31
257.521	93.31
257.754	94.31
257.987	85.31
258.22	88.31
258.452	92.31
258.685	65.31
258.918	86.31
259.151	86.31
259.383	82.31
259.616	79.31
259.849	84.31
260.081	86.31
260.314	85.31
260.547	70.31
260.779	74.31
261.012	72.31
261.244	93.31
261.477	89.31
261.71	96.31
261.942	99.31
262.175	104.31
262.407	90.31
262.64	84.31
262.872	82.31
263.105	79.31
263.337	91.31
263.57	84.31
263.802	90.31
264.035	72.31
264.267	94.31
264.499	89.31
264.732	72.31
264.964	106.31
265.197	84.31
265.429	86.31
265.661	88.31
265.894	89.31
266.126	85.31
266.358	109.31
266.591	75.31
266.823	84.31
267.055	89.31
267.287	90.31
267.52	83.31
267.752	76.31
267.984	92.31
268.216	90.31
268.448	89.31
268.681	81.31
268.913	74.31
269.145	86.31
269.377	82.31
269.609	79.31
269.841	88.31
270.073	86.31
270.306	76.31
270.538	69.31
270.77	97.31
271.002	94.31
271.234	97.31
271.466	86.31
271.698	81.31
271.93	92.31
272.162	103.31
272.394	87.31
272.626	92.31
272.858	90.31
273.09	93.31
273.322	85.31
273.553	79.31
273.785	82.31
274.017	70.31
274.249	87.31
274.481	74.31
274.713	91.31
274.945	86.31
275.176	85.31
275.408	89.31
275.64	95.31
275.872	76.31
276.104	83.31
276.335	91.31
276.567	107.31
276.799	109.31
277.031	102.31
277.262	90.31
277.494	89.31
277.726	99.31
277.957	87.31
278.189	96.31
278.421	82.31
278.652	95.31
278.884	76.31
279.115	91.31
279.347	83.31
279.579	90.31
279.81	105.31
280.042	86.31
280.273	80.31
280.505	92.31
280.736	88.31
280.968	92.31
281.199	103.31
281.431	82.31
281.662	98.31
281.894	88.31
282.125	106.31
282.356	127.31
282.588	121.31
282.819	109.31
283.051	93.31
283.282	86.31
283.513	92.31
283.745	87.31
283.976	76.31
284.207	94.31
284.439	92.31
284.67	93.31
284.901	93.31
285.132	82.31
285.364	85.31
285.595	87.31
285.826	80.31
286.057	94.31
286.288	95.31
286.52	107.31
286.751	90.31
286.982	93.31
287.213	66.31
287.444	94.31
287.675	93.31
287.906	88.31
288.138	106.31
288.369	103.31
288.6	99.31
288.831	88.31
289.062	99.31
289.293	92.31
289.524	96.31
289.755	84.31
289.986	84.31
290.217	97.31
290.448	108.31
290.679	95.31
290.91	85.31
291.141	82.31
291.371	78.31
291.602	98.31
291.833	104.31
292.064	103.31
292.295	100.31
292.526	93.31
292.757	86.31
292.987	101.31
293.218	90.31
293.449	98.31
293.68	88.31
293.91	85.31
294.141	85.31
294.372	109.31
294.603	77.31
294.833	100.31
295.064	90.31
295.295	78.31
295.525	70.31
295.756	103.31
295.987	106.31
296.217	111.31
296.448	110.31
296.679	99.31
296.909	87.31
297.14	80.31
297.37	92.31
297.601	91.31
297.831	98.31
298.062	107.31
298.292	96.31
298.523	89.31
298.753	85.31
298.984	84.31
299.214	86.31
299.445	101.31
299.675	91.31
299.905	92.31
300.136	88.31
300.366	88.31
300.597	101.31
300.827	93.31
301.057	95.31
301.288	93.31
301.518	94.31
301.748	85.31
301.979	95.31
302.209	100.31
302.439	101.31
302.669	90.31
302.9	96.31
303.13	99.31
303.36	86.31
303.59	105.31
303.82	97.31
304.051	98.31
304.281	79.31
304.511	81.31
304.741	84.31
304.971	86.31
305.201	94.31
305.431	87.31
305.661	99.31
305.891	89.31
306.121	90.31
306.352	103.31
306.582	95.31
306.812	101.31
307.042	109.31
307.272	102.31
307.502	90.31
307.731	108.31
307.961	107.31
308.191	92.31
308.421	91.31
308.651	75.31
308.881	94.31
309.111	92.31
309.341	98.31
309.571	88.31
309.8	108.31
310.03	94.31
310.26	103.31
310.49	100.31
310.72	99.31
310.949	99.31
311.179	100.31
311.409	95.31
311.639	100.31
311.868	93.31
312.098	103.31
312.328	88.31
312.557	103.31
312.787	99.31
313.017	107.31
313.246	89.31
313.476	109.31
313.706	82.31
313.935	93.31
314.165	102.31
314.394	101.31
314.624	109.31
314.853	80.31
315.083	88.31
315.312	89.31
315.542	98.31
315.771	91.31
316.001	88.31
316.23	100.31
316.46	86.31
316.689	75.31
316.919	91.31
317.148	72.31
317.377	93.31
317.607	95.31
317.836	95.31
318.065	90.31
318.295	96.31
318.524	101.31
318.753	93.31
318.983	90.31
319.212	96.31
319.441	95.31
319.67	104.31
319.9	89.31
320.129	92.31
320.358	100.31
320.587	103.31
320.816	94.31
321.046	104.31
321.275	88.31
321.504	104.31
321.733	90.31
321.962	100.31
322.191	82.31
322.42	90.31
322.649	109.31
322.878	86.31
323.108	111.31
323.337	115.31
323.566	118.31
323.795	133.31
324.024	173.31
324.253	302.31
324.482	595.31
324.71	1187.31
324.939	1564.31
325.168	614.31
325.397	187.31
325.626	140.31
325.855	118.31
326.084	111.31
326.313	116.31
326.542	110.31
326.77	198.31
326.999	342.31
327.228	656.31
327.457	1220.31
327.686	951.31
327.914	295.31
328.143	167.31
328.372	138.31
328.6	119.31
328.829	112.31
329.058	111.31
329.287	95.31
329.515	96.31
329.744	109.31
329.972	110.31
330.201	111.31
330.43	115.31
330.658	120.31
330.887	114.31
331.115	103.31
331.344	94.31
331.572	102.31
331.801	97.31
332.03	99.31
332.258	97.31
332.486	91.31
332.715	98.31
332.943	88.31
333.172	103.31
333.4	100.31
333.629	99.31
333.857	119.31
334.085	109.31
334.314	104.31
334.542	120.31
334.771	123.31
334.999	104.31
335.227	100.31
335.455	96.31
335.684	104.31
335.912	92.31
336.14	93.31
336.369	85.31
336.597	96.31
336.825	82.31
337.053	80.31
337.281	110.31
337.51	91.31
337.738	82.31
337.966	86.31
338.194	93.31
338.422	94.31
338.65	86.31
338.878	91.31
339.106	96.31
339.334	92.31
339.562	102.31
339.79	88.31
340.018	89.31
340.246	88.31
340.474	94.31
340.702	90.31
340.93	105.31
341.158	93.31
341.386	91.31
341.614	89.31
341.842	88.31
342.07	91.31
342.298	99.31
342.526	94.31
342.754	89.31
342.981	76.31
343.209	106.31
343.437	100.31
343.665	90.31
343.893	86.31
344.12	89.31
344.348	98.31
344.576	93.31
344.804	90.31
345.031	96.31
345.259	92.31
345.487	101.31
345.714	100.31
345.942	87.31
346.17	96.31
346.397	99.31
346.625	108.31
346.853	80.31
347.08	80.31
347.308	83.31
347.535	97.31
347.763	103.31
347.99	92.31
348.218	99.31
348.445	101.31
348.673	99.31
348.9	96.31
349.128	104.31
349.355	98.31
349.583	85.31
349.81	100.31
350.037	100.31
350.265	109.31
350.492	91.31
350.72	85.31
350.947	102.31
351.174	112.31
351.402	100.31
351.629	118.31
351.856	106.31
352.083	101.31
352.311	84.31
352.538	96.31
352.765	103.31
352.992	87.31
353.22	119.31
353.447	117.31
353.674	102.31
353.901	109.31
354.128	105.31
354.355	92.31
354.583	90.31
354.81	95.31
355.037	89.31
355.264	92.31
355.491	95.31
355.718	102.31
355.945	102.31
356.172	105.31
356.399	84.31
356.626	94.31
356.853	99.31
357.08	98.31
357.307	88.31
357.534	94.31
357.761	91.31
357.988	98.31
358.215	98.31
358.441	87.31
358.668	92.31
358.895	96.31
359.122	95.31
359.349	93.31
359.576	94.31
359.802	93.31
360.029	105.31
360.256	111.31
360.483	106.31
360.709	82.31
360.936	103.31
361.163	88.31
361.39	103.31
361.616	75.31
361.843	88.31
362.07	76.31
362.296	92.31
362.523	87.31
362.749	78.31
362.976	100.31
363.203	97.31
363.429	89.31
363.656	87.31
363.882	95.31
364.109	78.31
364.335	94.31
364.562	92.31
364.788	85.31
365.015	89.31
365.241	100.31
365.468	115.31
365.694	86.31
365.92	89.31
366.147	92.31
366.373	84.31
366.599	84.31
366.826	99.31
367.052	103.31
367.278	107.31
367.505	100.31
367.731	100.31
367.957	96.31
368.184	86.31
368.41	94.31
368.636	104.31
368.862	112.31
369.089	108.31
369.315	86.31
369.541	84.31
369.767	89.31
369.993	86.31
370.219	102.31
370.445	92.31
370.672	79.31
370.898	90.31
371.124	88.31
371.35	106.31
371.576	72.31
371.802	77.31
372.028	86.31
372.254	95.31
372.48	94.31
372.706	96.31
372.932	75.31
373.158	91.31
373.384	97.31
373.61	90.31
373.835	73.31
374.061	90.31
374.287	102.31
374.513	84.31
374.739	90.31
374.965	92.31
375.191	93.31
375.416	94.31
375.642	85.31
375.868	93.31
376.094	87.31
376.319	89.31
376.545	92.31
376.771	84.31
376.997	103.31
377.222	82.31
377.448	101.31
377.674	87.31
377.899	89.31
378.125	104.31
378.35	90.31
378.576	86.31
378.802	97.31
379.027	97.31
379.253	92.31
379.478	87.31
379.704	96.31
379.929	88.31
380.155	99.31
380.38	94.31
380.606	106.31
380.831	93.31
381.057	102.31
381.282	89.31
381.507	95.31
381.733	95.31
381.958	95.31
382.184	107.31
382.409	97.31
382.634	88.31
382.86	93.31
383.085	102.31
383.31	111.31
383.535	103.31
383.761	93.31
383.986	90.31
384.211	98.31
384.436	100.31
384.662	99.31
384.887	100.31
385.112	102.31
385.337	90.31
385.562	98.31
385.787	103.31
386.013	114.31
386.238	106.31
386.463	106.31
386.688	91.31
386.913	94.31
387.138	99.31
387.363	102.31
387.588	105.31
387.813	99.31
388.038	78.31
388.263	103.31
388.488	103.31
388.713	94.31
388.938	104.31
389.163	95.31
389.387	94.31
389.612	94.31
389.837	92.31
390.062	82.31
390.287	83.31
390.512	80.31
390.736	105.31
390.961	90.31
391.186	95.31
391.411	109.31
391.636	92.31
391.86	98.31
392.085	92.31
392.31	93.31
392.534	84.31
392.759	82.31
392.984	90.31
393.208	91.31
393.433	84.31
393.658	86.31
393.882	85.31
394.107	86.31
394.331	91.31
394.556	86.31
394.78	92.31
395.005	85.31
395.229	98.31
395.454	94.31
395.678	73.31
395.903	88.31
396.127	75.31
396.352	100.31
396.576	77.31
396.801	84.31
397.025	86.31
397.249	88.31
397.474	93.31
397.698	76.31
397.922	78.31
398.147	78.31
398.371	92.31
398.595	79.31
398.82	79.31
399.044	104.31
399.268	80.31
399.492	89.31
399.717	74.31
399.941	86.31
400.165	79.31
400.389	92.31
400.613	96.31
400.837	79.31
401.062	89.31
401.286	87.31
401.51	91.31
401.734	95.31
401.958	91.31
402.182	116.31
402.406	134.31
402.63	115.31
402.854	94.31
403.078	94.31
403.302	71.31
403.526	94.31
403.75	82.31
403.974	88.31
404.198	100.31
404.422	85.31
404.645	88.31
404.869	87.31
405.093	102.31
405.317	91.31
405.541	89.31
405.765	87.31
405.988	106.31
406.212	135.31
406.436	183.31
406.66	114.31
406.883	90.31
407.107	84.31
407.331	80.31
407.555	90.31
407.778	101.31
408.002	99.31
408.226	96.31
408.449	94.31
408.673	71.31
408.896	82.31
409.12	90.31
409.344	93.31
409.567	83.31
409.791	100.31
410.014	96.31
410.238	79.31
410.461	100.31
410.685	102.31
410.908	98.31
411.132	106.31
411.355	106.31
411.578	95.31
411.802	98.31
412.025	82.31
412.249	105.31
412.472	99.31
412.695	98.31
412.919	93.31
413.142	90.31
413.365	95.31
413.589	82.31
413.812	75.31
414.035	99.31
414.258	101.31
414.482	100.31
414.705	82.31
414.928	84.31
415.151	91.31
415.374	88.31
415.597	91.31
415.821	86.31
416.044	88.31
416.267	108.31
416.49	96.31
416.713	88.31
416.936	90.31
417.159	71.31
417.382	80.31
417.605	82.31
417.828	100.31
418.051	90.31
418.274	82.31
418.497	86.31
418.72	93.31
418.943	84.31
419.166	95.31
419.389	98.31
419.611	101.31
419.834	89.31
420.057	91.31
420.28	96.31
420.503	88.31
420.726	95.31
420.948	94.31
421.171	101.31
421.394	85.31
421.617	91.31
421.839	75.31
422.062	80.31
422.285	94.31
422.507	85.31
422.73	97.31
422.953	90.31
423.175	93.31
423.398	94.31
423.621	96.31
423.843	75.31
424.066	93.31
424.288	90.31
424.511	90.31
424.733	97.31
424.956	99.31
425.178	97.31
425.401	98.31
425.623	97.31
425.846	87.31
426.068	82.31
426.291	87.31
426.513	95.31
426.735	91.31
426.958	92.31
427.18	92.31
427.402	114.31
427.625	127.31
427.847	103.31
428.069	103.31
428.292	95.31
428.514	91.31
428.736	84.31
428.958	82.31
429.181	77.31
429.403	84.31
429.625	86.31
429.847	95.31
430.069	90.31
430.292	98.31
430.514	78.31
430.736	94.31
430.958	84.31
431.18	86.31
431.402	90.31
431.624	84.31
431.846	90.31
432.068	92.31
432.29	76.31
432.512	87.31
432.734	90.31
432.956	86.31
433.178	102.31
433.4	89.31
433.622	89.31
433.844	84.31
434.066	79.31
434.287	90.31
434.509	91.31
434.731	91.31
434.953	94.31
435.175	80.31
435.397	88.31
435.618	102.31
435.84	107.31
436.062	114.31
436.284	106.31
436.505	101.31
436.727	106.31
436.949	95.31
437.17	99.31
437.392	82.31
437.614	84.31
437.835	106.31
438.057	105.31
438.278	86.31
438.5	95.31
438.721	102.31
438.943	96.31
439.165	94.31
439.386	85.31
439.608	89.31
439.829	94.31
440.05	99.31
440.272	119.31
440.493	88.31
440.715	71.31
440.936	97.31
441.158	90.31
441.379	97.31
441.6	91.31
441.822	101.31
442.043	87.31
442.264	103.31
442.486	94.31
442.707	82.31
442.928	94.31
443.149	109.31
443.371	107.31
443.592	94.31
443.813	99.31
444.034	104.31
444.255	91.31
444.476	98.31
444.698	88.31
444.919	92.31
445.14	128.31
445.361	125.31
445.582	115.31
445.803	112.31
446.024	112.31
446.245	115.31
446.466	101.31
446.687	101.31
446.908	79.31
447.129	92.31
447.35	90.31
447.571	97.31
447.792	67.31
448.013	92.31
448.234	95.31
448.455	92.31
448.675	98.31
448.896	107.31
449.117	92.31
449.338	89.31
449.559	103.31
449.779	113.31
450	104.31
450.221	90.31
450.442	90.31
450.662	86.31
450.883	92.31
451.104	96.31
451.324	93.31
451.545	99.31
451.766	94.31
451.986	78.31
452.207	96.31
452.428	99.31
452.648	93.31
452.869	102.31
453.089	108.31
453.31	117.31
453.53	97.31
453.751	96.31
453.971	92.31
454.192	86.31
454.412	83.31
454.633	90.31
454.853	84.31
455.073	89.31
455.294	94.31
455.514	86.31
455.734	100.31
455.955	84.31
456.175	79.31
456.395	75.31
456.616	90.31
456.836	84.31
457.056	86.31
457.276	72.31
457.497	79.31
457.717	85.31
457.937	100.31
458.157	84.31
458.377	97.31
458.598	95.31
458.818	112.31
459.038	117.31
459.258	100.31
459.478	91.31
459.698	78.31
459.918	80.31
460.138	97.31
460.358	90.31
460.578	98.31
460.798	78.31
461.018	94.31
461.238	97.31
461.458	95.31
461.678	105.31
461.898	78.31
462.118	86.31
462.338	89.31
462.558	82.31
462.777	83.31
462.997	98.31
463.217	85.31
463.437	80.31
463.657	95.31
463.876	109.31
464.096	82.31
464.316	84.31
464.536	92.31
464.755	96.31
464.975	96.31
465.195	146.31
465.414	122.31
465.634	84.31
465.854	101.31
466.073	91.31
466.293	86.31
466.512	96.31
466.732	93.31
466.951	93.31
467.171	92.31
467.391	84.31
467.61	98.31
467.829	82.31
468.049	102.31
468.268	97.31
468.488	95.31
468.707	78.31
468.927	80.31
469.146	74.31
469.365	97.31
469.585	94.31
469.804	97.31
470.023	76.31
470.243	87.31
470.462	96.31
470.681	98.31
470.901	103.31
471.12	90.31
471.339	95.31
471.558	92.31
471.777	102.31
471.997	90.31
472.216	125.31
472.435	120.31
472.654	94.31
472.873	93.31
473.092	87.31
473.311	91.31
473.53	89.31
473.749	95.31
473.968	88.31
474.187	106.31
474.406	86.31
474.625	82.31
474.844	77.31
475.063	86.31
475.282	82.31
475.501	74.31
475.72	76.31
475.939	90.31
476.158	84.31
476.377	88.31
476.596	86.31
476.814	82.31
477.033	99.31
477.252	95.31
477.471	106.31
477.69	96.31
477.908	67.31
478.127	89.31
478.346	82.31
478.564	87.31
478.783	82.31
479.002	96.31
479.22	112.31
479.439	89.31
479.658	109.31
479.876	97.31
480.095	94.31
480.313	94.31
480.532	76.31
480.751	94.31
480.969	116.31
481.188	180.31
481.406	147.31
481.624	79.31
481.843	82.31
482.061	84.31
482.28	86.31
482.498	95.31
482.717	93.31
482.935	86.31
483.153	96.31
483.372	98.31
483.59	93.31
483.808	86.31
484.027	102.31
484.245	93.31
484.463	97.31
484.681	102.31
484.9	106.31
485.118	93.31
485.336	83.31
485.554	100.31
485.772	108.31
485.99	87.31
486.209	107.31
486.427	106.31
486.645	94.31
486.863	98.31
487.081	98.31
487.299	99.31
487.517	101.31
487.735	89.31
487.953	105.31
488.171	99.31
488.389	103.31
488.607	108.31
488.825	94.31
489.043	84.31
489.261	101.31
489.479	99.31
489.696	99.31
489.914	85.31
490.132	84.31
490.35	91.31
490.568	86.31
490.786	86.31
491.003	93.31
491.221	93.31
491.439	90.31
491.657	88.31
491.874	92.31
492.092	75.31
492.31	94.31
492.527	82.31
492.745	96.31
492.963	98.31
493.18	70.31
493.398	105.31
493.615	86.31
493.833	95.31
494.05	78.31
494.268	76.31
494.485	94.31
494.703	96.31
494.92	96.31
495.138	80.31
495.355	89.31
495.573	90.31
495.79	90.31
496.008	93.31
496.225	96.31
496.442	87.31
496.66	82.31
496.877	101.31
497.094	88.31
497.312	88.31
497.529	98.31
497.746	93.31
497.963	86.31
498.181	93.31
498.398	93.31
498.615	98.31
498.832	118.31
499.049	104.31
499.267	71.31
499.484	101.31
499.701	98.31
499.918	98.31
500.135	92.31
500.352	98.31
500.569	94.31
500.786	111.31
501.003	95.31
501.22	85.31
501.437	94.31
501.654	84.31
501.871	107.31
502.088	96.31
502.305	106.31
502.522	98.31
502.739	101.31
502.956	91.31
503.172	77.31
503.389	86.31
503.606	84.31
503.823	103.31
504.04	75.31
504.256	88.31
504.473	84.31
504.69	101.31
504.907	101.31
505.123	94.31
505.34	84.31
505.557	100.31
505.773	84.31
505.99	98.31
506.207	86.31
506.423	97.31
506.64	90.31
506.856	83.31
507.073	83.31
507.289	90.31
507.506	104.31
507.722	116.31
507.939	102.31
508.155	92.31
508.372	81.31
508.588	82.31
508.805	97.31
509.021	99.31
509.238	101.31
509.454	95.31
509.67	113.31
509.887	104.31
510.103	126.31
510.319	188.31
510.536	591.31
510.752	1823.31
510.968	502.31
511.184	144.31
511.401	105.31
511.617	100.31
511.833	88.31
512.049	89.31
512.265	84.31
512.481	84.31
512.698	92.31
512.914	100.31
513.13	97.31
513.346	83.31
513.562	103.31
513.778	93.31
513.994	91.31
514.21	93.31
514.426	111.31
514.642	110.31
514.858	113.31
515.074	135.31
515.29	333.31
515.506	1046.31
515.721	396.31
