Data from Uncirc_1980_H10_HRD10591_00084.txt Node
Date: Wed Jan 03 12:37:12 EST 2024
User: Yrep
Spectrometer: HR+D1059
Trigger mode: 1
Integration Time (sec): 1.000000E-1
Scans to average: 1
Electric dark correction enabled: true
Nonlinearity correction enabled: false
Boxcar width: 0
XAxis mode: Wavelengths
Number of Pixels in Spectrum: 2048
>>>>>Begin Spectral Data<<<<<
223.165	-13.88
223.4	-13.88
223.635	-13.88
223.869	-28.88
224.104	-19.88
224.338	-19.88
224.573	-13.88
224.808	-12.88
225.042	-12.88
225.277	-0.88
225.511	-2.88
225.746	1.12
225.98	-11.88
226.215	12.12
226.449	24.12
226.683	21.12
226.918	31.12
227.152	48.12
227.387	24.12
227.621	34.12
227.856	38.12
228.09	34.12
228.324	48.12
228.559	51.12
228.793	49.12
229.027	56.12
229.262	54.12
229.496	69.12
229.73	74.12
229.964	74.12
230.199	76.12
230.433	90.12
230.667	81.12
230.901	65.12
231.136	72.12
231.37	75.12
231.604	71.12
231.838	70.12
232.072	92.12
232.306	83.12
232.541	81.12
232.775	73.12
233.009	88.12
233.243	77.12
233.477	64.12
233.711	91.12
233.945	75.12
234.179	66.12
234.413	76.12
234.647	72.12
234.881	85.12
235.115	60.12
235.349	72.12
235.583	81.12
235.817	74.12
236.051	85.12
236.285	65.12
236.519	67.12
236.753	86.12
236.987	80.12
237.221	88.12
237.455	78.12
237.689	86.12
237.922	55.12
238.156	67.12
238.39	81.12
238.624	75.12
238.858	85.12
239.091	64.12
239.325	68.12
239.559	80.12
239.793	77.12
240.027	70.12
240.26	81.12
240.494	77.12
240.728	71.12
240.961	70.12
241.195	82.12
241.429	72.12
241.662	81.12
241.896	76.12
242.13	74.12
242.363	59.12
242.597	75.12
242.83	77.12
243.064	80.12
243.298	81.12
243.531	80.12
243.765	76.12
243.998	75.12
244.232	58.12
244.465	59.12
244.699	81.12
244.932	73.12
245.166	71.12
245.399	84.12
245.633	82.12
245.866	79.12
246.099	82.12
246.333	75.12
246.566	73.12
246.8	73.12
247.033	76.12
247.266	82.12
247.5	74.12
247.733	69.12
247.966	74.12
248.2	76.12
248.433	70.12
248.666	66.12
248.899	83.12
249.133	73.12
249.366	93.12
249.599	93.12
249.832	84.12
250.066	84.12
250.299	79.12
250.532	76.12
250.765	86.12
250.998	75.12
251.231	75.12
251.465	80.12
251.698	73.12
251.931	71.12
252.164	68.12
252.397	81.12
252.63	83.12
252.863	76.12
253.096	100.12
253.329	84.12
253.562	76.12
253.795	83.12
254.028	79.12
254.261	81.12
254.494	77.12
254.727	83.12
254.96	81.12
255.193	80.12
255.426	68.12
255.659	81.12
255.892	83.12
256.124	55.12
256.357	63.12
256.59	80.12
256.823	75.12
257.056	67.12
257.289	83.12
257.521	80.12
257.754	73.12
257.987	73.12
258.22	91.12
258.452	74.12
258.685	72.12
258.918	72.12
259.151	73.12
259.383	88.12
259.616	97.12
259.849	81.12
260.081	94.12
260.314	82.12
260.547	76.12
260.779	91.12
261.012	69.12
261.244	72.12
261.477	87.12
261.71	94.12
261.942	93.12
262.175	113.12
262.407	90.12
262.64	79.12
262.872	83.12
263.105	88.12
263.337	89.12
263.57	69.12
263.802	74.12
264.035	76.12
264.267	88.12
264.499	83.12
264.732	85.12
264.964	70.12
265.197	81.12
265.429	87.12
265.661	84.12
265.894	76.12
266.126	80.12
266.358	83.12
266.591	69.12
266.823	72.12
267.055	75.12
267.287	68.12
267.52	71.12
267.752	90.12
267.984	89.12
268.216	90.12
268.448	79.12
268.681	79.12
268.913	83.12
269.145	98.12
269.377	89.12
269.609	76.12
269.841	82.12
270.073	88.12
270.306	79.12
270.538	87.12
270.77	88.12
271.002	98.12
271.234	92.12
271.466	77.12
271.698	71.12
271.93	73.12
272.162	89.12
272.394	80.12
272.626	83.12
272.858	94.12
273.09	77.12
273.322	89.12
273.553	88.12
273.785	80.12
274.017	67.12
274.249	93.12
274.481	81.12
274.713	80.12
274.945	76.12
275.176	86.12
275.408	102.12
275.64	97.12
275.872	87.12
276.104	83.12
276.335	100.12
276.567	98.12
276.799	101.12
277.031	91.12
277.262	96.12
277.494	93.12
277.726	90.12
277.957	89.12
278.189	89.12
278.421	87.12
278.652	84.12
278.884	81.12
279.115	76.12
279.347	81.12
279.579	79.12
279.81	70.12
280.042	89.12
280.273	81.12
280.505	77.12
280.736	81.12
280.968	88.12
281.199	84.12
281.431	81.12
281.662	99.12
281.894	91.12
282.125	87.12
282.356	110.12
282.588	140.12
282.819	120.12
283.051	75.12
283.282	85.12
283.513	79.12
283.745	97.12
283.976	101.12
284.207	88.12
284.439	81.12
284.67	89.12
284.901	74.12
285.132	84.12
285.364	79.12
285.595	87.12
285.826	100.12
286.057	95.12
286.288	66.12
286.52	91.12
286.751	100.12
286.982	75.12
287.213	65.12
287.444	97.12
287.675	83.12
287.906	85.12
288.138	84.12
288.369	101.12
288.6	108.12
288.831	80.12
289.062	87.12
289.293	82.12
289.524	79.12
289.755	77.12
289.986	93.12
290.217	83.12
290.448	84.12
290.679	85.12
290.91	91.12
291.141	98.12
291.371	72.12
291.602	85.12
291.833	76.12
292.064	83.12
292.295	84.12
292.526	90.12
292.757	95.12
292.987	83.12
293.218	82.12
293.449	72.12
293.68	75.12
293.91	93.12
294.141	80.12
294.372	82.12
294.603	99.12
294.833	100.12
295.064	91.12
295.295	80.12
295.525	88.12
295.756	97.12
295.987	104.12
296.217	128.12
296.448	112.12
296.679	88.12
296.909	80.12
297.14	75.12
297.37	74.12
297.601	77.12
297.831	99.12
298.062	93.12
298.292	85.12
298.523	94.12
298.753	80.12
298.984	83.12
299.214	75.12
299.445	82.12
299.675	85.12
299.905	81.12
300.136	85.12
300.366	82.12
300.597	89.12
300.827	96.12
301.057	83.12
301.288	91.12
301.518	99.12
301.748	87.12
301.979	86.12
302.209	97.12
302.439	99.12
302.669	88.12
302.9	83.12
303.13	85.12
303.36	82.12
303.59	99.12
303.82	96.12
304.051	93.12
304.281	106.12
304.511	93.12
304.741	73.12
304.971	91.12
305.201	83.12
305.431	76.12
305.661	89.12
305.891	76.12
306.121	99.12
306.352	103.12
306.582	114.12
306.812	85.12
307.042	87.12
307.272	95.12
307.502	90.12
307.731	94.12
307.961	79.12
308.191	85.12
308.421	98.12
308.651	84.12
308.881	82.12
309.111	88.12
309.341	99.12
309.571	83.12
309.8	93.12
310.03	89.12
310.26	100.12
310.49	96.12
310.72	91.12
310.949	95.12
311.179	93.12
311.409	91.12
311.639	97.12
311.868	99.12
312.098	101.12
312.328	92.12
312.557	95.12
312.787	92.12
313.017	96.12
313.246	102.12
313.476	97.12
313.706	76.12
313.935	77.12
314.165	89.12
314.394	99.12
314.624	91.12
314.853	87.12
315.083	99.12
315.312	84.12
315.542	87.12
315.771	85.12
316.001	86.12
316.23	81.12
316.46	87.12
316.689	80.12
316.919	99.12
317.148	92.12
317.377	98.12
317.607	83.12
317.836	82.12
318.065	88.12
318.295	75.12
318.524	84.12
318.753	107.12
318.983	103.12
319.212	101.12
319.441	104.12
319.67	90.12
319.9	97.12
320.129	72.12
320.358	97.12
320.587	95.12
320.816	103.12
321.046	84.12
321.275	85.12
321.504	94.12
321.733	92.12
321.962	85.12
322.191	86.12
322.42	102.12
322.649	100.12
322.878	108.12
323.108	111.12
323.337	103.12
323.566	120.12
323.795	135.12
324.024	165.12
324.253	311.12
324.482	636.12
324.71	1288.12
324.939	1679.12
325.168	641.12
325.397	207.12
325.626	137.12
325.855	115.12
326.084	112.12
326.313	129.12
326.542	138.12
326.77	195.12
326.999	358.12
327.228	747.12
327.457	1290.12
327.686	1018.12
327.914	312.12
328.143	170.12
328.372	138.12
328.6	119.12
328.829	126.12
329.058	118.12
329.287	116.12
329.515	110.12
329.744	99.12
329.972	109.12
330.201	123.12
330.43	115.12
330.658	114.12
330.887	127.12
331.115	101.12
331.344	106.12
331.572	100.12
331.801	92.12
332.03	94.12
332.258	108.12
332.486	90.12
332.715	90.12
332.943	98.12
333.172	88.12
333.4	90.12
333.629	100.12
333.857	105.12
334.085	99.12
334.314	115.12
334.542	119.12
334.771	117.12
334.999	99.12
335.227	87.12
335.455	89.12
335.684	93.12
335.912	101.12
336.14	90.12
336.369	95.12
336.597	94.12
336.825	104.12
337.053	98.12
337.281	95.12
337.51	85.12
337.738	87.12
337.966	78.12
338.194	88.12
338.422	88.12
338.65	83.12
338.878	95.12
339.106	75.12
339.334	94.12
339.562	71.12
339.79	80.12
340.018	86.12
340.246	94.12
340.474	81.12
340.702	92.12
340.93	86.12
341.158	88.12
341.386	69.12
341.614	93.12
341.842	89.12
342.07	79.12
342.298	99.12
342.526	90.12
342.754	87.12
342.981	82.12
343.209	95.12
343.437	105.12
343.665	73.12
343.893	93.12
344.12	83.12
344.348	81.12
344.576	92.12
344.804	91.12
345.031	96.12
345.259	83.12
345.487	87.12
345.714	84.12
345.942	87.12
346.17	91.12
346.397	95.12
346.625	97.12
346.853	98.12
347.08	81.12
347.308	91.12
347.535	88.12
347.763	70.12
347.99	88.12
348.218	97.12
348.445	91.12
348.673	94.12
348.9	100.12
349.128	84.12
349.355	102.12
349.583	89.12
349.81	90.12
350.037	97.12
350.265	86.12
350.492	89.12
350.72	89.12
350.947	80.12
351.174	86.12
351.402	106.12
351.629	107.12
351.856	99.12
352.083	102.12
352.311	95.12
352.538	113.12
352.765	94.12
352.992	112.12
353.22	107.12
353.447	92.12
353.674	93.12
353.901	85.12
354.128	96.12
354.355	97.12
354.583	96.12
354.81	88.12
355.037	74.12
355.264	86.12
355.491	94.12
355.718	94.12
355.945	94.12
356.172	92.12
356.399	98.12
356.626	88.12
356.853	92.12
357.08	82.12
357.307	95.12
357.534	86.12
357.761	97.12
357.988	91.12
358.215	98.12
358.441	99.12
358.668	86.12
358.895	91.12
359.122	89.12
359.349	81.12
359.576	84.12
359.802	107.12
360.029	101.12
360.256	103.12
360.483	92.12
360.709	97.12
360.936	86.12
361.163	83.12
361.39	96.12
361.616	83.12
361.843	70.12
362.07	81.12
362.296	72.12
362.523	94.12
362.749	88.12
362.976	90.12
363.203	83.12
363.429	89.12
363.656	84.12
363.882	84.12
364.109	90.12
364.335	91.12
364.562	92.12
364.788	90.12
365.015	97.12
365.241	88.12
365.468	92.12
365.694	98.12
365.92	90.12
366.147	69.12
366.373	81.12
366.599	82.12
366.826	84.12
367.052	91.12
367.278	96.12
367.505	71.12
367.731	94.12
367.957	89.12
368.184	85.12
368.41	100.12
368.636	100.12
368.862	99.12
369.089	100.12
369.315	76.12
369.541	89.12
369.767	93.12
369.993	86.12
370.219	93.12
370.445	73.12
370.672	76.12
370.898	88.12
371.124	81.12
371.35	95.12
371.576	77.12
371.802	83.12
372.028	100.12
372.254	85.12
372.48	77.12
372.706	80.12
372.932	79.12
373.158	83.12
373.384	92.12
373.61	91.12
373.835	87.12
374.061	88.12
374.287	84.12
374.513	74.12
374.739	81.12
374.965	83.12
375.191	87.12
375.416	89.12
375.642	83.12
375.868	88.12
376.094	79.12
376.319	97.12
376.545	82.12
376.771	83.12
376.997	69.12
377.222	95.12
377.448	87.12
377.674	84.12
377.899	71.12
378.125	89.12
378.35	91.12
378.576	98.12
378.802	92.12
379.027	97.12
379.253	103.12
379.478	84.12
379.704	79.12
379.929	90.12
380.155	88.12
380.38	87.12
380.606	81.12
380.831	99.12
381.057	105.12
381.282	90.12
381.507	94.12
381.733	83.12
381.958	91.12
382.184	98.12
382.409	80.12
382.634	97.12
382.86	104.12
383.085	102.12
383.31	98.12
383.535	89.12
383.761	97.12
383.986	92.12
384.211	86.12
384.436	94.12
384.662	90.12
384.887	91.12
385.112	99.12
385.337	100.12
385.562	102.12
385.787	100.12
386.013	105.12
386.238	116.12
386.463	106.12
386.688	108.12
386.913	98.12
387.138	98.12
387.363	92.12
387.588	105.12
387.813	95.12
388.038	82.12
388.263	101.12
388.488	95.12
388.713	87.12
388.938	94.12
389.163	95.12
389.387	89.12
389.612	91.12
389.837	90.12
390.062	76.12
390.287	91.12
390.512	72.12
390.736	81.12
390.961	98.12
391.186	87.12
391.411	96.12
391.636	89.12
391.86	84.12
392.085	93.12
392.31	85.12
392.534	76.12
392.759	89.12
392.984	76.12
393.208	81.12
393.433	84.12
393.658	87.12
393.882	90.12
394.107	79.12
394.331	81.12
394.556	85.12
394.78	81.12
395.005	90.12
395.229	92.12
395.454	80.12
395.678	76.12
395.903	83.12
396.127	70.12
396.352	77.12
396.576	76.12
396.801	101.12
397.025	89.12
397.249	95.12
397.474	69.12
397.698	82.12
397.922	79.12
398.147	76.12
398.371	83.12
398.595	73.12
398.82	85.12
399.044	82.12
399.268	94.12
399.492	93.12
399.717	88.12
399.941	84.12
400.165	92.12
400.389	69.12
400.613	84.12
400.837	87.12
401.062	91.12
401.286	86.12
401.51	82.12
401.734	89.12
401.958	103.12
402.182	104.12
402.406	143.12
402.63	103.12
402.854	91.12
403.078	77.12
403.302	98.12
403.526	85.12
403.75	95.12
403.974	103.12
404.198	87.12
404.422	86.12
404.645	85.12
404.869	90.12
405.093	85.12
405.317	88.12
405.541	105.12
405.765	85.12
405.988	116.12
406.212	149.12
406.436	199.12
406.66	127.12
406.883	102.12
407.107	83.12
407.331	81.12
407.555	98.12
407.778	85.12
408.002	74.12
408.226	89.12
408.449	86.12
408.673	91.12
408.896	87.12
409.12	91.12
409.344	91.12
409.567	100.12
409.791	74.12
410.014	84.12
410.238	93.12
410.461	92.12
410.685	99.12
410.908	97.12
411.132	101.12
411.355	98.12
411.578	71.12
411.802	88.12
412.025	80.12
412.249	79.12
412.472	89.12
412.695	85.12
412.919	99.12
413.142	93.12
413.365	77.12
413.589	81.12
413.812	85.12
414.035	84.12
414.258	93.12
414.482	95.12
414.705	96.12
414.928	97.12
415.151	84.12
415.374	81.12
415.597	80.12
415.821	88.12
416.044	93.12
416.267	75.12
416.49	84.12
416.713	87.12
416.936	87.12
417.159	89.12
417.382	80.12
417.605	85.12
417.828	92.12
418.051	82.12
418.274	83.12
418.497	73.12
418.72	89.12
418.943	94.12
419.166	94.12
419.389	78.12
419.611	82.12
419.834	87.12
420.057	95.12
420.28	90.12
420.503	83.12
420.726	84.12
420.948	89.12
421.171	98.12
421.394	89.12
421.617	89.12
421.839	71.12
422.062	92.12
422.285	86.12
422.507	101.12
422.73	103.12
422.953	98.12
423.175	101.12
423.398	91.12
423.621	82.12
423.843	82.12
424.066	75.12
424.288	97.12
424.511	81.12
424.733	99.12
424.956	95.12
425.178	81.12
425.401	85.12
425.623	90.12
425.846	85.12
426.068	80.12
426.291	83.12
426.513	91.12
426.735	86.12
426.958	85.12
427.18	104.12
427.402	136.12
427.625	134.12
427.847	105.12
428.069	106.12
428.292	86.12
428.514	92.12
428.736	80.12
428.958	69.12
429.181	80.12
429.403	79.12
429.625	67.12
429.847	83.12
430.069	115.12
430.292	95.12
430.514	87.12
430.736	98.12
430.958	86.12
431.18	88.12
431.402	74.12
431.624	84.12
431.846	80.12
432.068	87.12
432.29	86.12
432.512	81.12
432.734	88.12
432.956	85.12
433.178	88.12
433.4	96.12
433.622	88.12
433.844	88.12
434.066	84.12
434.287	84.12
434.509	77.12
434.731	77.12
434.953	75.12
435.175	82.12
435.397	83.12
435.618	90.12
435.84	96.12
436.062	113.12
436.284	123.12
436.505	105.12
436.727	88.12
436.949	82.12
437.17	95.12
437.392	79.12
437.614	81.12
437.835	100.12
438.057	95.12
438.278	98.12
438.5	101.12
438.721	107.12
438.943	96.12
439.165	91.12
439.386	72.12
439.608	90.12
439.829	89.12
440.05	118.12
440.272	112.12
440.493	86.12
440.715	72.12
440.936	81.12
441.158	70.12
441.379	72.12
441.6	85.12
441.822	83.12
442.043	87.12
442.264	108.12
442.486	84.12
442.707	76.12
442.928	100.12
443.149	105.12
443.371	103.12
443.592	107.12
443.813	112.12
444.034	103.12
444.255	92.12
444.476	90.12
444.698	96.12
444.919	81.12
445.14	137.12
445.361	118.12
445.582	94.12
445.803	136.12
446.024	125.12
446.245	128.12
446.466	98.12
446.687	91.12
446.908	75.12
447.129	100.12
447.35	92.12
447.571	87.12
447.792	96.12
448.013	90.12
448.234	103.12
448.455	93.12
448.675	107.12
448.896	118.12
449.117	93.12
449.338	106.12
449.559	115.12
449.779	116.12
450	95.12
450.221	87.12
450.442	76.12
450.662	98.12
450.883	85.12
451.104	113.12
451.324	86.12
451.545	72.12
451.766	67.12
451.986	73.12
452.207	96.12
452.428	101.12
452.648	106.12
452.869	96.12
453.089	96.12
453.31	106.12
453.53	82.12
453.751	91.12
453.971	112.12
454.192	107.12
454.412	91.12
454.633	89.12
454.853	102.12
455.073	84.12
455.294	83.12
455.514	89.12
455.734	79.12
455.955	81.12
456.175	89.12
456.395	72.12
456.616	83.12
456.836	84.12
457.056	84.12
457.276	89.12
457.497	108.12
457.717	88.12
457.937	76.12
458.157	97.12
458.377	87.12
458.598	96.12
458.818	132.12
459.038	134.12
459.258	98.12
459.478	92.12
459.698	80.12
459.918	92.12
460.138	86.12
460.358	95.12
460.578	86.12
460.798	79.12
461.018	98.12
461.238	82.12
461.458	91.12
461.678	85.12
461.898	89.12
462.118	95.12
462.338	85.12
462.558	84.12
462.777	84.12
462.997	84.12
463.217	79.12
463.437	71.12
463.657	81.12
463.876	89.12
464.096	98.12
464.316	87.12
464.536	81.12
464.755	95.12
464.975	108.12
465.195	142.12
465.414	137.12
465.634	96.12
465.854	97.12
466.073	91.12
466.293	92.12
466.512	104.12
466.732	90.12
466.951	102.12
467.171	86.12
467.391	98.12
467.61	95.12
467.829	88.12
468.049	103.12
468.268	99.12
468.488	76.12
468.707	84.12
468.927	87.12
469.146	80.12
469.365	80.12
469.585	83.12
469.804	87.12
470.023	101.12
470.243	83.12
470.462	98.12
470.681	115.12
470.901	87.12
471.12	83.12
471.339	89.12
471.558	89.12
471.777	100.12
471.997	104.12
472.216	101.12
472.435	135.12
472.654	90.12
472.873	89.12
473.092	90.12
473.311	97.12
473.53	91.12
473.749	85.12
473.968	100.12
474.187	101.12
474.406	101.12
474.625	89.12
474.844	89.12
475.063	82.12
475.282	85.12
475.501	76.12
475.72	73.12
475.939	89.12
476.158	71.12
476.377	99.12
476.596	88.12
476.814	82.12
477.033	91.12
477.252	86.12
477.471	87.12
477.69	98.12
477.908	80.12
478.127	85.12
478.346	82.12
478.564	86.12
478.783	90.12
479.002	99.12
479.22	102.12
479.439	95.12
479.658	97.12
479.876	85.12
480.095	77.12
480.313	103.12
480.532	95.12
480.751	105.12
480.969	101.12
481.188	184.12
481.406	147.12
481.624	90.12
481.843	84.12
482.061	82.12
482.28	96.12
482.498	83.12
482.717	99.12
482.935	89.12
483.153	95.12
483.372	86.12
483.59	89.12
483.808	88.12
484.027	92.12
484.245	111.12
484.463	91.12
484.681	102.12
484.9	89.12
485.118	89.12
485.336	93.12
485.554	100.12
485.772	95.12
485.99	100.12
486.209	100.12
486.427	109.12
486.645	119.12
486.863	109.12
487.081	105.12
487.299	91.12
487.517	94.12
487.735	79.12
487.953	99.12
488.171	99.12
488.389	105.12
488.607	85.12
488.825	86.12
489.043	96.12
489.261	84.12
489.479	91.12
489.696	95.12
489.914	87.12
490.132	75.12
490.35	85.12
490.568	81.12
490.786	85.12
491.003	82.12
491.221	95.12
491.439	86.12
491.657	90.12
491.874	85.12
492.092	83.12
492.31	82.12
492.527	76.12
492.745	84.12
492.963	83.12
493.18	92.12
493.398	94.12
493.615	108.12
493.833	100.12
494.05	87.12
494.268	104.12
494.485	103.12
494.703	73.12
494.92	90.12
495.138	79.12
495.355	85.12
495.573	72.12
495.79	85.12
496.008	97.12
496.225	95.12
496.442	94.12
496.66	85.12
496.877	92.12
497.094	78.12
497.312	91.12
497.529	94.12
497.746	90.12
497.963	96.12
498.181	102.12
498.398	108.12
498.615	102.12
498.832	92.12
499.049	95.12
499.267	83.12
499.484	76.12
499.701	80.12
499.918	77.12
500.135	86.12
500.352	109.12
500.569	84.12
500.786	88.12
501.003	79.12
501.22	72.12
501.437	96.12
501.654	96.12
501.871	96.12
502.088	100.12
502.305	102.12
502.522	84.12
502.739	88.12
502.956	84.12
503.172	84.12
503.389	87.12
503.606	107.12
503.823	85.12
504.04	90.12
504.256	76.12
504.473	85.12
504.69	91.12
504.907	105.12
505.123	101.12
505.34	87.12
505.557	79.12
505.773	96.12
505.99	87.12
506.207	86.12
506.423	87.12
506.64	92.12
506.856	100.12
507.073	104.12
507.289	86.12
507.506	105.12
507.722	114.12
507.939	111.12
508.155	96.12
508.372	95.12
508.588	80.12
508.805	103.12
509.021	100.12
509.238	85.12
509.454	98.12
509.67	100.12
509.887	116.12
510.103	130.12
510.319	194.12
510.536	708.12
510.752	2150.12
510.968	595.12
511.184	148.12
511.401	117.12
511.617	107.12
511.833	89.12
512.049	97.12
512.265	87.12
512.481	81.12
512.698	97.12
512.914	82.12
513.13	97.12
513.346	87.12
513.562	91.12
513.778	83.12
513.994	88.12
514.21	97.12
514.426	104.12
514.642	102.12
514.858	122.12
515.074	151.12
515.29	366.12
515.506	1263.12
515.721	440.12
515.937	146.12
516.153	103.12
516.369	90.12
516.585	84.12
