Data from Uncirc_1980_H10_HRD10591_00056.txt Node
Date: Wed Jan 03 12:37:06 EST 2024
User: Yrep
Spectrometer: HR+D1059
Trigger mode: 1
Integration Time (sec): 1.000000E-1
Scans to average: 1
Electric dark correction enabled: true
Nonlinearity correction enabled: false
Boxcar width: 0
XAxis mode: Wavelengths
Number of Pixels in Spectrum: 2048
>>>>>Begin Spectral Data<<<<<
223.165	-6.19
223.4	-6.19
223.635	-6.19
223.869	-18.19
224.104	-20.19
224.338	-17.19
224.573	-20.19
224.808	-16.19
225.042	-8.19
225.277	6.81
225.511	0.81
225.746	-6.19
225.98	10.81
226.215	5.81
226.449	25.81
226.683	5.81
226.918	24.81
227.152	31.81
227.387	36.81
227.621	40.81
227.856	56.81
228.09	37.81
228.324	45.81
228.559	53.81
228.793	48.81
229.027	67.81
229.262	54.81
229.496	58.81
229.73	82.81
229.964	74.81
230.199	82.81
230.433	75.81
230.667	86.81
230.901	68.81
231.136	76.81
231.37	75.81
231.604	79.81
231.838	80.81
232.072	77.81
232.306	79.81
232.541	82.81
232.775	84.81
233.009	78.81
233.243	92.81
233.477	84.81
233.711	73.81
233.945	72.81
234.179	79.81
234.413	84.81
234.647	75.81
234.881	81.81
235.115	74.81
235.349	77.81
235.583	70.81
235.817	83.81
236.051	69.81
236.285	86.81
236.519	80.81
236.753	64.81
236.987	89.81
237.221	87.81
237.455	76.81
237.689	70.81
237.922	66.81
238.156	92.81
238.39	84.81
238.624	77.81
238.858	72.81
239.091	82.81
239.325	73.81
239.559	71.81
239.793	69.81
240.027	86.81
240.26	82.81
240.494	73.81
240.728	82.81
240.961	73.81
241.195	76.81
241.429	84.81
241.662	66.81
241.896	71.81
242.13	92.81
242.363	70.81
242.597	86.81
242.83	88.81
243.064	66.81
243.298	84.81
243.531	70.81
243.765	76.81
243.998	89.81
244.232	83.81
244.465	75.81
244.699	99.81
244.932	74.81
245.166	83.81
245.399	90.81
245.633	71.81
245.866	74.81
246.099	75.81
246.333	80.81
246.566	87.81
246.8	90.81
247.033	76.81
247.266	82.81
247.5	82.81
247.733	76.81
247.966	80.81
248.2	84.81
248.433	103.81
248.666	79.81
248.899	98.81
249.133	88.81
249.366	90.81
249.599	98.81
249.832	76.81
250.066	82.81
250.299	73.81
250.532	78.81
250.765	82.81
250.998	95.81
251.231	82.81
251.465	49.81
251.698	73.81
251.931	77.81
252.164	79.81
252.397	87.81
252.63	77.81
252.863	68.81
253.096	78.81
253.329	66.81
253.562	88.81
253.795	87.81
254.028	79.81
254.261	83.81
254.494	80.81
254.727	86.81
254.96	84.81
255.193	86.81
255.426	85.81
255.659	82.81
255.892	83.81
256.124	86.81
256.357	93.81
256.59	69.81
256.823	87.81
257.056	84.81
257.289	85.81
257.521	80.81
257.754	76.81
257.987	75.81
258.22	83.81
258.452	78.81
258.685	86.81
258.918	91.81
259.151	67.81
259.383	66.81
259.616	79.81
259.849	82.81
260.081	86.81
260.314	84.81
260.547	82.81
260.779	85.81
261.012	87.81
261.244	82.81
261.477	78.81
261.71	90.81
261.942	96.81
262.175	117.81
262.407	100.81
262.64	88.81
262.872	77.81
263.105	80.81
263.337	92.81
263.57	92.81
263.802	85.81
264.035	80.81
264.267	87.81
264.499	84.81
264.732	86.81
264.964	91.81
265.197	86.81
265.429	83.81
265.661	91.81
265.894	100.81
266.126	92.81
266.358	73.81
266.591	87.81
266.823	76.81
267.055	88.81
267.287	90.81
267.52	79.81
267.752	70.81
267.984	77.81
268.216	84.81
268.448	76.81
268.681	102.81
268.913	96.81
269.145	90.81
269.377	79.81
269.609	82.81
269.841	85.81
270.073	88.81
270.306	96.81
270.538	80.81
270.77	95.81
271.002	80.81
271.234	88.81
271.466	100.81
271.698	87.81
271.93	90.81
272.162	78.81
272.394	85.81
272.626	80.81
272.858	93.81
273.09	98.81
273.322	93.81
273.553	80.81
273.785	78.81
274.017	85.81
274.249	92.81
274.481	76.81
274.713	98.81
274.945	101.81
275.176	94.81
275.408	94.81
275.64	83.81
275.872	84.81
276.104	78.81
276.335	95.81
276.567	101.81
276.799	118.81
277.031	91.81
277.262	96.81
277.494	85.81
277.726	82.81
277.957	82.81
278.189	80.81
278.421	71.81
278.652	91.81
278.884	88.81
279.115	102.81
279.347	83.81
279.579	86.81
279.81	89.81
280.042	93.81
280.273	84.81
280.505	71.81
280.736	96.81
280.968	97.81
281.199	82.81
281.431	88.81
281.662	96.81
281.894	88.81
282.125	95.81
282.356	102.81
282.588	117.81
282.819	112.81
283.051	90.81
283.282	96.81
283.513	104.81
283.745	91.81
283.976	82.81
284.207	106.81
284.439	71.81
284.67	76.81
284.901	85.81
285.132	99.81
285.364	102.81
285.595	87.81
285.826	70.81
286.057	74.81
286.288	99.81
286.52	77.81
286.751	86.81
286.982	88.81
287.213	87.81
287.444	91.81
287.675	89.81
287.906	91.81
288.138	75.81
288.369	91.81
288.6	78.81
288.831	86.81
289.062	87.81
289.293	86.81
289.524	86.81
289.755	82.81
289.986	89.81
290.217	84.81
290.448	97.81
290.679	92.81
290.91	74.81
291.141	89.81
291.371	99.81
291.602	93.81
291.833	77.81
292.064	75.81
292.295	107.81
292.526	95.81
292.757	103.81
292.987	93.81
293.218	95.81
293.449	93.81
293.68	88.81
293.91	95.81
294.141	78.81
294.372	92.81
294.603	95.81
294.833	77.81
295.064	91.81
295.295	88.81
295.525	88.81
295.756	113.81
295.987	104.81
296.217	119.81
296.448	109.81
296.679	87.81
296.909	84.81
297.14	82.81
297.37	98.81
297.601	75.81
297.831	88.81
298.062	93.81
298.292	89.81
298.523	82.81
298.753	74.81
298.984	85.81
299.214	77.81
299.445	83.81
299.675	84.81
299.905	101.81
300.136	95.81
300.366	92.81
300.597	78.81
300.827	82.81
301.057	86.81
301.288	109.81
301.518	98.81
301.748	87.81
301.979	112.81
302.209	90.81
302.439	91.81
302.669	98.81
302.9	91.81
303.13	106.81
303.36	90.81
303.59	87.81
303.82	101.81
304.051	92.81
304.281	94.81
304.511	87.81
304.741	83.81
304.971	76.81
305.201	100.81
305.431	99.81
305.661	90.81
305.891	91.81
306.121	83.81
306.352	84.81
306.582	87.81
306.812	84.81
307.042	98.81
307.272	93.81
307.502	94.81
307.731	108.81
307.961	95.81
308.191	92.81
308.421	85.81
308.651	95.81
308.881	90.81
309.111	94.81
309.341	88.81
309.571	95.81
309.8	92.81
310.03	97.81
310.26	98.81
310.49	103.81
310.72	102.81
310.949	88.81
311.179	99.81
311.409	90.81
311.639	98.81
311.868	90.81
312.098	97.81
312.328	91.81
312.557	96.81
312.787	110.81
313.017	85.81
313.246	104.81
313.476	90.81
313.706	87.81
313.935	107.81
314.165	100.81
314.394	94.81
314.624	97.81
314.853	110.81
315.083	86.81
315.312	98.81
315.542	93.81
315.771	85.81
316.001	99.81
316.23	95.81
316.46	101.81
316.689	88.81
316.919	95.81
317.148	90.81
317.377	88.81
317.607	111.81
317.836	88.81
318.065	82.81
318.295	100.81
318.524	101.81
318.753	102.81
318.983	82.81
319.212	86.81
319.441	98.81
319.67	87.81
319.9	94.81
320.129	92.81
320.358	78.81
320.587	103.81
320.816	84.81
321.046	88.81
321.275	94.81
321.504	95.81
321.733	95.81
321.962	112.81
322.191	90.81
322.42	95.81
322.649	104.81
322.878	103.81
323.108	106.81
323.337	112.81
323.566	115.81
323.795	118.81
324.024	162.81
324.253	300.81
324.482	564.81
324.71	1135.81
324.939	1458.81
325.168	552.81
325.397	185.81
325.626	122.81
325.855	111.81
326.084	116.81
326.313	107.81
326.542	112.81
326.77	182.81
326.999	325.81
327.228	626.81
327.457	1129.81
327.686	887.81
327.914	264.81
328.143	158.81
328.372	113.81
328.6	120.81
328.829	124.81
329.058	103.81
329.287	121.81
329.515	113.81
329.744	91.81
329.972	104.81
330.201	113.81
330.43	116.81
330.658	108.81
330.887	112.81
331.115	114.81
331.344	83.81
331.572	110.81
331.801	92.81
332.03	108.81
332.258	106.81
332.486	92.81
332.715	92.81
332.943	98.81
333.172	90.81
333.4	93.81
333.629	110.81
333.857	105.81
334.085	96.81
334.314	110.81
334.542	128.81
334.771	105.81
334.999	91.81
335.227	89.81
335.455	83.81
335.684	91.81
335.912	84.81
336.14	105.81
336.369	103.81
336.597	88.81
336.825	86.81
337.053	80.81
337.281	79.81
337.51	78.81
337.738	94.81
337.966	79.81
338.194	102.81
338.422	106.81
338.65	79.81
338.878	79.81
339.106	92.81
339.334	97.81
339.562	105.81
339.79	93.81
340.018	93.81
340.246	100.81
340.474	110.81
340.702	90.81
340.93	84.81
341.158	80.81
341.386	96.81
341.614	85.81
341.842	101.81
342.07	90.81
342.298	92.81
342.526	95.81
342.754	89.81
342.981	87.81
343.209	88.81
343.437	92.81
343.665	93.81
343.893	99.81
344.12	95.81
344.348	94.81
344.576	90.81
344.804	98.81
345.031	82.81
345.259	94.81
345.487	86.81
345.714	89.81
345.942	102.81
346.17	90.81
346.397	87.81
346.625	98.81
346.853	93.81
347.08	94.81
347.308	85.81
347.535	104.81
347.763	99.81
347.99	99.81
348.218	101.81
348.445	104.81
348.673	96.81
348.9	88.81
349.128	90.81
349.355	99.81
349.583	73.81
349.81	90.81
350.037	89.81
350.265	98.81
350.492	87.81
350.72	100.81
350.947	110.81
351.174	94.81
351.402	93.81
351.629	91.81
351.856	101.81
352.083	95.81
352.311	111.81
352.538	120.81
352.765	105.81
352.992	104.81
353.22	107.81
353.447	113.81
353.674	104.81
353.901	88.81
354.128	103.81
354.355	107.81
354.583	86.81
354.81	88.81
355.037	96.81
355.264	87.81
355.491	92.81
355.718	88.81
355.945	82.81
356.172	93.81
356.399	100.81
356.626	104.81
356.853	108.81
357.08	101.81
357.307	98.81
357.534	99.81
357.761	107.81
357.988	86.81
358.215	99.81
358.441	89.81
358.668	86.81
358.895	103.81
359.122	80.81
359.349	98.81
359.576	109.81
359.802	107.81
360.029	98.81
360.256	91.81
360.483	86.81
360.709	97.81
360.936	103.81
361.163	91.81
361.39	93.81
361.616	91.81
361.843	91.81
362.07	99.81
362.296	98.81
362.523	106.81
362.749	96.81
362.976	110.81
363.203	92.81
363.429	89.81
363.656	78.81
363.882	91.81
364.109	100.81
364.335	97.81
364.562	90.81
364.788	86.81
365.015	88.81
365.241	92.81
365.468	103.81
365.694	96.81
365.92	98.81
366.147	97.81
366.373	94.81
366.599	107.81
366.826	87.81
367.052	94.81
367.278	83.81
367.505	94.81
367.731	98.81
367.957	89.81
368.184	86.81
368.41	91.81
368.636	107.81
368.862	100.81
369.089	99.81
369.315	87.81
369.541	89.81
369.767	91.81
369.993	104.81
370.219	100.81
370.445	98.81
370.672	92.81
370.898	88.81
371.124	78.81
371.35	75.81
371.576	91.81
371.802	86.81
372.028	103.81
372.254	90.81
372.48	68.81
372.706	88.81
372.932	88.81
373.158	91.81
373.384	111.81
373.61	92.81
373.835	71.81
374.061	75.81
374.287	96.81
374.513	94.81
374.739	90.81
374.965	100.81
375.191	91.81
375.416	88.81
375.642	87.81
375.868	98.81
376.094	73.81
376.319	96.81
376.545	90.81
376.771	102.81
376.997	76.81
377.222	88.81
377.448	112.81
377.674	91.81
377.899	100.81
378.125	85.81
378.35	89.81
378.576	90.81
378.802	99.81
379.027	89.81
379.253	102.81
379.478	91.81
379.704	92.81
379.929	103.81
380.155	103.81
380.38	101.81
380.606	90.81
380.831	76.81
381.057	80.81
381.282	86.81
381.507	97.81
381.733	102.81
381.958	111.81
382.184	97.81
382.409	104.81
382.634	93.81
382.86	105.81
383.085	103.81
383.31	95.81
383.535	96.81
383.761	102.81
383.986	96.81
384.211	100.81
384.436	93.81
384.662	103.81
384.887	101.81
385.112	109.81
385.337	110.81
385.562	109.81
385.787	108.81
386.013	119.81
386.238	108.81
386.463	115.81
386.688	111.81
386.913	124.81
387.138	106.81
387.363	109.81
387.588	107.81
387.813	104.81
388.038	106.81
388.263	103.81
388.488	103.81
388.713	112.81
388.938	90.81
389.163	102.81
389.387	93.81
389.612	98.81
389.837	103.81
390.062	104.81
390.287	86.81
390.512	95.81
390.736	105.81
390.961	95.81
391.186	100.81
391.411	86.81
391.636	104.81
391.86	84.81
392.085	90.81
392.31	101.81
392.534	80.81
392.759	91.81
392.984	79.81
393.208	89.81
393.433	86.81
393.658	101.81
393.882	102.81
394.107	83.81
394.331	83.81
394.556	75.81
394.78	93.81
395.005	91.81
395.229	78.81
395.454	92.81
395.678	75.81
395.903	102.81
396.127	87.81
396.352	87.81
396.576	74.81
396.801	86.81
397.025	80.81
397.249	87.81
397.474	96.81
397.698	92.81
397.922	77.81
398.147	94.81
398.371	77.81
398.595	90.81
398.82	79.81
399.044	90.81
399.268	84.81
399.492	82.81
399.717	90.81
399.941	92.81
400.165	101.81
400.389	94.81
400.613	74.81
400.837	86.81
401.062	90.81
401.286	85.81
401.51	81.81
401.734	99.81
401.958	89.81
402.182	116.81
402.406	130.81
402.63	103.81
402.854	87.81
403.078	86.81
403.302	86.81
403.526	93.81
403.75	99.81
403.974	88.81
404.198	78.81
404.422	87.81
404.645	80.81
404.869	92.81
405.093	88.81
405.317	81.81
405.541	106.81
405.765	98.81
405.988	92.81
406.212	122.81
406.436	166.81
406.66	119.81
406.883	86.81
407.107	80.81
407.331	95.81
407.555	95.81
407.778	94.81
408.002	97.81
408.226	91.81
408.449	78.81
408.673	79.81
408.896	91.81
409.12	88.81
409.344	87.81
409.567	93.81
409.791	92.81
410.014	105.81
410.238	81.81
410.461	82.81
410.685	87.81
410.908	96.81
411.132	103.81
411.355	92.81
411.578	84.81
411.802	88.81
412.025	97.81
412.249	94.81
412.472	95.81
412.695	95.81
412.919	106.81
413.142	93.81
413.365	106.81
413.589	79.81
413.812	87.81
414.035	76.81
414.258	90.81
414.482	83.81
414.705	87.81
414.928	92.81
415.151	84.81
415.374	87.81
415.597	89.81
415.821	78.81
416.044	88.81
416.267	90.81
416.49	92.81
416.713	95.81
416.936	100.81
417.159	84.81
417.382	90.81
417.605	91.81
417.828	105.81
418.051	95.81
418.274	74.81
418.497	88.81
418.72	77.81
418.943	86.81
419.166	83.81
419.389	87.81
419.611	88.81
419.834	91.81
420.057	90.81
420.28	86.81
420.503	98.81
420.726	82.81
420.948	83.81
421.171	90.81
421.394	85.81
421.617	81.81
421.839	96.81
422.062	90.81
422.285	79.81
422.507	92.81
422.73	94.81
422.953	91.81
423.175	87.81
423.398	89.81
423.621	88.81
423.843	94.81
424.066	96.81
424.288	89.81
424.511	86.81
424.733	98.81
424.956	110.81
425.178	101.81
425.401	106.81
425.623	82.81
425.846	101.81
426.068	85.81
426.291	77.81
426.513	88.81
426.735	75.81
426.958	106.81
427.18	98.81
427.402	115.81
427.625	146.81
427.847	126.81
428.069	111.81
428.292	103.81
428.514	83.81
428.736	89.81
428.958	94.81
429.181	83.81
429.403	67.81
429.625	88.81
429.847	96.81
430.069	99.81
430.292	88.81
430.514	90.81
430.736	96.81
430.958	79.81
431.18	91.81
431.402	77.81
431.624	74.81
431.846	105.81
432.068	72.81
432.29	81.81
432.512	89.81
432.734	99.81
432.956	87.81
433.178	86.81
433.4	92.81
433.622	89.81
433.844	93.81
434.066	90.81
434.287	89.81
434.509	92.81
434.731	89.81
434.953	92.81
435.175	92.81
435.397	79.81
435.618	92.81
435.84	91.81
436.062	113.81
436.284	100.81
436.505	98.81
436.727	88.81
436.949	80.81
437.17	82.81
437.392	85.81
437.614	94.81
437.835	100.81
438.057	103.81
438.278	100.81
438.5	109.81
438.721	106.81
438.943	109.81
439.165	75.81
439.386	85.81
439.608	88.81
439.829	85.81
440.05	110.81
440.272	103.81
440.493	100.81
440.715	94.81
440.936	95.81
441.158	96.81
441.379	71.81
441.6	78.81
441.822	82.81
442.043	90.81
442.264	92.81
442.486	103.81
442.707	90.81
442.928	99.81
443.149	126.81
443.371	117.81
443.592	103.81
443.813	110.81
444.034	104.81
444.255	81.81
444.476	90.81
444.698	88.81
444.919	87.81
445.14	123.81
445.361	119.81
445.582	107.81
445.803	103.81
446.024	116.81
446.245	122.81
446.466	101.81
446.687	92.81
446.908	84.81
447.129	83.81
447.35	92.81
447.571	84.81
447.792	85.81
448.013	84.81
448.234	105.81
448.455	84.81
448.675	94.81
448.896	99.81
449.117	89.81
449.338	107.81
449.559	115.81
449.779	104.81
450	99.81
450.221	111.81
450.442	80.81
450.662	96.81
450.883	106.81
451.104	104.81
451.324	85.81
451.545	82.81
451.766	82.81
451.986	92.81
452.207	84.81
452.428	100.81
452.648	82.81
452.869	100.81
453.089	99.81
453.31	107.81
453.53	89.81
453.751	94.81
453.971	89.81
454.192	86.81
454.412	88.81
454.633	93.81
454.853	73.81
455.073	87.81
455.294	86.81
455.514	84.81
455.734	92.81
455.955	98.81
456.175	99.81
456.395	86.81
456.616	76.81
456.836	85.81
457.056	92.81
457.276	83.81
457.497	88.81
457.717	73.81
457.937	79.81
458.157	84.81
458.377	83.81
458.598	107.81
458.818	124.81
459.038	121.81
459.258	102.81
459.478	104.81
459.698	90.81
459.918	92.81
460.138	89.81
460.358	82.81
460.578	80.81
460.798	82.81
461.018	92.81
461.238	85.81
461.458	91.81
461.678	63.81
461.898	88.81
462.118	79.81
462.338	81.81
462.558	78.81
462.777	92.81
462.997	84.81
463.217	83.81
463.437	81.81
463.657	62.81
463.876	89.81
464.096	77.81
464.316	82.81
464.536	82.81
464.755	95.81
464.975	86.81
465.195	135.81
465.414	122.81
465.634	71.81
465.854	88.81
466.073	77.81
466.293	94.81
466.512	85.81
466.732	94.81
466.951	72.81
467.171	86.81
467.391	83.81
467.61	98.81
467.829	98.81
468.049	93.81
468.268	91.81
468.488	82.81
468.707	79.81
468.927	78.81
469.146	80.81
469.365	99.81
469.585	79.81
469.804	88.81
470.023	82.81
470.243	105.81
470.462	84.81
470.681	99.81
470.901	86.81
471.12	77.81
471.339	101.81
471.558	86.81
471.777	83.81
471.997	89.81
472.216	107.81
472.435	122.81
472.654	95.81
472.873	82.81
473.092	84.81
473.311	84.81
473.53	79.81
473.749	88.81
473.968	86.81
474.187	96.81
474.406	92.81
474.625	77.81
474.844	101.81
475.063	97.81
475.282	107.81
475.501	78.81
475.72	68.81
475.939	88.81
476.158	82.81
476.377	80.81
476.596	86.81
476.814	101.81
477.033	105.81
477.252	100.81
477.471	90.81
477.69	86.81
477.908	95.81
478.127	87.81
478.346	93.81
478.564	86.81
478.783	91.81
479.002	97.81
479.22	74.81
479.439	88.81
479.658	98.81
479.876	97.81
480.095	88.81
480.313	83.81
480.532	88.81
480.751	105.81
480.969	107.81
481.188	162.81
481.406	125.81
481.624	88.81
481.843	95.81
482.061	82.81
482.28	98.81
482.498	83.81
482.717	77.81
482.935	96.81
483.153	87.81
483.372	91.81
483.59	75.81
483.808	95.81
484.027	98.81
484.245	85.81
484.463	75.81
484.681	107.81
484.9	99.81
485.118	103.81
485.336	91.81
485.554	96.81
485.772	93.81
485.99	106.81
486.209	94.81
486.427	110.81
486.645	115.81
486.863	96.81
487.081	80.81
487.299	98.81
487.517	102.81
487.735	88.81
487.953	93.81
488.171	101.81
488.389	100.81
488.607	94.81
488.825	84.81
489.043	86.81
489.261	85.81
489.479	76.81
489.696	90.81
489.914	93.81
490.132	94.81
490.35	89.81
490.568	89.81
490.786	78.81
491.003	90.81
491.221	84.81
491.439	94.81
491.657	92.81
491.874	98.81
492.092	78.81
492.31	82.81
492.527	100.81
492.745	92.81
492.963	103.81
493.18	80.81
493.398	89.81
493.615	92.81
493.833	90.81
494.05	83.81
494.268	71.81
494.485	83.81
494.703	84.81
494.92	90.81
495.138	88.81
495.355	88.81
495.573	77.81
495.79	84.81
496.008	92.81
496.225	89.81
496.442	82.81
496.66	98.81
496.877	90.81
497.094	107.81
497.312	71.81
497.529	84.81
497.746	95.81
497.963	88.81
498.181	94.81
498.398	86.81
498.615	116.81
498.832	94.81
499.049	109.81
499.267	72.81
499.484	104.81
499.701	96.81
499.918	85.81
500.135	86.81
500.352	86.81
500.569	102.81
500.786	98.81
501.003	91.81
501.22	92.81
501.437	87.81
501.654	99.81
501.871	86.81
502.088	95.81
502.305	86.81
502.522	80.81
502.739	85.81
502.956	90.81
503.172	94.81
503.389	92.81
503.606	99.81
503.823	97.81
504.04	89.81
504.256	92.81
504.473	89.81
504.69	84.81
504.907	95.81
505.123	90.81
505.34	100.81
505.557	92.81
505.773	74.81
505.99	94.81
506.207	82.81
506.423	91.81
506.64	92.81
506.856	93.81
507.073	96.81
507.289	87.81
507.506	86.81
507.722	100.81
507.939	105.81
508.155	74.81
508.372	98.81
508.588	92.81
508.805	91.81
509.021	80.81
509.238	95.81
509.454	86.81
509.67	100.81
509.887	99.81
510.103	128.81
510.319	188.81
510.536	563.81
510.752	1671.81
510.968	500.81
511.184	122.81
511.401	104.81
511.617	94.81
511.833	78.81
512.049	83.81
512.265	102.81
512.481	99.81
512.698	98.81
512.914	105.81
513.13	99.81
513.346	96.81
513.562	81.81
513.778	95.81
513.994	102.81
514.21	95.81
514.426	99.81
514.642	128.81
514.858	113.81
515.074	133.81
515.29	320.81
515.506	984.81
515.721	352.81
515.937	127.81
