Data from Uncirc_1980_H10_HRD10591_00009.txt Node
Date: Wed Jan 03 12:36:57 EST 2024
User: Yrep
Spectrometer: HR+D1059
Trigger mode: 1
Integration Time (sec): 1.000000E-1
Scans to average: 1
Electric dark correction enabled: true
Nonlinearity correction enabled: false
Boxcar width: 0
XAxis mode: Wavelengths
Number of Pixels in Spectrum: 2048
>>>>>Begin Spectral Data<<<<<
223.165	-31.25
223.4	-31.25
223.635	-31.25
223.869	-10.25
224.104	-24.25
224.338	-7.25
224.573	0.75
224.808	-13.25
225.042	-12.25
225.277	-10.25
225.511	4.75
225.746	3.75
225.98	5.75
226.215	-4.25
226.449	19.75
226.683	17.75
226.918	33.75
227.152	26.75
227.387	30.75
227.621	42.75
227.856	35.75
228.09	35.75
228.324	49.75
228.559	44.75
228.793	51.75
229.027	58.75
229.262	46.75
229.496	62.75
229.73	73.75
229.964	89.75
230.199	79.75
230.433	70.75
230.667	78.75
230.901	79.75
231.136	70.75
231.37	65.75
231.604	76.75
231.838	64.75
232.072	63.75
232.306	83.75
232.541	79.75
232.775	82.75
233.009	82.75
233.243	78.75
233.477	75.75
233.711	66.75
233.945	74.75
234.179	94.75
234.413	80.75
234.647	76.75
234.881	80.75
235.115	90.75
235.349	81.75
235.583	69.75
235.817	69.75
236.051	70.75
236.285	84.75
236.519	75.75
236.753	68.75
236.987	82.75
237.221	69.75
237.455	70.75
237.689	64.75
237.922	61.75
238.156	69.75
238.39	68.75
238.624	79.75
238.858	68.75
239.091	60.75
239.325	73.75
239.559	94.75
239.793	70.75
240.027	66.75
240.26	54.75
240.494	73.75
240.728	88.75
240.961	68.75
241.195	60.75
241.429	82.75
241.662	64.75
241.896	76.75
242.13	74.75
242.363	79.75
242.597	82.75
242.83	88.75
243.064	77.75
243.298	68.75
243.531	82.75
243.765	64.75
243.998	69.75
244.232	68.75
244.465	75.75
244.699	70.75
244.932	75.75
245.166	80.75
245.399	84.75
245.633	76.75
245.866	73.75
246.099	72.75
246.333	73.75
246.566	75.75
246.8	72.75
247.033	75.75
247.266	86.75
247.5	85.75
247.733	79.75
247.966	86.75
248.2	83.75
248.433	84.75
248.666	73.75
248.899	84.75
249.133	82.75
249.366	88.75
249.599	73.75
249.832	62.75
250.066	71.75
250.299	71.75
250.532	79.75
250.765	67.75
250.998	85.75
251.231	81.75
251.465	83.75
251.698	79.75
251.931	88.75
252.164	74.75
252.397	87.75
252.63	78.75
252.863	86.75
253.096	85.75
253.329	79.75
253.562	67.75
253.795	67.75
254.028	81.75
254.261	78.75
254.494	72.75
254.727	74.75
254.96	89.75
255.193	82.75
255.426	76.75
255.659	75.75
255.892	85.75
256.124	66.75
256.357	80.75
256.59	73.75
256.823	90.75
257.056	76.75
257.289	72.75
257.521	64.75
257.754	79.75
257.987	81.75
258.22	76.75
258.452	83.75
258.685	75.75
258.918	89.75
259.151	89.75
259.383	96.75
259.616	82.75
259.849	70.75
260.081	67.75
260.314	73.75
260.547	85.75
260.779	73.75
261.012	72.75
261.244	87.75
261.477	83.75
261.71	85.75
261.942	81.75
262.175	91.75
262.407	80.75
262.64	97.75
262.872	76.75
263.105	71.75
263.337	87.75
263.57	73.75
263.802	78.75
264.035	82.75
264.267	75.75
264.499	84.75
264.732	90.75
264.964	85.75
265.197	80.75
265.429	90.75
265.661	88.75
265.894	82.75
266.126	73.75
266.358	86.75
266.591	78.75
266.823	68.75
267.055	96.75
267.287	78.75
267.52	87.75
267.752	84.75
267.984	74.75
268.216	82.75
268.448	68.75
268.681	79.75
268.913	90.75
269.145	64.75
269.377	98.75
269.609	79.75
269.841	72.75
270.073	87.75
270.306	90.75
270.538	78.75
270.77	96.75
271.002	73.75
271.234	77.75
271.466	81.75
271.698	84.75
271.93	68.75
272.162	88.75
272.394	91.75
272.626	81.75
272.858	75.75
273.09	88.75
273.322	91.75
273.553	74.75
273.785	78.75
274.017	88.75
274.249	83.75
274.481	82.75
274.713	71.75
274.945	82.75
275.176	86.75
275.408	75.75
275.64	91.75
275.872	72.75
276.104	80.75
276.335	94.75
276.567	102.75
276.799	96.75
277.031	82.75
277.262	94.75
277.494	64.75
277.726	87.75
277.957	92.75
278.189	75.75
278.421	80.75
278.652	75.75
278.884	84.75
279.115	94.75
279.347	100.75
279.579	84.75
279.81	81.75
280.042	89.75
280.273	96.75
280.505	85.75
280.736	93.75
280.968	86.75
281.199	78.75
281.431	74.75
281.662	74.75
281.894	86.75
282.125	93.75
282.356	108.75
282.588	104.75
282.819	89.75
283.051	93.75
283.282	82.75
283.513	87.75
283.745	91.75
283.976	75.75
284.207	91.75
284.439	94.75
284.67	82.75
284.901	80.75
285.132	75.75
285.364	85.75
285.595	102.75
285.826	94.75
286.057	88.75
286.288	72.75
286.52	82.75
286.751	78.75
286.982	85.75
287.213	81.75
287.444	74.75
287.675	92.75
287.906	80.75
288.138	67.75
288.369	84.75
288.6	100.75
288.831	92.75
289.062	84.75
289.293	86.75
289.524	97.75
289.755	94.75
289.986	76.75
290.217	86.75
290.448	82.75
290.679	96.75
290.91	85.75
291.141	86.75
291.371	86.75
291.602	89.75
291.833	69.75
292.064	75.75
292.295	79.75
292.526	83.75
292.757	82.75
292.987	75.75
293.218	88.75
293.449	80.75
293.68	90.75
293.91	96.75
294.141	98.75
294.372	84.75
294.603	95.75
294.833	98.75
295.064	58.75
295.295	84.75
295.525	89.75
295.756	84.75
295.987	101.75
296.217	119.75
296.448	90.75
296.679	98.75
296.909	88.75
297.14	86.75
297.37	72.75
297.601	93.75
297.831	86.75
298.062	90.75
298.292	86.75
298.523	83.75
298.753	73.75
298.984	66.75
299.214	91.75
299.445	91.75
299.675	86.75
299.905	87.75
300.136	87.75
300.366	91.75
300.597	75.75
300.827	82.75
301.057	98.75
301.288	97.75
301.518	89.75
301.748	78.75
301.979	99.75
302.209	90.75
302.439	90.75
302.669	71.75
302.9	81.75
303.13	88.75
303.36	91.75
303.59	79.75
303.82	96.75
304.051	92.75
304.281	89.75
304.511	98.75
304.741	81.75
304.971	92.75
305.201	79.75
305.431	89.75
305.661	90.75
305.891	87.75
306.121	82.75
306.352	80.75
306.582	100.75
306.812	100.75
307.042	87.75
307.272	83.75
307.502	101.75
307.731	83.75
307.961	78.75
308.191	78.75
308.421	88.75
308.651	88.75
308.881	95.75
309.111	80.75
309.341	86.75
309.571	90.75
309.8	73.75
310.03	94.75
310.26	100.75
310.49	98.75
310.72	94.75
310.949	94.75
311.179	96.75
311.409	92.75
311.639	93.75
311.868	79.75
312.098	87.75
312.328	84.75
312.557	98.75
312.787	91.75
313.017	99.75
313.246	79.75
313.476	88.75
313.706	72.75
313.935	91.75
314.165	100.75
314.394	87.75
314.624	91.75
314.853	95.75
315.083	86.75
315.312	86.75
315.542	84.75
315.771	89.75
316.001	82.75
316.23	96.75
316.46	93.75
316.689	91.75
316.919	82.75
317.148	85.75
317.377	83.75
317.607	75.75
317.836	82.75
318.065	96.75
318.295	84.75
318.524	90.75
318.753	90.75
318.983	91.75
319.212	94.75
319.441	95.75
319.67	87.75
319.9	94.75
320.129	72.75
320.358	89.75
320.587	86.75
320.816	70.75
321.046	92.75
321.275	94.75
321.504	89.75
321.733	98.75
321.962	90.75
322.191	90.75
322.42	102.75
322.649	106.75
322.878	117.75
323.108	122.75
323.337	105.75
323.566	121.75
323.795	119.75
324.024	156.75
324.253	272.75
324.482	522.75
324.71	1025.75
324.939	1356.75
325.168	526.75
325.397	180.75
325.626	121.75
325.855	102.75
326.084	107.75
326.313	115.75
326.542	112.75
326.77	171.75
326.999	306.75
327.228	612.75
327.457	1032.75
327.686	838.75
327.914	273.75
328.143	145.75
328.372	124.75
328.6	104.75
328.829	97.75
329.058	89.75
329.287	104.75
329.515	99.75
329.744	96.75
329.972	87.75
330.201	99.75
330.43	110.75
330.658	102.75
330.887	106.75
331.115	89.75
331.344	75.75
331.572	110.75
331.801	69.75
332.03	78.75
332.258	97.75
332.486	91.75
332.715	91.75
332.943	92.75
333.172	100.75
333.4	92.75
333.629	100.75
333.857	91.75
334.085	95.75
334.314	105.75
334.542	108.75
334.771	105.75
334.999	94.75
335.227	96.75
335.455	68.75
335.684	96.75
335.912	89.75
336.14	79.75
336.369	104.75
336.597	99.75
336.825	93.75
337.053	95.75
337.281	82.75
337.51	87.75
337.738	105.75
337.966	74.75
338.194	84.75
338.422	88.75
338.65	97.75
338.878	90.75
339.106	96.75
339.334	86.75
339.562	85.75
339.79	83.75
340.018	78.75
340.246	78.75
340.474	97.75
340.702	101.75
340.93	76.75
341.158	82.75
341.386	92.75
341.614	103.75
341.842	88.75
342.07	86.75
342.298	82.75
342.526	89.75
342.754	90.75
342.981	81.75
343.209	83.75
343.437	90.75
343.665	88.75
343.893	87.75
344.12	75.75
344.348	103.75
344.576	78.75
344.804	96.75
345.031	80.75
345.259	92.75
345.487	82.75
345.714	92.75
345.942	98.75
346.17	87.75
346.397	85.75
346.625	101.75
346.853	86.75
347.08	98.75
347.308	91.75
347.535	91.75
347.763	90.75
347.99	89.75
348.218	94.75
348.445	76.75
348.673	94.75
348.9	102.75
349.128	87.75
349.355	87.75
349.583	98.75
349.81	93.75
350.037	91.75
350.265	93.75
350.492	94.75
350.72	95.75
350.947	94.75
351.174	104.75
351.402	117.75
351.629	96.75
351.856	91.75
352.083	88.75
352.311	91.75
352.538	98.75
352.765	92.75
352.992	112.75
353.22	90.75
353.447	100.75
353.674	105.75
353.901	101.75
354.128	87.75
354.355	85.75
354.583	96.75
354.81	88.75
355.037	99.75
355.264	98.75
355.491	88.75
355.718	98.75
355.945	84.75
356.172	95.75
356.399	99.75
356.626	82.75
356.853	104.75
357.08	80.75
357.307	85.75
357.534	101.75
357.761	94.75
357.988	92.75
358.215	97.75
358.441	102.75
358.668	106.75
358.895	107.75
359.122	102.75
359.349	87.75
359.576	91.75
359.802	86.75
360.029	92.75
360.256	76.75
360.483	92.75
360.709	83.75
360.936	92.75
361.163	86.75
361.39	87.75
361.616	83.75
361.843	88.75
362.07	89.75
362.296	76.75
362.523	98.75
362.749	84.75
362.976	95.75
363.203	81.75
363.429	83.75
363.656	73.75
363.882	105.75
364.109	83.75
364.335	78.75
364.562	88.75
364.788	83.75
365.015	92.75
365.241	87.75
365.468	99.75
365.694	86.75
365.92	92.75
366.147	81.75
366.373	82.75
366.599	97.75
366.826	84.75
367.052	88.75
367.278	90.75
367.505	85.75
367.731	76.75
367.957	82.75
368.184	94.75
368.41	88.75
368.636	91.75
368.862	110.75
369.089	98.75
369.315	91.75
369.541	83.75
369.767	78.75
369.993	91.75
370.219	82.75
370.445	64.75
370.672	104.75
370.898	87.75
371.124	88.75
371.35	78.75
371.576	92.75
371.802	88.75
372.028	75.75
372.254	89.75
372.48	98.75
372.706	89.75
372.932	91.75
373.158	97.75
373.384	89.75
373.61	108.75
373.835	88.75
374.061	90.75
374.287	90.75
374.513	96.75
374.739	88.75
374.965	96.75
375.191	95.75
375.416	97.75
375.642	94.75
375.868	106.75
376.094	85.75
376.319	82.75
376.545	97.75
376.771	99.75
376.997	101.75
377.222	99.75
377.448	102.75
377.674	88.75
377.899	89.75
378.125	103.75
378.35	86.75
378.576	89.75
378.802	92.75
379.027	93.75
379.253	88.75
379.478	103.75
379.704	81.75
379.929	82.75
380.155	88.75
380.38	106.75
380.606	92.75
380.831	94.75
381.057	106.75
381.282	109.75
381.507	102.75
381.733	98.75
381.958	106.75
382.184	86.75
382.409	107.75
382.634	111.75
382.86	110.75
383.085	106.75
383.31	118.75
383.535	117.75
383.761	105.75
383.986	112.75
384.211	115.75
384.436	112.75
384.662	117.75
384.887	121.75
385.112	120.75
385.337	132.75
385.562	128.75
385.787	117.75
386.013	130.75
386.238	132.75
386.463	130.75
386.688	127.75
386.913	142.75
387.138	124.75
387.363	111.75
387.588	115.75
387.813	108.75
388.038	113.75
388.263	158.75
388.488	144.75
388.713	102.75
388.938	94.75
389.163	94.75
389.387	88.75
389.612	99.75
389.837	94.75
390.062	90.75
390.287	109.75
390.512	100.75
390.736	89.75
390.961	92.75
391.186	89.75
391.411	84.75
391.636	91.75
391.86	82.75
392.085	92.75
392.31	86.75
392.534	79.75
392.759	88.75
392.984	82.75
393.208	82.75
393.433	90.75
393.658	85.75
393.882	81.75
394.107	88.75
394.331	90.75
394.556	78.75
394.78	72.75
395.005	106.75
395.229	86.75
395.454	90.75
395.678	86.75
395.903	92.75
396.127	79.75
396.352	86.75
396.576	82.75
396.801	87.75
397.025	83.75
397.249	95.75
397.474	103.75
397.698	79.75
397.922	75.75
398.147	80.75
398.371	86.75
398.595	90.75
398.82	90.75
399.044	83.75
399.268	83.75
399.492	94.75
399.717	80.75
399.941	81.75
400.165	97.75
400.389	92.75
400.613	90.75
400.837	93.75
401.062	83.75
401.286	91.75
401.51	92.75
401.734	101.75
401.958	95.75
402.182	105.75
402.406	114.75
402.63	74.75
402.854	92.75
403.078	80.75
403.302	86.75
403.526	99.75
403.75	90.75
403.974	81.75
404.198	89.75
404.422	82.75
404.645	87.75
404.869	84.75
405.093	98.75
405.317	87.75
405.541	84.75
405.765	86.75
405.988	95.75
406.212	125.75
406.436	152.75
406.66	108.75
406.883	88.75
407.107	89.75
407.331	88.75
407.555	92.75
407.778	90.75
408.002	99.75
408.226	80.75
408.449	78.75
408.673	97.75
408.896	106.75
409.12	98.75
409.344	104.75
409.567	91.75
409.791	83.75
410.014	84.75
410.238	76.75
410.461	87.75
410.685	111.75
410.908	104.75
411.132	93.75
411.355	91.75
411.578	86.75
411.802	87.75
412.025	86.75
412.249	89.75
412.472	75.75
412.695	87.75
412.919	91.75
413.142	90.75
413.365	86.75
413.589	81.75
413.812	90.75
414.035	85.75
414.258	92.75
414.482	87.75
414.705	77.75
414.928	94.75
415.151	95.75
415.374	98.75
415.597	99.75
415.821	85.75
416.044	84.75
416.267	91.75
416.49	89.75
416.713	85.75
416.936	103.75
417.159	90.75
417.382	88.75
417.605	86.75
417.828	84.75
418.051	89.75
418.274	90.75
418.497	75.75
418.72	80.75
418.943	90.75
419.166	85.75
419.389	88.75
419.611	83.75
419.834	94.75
420.057	81.75
420.28	84.75
420.503	105.75
420.726	103.75
420.948	89.75
421.171	92.75
421.394	82.75
421.617	97.75
421.839	98.75
422.062	88.75
422.285	88.75
422.507	107.75
422.73	90.75
422.953	96.75
423.175	88.75
423.398	79.75
423.621	82.75
423.843	88.75
424.066	69.75
424.288	87.75
424.511	97.75
424.733	79.75
424.956	93.75
425.178	87.75
425.401	88.75
425.623	84.75
425.846	82.75
426.068	94.75
426.291	89.75
426.513	86.75
426.735	88.75
426.958	76.75
427.18	90.75
427.402	101.75
427.625	117.75
427.847	109.75
428.069	85.75
428.292	75.75
428.514	90.75
428.736	74.75
428.958	88.75
429.181	63.75
429.403	86.75
429.625	62.75
429.847	86.75
430.069	96.75
430.292	97.75
430.514	82.75
430.736	97.75
430.958	84.75
431.18	79.75
431.402	75.75
431.624	85.75
431.846	91.75
432.068	92.75
432.29	87.75
432.512	81.75
432.734	79.75
432.956	74.75
433.178	82.75
433.4	101.75
433.622	93.75
433.844	92.75
434.066	95.75
434.287	84.75
434.509	95.75
434.731	81.75
434.953	86.75
435.175	86.75
435.397	81.75
435.618	94.75
435.84	100.75
436.062	88.75
436.284	96.75
436.505	90.75
436.727	80.75
436.949	91.75
437.17	72.75
437.392	101.75
437.614	97.75
437.835	88.75
438.057	97.75
438.278	94.75
438.5	108.75
438.721	99.75
438.943	101.75
439.165	99.75
439.386	79.75
439.608	87.75
439.829	80.75
440.05	99.75
440.272	116.75
440.493	98.75
440.715	99.75
440.936	75.75
441.158	82.75
441.379	78.75
441.6	73.75
441.822	89.75
442.043	88.75
442.264	95.75
442.486	82.75
442.707	95.75
442.928	87.75
443.149	103.75
443.371	98.75
443.592	86.75
443.813	85.75
444.034	110.75
444.255	88.75
444.476	87.75
444.698	93.75
444.919	79.75
445.14	123.75
445.361	114.75
445.582	90.75
445.803	112.75
446.024	113.75
446.245	104.75
446.466	102.75
446.687	86.75
446.908	81.75
447.129	94.75
447.35	73.75
447.571	87.75
447.792	85.75
448.013	90.75
448.234	95.75
448.455	81.75
448.675	83.75
448.896	94.75
449.117	92.75
449.338	84.75
449.559	108.75
449.779	115.75
450	90.75
450.221	87.75
450.442	88.75
450.662	85.75
450.883	85.75
451.104	100.75
451.324	92.75
451.545	84.75
451.766	97.75
451.986	88.75
452.207	92.75
452.428	85.75
452.648	98.75
452.869	100.75
453.089	94.75
453.31	101.75
453.53	83.75
453.751	78.75
453.971	83.75
454.192	96.75
454.412	96.75
454.633	85.75
454.853	86.75
455.073	86.75
455.294	85.75
455.514	111.75
455.734	85.75
455.955	84.75
456.175	82.75
456.395	85.75
456.616	82.75
456.836	78.75
457.056	71.75
457.276	87.75
457.497	94.75
457.717	77.75
457.937	97.75
458.157	87.75
458.377	86.75
458.598	85.75
458.818	114.75
459.038	108.75
459.258	99.75
459.478	77.75
459.698	88.75
459.918	77.75
460.138	78.75
460.358	88.75
460.578	93.75
460.798	70.75
461.018	78.75
461.238	88.75
461.458	82.75
461.678	84.75
461.898	95.75
462.118	85.75
462.338	74.75
462.558	78.75
462.777	83.75
462.997	86.75
463.217	92.75
463.437	93.75
463.657	76.75
463.876	84.75
464.096	94.75
464.316	78.75
464.536	94.75
464.755	85.75
464.975	90.75
465.195	142.75
465.414	110.75
465.634	97.75
465.854	94.75
466.073	84.75
466.293	83.75
466.512	84.75
466.732	79.75
466.951	82.75
467.171	88.75
467.391	85.75
467.61	87.75
467.829	84.75
468.049	83.75
468.268	74.75
468.488	84.75
468.707	92.75
468.927	65.75
469.146	84.75
469.365	67.75
469.585	82.75
469.804	95.75
470.023	81.75
470.243	86.75
470.462	86.75
470.681	74.75
470.901	75.75
471.12	75.75
471.339	87.75
471.558	87.75
471.777	94.75
471.997	88.75
472.216	107.75
472.435	121.75
472.654	84.75
472.873	99.75
473.092	90.75
473.311	90.75
473.53	87.75
473.749	87.75
473.968	87.75
474.187	85.75
474.406	82.75
474.625	92.75
474.844	82.75
475.063	82.75
475.282	84.75
475.501	77.75
475.72	84.75
475.939	76.75
476.158	91.75
476.377	76.75
476.596	77.75
476.814	85.75
477.033	88.75
477.252	84.75
477.471	85.75
477.69	78.75
477.908	98.75
478.127	88.75
478.346	91.75
478.564	99.75
478.783	93.75
479.002	85.75
479.22	93.75
479.439	79.75
479.658	89.75
479.876	89.75
480.095	75.75
480.313	88.75
480.532	85.75
480.751	94.75
480.969	108.75
481.188	154.75
481.406	124.75
481.624	86.75
481.843	84.75
482.061	82.75
482.28	84.75
482.498	88.75
482.717	96.75
482.935	95.75
483.153	86.75
483.372	91.75
483.59	99.75
483.808	77.75
484.027	85.75
484.245	87.75
484.463	81.75
484.681	101.75
484.9	89.75
485.118	92.75
485.336	92.75
485.554	73.75
485.772	97.75
485.99	96.75
486.209	94.75
486.427	102.75
486.645	108.75
486.863	101.75
487.081	88.75
487.299	96.75
487.517	92.75
487.735	95.75
487.953	98.75
488.171	86.75
488.389	84.75
488.607	89.75
488.825	85.75
489.043	79.75
489.261	86.75
489.479	89.75
489.696	89.75
489.914	82.75
490.132	74.75
490.35	91.75
490.568	84.75
490.786	83.75
491.003	91.75
491.221	80.75
491.439	85.75
491.657	90.75
491.874	80.75
492.092	72.75
492.31	91.75
492.527	94.75
492.745	75.75
492.963	90.75
493.18	83.75
493.398	86.75
493.615	104.75
493.833	96.75
494.05	82.75
494.268	98.75
494.485	87.75
494.703	90.75
494.92	78.75
495.138	73.75
495.355	88.75
495.573	98.75
495.79	83.75
496.008	99.75
496.225	73.75
496.442	90.75
496.66	85.75
496.877	90.75
497.094	80.75
497.312	96.75
497.529	90.75
497.746	88.75
497.963	89.75
498.181	88.75
498.398	104.75
498.615	83.75
498.832	88.75
499.049	84.75
499.267	86.75
499.484	74.75
499.701	73.75
499.918	79.75
500.135	94.75
500.352	88.75
500.569	93.75
500.786	83.75
501.003	90.75
501.22	82.75
501.437	74.75
501.654	92.75
501.871	90.75
502.088	95.75
502.305	91.75
502.522	73.75
502.739	72.75
502.956	92.75
503.172	93.75
503.389	98.75
503.606	83.75
503.823	89.75
504.04	86.75
504.256	92.75
504.473	74.75
504.69	92.75
504.907	98.75
505.123	72.75
505.34	81.75
505.557	73.75
505.773	89.75
505.99	92.75
506.207	93.75
506.423	75.75
506.64	82.75
506.856	86.75
507.073	83.75
507.289	88.75
507.506	82.75
507.722	89.75
507.939	99.75
508.155	91.75
508.372	91.75
508.588	89.75
508.805	104.75
509.021	74.75
509.238	71.75
509.454	93.75
509.67	94.75
509.887	97.75
510.103	120.75
510.319	168.75
510.536	498.75
510.752	1430.75
510.968	421.75
511.184	122.75
511.401	94.75
511.617	90.75
511.833	86.75
512.049	73.75
512.265	95.75
512.481	76.75
512.698	97.75
512.914	86.75
513.13	90.75
513.346	94.75
513.562	96.75
513.778	86.75
513.994	89.75
514.21	98.75
514.426	81.75
514.642	107.75
514.858	87.75
515.074	123.75
515.29	274.75
515.506	803.75
515.721	295.75
515.937	118.75
516.153	94.75
516.369	84.75
516.585	84.75
516.801	85.75
517.016	94.75
517.232	83.75
517.448	87.75
