Data from Uncirc_1980_H10_HRD10591_00071.txt Node
Date: Wed Jan 03 12:37:09 EST 2024
User: Yrep
Spectrometer: HR+D1059
Trigger mode: 1
Integration Time (sec): 1.000000E-1
Scans to average: 1
Electric dark correction enabled: true
Nonlinearity correction enabled: false
Boxcar width: 0
XAxis mode: Wavelengths
Number of Pixels in Spectrum: 2048
>>>>>Begin Spectral Data<<<<<
223.165	-10.19
223.4	-10.19
223.635	-10.19
223.869	-20.19
224.104	-8.19
224.338	-29.19
224.573	-13.19
224.808	-6.19
225.042	2.81
225.277	-13.19
225.511	-13.19
225.746	5.81
225.98	18.81
226.215	13.81
226.449	7.81
226.683	14.81
226.918	28.81
227.152	20.81
227.387	29.81
227.621	32.81
227.856	49.81
228.09	51.81
228.324	62.81
228.559	42.81
228.793	56.81
229.027	69.81
229.262	62.81
229.496	58.81
229.73	76.81
229.964	69.81
230.199	73.81
230.433	66.81
230.667	90.81
230.901	83.81
231.136	85.81
231.37	79.81
231.604	74.81
231.838	86.81
232.072	96.81
232.306	83.81
232.541	81.81
232.775	95.81
233.009	86.81
233.243	90.81
233.477	87.81
233.711	91.81
233.945	76.81
234.179	82.81
234.413	90.81
234.647	91.81
234.881	92.81
235.115	66.81
235.349	96.81
235.583	82.81
235.817	69.81
236.051	90.81
236.285	80.81
236.519	85.81
236.753	85.81
236.987	72.81
237.221	94.81
237.455	82.81
237.689	94.81
237.922	77.81
238.156	90.81
238.39	85.81
238.624	70.81
238.858	71.81
239.091	94.81
239.325	79.81
239.559	82.81
239.793	75.81
240.027	79.81
240.26	83.81
240.494	67.81
240.728	82.81
240.961	84.81
241.195	75.81
241.429	80.81
241.662	62.81
241.896	72.81
242.13	73.81
242.363	82.81
242.597	63.81
242.83	78.81
243.064	70.81
243.298	79.81
243.531	93.81
243.765	81.81
243.998	83.81
244.232	87.81
244.465	92.81
244.699	96.81
244.932	87.81
245.166	80.81
245.399	80.81
245.633	85.81
245.866	79.81
246.099	74.81
246.333	72.81
246.566	82.81
246.8	63.81
247.033	85.81
247.266	84.81
247.5	80.81
247.733	76.81
247.966	74.81
248.2	70.81
248.433	83.81
248.666	76.81
248.899	94.81
249.133	94.81
249.366	95.81
249.599	99.81
249.832	86.81
250.066	82.81
250.299	74.81
250.532	73.81
250.765	75.81
250.998	84.81
251.231	85.81
251.465	79.81
251.698	82.81
251.931	84.81
252.164	86.81
252.397	75.81
252.63	84.81
252.863	79.81
253.096	78.81
253.329	85.81
253.562	74.81
253.795	94.81
254.028	82.81
254.261	76.81
254.494	96.81
254.727	92.81
254.96	75.81
255.193	79.81
255.426	75.81
255.659	74.81
255.892	80.81
256.124	83.81
256.357	73.81
256.59	68.81
256.823	80.81
257.056	67.81
257.289	92.81
257.521	84.81
257.754	79.81
257.987	82.81
258.22	69.81
258.452	86.81
258.685	82.81
258.918	84.81
259.151	84.81
259.383	89.81
259.616	78.81
259.849	76.81
260.081	74.81
260.314	78.81
260.547	68.81
260.779	73.81
261.012	78.81
261.244	92.81
261.477	105.81
261.71	96.81
261.942	118.81
262.175	111.81
262.407	76.81
262.64	83.81
262.872	90.81
263.105	88.81
263.337	66.81
263.57	83.81
263.802	106.81
264.035	86.81
264.267	84.81
264.499	85.81
264.732	73.81
264.964	89.81
265.197	89.81
265.429	79.81
265.661	80.81
265.894	77.81
266.126	79.81
266.358	83.81
266.591	84.81
266.823	89.81
267.055	70.81
267.287	76.81
267.52	75.81
267.752	64.81
267.984	94.81
268.216	86.81
268.448	77.81
268.681	80.81
268.913	86.81
269.145	77.81
269.377	86.81
269.609	86.81
269.841	83.81
270.073	90.81
270.306	74.81
270.538	75.81
270.77	87.81
271.002	86.81
271.234	82.81
271.466	86.81
271.698	91.81
271.93	95.81
272.162	100.81
272.394	87.81
272.626	74.81
272.858	85.81
273.09	82.81
273.322	95.81
273.553	96.81
273.785	92.81
274.017	84.81
274.249	86.81
274.481	94.81
274.713	98.81
274.945	91.81
275.176	90.81
275.408	92.81
275.64	85.81
275.872	86.81
276.104	92.81
276.335	99.81
276.567	96.81
276.799	91.81
277.031	109.81
277.262	97.81
277.494	93.81
277.726	91.81
277.957	86.81
278.189	85.81
278.421	91.81
278.652	77.81
278.884	84.81
279.115	78.81
279.347	83.81
279.579	92.81
279.81	88.81
280.042	88.81
280.273	83.81
280.505	86.81
280.736	72.81
280.968	86.81
281.199	90.81
281.431	84.81
281.662	96.81
281.894	99.81
282.125	106.81
282.356	110.81
282.588	139.81
282.819	113.81
283.051	81.81
283.282	99.81
283.513	103.81
283.745	72.81
283.976	94.81
284.207	93.81
284.439	91.81
284.67	90.81
284.901	87.81
285.132	94.81
285.364	88.81
285.595	83.81
285.826	93.81
286.057	94.81
286.288	93.81
286.52	80.81
286.751	84.81
286.982	96.81
287.213	82.81
287.444	91.81
287.675	90.81
287.906	92.81
288.138	101.81
288.369	77.81
288.6	88.81
288.831	93.81
289.062	92.81
289.293	87.81
289.524	88.81
289.755	90.81
289.986	80.81
290.217	74.81
290.448	89.81
290.679	80.81
290.91	87.81
291.141	90.81
291.371	79.81
291.602	88.81
291.833	79.81
292.064	78.81
292.295	87.81
292.526	99.81
292.757	78.81
292.987	96.81
293.218	92.81
293.449	90.81
293.68	82.81
293.91	73.81
294.141	93.81
294.372	91.81
294.603	91.81
294.833	92.81
295.064	82.81
295.295	94.81
295.525	75.81
295.756	101.81
295.987	107.81
296.217	126.81
296.448	107.81
296.679	84.81
296.909	102.81
297.14	96.81
297.37	100.81
297.601	98.81
297.831	96.81
298.062	92.81
298.292	91.81
298.523	86.81
298.753	99.81
298.984	86.81
299.214	86.81
299.445	100.81
299.675	94.81
299.905	90.81
300.136	101.81
300.366	100.81
300.597	99.81
300.827	100.81
301.057	99.81
301.288	101.81
301.518	86.81
301.748	88.81
301.979	102.81
302.209	97.81
302.439	99.81
302.669	73.81
302.9	77.81
303.13	98.81
303.36	97.81
303.59	116.81
303.82	116.81
304.051	98.81
304.281	97.81
304.511	109.81
304.741	98.81
304.971	92.81
305.201	105.81
305.431	98.81
305.661	90.81
305.891	84.81
306.121	103.81
306.352	109.81
306.582	100.81
306.812	100.81
307.042	95.81
307.272	92.81
307.502	99.81
307.731	88.81
307.961	91.81
308.191	86.81
308.421	87.81
308.651	102.81
308.881	90.81
309.111	94.81
309.341	90.81
309.571	80.81
309.8	98.81
310.03	82.81
310.26	95.81
310.49	91.81
310.72	103.81
310.949	92.81
311.179	104.81
311.409	97.81
311.639	101.81
311.868	96.81
312.098	104.81
312.328	106.81
312.557	107.81
312.787	105.81
313.017	98.81
313.246	99.81
313.476	87.81
313.706	95.81
313.935	92.81
314.165	102.81
314.394	98.81
314.624	88.81
314.853	95.81
315.083	97.81
315.312	88.81
315.542	84.81
315.771	107.81
316.001	83.81
316.23	88.81
316.46	85.81
316.689	96.81
316.919	104.81
317.148	98.81
317.377	94.81
317.607	99.81
317.836	72.81
318.065	79.81
318.295	96.81
318.524	95.81
318.753	103.81
318.983	90.81
319.212	116.81
319.441	105.81
319.67	99.81
319.9	106.81
320.129	90.81
320.358	99.81
320.587	102.81
320.816	96.81
321.046	106.81
321.275	94.81
321.504	100.81
321.733	102.81
321.962	117.81
322.191	88.81
322.42	106.81
322.649	94.81
322.878	112.81
323.108	94.81
323.337	111.81
323.566	118.81
323.795	130.81
324.024	186.81
324.253	324.81
324.482	643.81
324.71	1350.81
324.939	1795.81
325.168	677.81
325.397	215.81
325.626	152.81
325.855	127.81
326.084	111.81
326.313	114.81
326.542	139.81
326.77	219.81
326.999	363.81
327.228	751.81
327.457	1354.81
327.686	1112.81
327.914	325.81
328.143	183.81
328.372	148.81
328.6	113.81
328.829	119.81
329.058	113.81
329.287	122.81
329.515	101.81
329.744	100.81
329.972	110.81
330.201	99.81
330.43	124.81
330.658	124.81
330.887	129.81
331.115	126.81
331.344	96.81
331.572	91.81
331.801	81.81
332.03	103.81
332.258	90.81
332.486	98.81
332.715	87.81
332.943	109.81
333.172	102.81
333.4	107.81
333.629	104.81
333.857	99.81
334.085	100.81
334.314	118.81
334.542	122.81
334.771	126.81
334.999	103.81
335.227	101.81
335.455	84.81
335.684	87.81
335.912	84.81
336.14	92.81
336.369	105.81
336.597	86.81
336.825	86.81
337.053	93.81
337.281	90.81
337.51	86.81
337.738	89.81
337.966	96.81
338.194	95.81
338.422	78.81
338.65	97.81
338.878	100.81
339.106	105.81
339.334	106.81
339.562	105.81
339.79	87.81
340.018	86.81
340.246	79.81
340.474	92.81
340.702	98.81
340.93	90.81
341.158	106.81
341.386	100.81
341.614	90.81
341.842	83.81
342.07	95.81
342.298	92.81
342.526	85.81
342.754	88.81
342.981	78.81
343.209	91.81
343.437	104.81
343.665	94.81
343.893	99.81
344.12	86.81
344.348	82.81
344.576	87.81
344.804	95.81
345.031	95.81
345.259	87.81
345.487	93.81
345.714	109.81
345.942	106.81
346.17	88.81
346.397	76.81
346.625	86.81
346.853	97.81
347.08	95.81
347.308	91.81
347.535	103.81
347.763	90.81
347.99	99.81
348.218	102.81
348.445	102.81
348.673	109.81
348.9	98.81
349.128	107.81
349.355	100.81
349.583	100.81
349.81	95.81
350.037	84.81
350.265	98.81
350.492	92.81
350.72	94.81
350.947	111.81
351.174	107.81
351.402	104.81
351.629	88.81
351.856	104.81
352.083	99.81
352.311	115.81
352.538	115.81
352.765	94.81
352.992	107.81
353.22	103.81
353.447	108.81
353.674	104.81
353.901	89.81
354.128	97.81
354.355	107.81
354.583	93.81
354.81	93.81
355.037	92.81
355.264	95.81
355.491	99.81
355.718	90.81
355.945	103.81
356.172	86.81
356.399	94.81
356.626	95.81
356.853	90.81
357.08	108.81
357.307	98.81
357.534	99.81
357.761	83.81
357.988	89.81
358.215	93.81
358.441	106.81
358.668	80.81
358.895	102.81
359.122	93.81
359.349	89.81
359.576	96.81
359.802	98.81
360.029	104.81
360.256	103.81
360.483	82.81
360.709	88.81
360.936	95.81
361.163	98.81
361.39	84.81
361.616	92.81
361.843	86.81
362.07	87.81
362.296	100.81
362.523	95.81
362.749	107.81
362.976	102.81
363.203	101.81
363.429	81.81
363.656	86.81
363.882	87.81
364.109	98.81
364.335	91.81
364.562	92.81
364.788	98.81
365.015	90.81
365.241	108.81
365.468	105.81
365.694	85.81
365.92	86.81
366.147	86.81
366.373	84.81
366.599	84.81
366.826	91.81
367.052	94.81
367.278	89.81
367.505	102.81
367.731	78.81
367.957	99.81
368.184	96.81
368.41	104.81
368.636	105.81
368.862	104.81
369.089	95.81
369.315	91.81
369.541	99.81
369.767	79.81
369.993	98.81
370.219	97.81
370.445	88.81
370.672	92.81
370.898	85.81
371.124	94.81
371.35	88.81
371.576	99.81
371.802	84.81
372.028	90.81
372.254	87.81
372.48	87.81
372.706	85.81
372.932	86.81
373.158	95.81
373.384	79.81
373.61	90.81
373.835	89.81
374.061	82.81
374.287	101.81
374.513	102.81
374.739	92.81
374.965	102.81
375.191	93.81
375.416	95.81
375.642	90.81
375.868	98.81
376.094	87.81
376.319	84.81
376.545	75.81
376.771	86.81
376.997	102.81
377.222	87.81
377.448	101.81
377.674	84.81
377.899	98.81
378.125	102.81
378.35	103.81
378.576	89.81
378.802	95.81
379.027	94.81
379.253	80.81
379.478	94.81
379.704	91.81
379.929	96.81
380.155	101.81
380.38	102.81
380.606	90.81
380.831	100.81
381.057	86.81
381.282	95.81
381.507	94.81
381.733	79.81
381.958	94.81
382.184	90.81
382.409	98.81
382.634	107.81
382.86	103.81
383.085	109.81
383.31	103.81
383.535	105.81
383.761	102.81
383.986	90.81
384.211	94.81
384.436	108.81
384.662	110.81
384.887	104.81
385.112	116.81
385.337	91.81
385.562	103.81
385.787	102.81
386.013	94.81
386.238	114.81
386.463	108.81
386.688	123.81
386.913	109.81
387.138	115.81
387.363	102.81
387.588	89.81
387.813	110.81
388.038	94.81
388.263	104.81
388.488	102.81
388.713	101.81
388.938	94.81
389.163	91.81
389.387	92.81
389.612	106.81
389.837	111.81
390.062	90.81
390.287	90.81
390.512	91.81
390.736	85.81
390.961	88.81
391.186	106.81
391.411	85.81
391.636	85.81
391.86	84.81
392.085	79.81
392.31	87.81
392.534	75.81
392.759	97.81
392.984	97.81
393.208	86.81
393.433	91.81
393.658	74.81
393.882	95.81
394.107	90.81
394.331	92.81
394.556	79.81
394.78	96.81
395.005	92.81
395.229	88.81
395.454	94.81
395.678	92.81
395.903	94.81
396.127	100.81
396.352	84.81
396.576	91.81
396.801	95.81
397.025	89.81
397.249	86.81
397.474	78.81
397.698	86.81
397.922	84.81
398.147	79.81
398.371	92.81
398.595	85.81
398.82	78.81
399.044	82.81
399.268	88.81
399.492	89.81
399.717	108.81
399.941	109.81
400.165	85.81
400.389	91.81
400.613	86.81
400.837	91.81
401.062	106.81
401.286	80.81
401.51	93.81
401.734	86.81
401.958	94.81
402.182	108.81
402.406	141.81
402.63	117.81
402.854	86.81
403.078	87.81
403.302	83.81
403.526	98.81
403.75	83.81
403.974	99.81
404.198	82.81
404.422	89.81
404.645	83.81
404.869	87.81
405.093	97.81
405.317	104.81
405.541	92.81
405.765	92.81
405.988	103.81
406.212	160.81
406.436	189.81
406.66	142.81
406.883	95.81
407.107	87.81
407.331	100.81
407.555	92.81
407.778	94.81
408.002	91.81
408.226	96.81
408.449	84.81
408.673	84.81
408.896	96.81
409.12	99.81
409.344	74.81
409.567	82.81
409.791	99.81
410.014	97.81
410.238	102.81
410.461	87.81
410.685	85.81
410.908	95.81
411.132	112.81
411.355	99.81
411.578	94.81
411.802	79.81
412.025	103.81
412.249	88.81
412.472	103.81
412.695	94.81
412.919	84.81
413.142	73.81
413.365	90.81
413.589	88.81
413.812	96.81
414.035	90.81
414.258	81.81
414.482	95.81
414.705	87.81
414.928	88.81
415.151	85.81
415.374	90.81
415.597	89.81
415.821	95.81
416.044	98.81
416.267	84.81
416.49	86.81
416.713	88.81
416.936	87.81
417.159	82.81
417.382	78.81
417.605	106.81
417.828	85.81
418.051	94.81
418.274	91.81
418.497	90.81
418.72	91.81
418.943	99.81
419.166	87.81
419.389	90.81
419.611	88.81
419.834	87.81
420.057	88.81
420.28	83.81
420.503	103.81
420.726	86.81
420.948	95.81
421.171	93.81
421.394	108.81
421.617	98.81
421.839	100.81
422.062	104.81
422.285	97.81
422.507	110.81
422.73	104.81
422.953	104.81
423.175	88.81
423.398	75.81
423.621	102.81
423.843	96.81
424.066	92.81
424.288	93.81
424.511	89.81
424.733	95.81
424.956	114.81
425.178	102.81
425.401	100.81
425.623	102.81
425.846	93.81
426.068	102.81
426.291	103.81
426.513	94.81
426.735	100.81
426.958	88.81
427.18	100.81
427.402	118.81
427.625	133.81
427.847	113.81
428.069	112.81
428.292	86.81
428.514	85.81
428.736	79.81
428.958	89.81
429.181	86.81
429.403	87.81
429.625	83.81
429.847	107.81
430.069	99.81
430.292	109.81
430.514	86.81
430.736	79.81
430.958	98.81
431.18	80.81
431.402	82.81
431.624	88.81
431.846	85.81
432.068	99.81
432.29	94.81
432.512	87.81
432.734	89.81
432.956	91.81
433.178	100.81
433.4	109.81
433.622	98.81
433.844	92.81
434.066	99.81
434.287	100.81
434.509	98.81
434.731	94.81
434.953	104.81
435.175	75.81
435.397	93.81
435.618	100.81
435.84	98.81
436.062	107.81
436.284	118.81
436.505	96.81
436.727	96.81
436.949	80.81
437.17	84.81
437.392	72.81
437.614	85.81
437.835	100.81
438.057	116.81
438.278	100.81
438.5	111.81
438.721	116.81
438.943	102.81
439.165	96.81
439.386	84.81
439.608	99.81
439.829	91.81
440.05	115.81
440.272	130.81
440.493	100.81
440.715	88.81
440.936	93.81
441.158	94.81
441.379	80.81
441.6	87.81
441.822	105.81
442.043	82.81
442.264	100.81
442.486	102.81
442.707	101.81
442.928	84.81
443.149	116.81
443.371	110.81
443.592	101.81
443.813	99.81
444.034	114.81
444.255	100.81
444.476	92.81
444.698	94.81
444.919	80.81
445.14	124.81
445.361	123.81
445.582	107.81
445.803	131.81
446.024	122.81
446.245	118.81
446.466	110.81
446.687	90.81
446.908	75.81
447.129	90.81
447.35	95.81
447.571	84.81
447.792	92.81
448.013	101.81
448.234	98.81
448.455	91.81
448.675	110.81
448.896	96.81
449.117	96.81
449.338	91.81
449.559	134.81
449.779	131.81
450	96.81
450.221	86.81
450.442	84.81
450.662	80.81
450.883	88.81
451.104	113.81
451.324	88.81
451.545	85.81
451.766	101.81
451.986	90.81
452.207	84.81
452.428	95.81
452.648	83.81
452.869	86.81
453.089	109.81
453.31	112.81
453.53	99.81
453.751	96.81
453.971	89.81
454.192	101.81
454.412	102.81
454.633	95.81
454.853	84.81
455.073	96.81
455.294	106.81
455.514	107.81
455.734	92.81
455.955	86.81
456.175	95.81
456.395	92.81
456.616	90.81
456.836	76.81
457.056	98.81
457.276	75.81
457.497	88.81
457.717	80.81
457.937	85.81
458.157	84.81
458.377	96.81
458.598	110.81
458.818	118.81
459.038	142.81
459.258	110.81
459.478	87.81
459.698	74.81
459.918	90.81
460.138	82.81
460.358	91.81
460.578	94.81
460.798	86.81
461.018	90.81
461.238	83.81
461.458	85.81
461.678	78.81
461.898	89.81
462.118	93.81
462.338	94.81
462.558	90.81
462.777	92.81
462.997	78.81
463.217	80.81
463.437	95.81
463.657	90.81
463.876	85.81
464.096	90.81
464.316	95.81
464.536	93.81
464.755	95.81
464.975	106.81
465.195	138.81
465.414	130.81
465.634	82.81
465.854	88.81
466.073	98.81
466.293	78.81
466.512	86.81
466.732	90.81
466.951	98.81
467.171	94.81
467.391	112.81
467.61	93.81
467.829	105.81
468.049	96.81
468.268	106.81
468.488	87.81
468.707	72.81
468.927	70.81
469.146	78.81
469.365	83.81
469.585	96.81
469.804	88.81
470.023	93.81
470.243	104.81
470.462	100.81
470.681	103.81
470.901	88.81
471.12	92.81
471.339	91.81
471.558	88.81
471.777	95.81
471.997	84.81
472.216	113.81
472.435	142.81
472.654	98.81
472.873	96.81
473.092	105.81
473.311	103.81
473.53	93.81
473.749	99.81
473.968	90.81
474.187	87.81
474.406	86.81
474.625	92.81
474.844	88.81
475.063	87.81
475.282	86.81
475.501	91.81
475.72	93.81
475.939	90.81
476.158	94.81
476.377	93.81
476.596	100.81
476.814	88.81
477.033	96.81
477.252	107.81
477.471	90.81
477.69	84.81
477.908	98.81
478.127	111.81
478.346	86.81
478.564	98.81
478.783	91.81
479.002	85.81
479.22	79.81
479.439	99.81
479.658	101.81
479.876	89.81
480.095	85.81
480.313	94.81
480.532	102.81
480.751	102.81
480.969	109.81
481.188	182.81
481.406	142.81
481.624	102.81
481.843	88.81
482.061	89.81
482.28	98.81
482.498	103.81
482.717	102.81
482.935	101.81
483.153	90.81
483.372	86.81
483.59	101.81
483.808	86.81
484.027	94.81
484.245	100.81
484.463	94.81
484.681	90.81
484.9	97.81
485.118	95.81
485.336	102.81
485.554	101.81
485.772	98.81
485.99	107.81
486.209	105.81
486.427	105.81
486.645	107.81
486.863	114.81
487.081	113.81
487.299	100.81
487.517	90.81
487.735	94.81
487.953	79.81
488.171	82.81
488.389	96.81
488.607	105.81
488.825	90.81
489.043	98.81
489.261	87.81
489.479	72.81
489.696	78.81
489.914	90.81
490.132	96.81
490.35	93.81
490.568	89.81
490.786	78.81
491.003	79.81
491.221	94.81
491.439	88.81
491.657	102.81
491.874	93.81
492.092	92.81
492.31	75.81
492.527	93.81
492.745	76.81
492.963	91.81
493.18	84.81
493.398	81.81
493.615	91.81
493.833	99.81
494.05	96.81
494.268	90.81
494.485	88.81
494.703	97.81
494.92	96.81
495.138	87.81
495.355	95.81
495.573	90.81
495.79	100.81
496.008	97.81
496.225	98.81
496.442	98.81
496.66	106.81
496.877	83.81
497.094	97.81
497.312	86.81
497.529	102.81
497.746	94.81
497.963	99.81
498.181	86.81
498.398	84.81
498.615	104.81
498.832	109.81
499.049	93.81
499.267	86.81
499.484	101.81
499.701	79.81
499.918	82.81
500.135	88.81
500.352	97.81
500.569	112.81
500.786	90.81
501.003	84.81
501.22	75.81
501.437	86.81
501.654	102.81
501.871	86.81
502.088	81.81
502.305	95.81
502.522	94.81
502.739	80.81
502.956	93.81
503.172	91.81
503.389	97.81
503.606	101.81
503.823	98.81
504.04	96.81
504.256	113.81
504.473	82.81
504.69	87.81
504.907	95.81
505.123	90.81
505.34	90.81
505.557	92.81
505.773	80.81
505.99	101.81
506.207	82.81
506.423	87.81
506.64	102.81
506.856	92.81
507.073	81.81
507.289	96.81
507.506	101.81
507.722	103.81
507.939	115.81
508.155	91.81
508.372	97.81
508.588	83.81
508.805	95.81
509.021	108.81
509.238	89.81
509.454	96.81
509.67	95.81
509.887	105.81
510.103	108.81
510.319	186.81
510.536	656.81
510.752	1917.81
510.968	534.81
511.184	132.81
511.401	100.81
511.617	106.81
511.833	94.81
512.049	88.81
512.265	101.81
512.481	95.81
512.698	98.81
512.914	92.81
513.13	103.81
513.346	98.81
513.562	103.81
513.778	88.81
513.994	91.81
514.21	104.81
514.426	103.81
514.642	124.81
514.858	111.81
515.074	124.81
515.29	362.81
