Data from Uncirc_1980_H10_HRD10591_00021.txt Node
Date: Wed Jan 03 12:36:59 EST 2024
User: Yrep
Spectrometer: HR+D1059
Trigger mode: 1
Integration Time (sec): 1.000000E-1
Scans to average: 1
Electric dark correction enabled: true
Nonlinearity correction enabled: false
Boxcar width: 0
XAxis mode: Wavelengths
Number of Pixels in Spectrum: 2048
>>>>>Begin Spectral Data<<<<<
223.165	-8.25
223.4	-8.25
223.635	-8.25
223.869	-33.25
224.104	-14.25
224.338	-6.25
224.573	-19.25
224.808	-15.25
225.042	-7.25
225.277	-9.25
225.511	-11.25
225.746	-7.25
225.98	9.75
226.215	-3.25
226.449	22.75
226.683	39.75
226.918	34.75
227.152	27.75
227.387	32.75
227.621	47.75
227.856	57.75
228.09	60.75
228.324	53.75
228.559	57.75
228.793	56.75
229.027	68.75
229.262	62.75
229.496	70.75
229.73	73.75
229.964	74.75
230.199	85.75
230.433	73.75
230.667	82.75
230.901	83.75
231.136	66.75
231.37	82.75
231.604	69.75
231.838	87.75
232.072	76.75
232.306	82.75
232.541	72.75
232.775	79.75
233.009	83.75
233.243	75.75
233.477	86.75
233.711	95.75
233.945	82.75
234.179	78.75
234.413	89.75
234.647	104.75
234.881	95.75
235.115	73.75
235.349	77.75
235.583	70.75
235.817	69.75
236.051	94.75
236.285	79.75
236.519	77.75
236.753	82.75
236.987	79.75
237.221	81.75
237.455	97.75
237.689	75.75
237.922	90.75
238.156	86.75
238.39	75.75
238.624	68.75
238.858	86.75
239.091	75.75
239.325	79.75
239.559	80.75
239.793	85.75
240.027	84.75
240.26	82.75
240.494	89.75
240.728	77.75
240.961	75.75
241.195	63.75
241.429	77.75
241.662	100.75
241.896	84.75
242.13	77.75
242.363	72.75
242.597	72.75
242.83	88.75
243.064	64.75
243.298	78.75
243.531	57.75
243.765	78.75
243.998	86.75
244.232	92.75
244.465	80.75
244.699	87.75
244.932	84.75
245.166	80.75
245.399	80.75
245.633	71.75
245.866	68.75
246.099	79.75
246.333	79.75
246.566	70.75
246.8	70.75
247.033	83.75
247.266	72.75
247.5	72.75
247.733	60.75
247.966	87.75
248.2	84.75
248.433	83.75
248.666	73.75
248.899	85.75
249.133	85.75
249.366	93.75
249.599	99.75
249.832	90.75
250.066	84.75
250.299	75.75
250.532	80.75
250.765	68.75
250.998	89.75
251.231	82.75
251.465	85.75
251.698	90.75
251.931	84.75
252.164	78.75
252.397	69.75
252.63	82.75
252.863	82.75
253.096	98.75
253.329	80.75
253.562	98.75
253.795	84.75
254.028	66.75
254.261	79.75
254.494	83.75
254.727	90.75
254.96	83.75
255.193	77.75
255.426	82.75
255.659	71.75
255.892	84.75
256.124	83.75
256.357	88.75
256.59	95.75
256.823	73.75
257.056	79.75
257.289	73.75
257.521	76.75
257.754	99.75
257.987	86.75
258.22	74.75
258.452	75.75
258.685	70.75
258.918	77.75
259.151	82.75
259.383	81.75
259.616	82.75
259.849	74.75
260.081	94.75
260.314	79.75
260.547	79.75
260.779	86.75
261.012	81.75
261.244	95.75
261.477	94.75
261.71	99.75
261.942	108.75
262.175	107.75
262.407	79.75
262.64	82.75
262.872	94.75
263.105	98.75
263.337	95.75
263.57	86.75
263.802	92.75
264.035	85.75
264.267	81.75
264.499	71.75
264.732	84.75
264.964	87.75
265.197	95.75
265.429	90.75
265.661	78.75
265.894	104.75
266.126	92.75
266.358	85.75
266.591	76.75
266.823	78.75
267.055	74.75
267.287	92.75
267.52	82.75
267.752	93.75
267.984	68.75
268.216	81.75
268.448	91.75
268.681	86.75
268.913	74.75
269.145	84.75
269.377	81.75
269.609	87.75
269.841	87.75
270.073	83.75
270.306	92.75
270.538	97.75
270.77	93.75
271.002	95.75
271.234	86.75
271.466	71.75
271.698	87.75
271.93	74.75
272.162	84.75
272.394	100.75
272.626	86.75
272.858	84.75
273.09	90.75
273.322	89.75
273.553	85.75
273.785	93.75
274.017	78.75
274.249	77.75
274.481	89.75
274.713	78.75
274.945	88.75
275.176	86.75
275.408	92.75
275.64	91.75
275.872	76.75
276.104	91.75
276.335	100.75
276.567	80.75
276.799	102.75
277.031	102.75
277.262	95.75
277.494	88.75
277.726	90.75
277.957	101.75
278.189	85.75
278.421	85.75
278.652	87.75
278.884	79.75
279.115	92.75
279.347	87.75
279.579	88.75
279.81	84.75
280.042	89.75
280.273	91.75
280.505	95.75
280.736	90.75
280.968	67.75
281.199	90.75
281.431	88.75
281.662	82.75
281.894	94.75
282.125	82.75
282.356	121.75
282.588	127.75
282.819	98.75
283.051	88.75
283.282	63.75
283.513	82.75
283.745	92.75
283.976	79.75
284.207	79.75
284.439	90.75
284.67	100.75
284.901	103.75
285.132	93.75
285.364	90.75
285.595	80.75
285.826	79.75
286.057	96.75
286.288	94.75
286.52	83.75
286.751	108.75
286.982	80.75
287.213	87.75
287.444	91.75
287.675	88.75
287.906	92.75
288.138	90.75
288.369	93.75
288.6	95.75
288.831	86.75
289.062	87.75
289.293	67.75
289.524	90.75
289.755	100.75
289.986	86.75
290.217	102.75
290.448	103.75
290.679	97.75
290.91	84.75
291.141	84.75
291.371	95.75
291.602	93.75
291.833	91.75
292.064	78.75
292.295	77.75
292.526	78.75
292.757	86.75
292.987	104.75
293.218	86.75
293.449	63.75
293.68	93.75
293.91	79.75
294.141	90.75
294.372	82.75
294.603	79.75
294.833	92.75
295.064	90.75
295.295	77.75
295.525	95.75
295.756	101.75
295.987	114.75
296.217	131.75
296.448	110.75
296.679	84.75
296.909	82.75
297.14	86.75
297.37	85.75
297.601	90.75
297.831	90.75
298.062	76.75
298.292	93.75
298.523	92.75
298.753	91.75
298.984	79.75
299.214	95.75
299.445	88.75
299.675	86.75
299.905	100.75
300.136	92.75
300.366	87.75
300.597	76.75
300.827	90.75
301.057	96.75
301.288	100.75
301.518	85.75
301.748	96.75
301.979	97.75
302.209	90.75
302.439	87.75
302.669	100.75
302.9	81.75
303.13	98.75
303.36	83.75
303.59	99.75
303.82	99.75
304.051	102.75
304.281	86.75
304.511	86.75
304.741	89.75
304.971	94.75
305.201	86.75
305.431	95.75
305.661	93.75
305.891	94.75
306.121	96.75
306.352	89.75
306.582	95.75
306.812	95.75
307.042	86.75
307.272	93.75
307.502	98.75
307.731	84.75
307.961	100.75
308.191	87.75
308.421	104.75
308.651	98.75
308.881	95.75
309.111	93.75
309.341	100.75
309.571	95.75
309.8	86.75
310.03	83.75
310.26	83.75
310.49	87.75
310.72	91.75
310.949	110.75
311.179	94.75
311.409	96.75
311.639	92.75
311.868	96.75
312.098	85.75
312.328	98.75
312.557	99.75
312.787	100.75
313.017	93.75
313.246	96.75
313.476	94.75
313.706	87.75
313.935	98.75
314.165	105.75
314.394	98.75
314.624	98.75
314.853	103.75
315.083	91.75
315.312	79.75
315.542	108.75
315.771	94.75
316.001	99.75
316.23	94.75
316.46	96.75
316.689	92.75
316.919	97.75
317.148	88.75
317.377	97.75
317.607	102.75
317.836	90.75
318.065	88.75
318.295	105.75
318.524	86.75
318.753	91.75
318.983	90.75
319.212	100.75
319.441	104.75
319.67	102.75
319.9	95.75
320.129	87.75
320.358	90.75
320.587	92.75
320.816	94.75
321.046	99.75
321.275	94.75
321.504	89.75
321.733	108.75
321.962	97.75
322.191	101.75
322.42	98.75
322.649	100.75
322.878	99.75
323.108	121.75
323.337	131.75
323.566	119.75
323.795	132.75
324.024	163.75
324.253	290.75
324.482	582.75
324.71	1204.75
324.939	1634.75
325.168	620.75
325.397	210.75
325.626	126.75
325.855	111.75
326.084	105.75
326.313	122.75
326.542	147.75
326.77	200.75
326.999	343.75
327.228	720.75
327.457	1253.75
327.686	1000.75
327.914	300.75
328.143	164.75
328.372	121.75
328.6	109.75
328.829	111.75
329.058	123.75
329.287	115.75
329.515	99.75
329.744	92.75
329.972	101.75
330.201	94.75
330.43	111.75
330.658	109.75
330.887	134.75
331.115	118.75
331.344	90.75
331.572	99.75
331.801	79.75
332.03	90.75
332.258	107.75
332.486	102.75
332.715	75.75
332.943	92.75
333.172	101.75
333.4	94.75
333.629	96.75
333.857	105.75
334.085	99.75
334.314	99.75
334.542	117.75
334.771	134.75
334.999	92.75
335.227	112.75
335.455	92.75
335.684	97.75
335.912	98.75
336.14	97.75
336.369	83.75
336.597	84.75
336.825	94.75
337.053	90.75
337.281	96.75
337.51	91.75
337.738	96.75
337.966	98.75
338.194	94.75
338.422	74.75
338.65	94.75
338.878	102.75
339.106	90.75
339.334	80.75
339.562	97.75
339.79	102.75
340.018	88.75
340.246	98.75
340.474	98.75
340.702	83.75
340.93	88.75
341.158	103.75
341.386	109.75
341.614	96.75
341.842	98.75
342.07	86.75
342.298	86.75
342.526	90.75
342.754	86.75
342.981	89.75
343.209	86.75
343.437	90.75
343.665	91.75
343.893	94.75
344.12	87.75
344.348	100.75
344.576	93.75
344.804	93.75
345.031	71.75
345.259	89.75
345.487	98.75
345.714	85.75
345.942	84.75
346.17	94.75
346.397	90.75
346.625	89.75
346.853	112.75
347.08	99.75
347.308	94.75
347.535	98.75
347.763	86.75
347.99	105.75
348.218	109.75
348.445	111.75
348.673	87.75
348.9	80.75
349.128	94.75
349.355	84.75
349.583	92.75
349.81	92.75
350.037	103.75
350.265	78.75
350.492	93.75
350.72	110.75
350.947	98.75
351.174	106.75
351.402	115.75
351.629	100.75
351.856	88.75
352.083	104.75
352.311	104.75
352.538	94.75
352.765	96.75
352.992	107.75
353.22	110.75
353.447	103.75
353.674	104.75
353.901	106.75
354.128	100.75
354.355	99.75
354.583	104.75
354.81	91.75
355.037	106.75
355.264	102.75
355.491	100.75
355.718	91.75
355.945	100.75
356.172	85.75
356.399	86.75
356.626	96.75
356.853	100.75
357.08	99.75
357.307	86.75
357.534	90.75
357.761	105.75
357.988	100.75
358.215	108.75
358.441	91.75
358.668	106.75
358.895	91.75
359.122	99.75
359.349	90.75
359.576	92.75
359.802	98.75
360.029	95.75
360.256	109.75
360.483	95.75
360.709	77.75
360.936	86.75
361.163	95.75
361.39	93.75
361.616	101.75
361.843	93.75
362.07	94.75
362.296	87.75
362.523	92.75
362.749	104.75
362.976	90.75
363.203	92.75
363.429	94.75
363.656	94.75
363.882	95.75
364.109	84.75
364.335	94.75
364.562	78.75
364.788	86.75
365.015	101.75
365.241	98.75
365.468	115.75
365.694	114.75
365.92	105.75
366.147	93.75
366.373	86.75
366.599	97.75
366.826	76.75
367.052	92.75
367.278	84.75
367.505	98.75
367.731	107.75
367.957	92.75
368.184	102.75
368.41	89.75
368.636	113.75
368.862	111.75
369.089	102.75
369.315	100.75
369.541	90.75
369.767	92.75
369.993	87.75
370.219	79.75
370.445	77.75
370.672	88.75
370.898	87.75
371.124	83.75
371.35	91.75
371.576	89.75
371.802	94.75
372.028	90.75
372.254	87.75
372.48	87.75
372.706	91.75
372.932	82.75
373.158	102.75
373.384	104.75
373.61	86.75
373.835	94.75
374.061	91.75
374.287	98.75
374.513	96.75
374.739	100.75
374.965	94.75
375.191	82.75
375.416	106.75
375.642	89.75
375.868	96.75
376.094	93.75
376.319	98.75
376.545	86.75
376.771	94.75
376.997	98.75
377.222	104.75
377.448	91.75
377.674	84.75
377.899	106.75
378.125	92.75
378.35	74.75
378.576	102.75
378.802	70.75
379.027	90.75
379.253	99.75
379.478	98.75
379.704	95.75
379.929	93.75
380.155	100.75
380.38	94.75
380.606	93.75
380.831	101.75
381.057	89.75
381.282	94.75
381.507	94.75
381.733	99.75
381.958	93.75
382.184	93.75
382.409	83.75
382.634	109.75
382.86	98.75
383.085	108.75
383.31	96.75
383.535	110.75
383.761	115.75
383.986	105.75
384.211	116.75
384.436	105.75
384.662	96.75
384.887	116.75
385.112	110.75
385.337	130.75
385.562	111.75
385.787	117.75
386.013	111.75
386.238	116.75
386.463	114.75
386.688	123.75
386.913	108.75
387.138	115.75
387.363	104.75
387.588	104.75
387.813	109.75
388.038	98.75
388.263	116.75
388.488	125.75
388.713	99.75
388.938	101.75
389.163	90.75
389.387	100.75
389.612	106.75
389.837	102.75
390.062	82.75
390.287	91.75
390.512	94.75
390.736	86.75
390.961	86.75
391.186	98.75
391.411	100.75
391.636	90.75
391.86	88.75
392.085	89.75
392.31	103.75
392.534	72.75
392.759	80.75
392.984	78.75
393.208	110.75
393.433	96.75
393.658	86.75
393.882	91.75
394.107	79.75
394.331	80.75
394.556	95.75
394.78	89.75
395.005	92.75
395.229	98.75
395.454	78.75
395.678	92.75
395.903	98.75
396.127	92.75
396.352	94.75
396.576	87.75
396.801	102.75
397.025	88.75
397.249	86.75
397.474	100.75
397.698	96.75
397.922	88.75
398.147	68.75
398.371	95.75
398.595	86.75
398.82	81.75
399.044	92.75
399.268	95.75
399.492	82.75
399.717	85.75
399.941	90.75
400.165	87.75
400.389	87.75
400.613	102.75
400.837	94.75
401.062	83.75
401.286	93.75
401.51	106.75
401.734	84.75
401.958	96.75
402.182	107.75
402.406	120.75
402.63	96.75
402.854	71.75
403.078	78.75
403.302	80.75
403.526	91.75
403.75	91.75
403.974	91.75
404.198	88.75
404.422	80.75
404.645	87.75
404.869	105.75
405.093	93.75
405.317	83.75
405.541	88.75
405.765	94.75
405.988	105.75
406.212	132.75
406.436	181.75
406.66	130.75
406.883	92.75
407.107	101.75
407.331	90.75
407.555	85.75
407.778	101.75
408.002	86.75
408.226	88.75
408.449	79.75
408.673	87.75
408.896	88.75
409.12	82.75
409.344	82.75
409.567	98.75
409.791	82.75
410.014	107.75
410.238	85.75
410.461	94.75
410.685	96.75
410.908	94.75
411.132	94.75
411.355	89.75
411.578	84.75
411.802	89.75
412.025	86.75
412.249	105.75
412.472	99.75
412.695	94.75
412.919	90.75
413.142	94.75
413.365	85.75
413.589	87.75
413.812	106.75
414.035	106.75
414.258	89.75
414.482	83.75
414.705	94.75
414.928	97.75
415.151	100.75
415.374	107.75
415.597	102.75
415.821	78.75
416.044	95.75
416.267	93.75
416.49	91.75
416.713	82.75
416.936	108.75
417.159	93.75
417.382	99.75
417.605	92.75
417.828	90.75
418.051	94.75
418.274	78.75
418.497	87.75
418.72	71.75
418.943	90.75
419.166	93.75
419.389	105.75
419.611	92.75
419.834	92.75
420.057	85.75
420.28	82.75
420.503	99.75
420.726	103.75
420.948	95.75
421.171	99.75
421.394	86.75
421.617	88.75
421.839	88.75
422.062	94.75
422.285	95.75
422.507	95.75
422.73	92.75
422.953	98.75
423.175	84.75
423.398	80.75
423.621	73.75
423.843	86.75
424.066	74.75
424.288	79.75
424.511	99.75
424.733	105.75
424.956	115.75
425.178	87.75
425.401	91.75
425.623	93.75
425.846	102.75
426.068	90.75
426.291	92.75
426.513	97.75
426.735	86.75
426.958	101.75
427.18	94.75
427.402	134.75
427.625	129.75
427.847	106.75
428.069	103.75
428.292	104.75
428.514	84.75
428.736	87.75
428.958	89.75
429.181	86.75
429.403	97.75
429.625	92.75
429.847	82.75
430.069	98.75
430.292	85.75
430.514	93.75
430.736	87.75
430.958	83.75
431.18	90.75
431.402	81.75
431.624	74.75
431.846	91.75
432.068	78.75
432.29	92.75
432.512	84.75
432.734	79.75
432.956	93.75
433.178	103.75
433.4	97.75
433.622	89.75
433.844	82.75
434.066	92.75
434.287	85.75
434.509	93.75
434.731	83.75
434.953	86.75
435.175	94.75
435.397	87.75
435.618	100.75
435.84	116.75
436.062	116.75
436.284	108.75
436.505	89.75
436.727	101.75
436.949	85.75
437.17	88.75
437.392	86.75
437.614	84.75
437.835	99.75
438.057	104.75
438.278	111.75
438.5	102.75
438.721	101.75
438.943	93.75
439.165	84.75
439.386	96.75
439.608	93.75
439.829	103.75
440.05	121.75
440.272	117.75
440.493	98.75
440.715	96.75
440.936	72.75
441.158	90.75
441.379	71.75
441.6	96.75
441.822	90.75
442.043	97.75
442.264	112.75
442.486	90.75
442.707	92.75
442.928	83.75
443.149	111.75
443.371	113.75
443.592	98.75
443.813	104.75
444.034	87.75
444.255	90.75
444.476	92.75
444.698	77.75
444.919	92.75
445.14	141.75
445.361	108.75
445.582	108.75
445.803	99.75
446.024	114.75
446.245	122.75
446.466	98.75
446.687	92.75
446.908	98.75
447.129	86.75
447.35	100.75
447.571	100.75
447.792	84.75
448.013	108.75
448.234	106.75
448.455	98.75
448.675	100.75
448.896	113.75
449.117	93.75
449.338	91.75
449.559	123.75
449.779	125.75
450	103.75
450.221	89.75
450.442	86.75
450.662	87.75
450.883	90.75
451.104	92.75
451.324	88.75
451.545	95.75
451.766	86.75
451.986	94.75
452.207	90.75
452.428	83.75
452.648	85.75
452.869	98.75
453.089	94.75
453.31	102.75
453.53	84.75
453.751	91.75
453.971	96.75
454.192	107.75
454.412	98.75
454.633	92.75
454.853	87.75
455.073	101.75
455.294	92.75
455.514	100.75
455.734	84.75
455.955	94.75
456.175	98.75
456.395	86.75
456.616	82.75
456.836	87.75
457.056	79.75
457.276	89.75
457.497	89.75
457.717	90.75
457.937	86.75
458.157	97.75
458.377	87.75
458.598	77.75
458.818	131.75
459.038	124.75
459.258	113.75
459.478	94.75
459.698	86.75
459.918	95.75
460.138	88.75
460.358	95.75
460.578	94.75
460.798	93.75
461.018	95.75
461.238	88.75
461.458	87.75
461.678	99.75
461.898	88.75
462.118	84.75
462.338	83.75
462.558	86.75
462.777	89.75
462.997	90.75
463.217	86.75
463.437	92.75
463.657	84.75
463.876	78.75
464.096	92.75
464.316	100.75
464.536	79.75
464.755	89.75
464.975	86.75
465.195	132.75
465.414	149.75
465.634	82.75
465.854	79.75
466.073	79.75
466.293	89.75
466.512	84.75
466.732	82.75
466.951	89.75
467.171	96.75
467.391	97.75
467.61	107.75
467.829	91.75
468.049	88.75
468.268	94.75
468.488	77.75
468.707	91.75
468.927	92.75
469.146	97.75
469.365	77.75
469.585	82.75
469.804	90.75
470.023	88.75
470.243	99.75
470.462	92.75
470.681	94.75
470.901	90.75
471.12	86.75
471.339	90.75
471.558	87.75
471.777	86.75
471.997	92.75
472.216	119.75
472.435	123.75
472.654	95.75
472.873	102.75
473.092	94.75
473.311	85.75
473.53	91.75
473.749	86.75
473.968	84.75
474.187	100.75
474.406	91.75
474.625	100.75
474.844	92.75
475.063	78.75
475.282	88.75
475.501	77.75
475.72	88.75
475.939	92.75
476.158	84.75
476.377	93.75
476.596	75.75
476.814	85.75
477.033	90.75
477.252	88.75
477.471	95.75
477.69	84.75
477.908	90.75
478.127	96.75
478.346	93.75
478.564	90.75
478.783	98.75
479.002	89.75
479.22	93.75
479.439	102.75
479.658	103.75
479.876	91.75
480.095	79.75
480.313	95.75
480.532	96.75
480.751	100.75
480.969	99.75
481.188	171.75
481.406	131.75
481.624	99.75
481.843	102.75
482.061	79.75
482.28	97.75
482.498	96.75
482.717	78.75
482.935	96.75
483.153	86.75
483.372	89.75
483.59	102.75
483.808	98.75
484.027	95.75
484.245	86.75
484.463	91.75
484.681	120.75
484.9	89.75
485.118	102.75
485.336	98.75
485.554	86.75
485.772	93.75
485.99	108.75
486.209	116.75
486.427	90.75
486.645	108.75
486.863	103.75
487.081	110.75
487.299	92.75
487.517	92.75
487.735	104.75
487.953	74.75
488.171	94.75
488.389	86.75
488.607	93.75
488.825	88.75
489.043	83.75
489.261	86.75
489.479	87.75
489.696	92.75
489.914	87.75
490.132	98.75
490.35	90.75
490.568	91.75
490.786	97.75
491.003	88.75
491.221	92.75
491.439	93.75
491.657	96.75
491.874	83.75
492.092	92.75
492.31	85.75
492.527	79.75
492.745	80.75
492.963	96.75
493.18	92.75
493.398	91.75
493.615	108.75
493.833	95.75
494.05	92.75
494.268	100.75
494.485	98.75
494.703	82.75
494.92	102.75
495.138	80.75
495.355	90.75
495.573	91.75
495.79	83.75
496.008	80.75
496.225	88.75
496.442	92.75
496.66	101.75
496.877	107.75
497.094	89.75
497.312	106.75
497.529	86.75
497.746	88.75
497.963	91.75
498.181	94.75
498.398	86.75
498.615	98.75
498.832	97.75
499.049	78.75
499.267	100.75
499.484	98.75
499.701	91.75
499.918	97.75
500.135	100.75
500.352	73.75
500.569	90.75
500.786	94.75
501.003	97.75
501.22	91.75
501.437	97.75
501.654	88.75
501.871	96.75
502.088	92.75
502.305	94.75
502.522	96.75
502.739	104.75
502.956	88.75
503.172	89.75
503.389	99.75
503.606	97.75
503.823	79.75
504.04	93.75
504.256	93.75
504.473	82.75
504.69	99.75
504.907	80.75
505.123	82.75
505.34	95.75
505.557	86.75
505.773	89.75
505.99	100.75
506.207	99.75
506.423	89.75
506.64	89.75
506.856	86.75
507.073	85.75
507.289	101.75
507.506	85.75
507.722	104.75
507.939	110.75
508.155	96.75
508.372	95.75
508.588	89.75
508.805	94.75
509.021	88.75
509.238	92.75
509.454	90.75
509.67	89.75
509.887	111.75
510.103	122.75
510.319	176.75
510.536	559.75
510.752	1755.75
510.968	504.75
511.184	130.75
511.401	110.75
511.617	107.75
511.833	101.75
512.049	95.75
512.265	92.75
512.481	94.75
512.698	92.75
512.914	78.75
513.13	93.75
513.346	98.75
513.562	104.75
513.778	103.75
513.994	87.75
514.21	91.75
514.426	111.75
514.642	107.75
514.858	106.75
515.074	144.75
515.29	331.75
515.506	1001.75
515.721	397.75
515.937	130.75
