Data from Uncirc_1980_H10_HRD10591_00100.txt Node
Date: Wed Jan 03 12:37:15 EST 2024
User: Yrep
Spectrometer: HR+D1059
Trigger mode: 1
Integration Time (sec): 1.000000E-1
Scans to average: 1
Electric dark correction enabled: true
Nonlinearity correction enabled: false
Boxcar width: 0
XAxis mode: Wavelengths
Number of Pixels in Spectrum: 2048
>>>>>Begin Spectral Data<<<<<
223.165	-16.62
223.4	-16.62
223.635	-16.62
223.869	-26.62
224.104	-10.62
224.338	-28.62
224.573	-0.62
224.808	-8.62
225.042	-4.62
225.277	-11.62
225.511	-7.62
225.746	-0.62
225.98	7.38
226.215	18.38
226.449	24.38
226.683	23.38
226.918	12.38
227.152	30.38
227.387	27.38
227.621	38.38
227.856	49.38
228.09	54.38
228.324	47.38
228.559	44.38
228.793	57.38
229.027	42.38
229.262	64.38
229.496	76.38
229.73	79.38
229.964	86.38
230.199	73.38
230.433	64.38
230.667	75.38
230.901	85.38
231.136	73.38
231.37	85.38
231.604	70.38
231.838	78.38
232.072	99.38
232.306	86.38
232.541	76.38
232.775	74.38
233.009	78.38
233.243	87.38
233.477	79.38
233.711	76.38
233.945	85.38
234.179	75.38
234.413	90.38
234.647	88.38
234.881	69.38
235.115	75.38
235.349	85.38
235.583	84.38
235.817	97.38
236.051	72.38
236.285	72.38
236.519	87.38
236.753	94.38
236.987	76.38
237.221	68.38
237.455	72.38
237.689	79.38
237.922	69.38
238.156	84.38
238.39	76.38
238.624	83.38
238.858	70.38
239.091	83.38
239.325	91.38
239.559	87.38
239.793	93.38
240.027	92.38
240.26	88.38
240.494	95.38
240.728	75.38
240.961	67.38
241.195	89.38
241.429	87.38
241.662	84.38
241.896	75.38
242.13	67.38
242.363	58.38
242.597	82.38
242.83	64.38
243.064	63.38
243.298	74.38
243.531	68.38
243.765	91.38
243.998	79.38
244.232	77.38
244.465	80.38
244.699	74.38
244.932	70.38
245.166	72.38
245.399	60.38
245.633	90.38
245.866	74.38
246.099	81.38
246.333	84.38
246.566	77.38
246.8	84.38
247.033	88.38
247.266	76.38
247.5	73.38
247.733	82.38
247.966	62.38
248.2	85.38
248.433	74.38
248.666	68.38
248.899	95.38
249.133	88.38
249.366	87.38
249.599	86.38
249.832	93.38
250.066	92.38
250.299	84.38
250.532	71.38
250.765	92.38
250.998	86.38
251.231	82.38
251.465	74.38
251.698	80.38
251.931	101.38
252.164	72.38
252.397	58.38
252.63	83.38
252.863	86.38
253.096	74.38
253.329	69.38
253.562	86.38
253.795	72.38
254.028	86.38
254.261	99.38
254.494	72.38
254.727	86.38
254.96	72.38
255.193	79.38
255.426	75.38
255.659	71.38
255.892	97.38
256.124	93.38
256.357	74.38
256.59	73.38
256.823	65.38
257.056	77.38
257.289	86.38
257.521	92.38
257.754	78.38
257.987	76.38
258.22	88.38
258.452	68.38
258.685	98.38
258.918	86.38
259.151	101.38
259.383	80.38
259.616	86.38
259.849	76.38
260.081	75.38
260.314	85.38
260.547	92.38
260.779	78.38
261.012	86.38
261.244	73.38
261.477	86.38
261.71	90.38
261.942	103.38
262.175	97.38
262.407	84.38
262.64	74.38
262.872	77.38
263.105	78.38
263.337	87.38
263.57	79.38
263.802	80.38
264.035	82.38
264.267	98.38
264.499	84.38
264.732	82.38
264.964	79.38
265.197	82.38
265.429	76.38
265.661	83.38
265.894	99.38
266.126	83.38
266.358	83.38
266.591	87.38
266.823	79.38
267.055	96.38
267.287	83.38
267.52	95.38
267.752	94.38
267.984	86.38
268.216	84.38
268.448	90.38
268.681	87.38
268.913	93.38
269.145	81.38
269.377	84.38
269.609	77.38
269.841	94.38
270.073	86.38
270.306	93.38
270.538	85.38
270.77	91.38
271.002	86.38
271.234	75.38
271.466	92.38
271.698	89.38
271.93	82.38
272.162	70.38
272.394	86.38
272.626	87.38
272.858	78.38
273.09	83.38
273.322	70.38
273.553	89.38
273.785	84.38
274.017	82.38
274.249	83.38
274.481	93.38
274.713	80.38
274.945	89.38
275.176	78.38
275.408	87.38
275.64	85.38
275.872	98.38
276.104	93.38
276.335	92.38
276.567	92.38
276.799	103.38
277.031	110.38
277.262	85.38
277.494	93.38
277.726	90.38
277.957	87.38
278.189	73.38
278.421	70.38
278.652	78.38
278.884	88.38
279.115	87.38
279.347	81.38
279.579	75.38
279.81	87.38
280.042	88.38
280.273	98.38
280.505	86.38
280.736	79.38
280.968	99.38
281.199	77.38
281.431	88.38
281.662	82.38
281.894	95.38
282.125	98.38
282.356	116.38
282.588	124.38
282.819	109.38
283.051	90.38
283.282	88.38
283.513	88.38
283.745	77.38
283.976	81.38
284.207	86.38
284.439	91.38
284.67	76.38
284.901	94.38
285.132	94.38
285.364	82.38
285.595	99.38
285.826	82.38
286.057	86.38
286.288	76.38
286.52	113.38
286.751	90.38
286.982	107.38
287.213	67.38
287.444	93.38
287.675	88.38
287.906	92.38
288.138	77.38
288.369	92.38
288.6	96.38
288.831	82.38
289.062	85.38
289.293	106.38
289.524	85.38
289.755	98.38
289.986	82.38
290.217	68.38
290.448	90.38
290.679	77.38
290.91	76.38
291.141	82.38
291.371	96.38
291.602	71.38
291.833	88.38
292.064	96.38
292.295	95.38
292.526	84.38
292.757	84.38
292.987	85.38
293.218	85.38
293.449	87.38
293.68	75.38
293.91	87.38
294.141	88.38
294.372	95.38
294.603	80.38
294.833	86.38
295.064	85.38
295.295	95.38
295.525	91.38
295.756	85.38
295.987	96.38
296.217	125.38
296.448	117.38
296.679	86.38
296.909	88.38
297.14	84.38
297.37	87.38
297.601	86.38
297.831	79.38
298.062	102.38
298.292	86.38
298.523	92.38
298.753	90.38
298.984	96.38
299.214	100.38
299.445	102.38
299.675	94.38
299.905	96.38
300.136	78.38
300.366	78.38
300.597	97.38
300.827	96.38
301.057	104.38
301.288	84.38
301.518	87.38
301.748	93.38
301.979	100.38
302.209	89.38
302.439	94.38
302.669	90.38
302.9	84.38
303.13	82.38
303.36	98.38
303.59	95.38
303.82	95.38
304.051	77.38
304.281	79.38
304.511	95.38
304.741	96.38
304.971	93.38
305.201	91.38
305.431	91.38
305.661	83.38
305.891	97.38
306.121	94.38
306.352	107.38
306.582	103.38
306.812	88.38
307.042	101.38
307.272	82.38
307.502	75.38
307.731	105.38
307.961	87.38
308.191	91.38
308.421	74.38
308.651	79.38
308.881	94.38
309.111	94.38
309.341	111.38
309.571	90.38
309.8	89.38
310.03	87.38
310.26	88.38
310.49	87.38
310.72	88.38
310.949	102.38
311.179	102.38
311.409	111.38
311.639	94.38
311.868	84.38
312.098	89.38
312.328	91.38
312.557	91.38
312.787	116.38
313.017	86.38
313.246	84.38
313.476	104.38
313.706	87.38
313.935	97.38
314.165	93.38
314.394	80.38
314.624	99.38
314.853	100.38
315.083	100.38
315.312	84.38
315.542	88.38
315.771	106.38
316.001	101.38
316.23	93.38
316.46	72.38
316.689	84.38
316.919	100.38
317.148	103.38
317.377	94.38
317.607	83.38
317.836	94.38
318.065	84.38
318.295	93.38
318.524	95.38
318.753	88.38
318.983	88.38
319.212	90.38
319.441	100.38
319.67	104.38
319.9	96.38
320.129	95.38
320.358	90.38
320.587	91.38
320.816	98.38
321.046	97.38
321.275	95.38
321.504	107.38
321.733	92.38
321.962	90.38
322.191	97.38
322.42	96.38
322.649	99.38
322.878	107.38
323.108	110.38
323.337	113.38
323.566	121.38
323.795	135.38
324.024	174.38
324.253	325.38
324.482	618.38
324.71	1287.38
324.939	1706.38
325.168	633.38
325.397	218.38
325.626	143.38
325.855	118.38
326.084	122.38
326.313	133.38
326.542	126.38
326.77	194.38
326.999	349.38
327.228	706.38
327.457	1317.38
327.686	1066.38
327.914	305.38
328.143	165.38
328.372	138.38
328.6	112.38
328.829	115.38
329.058	102.38
329.287	106.38
329.515	107.38
329.744	91.38
329.972	101.38
330.201	116.38
330.43	130.38
330.658	123.38
330.887	120.38
331.115	106.38
331.344	105.38
331.572	95.38
331.801	91.38
332.03	77.38
332.258	111.38
332.486	93.38
332.715	91.38
332.943	94.38
333.172	98.38
333.4	99.38
333.629	100.38
333.857	103.38
334.085	106.38
334.314	115.38
334.542	130.38
334.771	117.38
334.999	100.38
335.227	93.38
335.455	100.38
335.684	98.38
335.912	89.38
336.14	87.38
336.369	88.38
336.597	108.38
336.825	102.38
337.053	106.38
337.281	94.38
337.51	102.38
337.738	92.38
337.966	88.38
338.194	74.38
338.422	92.38
338.65	102.38
338.878	115.38
339.106	102.38
339.334	94.38
339.562	88.38
339.79	94.38
340.018	97.38
340.246	76.38
340.474	89.38
340.702	93.38
340.93	91.38
341.158	90.38
341.386	97.38
341.614	95.38
341.842	95.38
342.07	94.38
342.298	86.38
342.526	84.38
342.754	83.38
342.981	79.38
343.209	86.38
343.437	101.38
343.665	98.38
343.893	98.38
344.12	86.38
344.348	83.38
344.576	78.38
344.804	94.38
345.031	96.38
345.259	91.38
345.487	101.38
345.714	94.38
345.942	88.38
346.17	104.38
346.397	75.38
346.625	99.38
346.853	99.38
347.08	95.38
347.308	98.38
347.535	91.38
347.763	111.38
347.99	97.38
348.218	86.38
348.445	83.38
348.673	80.38
348.9	93.38
349.128	110.38
349.355	79.38
349.583	90.38
349.81	94.38
350.037	87.38
350.265	93.38
350.492	100.38
350.72	94.38
350.947	111.38
351.174	110.38
351.402	112.38
351.629	99.38
351.856	94.38
352.083	100.38
352.311	95.38
352.538	116.38
352.765	93.38
352.992	116.38
353.22	109.38
353.447	97.38
353.674	109.38
353.901	104.38
354.128	88.38
354.355	89.38
354.583	100.38
354.81	98.38
355.037	93.38
355.264	95.38
355.491	85.38
355.718	85.38
355.945	108.38
356.172	96.38
356.399	95.38
356.626	103.38
356.853	86.38
357.08	89.38
357.307	86.38
357.534	88.38
357.761	95.38
357.988	107.38
358.215	88.38
358.441	89.38
358.668	110.38
358.895	85.38
359.122	95.38
359.349	88.38
359.576	87.38
359.802	79.38
360.029	117.38
360.256	109.38
360.483	100.38
360.709	93.38
360.936	95.38
361.163	87.38
361.39	80.38
361.616	94.38
361.843	106.38
362.07	99.38
362.296	99.38
362.523	99.38
362.749	79.38
362.976	92.38
363.203	85.38
363.429	101.38
363.656	83.38
363.882	84.38
364.109	102.38
364.335	104.38
364.562	88.38
364.788	98.38
365.015	95.38
365.241	97.38
365.468	102.38
365.694	110.38
365.92	88.38
366.147	93.38
366.373	79.38
366.599	91.38
366.826	86.38
367.052	94.38
367.278	91.38
367.505	79.38
367.731	95.38
367.957	98.38
368.184	87.38
368.41	98.38
368.636	88.38
368.862	94.38
369.089	105.38
369.315	90.38
369.541	82.38
369.767	90.38
369.993	94.38
370.219	91.38
370.445	79.38
370.672	93.38
370.898	83.38
371.124	90.38
371.35	87.38
371.576	88.38
371.802	95.38
372.028	92.38
372.254	85.38
372.48	98.38
372.706	92.38
372.932	103.38
373.158	87.38
373.384	103.38
373.61	88.38
373.835	87.38
374.061	87.38
374.287	89.38
374.513	74.38
374.739	94.38
374.965	99.38
375.191	96.38
375.416	98.38
375.642	89.38
375.868	99.38
376.094	82.38
376.319	91.38
376.545	80.38
376.771	78.38
376.997	99.38
377.222	82.38
377.448	92.38
377.674	81.38
377.899	78.38
378.125	92.38
378.35	95.38
378.576	90.38
378.802	79.38
379.027	95.38
379.253	100.38
379.478	90.38
379.704	92.38
379.929	98.38
380.155	103.38
380.38	96.38
380.606	98.38
380.831	84.38
381.057	101.38
381.282	95.38
381.507	84.38
381.733	96.38
381.958	92.38
382.184	79.38
382.409	94.38
382.634	99.38
382.86	119.38
383.085	96.38
383.31	90.38
383.535	93.38
383.761	102.38
383.986	82.38
384.211	99.38
384.436	99.38
384.662	94.38
384.887	91.38
385.112	92.38
385.337	101.38
385.562	84.38
385.787	106.38
386.013	114.38
386.238	106.38
386.463	108.38
386.688	111.38
386.913	104.38
387.138	112.38
387.363	107.38
387.588	111.38
387.813	118.38
388.038	107.38
388.263	106.38
388.488	104.38
388.713	100.38
388.938	85.38
389.163	95.38
389.387	108.38
389.612	104.38
389.837	80.38
390.062	85.38
390.287	79.38
390.512	94.38
390.736	92.38
390.961	94.38
391.186	91.38
391.411	96.38
391.636	83.38
391.86	79.38
392.085	92.38
392.31	79.38
392.534	86.38
392.759	78.38
392.984	90.38
393.208	91.38
393.433	94.38
393.658	92.38
393.882	89.38
394.107	95.38
394.331	103.38
394.556	98.38
394.78	82.38
395.005	88.38
395.229	86.38
395.454	93.38
395.678	85.38
395.903	90.38
396.127	107.38
396.352	94.38
396.576	75.38
396.801	96.38
397.025	92.38
397.249	96.38
397.474	82.38
397.698	83.38
397.922	90.38
398.147	87.38
398.371	87.38
398.595	89.38
398.82	78.38
399.044	84.38
399.268	96.38
399.492	106.38
399.717	91.38
399.941	88.38
400.165	95.38
400.389	76.38
400.613	80.38
400.837	91.38
401.062	96.38
401.286	86.38
401.51	80.38
401.734	90.38
401.958	95.38
402.182	122.38
402.406	131.38
402.63	116.38
402.854	105.38
403.078	95.38
403.302	90.38
403.526	87.38
403.75	108.38
403.974	96.38
404.198	103.38
404.422	86.38
404.645	92.38
404.869	90.38
405.093	96.38
405.317	96.38
405.541	98.38
405.765	90.38
405.988	95.38
406.212	148.38
406.436	168.38
406.66	122.38
406.883	108.38
407.107	84.38
407.331	90.38
407.555	100.38
407.778	84.38
408.002	90.38
408.226	94.38
408.449	80.38
408.673	82.38
408.896	97.38
409.12	103.38
409.344	88.38
409.567	79.38
409.791	102.38
410.014	84.38
410.238	97.38
410.461	82.38
410.685	79.38
410.908	92.38
411.132	85.38
411.355	87.38
411.578	86.38
411.802	91.38
412.025	90.38
412.249	85.38
412.472	107.38
412.695	98.38
412.919	93.38
413.142	94.38
413.365	87.38
413.589	97.38
413.812	84.38
414.035	89.38
414.258	91.38
414.482	75.38
414.705	82.38
414.928	79.38
415.151	94.38
415.374	91.38
415.597	88.38
415.821	94.38
416.044	98.38
416.267	94.38
416.49	76.38
416.713	92.38
416.936	89.38
417.159	70.38
417.382	90.38
417.605	98.38
417.828	92.38
418.051	74.38
418.274	82.38
418.497	94.38
418.72	79.38
418.943	86.38
419.166	97.38
419.389	83.38
419.611	76.38
419.834	89.38
420.057	84.38
420.28	83.38
420.503	100.38
420.726	99.38
420.948	102.38
421.171	99.38
421.394	95.38
421.617	87.38
421.839	75.38
422.062	98.38
422.285	72.38
422.507	96.38
422.73	90.38
422.953	93.38
423.175	78.38
423.398	98.38
423.621	90.38
423.843	90.38
424.066	79.38
424.288	87.38
424.511	99.38
424.733	93.38
424.956	104.38
425.178	92.38
425.401	104.38
425.623	105.38
425.846	82.38
426.068	93.38
426.291	87.38
426.513	91.38
426.735	93.38
426.958	85.38
427.18	98.38
427.402	128.38
427.625	141.38
427.847	117.38
428.069	105.38
428.292	87.38
428.514	87.38
428.736	84.38
428.958	71.38
429.181	82.38
429.403	91.38
429.625	72.38
429.847	98.38
430.069	92.38
430.292	91.38
430.514	75.38
430.736	80.38
430.958	89.38
431.18	79.38
431.402	84.38
431.624	78.38
431.846	92.38
432.068	86.38
432.29	78.38
432.512	88.38
432.734	79.38
432.956	92.38
433.178	88.38
433.4	86.38
433.622	76.38
433.844	94.38
434.066	92.38
434.287	85.38
434.509	88.38
434.731	107.38
434.953	92.38
435.175	92.38
435.397	88.38
435.618	85.38
435.84	101.38
436.062	101.38
436.284	108.38
436.505	85.38
436.727	108.38
436.949	96.38
437.17	80.38
437.392	98.38
437.614	74.38
437.835	97.38
438.057	104.38
438.278	102.38
438.5	101.38
438.721	112.38
438.943	97.38
439.165	86.38
439.386	84.38
439.608	87.38
439.829	90.38
440.05	120.38
440.272	134.38
440.493	112.38
440.715	96.38
440.936	99.38
441.158	77.38
441.379	80.38
441.6	82.38
441.822	84.38
442.043	101.38
442.264	95.38
442.486	87.38
442.707	101.38
442.928	111.38
443.149	127.38
443.371	118.38
443.592	98.38
443.813	96.38
444.034	106.38
444.255	88.38
444.476	75.38
444.698	78.38
444.919	77.38
445.14	133.38
445.361	125.38
445.582	103.38
445.803	127.38
446.024	120.38
446.245	119.38
446.466	91.38
446.687	93.38
446.908	76.38
447.129	75.38
447.35	98.38
447.571	104.38
447.792	94.38
448.013	102.38
448.234	109.38
448.455	107.38
448.675	113.38
448.896	110.38
449.117	90.38
449.338	95.38
449.559	107.38
449.779	126.38
450	101.38
450.221	78.38
450.442	86.38
450.662	100.38
450.883	96.38
451.104	108.38
451.324	86.38
451.545	79.38
451.766	79.38
451.986	95.38
452.207	79.38
452.428	94.38
452.648	86.38
452.869	111.38
453.089	112.38
453.31	111.38
453.53	87.38
453.751	102.38
453.971	98.38
454.192	89.38
454.412	94.38
454.633	82.38
454.853	89.38
455.073	88.38
455.294	96.38
455.514	83.38
455.734	99.38
455.955	99.38
456.175	101.38
456.395	82.38
456.616	79.38
456.836	87.38
457.056	78.38
457.276	92.38
457.497	87.38
457.717	95.38
457.937	98.38
458.157	73.38
458.377	97.38
458.598	104.38
458.818	126.38
459.038	141.38
459.258	115.38
459.478	84.38
459.698	89.38
459.918	94.38
460.138	91.38
460.358	85.38
460.578	103.38
460.798	91.38
461.018	77.38
461.238	79.38
461.458	80.38
461.678	91.38
461.898	96.38
462.118	91.38
462.338	75.38
462.558	95.38
462.777	73.38
462.997	77.38
463.217	85.38
463.437	90.38
463.657	76.38
463.876	103.38
464.096	87.38
464.316	103.38
464.536	87.38
464.755	79.38
464.975	88.38
465.195	126.38
465.414	137.38
465.634	92.38
465.854	82.38
466.073	86.38
466.293	75.38
466.512	106.38
466.732	85.38
466.951	89.38
467.171	99.38
467.391	100.38
467.61	97.38
467.829	100.38
468.049	88.38
468.268	120.38
468.488	93.38
468.707	82.38
468.927	98.38
469.146	77.38
469.365	79.38
469.585	96.38
469.804	96.38
470.023	103.38
470.243	103.38
470.462	83.38
470.681	95.38
470.901	90.38
471.12	88.38
471.339	103.38
471.558	92.38
471.777	78.38
471.997	87.38
472.216	95.38
472.435	138.38
472.654	86.38
472.873	90.38
473.092	81.38
473.311	99.38
473.53	107.38
473.749	94.38
473.968	90.38
474.187	94.38
474.406	86.38
474.625	85.38
474.844	94.38
475.063	89.38
475.282	80.38
475.501	88.38
475.72	92.38
475.939	90.38
476.158	85.38
476.377	92.38
476.596	92.38
476.814	87.38
477.033	102.38
477.252	93.38
477.471	83.38
477.69	87.38
477.908	80.38
478.127	93.38
478.346	78.38
478.564	67.38
478.783	83.38
479.002	91.38
479.22	95.38
479.439	100.38
479.658	106.38
479.876	94.38
480.095	94.38
480.313	93.38
480.532	88.38
480.751	90.38
480.969	108.38
481.188	202.38
481.406	133.38
481.624	92.38
481.843	94.38
482.061	106.38
482.28	112.38
482.498	98.38
482.717	94.38
482.935	92.38
483.153	97.38
483.372	80.38
483.59	104.38
483.808	89.38
484.027	87.38
484.245	89.38
484.463	85.38
484.681	101.38
484.9	71.38
485.118	91.38
485.336	92.38
485.554	103.38
485.772	112.38
485.99	113.38
486.209	84.38
486.427	95.38
486.645	105.38
486.863	102.38
487.081	94.38
487.299	99.38
487.517	102.38
487.735	94.38
487.953	85.38
488.171	95.38
488.389	98.38
488.607	88.38
488.825	101.38
489.043	87.38
489.261	90.38
489.479	83.38
489.696	85.38
489.914	92.38
490.132	89.38
490.35	92.38
490.568	77.38
490.786	95.38
491.003	103.38
491.221	102.38
491.439	118.38
491.657	102.38
491.874	78.38
492.092	90.38
492.31	98.38
492.527	91.38
492.745	82.38
492.963	92.38
493.18	99.38
493.398	100.38
493.615	108.38
493.833	97.38
494.05	94.38
494.268	95.38
494.485	98.38
494.703	71.38
494.92	85.38
495.138	77.38
495.355	103.38
495.573	90.38
495.79	81.38
496.008	85.38
496.225	85.38
496.442	100.38
496.66	99.38
496.877	95.38
497.094	91.38
497.312	104.38
497.529	93.38
497.746	94.38
497.963	80.38
498.181	88.38
498.398	94.38
498.615	120.38
498.832	109.38
499.049	105.38
499.267	102.38
499.484	86.38
499.701	104.38
499.918	78.38
500.135	92.38
500.352	82.38
500.569	89.38
500.786	90.38
501.003	93.38
501.22	92.38
501.437	92.38
501.654	90.38
501.871	100.38
502.088	87.38
502.305	95.38
502.522	108.38
502.739	91.38
502.956	98.38
503.172	89.38
503.389	78.38
503.606	95.38
503.823	92.38
504.04	89.38
504.256	103.38
504.473	91.38
504.69	93.38
504.907	102.38
505.123	95.38
505.34	71.38
505.557	93.38
505.773	99.38
505.99	97.38
506.207	72.38
506.423	92.38
506.64	67.38
506.856	103.38
507.073	77.38
507.289	79.38
507.506	107.38
507.722	112.38
507.939	119.38
508.155	89.38
508.372	99.38
508.588	92.38
508.805	86.38
509.021	96.38
509.238	110.38
509.454	86.38
509.67	97.38
509.887	99.38
510.103	135.38
510.319	180.38
510.536	610.38
510.752	1797.38
510.968	510.38
511.184	135.38
511.401	96.38
511.617	98.38
511.833	93.38
512.049	88.38
512.265	93.38
512.481	86.38
512.698	75.38
512.914	82.38
513.13	90.38
513.346	99.38
513.562	85.38
513.778	86.38
513.994	86.38
514.21	98.38
514.426	110.38
514.642	123.38
514.858	102.38
515.074	146.38
515.29	349.38
515.506	1060.38
515.721	416.38
515.937	121.38
