Data from Uncirc_1980_H10_HRD10591_00013.txt Node
Date: Wed Jan 03 12:36:58 EST 2024
User: Yrep
Spectrometer: HR+D1059
Trigger mode: 1
Integration Time (sec): 1.000000E-1
Scans to average: 1
Electric dark correction enabled: true
Nonlinearity correction enabled: false
Boxcar width: 0
XAxis mode: Wavelengths
Number of Pixels in Spectrum: 2048
>>>>>Begin Spectral Data<<<<<
223.165	-19.5
223.4	-19.5
223.635	-19.5
223.869	-27.5
224.104	-19.5
224.338	-20.5
224.573	-14.5
224.808	-8.5
225.042	-1.5
225.277	-4.5
225.511	11.5
225.746	0.5
225.98	14.5
226.215	12.5
226.449	1.5
226.683	25.5
226.918	20.5
227.152	29.5
227.387	41.5
227.621	48.5
227.856	44.5
228.09	46.5
228.324	47.5
228.559	51.5
228.793	56.5
229.027	52.5
229.262	66.5
229.496	80.5
229.73	67.5
229.964	71.5
230.199	69.5
230.433	75.5
230.667	76.5
230.901	86.5
231.136	74.5
231.37	67.5
231.604	75.5
231.838	79.5
232.072	82.5
232.306	65.5
232.541	63.5
232.775	77.5
233.009	83.5
233.243	83.5
233.477	72.5
233.711	85.5
233.945	82.5
234.179	74.5
234.413	73.5
234.647	73.5
234.881	79.5
235.115	79.5
235.349	81.5
235.583	78.5
235.817	76.5
236.051	63.5
236.285	80.5
236.519	74.5
236.753	60.5
236.987	63.5
237.221	71.5
237.455	72.5
237.689	73.5
237.922	72.5
238.156	86.5
238.39	74.5
238.624	65.5
238.858	93.5
239.091	81.5
239.325	69.5
239.559	76.5
239.793	75.5
240.027	76.5
240.26	84.5
240.494	81.5
240.728	71.5
240.961	59.5
241.195	81.5
241.429	93.5
241.662	70.5
241.896	74.5
242.13	71.5
242.363	70.5
242.597	83.5
242.83	71.5
243.064	77.5
243.298	88.5
243.531	99.5
243.765	83.5
243.998	92.5
244.232	67.5
244.465	75.5
244.699	91.5
244.932	73.5
245.166	71.5
245.399	73.5
245.633	70.5
245.866	87.5
246.099	88.5
246.333	76.5
246.566	72.5
246.8	82.5
247.033	81.5
247.266	66.5
247.5	63.5
247.733	75.5
247.966	78.5
248.2	75.5
248.433	87.5
248.666	87.5
248.899	82.5
249.133	79.5
249.366	81.5
249.599	74.5
249.832	84.5
250.066	76.5
250.299	86.5
250.532	75.5
250.765	83.5
250.998	79.5
251.231	66.5
251.465	84.5
251.698	80.5
251.931	83.5
252.164	80.5
252.397	82.5
252.63	87.5
252.863	74.5
253.096	82.5
253.329	83.5
253.562	54.5
253.795	79.5
254.028	72.5
254.261	89.5
254.494	81.5
254.727	87.5
254.96	76.5
255.193	71.5
255.426	85.5
255.659	65.5
255.892	79.5
256.124	79.5
256.357	80.5
256.59	89.5
256.823	82.5
257.056	87.5
257.289	81.5
257.521	80.5
257.754	83.5
257.987	76.5
258.22	97.5
258.452	86.5
258.685	82.5
258.918	89.5
259.151	96.5
259.383	91.5
259.616	75.5
259.849	79.5
260.081	81.5
260.314	84.5
260.547	83.5
260.779	68.5
261.012	73.5
261.244	83.5
261.477	97.5
261.71	83.5
261.942	95.5
262.175	96.5
262.407	83.5
262.64	83.5
262.872	82.5
263.105	71.5
263.337	96.5
263.57	85.5
263.802	81.5
264.035	83.5
264.267	64.5
264.499	89.5
264.732	83.5
264.964	67.5
265.197	84.5
265.429	69.5
265.661	83.5
265.894	77.5
266.126	89.5
266.358	87.5
266.591	84.5
266.823	88.5
267.055	82.5
267.287	76.5
267.52	67.5
267.752	72.5
267.984	79.5
268.216	83.5
268.448	74.5
268.681	87.5
268.913	85.5
269.145	82.5
269.377	75.5
269.609	81.5
269.841	90.5
270.073	92.5
270.306	74.5
270.538	74.5
270.77	89.5
271.002	87.5
271.234	70.5
271.466	73.5
271.698	85.5
271.93	84.5
272.162	98.5
272.394	74.5
272.626	77.5
272.858	85.5
273.09	85.5
273.322	75.5
273.553	76.5
273.785	67.5
274.017	90.5
274.249	85.5
274.481	80.5
274.713	73.5
274.945	77.5
275.176	78.5
275.408	69.5
275.64	84.5
275.872	76.5
276.104	92.5
276.335	72.5
276.567	98.5
276.799	93.5
277.031	90.5
277.262	87.5
277.494	78.5
277.726	69.5
277.957	89.5
278.189	93.5
278.421	80.5
278.652	95.5
278.884	72.5
279.115	92.5
279.347	89.5
279.579	87.5
279.81	83.5
280.042	72.5
280.273	87.5
280.505	80.5
280.736	91.5
280.968	88.5
281.199	82.5
281.431	75.5
281.662	90.5
281.894	87.5
282.125	95.5
282.356	109.5
282.588	108.5
282.819	105.5
283.051	87.5
283.282	83.5
283.513	77.5
283.745	86.5
283.976	91.5
284.207	88.5
284.439	85.5
284.67	91.5
284.901	73.5
285.132	79.5
285.364	85.5
285.595	78.5
285.826	81.5
286.057	84.5
286.288	93.5
286.52	91.5
286.751	72.5
286.982	94.5
287.213	86.5
287.444	86.5
287.675	95.5
287.906	77.5
288.138	82.5
288.369	96.5
288.6	73.5
288.831	75.5
289.062	95.5
289.293	72.5
289.524	83.5
289.755	95.5
289.986	74.5
290.217	83.5
290.448	89.5
290.679	84.5
290.91	96.5
291.141	85.5
291.371	88.5
291.602	83.5
291.833	91.5
292.064	89.5
292.295	85.5
292.526	78.5
292.757	72.5
292.987	73.5
293.218	91.5
293.449	90.5
293.68	84.5
293.91	77.5
294.141	93.5
294.372	90.5
294.603	83.5
294.833	89.5
295.064	83.5
295.295	91.5
295.525	74.5
295.756	90.5
295.987	99.5
296.217	103.5
296.448	99.5
296.679	91.5
296.909	85.5
297.14	87.5
297.37	86.5
297.601	89.5
297.831	81.5
298.062	95.5
298.292	96.5
298.523	93.5
298.753	96.5
298.984	88.5
299.214	91.5
299.445	85.5
299.675	90.5
299.905	91.5
300.136	82.5
300.366	73.5
300.597	86.5
300.827	93.5
301.057	91.5
301.288	92.5
301.518	89.5
301.748	85.5
301.979	106.5
302.209	83.5
302.439	88.5
302.669	96.5
302.9	95.5
303.13	70.5
303.36	79.5
303.59	91.5
303.82	85.5
304.051	90.5
304.281	91.5
304.511	87.5
304.741	90.5
304.971	90.5
305.201	69.5
305.431	97.5
305.661	92.5
305.891	86.5
306.121	87.5
306.352	82.5
306.582	95.5
306.812	86.5
307.042	81.5
307.272	84.5
307.502	83.5
307.731	93.5
307.961	86.5
308.191	90.5
308.421	98.5
308.651	79.5
308.881	87.5
309.111	89.5
309.341	89.5
309.571	106.5
309.8	92.5
310.03	107.5
310.26	77.5
310.49	101.5
310.72	80.5
310.949	104.5
311.179	104.5
311.409	86.5
311.639	87.5
311.868	99.5
312.098	82.5
312.328	82.5
312.557	95.5
312.787	101.5
313.017	97.5
313.246	98.5
313.476	103.5
313.706	80.5
313.935	87.5
314.165	93.5
314.394	90.5
314.624	94.5
314.853	96.5
315.083	87.5
315.312	97.5
315.542	83.5
315.771	91.5
316.001	101.5
316.23	89.5
316.46	87.5
316.689	84.5
316.919	83.5
317.148	85.5
317.377	87.5
317.607	89.5
317.836	108.5
318.065	81.5
318.295	89.5
318.524	79.5
318.753	84.5
318.983	84.5
319.212	84.5
319.441	87.5
319.67	98.5
319.9	81.5
320.129	87.5
320.358	100.5
320.587	100.5
320.816	85.5
321.046	87.5
321.275	105.5
321.504	96.5
321.733	86.5
321.962	76.5
322.191	89.5
322.42	99.5
322.649	95.5
322.878	94.5
323.108	107.5
323.337	106.5
323.566	107.5
323.795	132.5
324.024	160.5
324.253	274.5
324.482	519.5
324.71	1031.5
324.939	1389.5
325.168	538.5
325.397	191.5
325.626	118.5
325.855	120.5
326.084	108.5
326.313	107.5
326.542	131.5
326.77	166.5
326.999	321.5
327.228	593.5
327.457	1095.5
327.686	881.5
327.914	253.5
328.143	160.5
328.372	103.5
328.6	93.5
328.829	96.5
329.058	116.5
329.287	103.5
329.515	103.5
329.744	96.5
329.972	102.5
330.201	106.5
330.43	113.5
330.658	102.5
330.887	107.5
331.115	88.5
331.344	103.5
331.572	104.5
331.801	100.5
332.03	93.5
332.258	94.5
332.486	81.5
332.715	82.5
332.943	92.5
333.172	98.5
333.4	107.5
333.629	100.5
333.857	100.5
334.085	82.5
334.314	88.5
334.542	99.5
334.771	107.5
334.999	89.5
335.227	104.5
335.455	90.5
335.684	93.5
335.912	86.5
336.14	88.5
336.369	90.5
336.597	81.5
336.825	83.5
337.053	93.5
337.281	89.5
337.51	88.5
337.738	99.5
337.966	76.5
338.194	82.5
338.422	85.5
338.65	74.5
338.878	85.5
339.106	92.5
339.334	97.5
339.562	97.5
339.79	96.5
340.018	109.5
340.246	89.5
340.474	95.5
340.702	92.5
340.93	91.5
341.158	98.5
341.386	85.5
341.614	98.5
341.842	94.5
342.07	80.5
342.298	83.5
342.526	99.5
342.754	89.5
342.981	92.5
343.209	76.5
343.437	100.5
343.665	81.5
343.893	89.5
344.12	92.5
344.348	85.5
344.576	87.5
344.804	77.5
345.031	87.5
345.259	104.5
345.487	91.5
345.714	83.5
345.942	93.5
346.17	91.5
346.397	76.5
346.625	88.5
346.853	79.5
347.08	85.5
347.308	94.5
347.535	105.5
347.763	83.5
347.99	99.5
348.218	92.5
348.445	105.5
348.673	92.5
348.9	103.5
349.128	85.5
349.355	83.5
349.583	96.5
349.81	87.5
350.037	98.5
350.265	104.5
350.492	88.5
350.72	97.5
350.947	89.5
351.174	108.5
351.402	97.5
351.629	103.5
351.856	92.5
352.083	98.5
352.311	112.5
352.538	97.5
352.765	98.5
352.992	100.5
353.22	107.5
353.447	109.5
353.674	94.5
353.901	93.5
354.128	103.5
354.355	93.5
354.583	94.5
354.81	99.5
355.037	90.5
355.264	97.5
355.491	95.5
355.718	87.5
355.945	98.5
356.172	101.5
356.399	99.5
356.626	89.5
356.853	96.5
357.08	101.5
357.307	96.5
357.534	90.5
357.761	93.5
357.988	117.5
358.215	108.5
358.441	85.5
358.668	89.5
358.895	95.5
359.122	90.5
359.349	105.5
359.576	96.5
359.802	110.5
360.029	84.5
360.256	89.5
360.483	98.5
360.709	88.5
360.936	91.5
361.163	88.5
361.39	83.5
361.616	84.5
361.843	103.5
362.07	94.5
362.296	98.5
362.523	96.5
362.749	82.5
362.976	85.5
363.203	96.5
363.429	100.5
363.656	72.5
363.882	97.5
364.109	83.5
364.335	95.5
364.562	90.5
364.788	95.5
365.015	97.5
365.241	92.5
365.468	84.5
365.694	98.5
365.92	89.5
366.147	93.5
366.373	89.5
366.599	91.5
366.826	90.5
367.052	81.5
367.278	81.5
367.505	68.5
367.731	83.5
367.957	83.5
368.184	73.5
368.41	96.5
368.636	100.5
368.862	95.5
369.089	89.5
369.315	85.5
369.541	73.5
369.767	85.5
369.993	81.5
370.219	89.5
370.445	86.5
370.672	88.5
370.898	86.5
371.124	93.5
371.35	86.5
371.576	91.5
371.802	95.5
372.028	74.5
372.254	87.5
372.48	86.5
372.706	88.5
372.932	79.5
373.158	90.5
373.384	97.5
373.61	93.5
373.835	93.5
374.061	87.5
374.287	87.5
374.513	90.5
374.739	87.5
374.965	98.5
375.191	91.5
375.416	86.5
375.642	92.5
375.868	89.5
376.094	93.5
376.319	79.5
376.545	74.5
376.771	90.5
376.997	106.5
377.222	88.5
377.448	89.5
377.674	103.5
377.899	70.5
378.125	87.5
378.35	103.5
378.576	103.5
378.802	95.5
379.027	95.5
379.253	109.5
379.478	106.5
379.704	112.5
379.929	109.5
380.155	117.5
380.38	109.5
380.606	97.5
380.831	110.5
381.057	113.5
381.282	106.5
381.507	101.5
381.733	95.5
381.958	102.5
382.184	104.5
382.409	92.5
382.634	111.5
382.86	106.5
383.085	103.5
383.31	104.5
383.535	115.5
383.761	119.5
383.986	125.5
384.211	109.5
384.436	110.5
384.662	97.5
384.887	124.5
385.112	126.5
385.337	121.5
385.562	128.5
385.787	140.5
386.013	125.5
386.238	142.5
386.463	130.5
386.688	113.5
386.913	123.5
387.138	132.5
387.363	110.5
387.588	124.5
387.813	109.5
388.038	121.5
388.263	129.5
388.488	158.5
388.713	97.5
388.938	94.5
389.163	108.5
389.387	92.5
389.612	114.5
389.837	89.5
390.062	97.5
390.287	87.5
390.512	93.5
390.736	95.5
390.961	91.5
391.186	82.5
391.411	82.5
391.636	99.5
391.86	83.5
392.085	81.5
392.31	106.5
392.534	97.5
392.759	83.5
392.984	81.5
393.208	90.5
393.433	89.5
393.658	92.5
393.882	84.5
394.107	88.5
394.331	78.5
394.556	83.5
394.78	83.5
395.005	80.5
395.229	76.5
395.454	85.5
395.678	81.5
395.903	83.5
396.127	88.5
396.352	92.5
396.576	87.5
396.801	83.5
397.025	76.5
397.249	92.5
397.474	87.5
397.698	79.5
397.922	83.5
398.147	90.5
398.371	91.5
398.595	74.5
398.82	81.5
399.044	77.5
399.268	88.5
399.492	92.5
399.717	79.5
399.941	76.5
400.165	87.5
400.389	83.5
400.613	90.5
400.837	82.5
401.062	93.5
401.286	79.5
401.51	75.5
401.734	89.5
401.958	93.5
402.182	109.5
402.406	143.5
402.63	109.5
402.854	95.5
403.078	98.5
403.302	97.5
403.526	88.5
403.75	95.5
403.974	87.5
404.198	80.5
404.422	93.5
404.645	90.5
404.869	87.5
405.093	93.5
405.317	89.5
405.541	103.5
405.765	86.5
405.988	103.5
406.212	125.5
406.436	147.5
406.66	118.5
406.883	95.5
407.107	74.5
407.331	84.5
407.555	94.5
407.778	89.5
408.002	92.5
408.226	88.5
408.449	99.5
408.673	96.5
408.896	73.5
409.12	87.5
409.344	70.5
409.567	95.5
409.791	85.5
410.014	85.5
410.238	79.5
410.461	76.5
410.685	85.5
410.908	90.5
411.132	106.5
411.355	92.5
411.578	98.5
411.802	84.5
412.025	91.5
412.249	74.5
412.472	70.5
412.695	93.5
412.919	97.5
413.142	84.5
413.365	84.5
413.589	85.5
413.812	90.5
414.035	85.5
414.258	105.5
414.482	83.5
414.705	90.5
414.928	84.5
415.151	90.5
415.374	92.5
415.597	87.5
415.821	69.5
416.044	87.5
416.267	89.5
416.49	79.5
416.713	79.5
416.936	84.5
417.159	71.5
417.382	86.5
417.605	84.5
417.828	87.5
418.051	89.5
418.274	91.5
418.497	89.5
418.72	83.5
418.943	93.5
419.166	88.5
419.389	88.5
419.611	87.5
419.834	98.5
420.057	81.5
420.28	85.5
420.503	93.5
420.726	92.5
420.948	97.5
421.171	97.5
421.394	99.5
421.617	95.5
421.839	85.5
422.062	73.5
422.285	96.5
422.507	88.5
422.73	103.5
422.953	93.5
423.175	85.5
423.398	80.5
423.621	93.5
423.843	86.5
424.066	77.5
424.288	83.5
424.511	92.5
424.733	82.5
424.956	103.5
425.178	85.5
425.401	90.5
425.623	107.5
425.846	95.5
426.068	86.5
426.291	84.5
426.513	82.5
426.735	109.5
426.958	90.5
427.18	106.5
427.402	106.5
427.625	112.5
427.847	91.5
428.069	81.5
428.292	85.5
428.514	82.5
428.736	83.5
428.958	79.5
429.181	74.5
429.403	89.5
429.625	102.5
429.847	89.5
430.069	97.5
430.292	96.5
430.514	96.5
430.736	87.5
430.958	85.5
431.18	76.5
431.402	76.5
431.624	83.5
431.846	79.5
432.068	79.5
432.29	85.5
432.512	96.5
432.734	75.5
432.956	93.5
433.178	93.5
433.4	87.5
433.622	100.5
433.844	98.5
434.066	87.5
434.287	84.5
434.509	88.5
434.731	84.5
434.953	92.5
435.175	81.5
435.397	83.5
435.618	85.5
435.84	93.5
436.062	119.5
436.284	101.5
436.505	89.5
436.727	93.5
436.949	94.5
437.17	91.5
437.392	77.5
437.614	91.5
437.835	94.5
438.057	103.5
438.278	102.5
438.5	80.5
438.721	87.5
438.943	95.5
439.165	87.5
439.386	76.5
439.608	91.5
439.829	87.5
440.05	105.5
440.272	99.5
440.493	66.5
440.715	76.5
440.936	99.5
441.158	88.5
441.379	99.5
441.6	93.5
441.822	96.5
442.043	77.5
442.264	98.5
442.486	95.5
442.707	79.5
442.928	90.5
443.149	106.5
443.371	108.5
443.592	88.5
443.813	94.5
444.034	105.5
444.255	75.5
444.476	73.5
444.698	81.5
444.919	86.5
445.14	128.5
445.361	118.5
445.582	100.5
445.803	101.5
446.024	102.5
446.245	104.5
446.466	108.5
446.687	68.5
446.908	77.5
447.129	89.5
447.35	93.5
447.571	77.5
447.792	81.5
448.013	92.5
448.234	90.5
448.455	91.5
448.675	91.5
448.896	101.5
449.117	91.5
449.338	81.5
449.559	105.5
449.779	115.5
450	87.5
450.221	85.5
450.442	85.5
450.662	81.5
450.883	90.5
451.104	96.5
451.324	100.5
451.545	92.5
451.766	74.5
451.986	90.5
452.207	92.5
452.428	71.5
452.648	100.5
452.869	100.5
453.089	104.5
453.31	96.5
453.53	80.5
453.751	93.5
453.971	98.5
454.192	88.5
454.412	89.5
454.633	76.5
454.853	80.5
455.073	74.5
455.294	79.5
455.514	81.5
455.734	88.5
455.955	76.5
456.175	83.5
456.395	76.5
456.616	91.5
456.836	82.5
457.056	86.5
457.276	80.5
457.497	78.5
457.717	81.5
457.937	81.5
458.157	87.5
458.377	89.5
458.598	93.5
458.818	93.5
459.038	106.5
459.258	94.5
459.478	92.5
459.698	84.5
459.918	91.5
460.138	79.5
460.358	91.5
460.578	98.5
460.798	83.5
461.018	76.5
461.238	79.5
461.458	85.5
461.678	83.5
461.898	100.5
462.118	87.5
462.338	90.5
462.558	95.5
462.777	97.5
462.997	76.5
463.217	70.5
463.437	81.5
463.657	76.5
463.876	76.5
464.096	91.5
464.316	79.5
464.536	73.5
464.755	81.5
464.975	91.5
465.195	124.5
465.414	113.5
465.634	85.5
465.854	92.5
466.073	74.5
466.293	91.5
466.512	90.5
466.732	86.5
466.951	90.5
467.171	79.5
467.391	89.5
467.61	84.5
467.829	84.5
468.049	88.5
468.268	82.5
468.488	101.5
468.707	86.5
468.927	82.5
469.146	82.5
469.365	81.5
469.585	79.5
469.804	88.5
470.023	88.5
470.243	97.5
470.462	99.5
470.681	85.5
470.901	89.5
471.12	85.5
471.339	73.5
471.558	95.5
471.777	84.5
471.997	89.5
472.216	98.5
472.435	109.5
472.654	91.5
472.873	83.5
473.092	92.5
473.311	73.5
473.53	76.5
473.749	84.5
473.968	99.5
474.187	98.5
474.406	83.5
474.625	90.5
474.844	93.5
475.063	85.5
475.282	68.5
475.501	87.5
475.72	88.5
475.939	91.5
476.158	83.5
476.377	87.5
476.596	82.5
476.814	75.5
477.033	82.5
477.252	81.5
477.471	82.5
477.69	88.5
477.908	91.5
478.127	79.5
478.346	85.5
478.564	88.5
478.783	69.5
479.002	84.5
479.22	95.5
479.439	87.5
479.658	87.5
479.876	86.5
480.095	84.5
480.313	84.5
480.532	81.5
480.751	87.5
480.969	98.5
481.188	153.5
481.406	123.5
481.624	94.5
481.843	73.5
482.061	88.5
482.28	77.5
482.498	89.5
482.717	84.5
482.935	83.5
483.153	99.5
483.372	93.5
483.59	92.5
483.808	82.5
484.027	85.5
484.245	80.5
484.463	92.5
484.681	76.5
484.9	93.5
485.118	100.5
485.336	99.5
485.554	96.5
485.772	93.5
485.99	90.5
486.209	103.5
486.427	95.5
486.645	99.5
486.863	102.5
487.081	100.5
487.299	107.5
487.517	100.5
487.735	91.5
487.953	76.5
488.171	83.5
488.389	85.5
488.607	100.5
488.825	98.5
489.043	74.5
489.261	89.5
489.479	91.5
489.696	90.5
489.914	92.5
490.132	71.5
490.35	97.5
490.568	58.5
490.786	97.5
491.003	65.5
491.221	84.5
491.439	85.5
491.657	75.5
491.874	75.5
492.092	88.5
492.31	100.5
492.527	77.5
492.745	85.5
492.963	89.5
493.18	84.5
493.398	86.5
493.615	99.5
493.833	96.5
494.05	87.5
494.268	87.5
494.485	81.5
494.703	83.5
494.92	87.5
495.138	85.5
495.355	98.5
495.573	83.5
495.79	76.5
496.008	80.5
496.225	107.5
496.442	96.5
496.66	106.5
496.877	84.5
497.094	109.5
497.312	94.5
497.529	84.5
497.746	90.5
497.963	79.5
498.181	95.5
498.398	87.5
498.615	104.5
498.832	93.5
499.049	75.5
499.267	90.5
499.484	81.5
499.701	84.5
499.918	77.5
500.135	88.5
500.352	95.5
500.569	86.5
500.786	88.5
501.003	92.5
501.22	93.5
501.437	86.5
501.654	89.5
501.871	85.5
502.088	77.5
502.305	79.5
502.522	75.5
502.739	85.5
502.956	97.5
503.172	91.5
503.389	87.5
503.606	109.5
503.823	87.5
504.04	89.5
504.256	83.5
504.473	88.5
504.69	83.5
504.907	85.5
505.123	72.5
505.34	88.5
505.557	85.5
505.773	72.5
505.99	85.5
506.207	102.5
506.423	103.5
506.64	82.5
506.856	95.5
507.073	88.5
507.289	82.5
507.506	88.5
507.722	98.5
507.939	89.5
508.155	106.5
508.372	100.5
508.588	91.5
508.805	87.5
509.021	89.5
509.238	91.5
509.454	91.5
509.67	95.5
509.887	97.5
510.103	113.5
510.319	162.5
510.536	502.5
510.752	1489.5
510.968	433.5
511.184	127.5
511.401	95.5
511.617	95.5
511.833	95.5
512.049	80.5
512.265	99.5
512.481	97.5
512.698	91.5
512.914	86.5
513.13	81.5
513.346	93.5
513.562	87.5
513.778	88.5
513.994	92.5
514.21	83.5
514.426	104.5
514.642	103.5
514.858	100.5
515.074	116.5
515.29	280.5
515.506	818.5
515.721	321.5
515.937	119.5
516.153	105.5
516.369	105.5
516.585	106.5
516.801	97.5
517.016	87.5
517.232	90.5
517.448	77.5
517.664	87.5
517.879	87.5
518.095	84.5
518.311	95.5
518.527	97.5
518.742	100.5
518.958	78.5
519.173	96.5
519.389	83.5
519.605	71.5
519.82	92.5
520.036	101.5
520.251	106.5
520.467	112.5
520.682	95.5
520.898	76.5
521.113	98.5
521.329	107.5
521.544	147.5
521.76	328.5
521.975	1319.5
522.19	819.5
522.406	203.5
522.621	100.5
522.836	79.5
523.052	98.5
523.267	81.5
523.482	89.5
523.698	95.5
523.913	107.5
524.128	90.5
524.343	91.5
524.559	87.5
524.774	74.5
524.989	106.5
525.204	99.5
525.419	86.5
525.634	100.5
525.849	84.5
526.064	74.5
526.28	87.5
526.495	83.5
526.71	90.5
526.925	93.5
527.14	89.5
527.355	90.5
527.57	90.5
527.785	77.5
527.999	94.5
528.214	91.5
528.429	81.5
528.644	76.5
528.859	79.5
529.074	99.5
529.289	103.5
529.503	122.5
529.718	101.5
529.933	91.5
530.148	84.5
530.363	89.5
530.577	87.5
530.792	93.5
531.007	81.5
531.221	89.5
531.436	84.5
531.651	89.5
531.865	92.5
532.08	91.5
532.295	92.5
532.509	74.5
532.724	92.5
532.938	97.5
533.153	88.5
533.367	88.5
533.582	83.5
533.796	91.5
534.011	89.5
534.225	76.5
534.44	75.5
534.654	77.5
534.868	74.5
535.083	91.5
535.297	96.5
535.511	100.5
535.726	85.5
535.94	76.5
536.154	94.5
536.369	90.5
536.583	79.5
536.797	93.5
537.011	80.5
