Data from Uncirc_1980_H10_HRD10591_00043.txt Node
Date: Wed Jan 03 12:37:04 EST 2024
User: Yrep
Spectrometer: HR+D1059
Trigger mode: 1
Integration Time (sec): 1.000000E-1
Scans to average: 1
Electric dark correction enabled: true
Nonlinearity correction enabled: false
Boxcar width: 0
XAxis mode: Wavelengths
Number of Pixels in Spectrum: 2048
>>>>>Begin Spectral Data<<<<<
223.165	-21
223.4	-21
223.635	-21
223.869	-8
224.104	-22
224.338	-28
224.573	-14
224.808	-18
225.042	-3
225.277	2
225.511	-11
225.746	16
225.98	8
226.215	10
226.449	16
226.683	22
226.918	20
227.152	31
227.387	22
227.621	38
227.856	35
228.09	53
228.324	46
228.559	59
228.793	41
229.027	68
229.262	73
229.496	59
229.73	82
229.964	80
230.199	75
230.433	74
230.667	84
230.901	77
231.136	64
231.37	82
231.604	77
231.838	95
232.072	78
232.306	88
232.541	77
232.775	87
233.009	84
233.243	73
233.477	67
233.711	69
233.945	77
234.179	76
234.413	74
234.647	71
234.881	87
235.115	70
235.349	63
235.583	65
235.817	78
236.051	82
236.285	76
236.519	85
236.753	80
236.987	86
237.221	78
237.455	87
237.689	62
237.922	80
238.156	66
238.39	80
238.624	83
238.858	60
239.091	66
239.325	77
239.559	65
239.793	66
240.027	83
240.26	84
240.494	76
240.728	90
240.961	64
241.195	66
241.429	70
241.662	75
241.896	80
242.13	86
242.363	75
242.597	82
242.83	82
243.064	63
243.298	70
243.531	70
243.765	68
243.998	77
244.232	74
244.465	70
244.699	72
244.932	73
245.166	76
245.399	87
245.633	83
245.866	81
246.099	78
246.333	98
246.566	72
246.8	80
247.033	74
247.266	86
247.5	76
247.733	75
247.966	73
248.2	90
248.433	74
248.666	77
248.899	76
249.133	79
249.366	92
249.599	94
249.832	84
250.066	88
250.299	74
250.532	80
250.765	70
250.998	81
251.231	74
251.465	76
251.698	70
251.931	72
252.164	80
252.397	69
252.63	72
252.863	84
253.096	80
253.329	73
253.562	80
253.795	80
254.028	73
254.261	68
254.494	77
254.727	85
254.96	87
255.193	88
255.426	73
255.659	89
255.892	82
256.124	95
256.357	77
256.59	83
256.823	84
257.056	69
257.289	84
257.521	72
257.754	75
257.987	85
258.22	90
258.452	79
258.685	94
258.918	81
259.151	72
259.383	67
259.616	78
259.849	81
260.081	74
260.314	80
260.547	82
260.779	85
261.012	75
261.244	86
261.477	76
261.71	89
261.942	111
262.175	107
262.407	86
262.64	78
262.872	82
263.105	80
263.337	102
263.57	71
263.802	88
264.035	75
264.267	83
264.499	77
264.732	77
264.964	75
265.197	86
265.429	98
265.661	85
265.894	86
266.126	79
266.358	88
266.591	77
266.823	78
267.055	86
267.287	82
267.52	85
267.752	82
267.984	76
268.216	75
268.448	88
268.681	82
268.913	94
269.145	96
269.377	77
269.609	85
269.841	86
270.073	84
270.306	87
270.538	101
270.77	93
271.002	96
271.234	93
271.466	79
271.698	86
271.93	79
272.162	85
272.394	76
272.626	87
272.858	93
273.09	92
273.322	78
273.553	71
273.785	86
274.017	90
274.249	84
274.481	78
274.713	85
274.945	102
275.176	95
275.408	94
275.64	83
275.872	85
276.104	69
276.335	104
276.567	95
276.799	100
277.031	97
277.262	91
277.494	77
277.726	70
277.957	77
278.189	84
278.421	87
278.652	91
278.884	92
279.115	81
279.347	88
279.579	93
279.81	91
280.042	99
280.273	82
280.505	84
280.736	86
280.968	86
281.199	88
281.431	82
281.662	86
281.894	102
282.125	98
282.356	110
282.588	124
282.819	103
283.051	78
283.282	85
283.513	99
283.745	93
283.976	97
284.207	81
284.439	66
284.67	74
284.901	92
285.132	94
285.364	76
285.595	92
285.826	103
286.057	85
286.288	84
286.52	85
286.751	77
286.982	83
287.213	73
287.444	90
287.675	86
287.906	76
288.138	85
288.369	85
288.6	81
288.831	82
289.062	86
289.293	83
289.524	106
289.755	90
289.986	92
290.217	90
290.448	80
290.679	84
290.91	89
291.141	88
291.371	86
291.602	86
291.833	83
292.064	90
292.295	88
292.526	95
292.757	89
292.987	83
293.218	81
293.449	91
293.68	89
293.91	100
294.141	88
294.372	78
294.603	85
294.833	96
295.064	84
295.295	98
295.525	82
295.756	100
295.987	105
296.217	134
296.448	115
296.679	103
296.909	102
297.14	84
297.37	88
297.601	87
297.831	83
298.062	92
298.292	77
298.523	80
298.753	85
298.984	87
299.214	93
299.445	98
299.675	91
299.905	86
300.136	93
300.366	94
300.597	80
300.827	94
301.057	93
301.288	96
301.518	89
301.748	95
301.979	122
302.209	90
302.439	86
302.669	99
302.9	80
303.13	88
303.36	85
303.59	94
303.82	106
304.051	93
304.281	86
304.511	103
304.741	88
304.971	79
305.201	86
305.431	84
305.661	75
305.891	89
306.121	86
306.352	94
306.582	109
306.812	86
307.042	94
307.272	91
307.502	89
307.731	93
307.961	96
308.191	84
308.421	82
308.651	96
308.881	87
309.111	89
309.341	89
309.571	105
309.8	92
310.03	112
310.26	103
310.49	87
310.72	90
310.949	106
311.179	99
311.409	96
311.639	93
311.868	89
312.098	94
312.328	83
312.557	85
312.787	107
313.017	107
313.246	97
313.476	114
313.706	98
313.935	92
314.165	101
314.394	96
314.624	93
314.853	96
315.083	86
315.312	97
315.542	93
315.771	93
316.001	98
316.23	78
316.46	99
316.689	80
316.919	87
317.148	91
317.377	109
317.607	91
317.836	102
318.065	97
318.295	86
318.524	92
318.753	105
318.983	110
319.212	91
319.441	107
319.67	107
319.9	96
320.129	103
320.358	98
320.587	97
320.816	85
321.046	104
321.275	92
321.504	96
321.733	105
321.962	103
322.191	90
322.42	91
322.649	114
322.878	102
323.108	118
323.337	123
323.566	123
323.795	135
324.024	177
324.253	331
324.482	720
324.71	1433
324.939	1992
325.168	728
325.397	210
325.626	141
325.855	122
326.084	116
326.313	124
326.542	133
326.77	200
326.999	400
327.228	804
327.457	1490
327.686	1224
327.914	345
328.143	186
328.372	134
328.6	121
328.829	113
329.058	132
329.287	112
329.515	114
329.744	108
329.972	121
330.201	116
330.43	133
330.658	134
330.887	125
331.115	98
331.344	98
331.572	97
331.801	94
332.03	116
332.258	97
332.486	88
332.715	88
332.943	86
333.172	93
333.4	93
333.629	103
333.857	103
334.085	117
334.314	100
334.542	122
334.771	126
334.999	109
335.227	102
335.455	98
335.684	91
335.912	103
336.14	110
336.369	100
336.597	81
336.825	95
337.053	93
337.281	85
337.51	94
337.738	86
337.966	92
338.194	89
338.422	97
338.65	90
338.878	88
339.106	89
339.334	94
339.562	89
339.79	94
340.018	78
340.246	84
340.474	89
340.702	92
340.93	83
341.158	85
341.386	90
341.614	96
341.842	87
342.07	83
342.298	101
342.526	93
342.754	99
342.981	77
343.209	80
343.437	98
343.665	85
343.893	86
344.12	96
344.348	81
344.576	98
344.804	98
345.031	108
345.259	88
345.487	92
345.714	92
345.942	107
346.17	87
346.397	82
346.625	90
346.853	86
347.08	78
347.308	88
347.535	98
347.763	87
347.99	100
348.218	93
348.445	108
348.673	97
348.9	85
349.128	91
349.355	89
349.583	84
349.81	76
350.037	114
350.265	91
350.492	96
350.72	101
350.947	106
351.174	101
351.402	103
351.629	87
351.856	100
352.083	104
352.311	105
352.538	106
352.765	104
352.992	101
353.22	102
353.447	97
353.674	90
353.901	94
354.128	98
354.355	100
354.583	110
354.81	125
355.037	91
355.264	95
355.491	101
355.718	96
355.945	94
356.172	99
356.399	84
356.626	94
356.853	84
357.08	88
357.307	90
357.534	94
357.761	96
357.988	103
358.215	92
358.441	99
358.668	99
358.895	92
359.122	94
359.349	86
359.576	84
359.802	106
360.029	98
360.256	96
360.483	107
360.709	102
360.936	88
361.163	90
361.39	87
361.616	89
361.843	109
362.07	83
362.296	99
362.523	93
362.749	100
362.976	89
363.203	91
363.429	91
363.656	90
363.882	98
364.109	99
364.335	91
364.562	101
364.788	88
365.015	84
365.241	101
365.468	92
365.694	98
365.92	84
366.147	93
366.373	86
366.599	78
366.826	94
367.052	84
367.278	81
367.505	87
367.731	80
367.957	98
368.184	91
368.41	82
368.636	102
368.862	110
369.089	85
369.315	87
369.541	86
369.767	86
369.993	96
370.219	98
370.445	81
370.672	100
370.898	76
371.124	88
371.35	100
371.576	88
371.802	77
372.028	86
372.254	93
372.48	105
372.706	98
372.932	93
373.158	72
373.384	83
373.61	80
373.835	77
374.061	84
374.287	96
374.513	72
374.739	85
374.965	86
375.191	92
375.416	73
375.642	89
375.868	103
376.094	89
376.319	105
376.545	84
376.771	78
376.997	91
377.222	76
377.448	92
377.674	94
377.899	86
378.125	101
378.35	100
378.576	81
378.802	93
379.027	92
379.253	92
379.478	82
379.704	99
379.929	94
380.155	84
380.38	80
380.606	92
380.831	98
381.057	101
381.282	92
381.507	91
381.733	113
381.958	97
382.184	92
382.409	108
382.634	103
382.86	93
383.085	105
383.31	107
383.535	91
383.761	101
383.986	114
384.211	89
384.436	104
384.662	102
384.887	105
385.112	103
385.337	117
385.562	108
385.787	110
386.013	120
386.238	104
386.463	96
386.688	107
386.913	85
387.138	118
387.363	99
387.588	98
387.813	92
388.038	104
388.263	93
388.488	100
388.713	92
388.938	88
389.163	96
389.387	93
389.612	84
389.837	86
390.062	98
390.287	99
390.512	88
390.736	104
390.961	96
391.186	77
391.411	90
391.636	80
391.86	96
392.085	87
392.31	88
392.534	91
392.759	91
392.984	76
393.208	105
393.433	87
393.658	93
393.882	83
394.107	92
394.331	90
394.556	84
394.78	90
395.005	84
395.229	90
395.454	66
395.678	92
395.903	97
396.127	101
396.352	87
396.576	73
396.801	86
397.025	80
397.249	72
397.474	77
397.698	76
397.922	82
398.147	91
398.371	83
398.595	82
398.82	83
399.044	82
399.268	85
399.492	87
399.717	75
399.941	88
400.165	96
400.389	82
400.613	89
400.837	90
401.062	74
401.286	76
401.51	94
401.734	97
401.958	98
402.182	126
402.406	136
402.63	110
402.854	93
403.078	98
403.302	82
403.526	98
403.75	92
403.974	90
404.198	88
404.422	88
404.645	92
404.869	97
405.093	93
405.317	91
405.541	96
405.765	98
405.988	108
406.212	143
406.436	210
406.66	134
406.883	93
407.107	99
407.331	85
407.555	98
407.778	101
408.002	82
408.226	79
408.449	76
408.673	86
408.896	104
409.12	103
409.344	101
409.567	91
409.791	92
410.014	89
410.238	102
410.461	92
410.685	84
410.908	93
411.132	108
411.355	109
411.578	84
411.802	85
412.025	88
412.249	93
412.472	90
412.695	88
412.919	89
413.142	68
413.365	88
413.589	92
413.812	82
414.035	88
414.258	82
414.482	88
414.705	73
414.928	109
415.151	99
415.374	100
415.597	87
415.821	92
416.044	90
416.267	84
416.49	89
416.713	72
416.936	94
417.159	87
417.382	90
417.605	91
417.828	96
418.051	89
418.274	83
418.497	85
418.72	74
418.943	92
419.166	80
419.389	77
419.611	92
419.834	99
420.057	83
420.28	92
420.503	97
420.726	90
420.948	90
421.171	92
421.394	105
421.617	93
421.839	93
422.062	79
422.285	84
422.507	105
422.73	90
422.953	87
423.175	94
423.398	104
423.621	92
423.843	83
424.066	83
424.288	86
424.511	82
424.733	94
424.956	104
425.178	83
425.401	94
425.623	96
425.846	77
426.068	82
426.291	79
426.513	91
426.735	94
426.958	85
427.18	99
427.402	124
427.625	150
427.847	120
428.069	95
428.292	86
428.514	90
428.736	89
428.958	76
429.181	80
429.403	85
429.625	84
429.847	97
430.069	106
430.292	98
430.514	90
430.736	72
430.958	98
431.18	84
431.402	83
431.624	100
431.846	90
432.068	90
432.29	95
432.512	82
432.734	108
432.956	93
433.178	87
433.4	102
433.622	88
433.844	89
434.066	85
434.287	76
434.509	86
434.731	73
434.953	97
435.175	87
435.397	87
435.618	103
435.84	102
436.062	123
436.284	105
436.505	101
436.727	100
436.949	90
437.17	85
437.392	84
437.614	81
437.835	103
438.057	117
438.278	95
438.5	94
438.721	121
438.943	97
439.165	96
439.386	91
439.608	88
439.829	85
440.05	124
440.272	131
440.493	95
440.715	101
440.936	80
441.158	94
441.379	102
441.6	93
441.822	104
442.043	100
442.264	93
442.486	101
442.707	80
442.928	96
443.149	111
443.371	118
443.592	112
443.813	108
444.034	104
444.255	101
444.476	81
444.698	76
444.919	88
445.14	129
445.361	125
445.582	120
445.803	125
446.024	123
446.245	126
446.466	107
446.687	70
446.908	86
447.129	81
447.35	87
447.571	88
447.792	94
448.013	105
448.234	96
448.455	110
448.675	105
448.896	103
449.117	100
449.338	99
449.559	125
449.779	131
450	96
450.221	82
450.442	83
450.662	87
450.883	96
451.104	109
451.324	112
451.545	86
451.766	96
451.986	98
452.207	87
452.428	83
452.648	96
452.869	96
453.089	101
453.31	110
453.53	85
453.751	104
453.971	88
454.192	111
454.412	105
454.633	85
454.853	72
455.073	87
455.294	77
455.514	92
455.734	100
455.955	81
456.175	82
456.395	92
456.616	82
456.836	73
457.056	78
457.276	66
457.497	98
457.717	92
457.937	68
458.157	81
458.377	89
458.598	102
458.818	146
459.038	155
459.258	109
459.478	88
459.698	85
459.918	85
460.138	88
460.358	96
460.578	86
460.798	85
461.018	84
461.238	78
461.458	96
461.678	75
461.898	88
462.118	77
462.338	92
462.558	72
462.777	86
462.997	92
463.217	67
463.437	90
463.657	63
463.876	76
464.096	84
464.316	92
464.536	88
464.755	91
464.975	95
465.195	156
465.414	137
465.634	98
465.854	94
466.073	77
466.293	73
466.512	77
466.732	93
466.951	88
467.171	93
467.391	102
467.61	83
467.829	84
468.049	93
468.268	106
468.488	92
468.707	93
468.927	93
469.146	94
469.365	92
469.585	86
469.804	98
470.023	80
470.243	87
470.462	92
470.681	109
470.901	92
471.12	90
471.339	95
471.558	80
471.777	76
471.997	93
472.216	132
472.435	139
472.654	96
472.873	102
473.092	91
473.311	86
473.53	80
473.749	96
473.968	102
474.187	109
474.406	89
474.625	85
474.844	89
475.063	89
475.282	93
475.501	84
475.72	86
475.939	84
476.158	86
476.377	101
476.596	92
476.814	83
477.033	84
477.252	92
477.471	77
477.69	72
477.908	73
478.127	84
478.346	88
478.564	84
478.783	94
479.002	89
479.22	96
479.439	94
479.658	97
479.876	105
480.095	90
480.313	91
480.532	88
480.751	92
480.969	109
481.188	182
481.406	131
481.624	98
481.843	68
482.061	83
482.28	82
482.498	83
482.717	95
482.935	88
483.153	106
483.372	81
483.59	80
483.808	82
484.027	85
484.245	77
484.463	85
484.681	88
484.9	76
485.118	84
485.336	81
485.554	89
485.772	104
485.99	117
486.209	104
486.427	100
486.645	107
486.863	116
487.081	109
487.299	101
487.517	81
487.735	87
487.953	105
488.171	93
488.389	98
488.607	91
488.825	71
489.043	82
489.261	90
489.479	99
489.696	103
489.914	83
490.132	96
490.35	87
490.568	85
490.786	76
491.003	98
491.221	93
491.439	98
491.657	90
491.874	82
492.092	92
492.31	89
492.527	80
492.745	103
492.963	91
493.18	103
493.398	106
493.615	92
493.833	102
494.05	89
494.268	106
494.485	75
494.703	78
494.92	95
495.138	88
495.355	96
495.573	96
495.79	83
496.008	100
496.225	98
496.442	108
496.66	89
496.877	83
497.094	86
497.312	91
497.529	88
497.746	95
497.963	88
498.181	82
498.398	93
498.615	110
498.832	96
499.049	94
499.267	88
499.484	84
499.701	96
499.918	91
500.135	72
500.352	89
500.569	85
500.786	84
501.003	84
501.22	91
501.437	95
501.654	102
501.871	103
502.088	75
502.305	88
502.522	82
502.739	78
502.956	92
503.172	73
503.389	90
503.606	94
503.823	93
504.04	85
504.256	94
504.473	77
504.69	89
504.907	102
505.123	91
505.34	103
505.557	98
505.773	84
505.99	89
506.207	92
506.423	90
506.64	89
506.856	91
507.073	91
507.289	86
507.506	104
507.722	110
507.939	106
508.155	95
508.372	98
508.588	106
508.805	93
509.021	115
509.238	101
509.454	89
509.67	94
509.887	94
510.103	126
510.319	206
510.536	672
510.752	2093
510.968	581
511.184	138
511.401	113
511.617	105
511.833	86
512.049	93
512.265	76
512.481	86
512.698	90
512.914	84
513.13	98
513.346	99
513.562	97
513.778	85
513.994	92
514.21	104
514.426	105
514.642	128
514.858	117
515.074	136
515.29	391
515.506	1330
515.721	492
515.937	139
516.153	110
516.369	114
516.585	96
516.801	113
517.016	97
517.232	101
517.448	82
517.664	103
517.879	94
518.095	96
518.311	99
518.527	86
518.742	103
518.958	92
519.173	95
519.389	100
519.605	98
519.82	99
520.036	107
520.251	106
520.467	111
520.682	105
520.898	106
521.113	117
521.329	128
521.544	184
521.76	488
521.975	2186
522.19	1301
522.406	275
522.621	130
522.836	112
523.052	97
523.267	90
523.482	98
523.698	100
523.913	126
524.128	96
524.343	81
524.559	91
524.774	97
524.989	103
525.204	98
525.419	108
525.634	84
525.849	88
526.064	98
526.28	87
526.495	83
526.71	90
526.925	75
527.14	78
527.355	77
527.57	70
527.785	72
527.999	86
528.214	82
528.429	94
528.644	93
528.859	85
529.074	89
529.289	123
529.503	158
529.718	98
529.933	92
530.148	71
530.363	92
530.577	98
530.792	84
531.007	94
531.221	98
531.436	90
531.651	101
531.865	93
532.08	92
532.295	94
532.509	86
532.724	89
532.938	85
533.153	96
533.367	80
533.582	85
533.796	82
534.011	92
534.225	102
534.44	88
534.654	83
534.868	91
535.083	99
535.297	108
535.511	101
535.726	113
535.94	106
536.154	99
536.369	98
536.583	93
536.797	91
537.011	99
537.225	82
537.44	80
537.654	92
537.868	89
538.082	86
538.296	86
538.51	93
538.724	93
538.938	94
539.153	108
539.367	104
539.581	101
539.795	89
540.009	90
540.222	99
540.436	100
540.65	97
540.864	96
541.078	78
541.292	79
541.506	93
541.72	104
541.934	116
542.147	76
542.361	85
542.575	86
542.789	87
543.002	92
543.216	91
543.43	98
543.644	86
543.857	71
544.071	100
544.285	91
544.498	103
544.712	93
544.925	91
545.139	76
545.352	86
545.566	101
545.779	77
545.993	85
546.206	92
546.42	85
546.633	84
546.847	89
547.06	90
547.274	97
547.487	92
547.7	82
547.914	85
548.127	89
548.34	86
548.554	84
548.767	88
548.98	83
549.193	96
549.407	97
549.62	84
549.833	91
550.046	98
550.259	86
550.473	83
550.686	105
550.899	90
551.112	92
551.325	91
551.538	79
551.751	88
551.964	78
552.177	85
552.39	99
552.603	78
552.816	80
553.029	83
553.242	99
553.455	116
553.667	98
553.88	98
554.093	80
554.306	88
554.519	89
554.732	90
554.944	97
555.157	86
555.37	86
555.583	80
555.795	88
556.008	88
556.221	94
556.433	107
556.646	81
556.859	92
557.071	106
557.284	75
557.496	88
557.709	92
557.921	92
558.134	91
558.346	85
558.559	103
558.771	96
558.984	80
559.196	88
559.409	92
559.621	90
559.833	98
560.046	94
560.258	92
560.47	85
560.683	88
560.895	87
561.107	98
561.32	86
561.532	117
561.744	96
561.956	92
562.168	80
562.381	83
562.593	80
562.805	86
563.017	77
563.229	81
563.441	100
563.653	80
563.865	97
564.077	92
564.289	99
564.501	89
564.713	71
564.925	88
565.137	104
565.349	93
565.561	80
565.773	86
565.985	87
566.197	96
566.408	98
566.62	94
566.832	86
567.044	80
567.255	77
567.467	88
567.679	92
567.891	90
568.102	74
568.314	98
568.526	83
568.737	86
568.949	80
569.161	78
569.372	88
569.584	88
569.795	99
570.007	119
570.218	222
570.43	122
570.641	87
570.853	81
571.064	88
571.276	88
571.487	88
571.698	85
571.91	86
572.121	82
572.333	84
572.544	82
572.755	73
572.966	96
573.178	80
573.389	93
573.6	85
573.811	89
574.023	93
574.234	87
574.445	95
574.656	74
574.867	84
575.078	91
575.289	76
575.501	88
575.712	90
575.923	85
576.134	84
576.345	86
576.556	77
576.767	91
576.978	92
577.188	88
577.399	99
577.61	102
577.821	101
578.032	117
578.243	244
578.454	685
578.665	206
578.875	102
579.086	108
579.297	86
579.508	87
579.718	68
579.929	84
580.14	89
580.35	80
580.561	95
580.772	85
580.982	74
581.193	95
581.403	80
581.614	81
581.825	82
582.035	89
582.246	91
582.456	68
582.667	91
582.877	76
583.087	91
583.298	82
583.508	67
583.719	88
583.929	74
584.139	69
584.35	67
584.56	84
584.77	87
