Data from Uncirc_1980_H10_HRD10591_00064.txt Node
Date: Wed Jan 03 12:37:08 EST 2024
User: Yrep
Spectrometer: HR+D1059
Trigger mode: 1
Integration Time (sec): 1.000000E-1
Scans to average: 1
Electric dark correction enabled: true
Nonlinearity correction enabled: false
Boxcar width: 0
XAxis mode: Wavelengths
Number of Pixels in Spectrum: 2048
>>>>>Begin Spectral Data<<<<<
223.165	-16.5
223.4	-16.5
223.635	-16.5
223.869	-20.5
224.104	-17.5
224.338	4.5
224.573	-17.5
224.808	4.5
225.042	-26.5
225.277	-8.5
225.511	-15.5
225.746	4.5
225.98	13.5
226.215	14.5
226.449	30.5
226.683	9.5
226.918	16.5
227.152	24.5
227.387	36.5
227.621	35.5
227.856	39.5
228.09	44.5
228.324	56.5
228.559	53.5
228.793	73.5
229.027	45.5
229.262	50.5
229.496	65.5
229.73	75.5
229.964	86.5
230.199	92.5
230.433	84.5
230.667	73.5
230.901	87.5
231.136	78.5
231.37	84.5
231.604	86.5
231.838	83.5
232.072	86.5
232.306	93.5
232.541	87.5
232.775	80.5
233.009	94.5
233.243	95.5
233.477	80.5
233.711	73.5
233.945	68.5
234.179	75.5
234.413	81.5
234.647	81.5
234.881	92.5
235.115	91.5
235.349	80.5
235.583	63.5
235.817	84.5
236.051	98.5
236.285	66.5
236.519	61.5
236.753	84.5
236.987	90.5
237.221	84.5
237.455	75.5
237.689	74.5
237.922	76.5
238.156	84.5
238.39	76.5
238.624	72.5
238.858	86.5
239.091	86.5
239.325	77.5
239.559	76.5
239.793	87.5
240.027	73.5
240.26	82.5
240.494	65.5
240.728	77.5
240.961	82.5
241.195	78.5
241.429	81.5
241.662	78.5
241.896	60.5
242.13	72.5
242.363	75.5
242.597	76.5
242.83	87.5
243.064	80.5
243.298	75.5
243.531	80.5
243.765	87.5
243.998	91.5
244.232	75.5
244.465	88.5
244.699	85.5
244.932	88.5
245.166	79.5
245.399	92.5
245.633	75.5
245.866	87.5
246.099	83.5
246.333	85.5
246.566	82.5
246.8	75.5
247.033	91.5
247.266	89.5
247.5	77.5
247.733	92.5
247.966	78.5
248.2	73.5
248.433	89.5
248.666	84.5
248.899	81.5
249.133	82.5
249.366	95.5
249.599	89.5
249.832	87.5
250.066	90.5
250.299	84.5
250.532	89.5
250.765	73.5
250.998	61.5
251.231	76.5
251.465	97.5
251.698	76.5
251.931	93.5
252.164	81.5
252.397	74.5
252.63	73.5
252.863	90.5
253.096	77.5
253.329	87.5
253.562	78.5
253.795	88.5
254.028	83.5
254.261	89.5
254.494	81.5
254.727	79.5
254.96	81.5
255.193	78.5
255.426	91.5
255.659	88.5
255.892	79.5
256.124	74.5
256.357	81.5
256.59	72.5
256.823	79.5
257.056	85.5
257.289	91.5
257.521	78.5
257.754	73.5
257.987	84.5
258.22	81.5
258.452	84.5
258.685	86.5
258.918	96.5
259.151	94.5
259.383	93.5
259.616	81.5
259.849	95.5
260.081	71.5
260.314	81.5
260.547	84.5
260.779	83.5
261.012	88.5
261.244	97.5
261.477	91.5
261.71	90.5
261.942	111.5
262.175	109.5
262.407	91.5
262.64	93.5
262.872	82.5
263.105	73.5
263.337	81.5
263.57	71.5
263.802	97.5
264.035	79.5
264.267	78.5
264.499	82.5
264.732	81.5
264.964	92.5
265.197	94.5
265.429	96.5
265.661	89.5
265.894	101.5
266.126	89.5
266.358	75.5
266.591	84.5
266.823	84.5
267.055	76.5
267.287	92.5
267.52	80.5
267.752	93.5
267.984	95.5
268.216	88.5
268.448	87.5
268.681	87.5
268.913	92.5
269.145	77.5
269.377	65.5
269.609	93.5
269.841	82.5
270.073	80.5
270.306	88.5
270.538	96.5
270.77	89.5
271.002	94.5
271.234	96.5
271.466	78.5
271.698	98.5
271.93	99.5
272.162	95.5
272.394	82.5
272.626	96.5
272.858	89.5
273.09	86.5
273.322	85.5
273.553	84.5
273.785	89.5
274.017	80.5
274.249	96.5
274.481	77.5
274.713	88.5
274.945	86.5
275.176	90.5
275.408	79.5
275.64	77.5
275.872	87.5
276.104	86.5
276.335	101.5
276.567	84.5
276.799	96.5
277.031	98.5
277.262	88.5
277.494	96.5
277.726	96.5
277.957	80.5
278.189	86.5
278.421	93.5
278.652	87.5
278.884	84.5
279.115	96.5
279.347	89.5
279.579	93.5
279.81	72.5
280.042	80.5
280.273	84.5
280.505	78.5
280.736	90.5
280.968	95.5
281.199	85.5
281.431	74.5
281.662	91.5
281.894	94.5
282.125	105.5
282.356	104.5
282.588	115.5
282.819	107.5
283.051	80.5
283.282	100.5
283.513	94.5
283.745	98.5
283.976	86.5
284.207	78.5
284.439	93.5
284.67	88.5
284.901	75.5
285.132	79.5
285.364	80.5
285.595	101.5
285.826	99.5
286.057	107.5
286.288	94.5
286.52	86.5
286.751	79.5
286.982	91.5
287.213	76.5
287.444	82.5
287.675	89.5
287.906	101.5
288.138	106.5
288.369	84.5
288.6	95.5
288.831	86.5
289.062	90.5
289.293	98.5
289.524	90.5
289.755	100.5
289.986	92.5
290.217	91.5
290.448	102.5
290.679	85.5
290.91	87.5
291.141	80.5
291.371	75.5
291.602	89.5
291.833	84.5
292.064	104.5
292.295	81.5
292.526	94.5
292.757	103.5
292.987	104.5
293.218	98.5
293.449	90.5
293.68	88.5
293.91	108.5
294.141	97.5
294.372	90.5
294.603	97.5
294.833	94.5
295.064	96.5
295.295	84.5
295.525	93.5
295.756	102.5
295.987	102.5
296.217	113.5
296.448	105.5
296.679	84.5
296.909	87.5
297.14	93.5
297.37	89.5
297.601	94.5
297.831	77.5
298.062	85.5
298.292	96.5
298.523	87.5
298.753	82.5
298.984	96.5
299.214	94.5
299.445	79.5
299.675	96.5
299.905	103.5
300.136	99.5
300.366	104.5
300.597	103.5
300.827	85.5
301.057	88.5
301.288	91.5
301.518	105.5
301.748	88.5
301.979	102.5
302.209	90.5
302.439	85.5
302.669	98.5
302.9	99.5
303.13	102.5
303.36	93.5
303.59	93.5
303.82	90.5
304.051	90.5
304.281	84.5
304.511	103.5
304.741	90.5
304.971	78.5
305.201	95.5
305.431	81.5
305.661	94.5
305.891	97.5
306.121	90.5
306.352	110.5
306.582	87.5
306.812	113.5
307.042	93.5
307.272	90.5
307.502	93.5
307.731	92.5
307.961	101.5
308.191	102.5
308.421	90.5
308.651	96.5
308.881	101.5
309.111	91.5
309.341	85.5
309.571	90.5
309.8	110.5
310.03	87.5
310.26	91.5
310.49	95.5
310.72	90.5
310.949	90.5
311.179	94.5
311.409	86.5
311.639	92.5
311.868	96.5
312.098	90.5
312.328	91.5
312.557	93.5
312.787	84.5
313.017	97.5
313.246	79.5
313.476	81.5
313.706	92.5
313.935	98.5
314.165	93.5
314.394	97.5
314.624	95.5
314.853	98.5
315.083	103.5
315.312	92.5
315.542	90.5
315.771	91.5
316.001	107.5
316.23	82.5
316.46	102.5
316.689	96.5
316.919	96.5
317.148	86.5
317.377	102.5
317.607	61.5
317.836	86.5
318.065	88.5
318.295	84.5
318.524	110.5
318.753	93.5
318.983	105.5
319.212	102.5
319.441	93.5
319.67	100.5
319.9	101.5
320.129	93.5
320.358	100.5
320.587	95.5
320.816	104.5
321.046	86.5
321.275	101.5
321.504	91.5
321.733	102.5
321.962	98.5
322.191	102.5
322.42	98.5
322.649	109.5
322.878	116.5
323.108	98.5
323.337	111.5
323.566	117.5
323.795	141.5
324.024	152.5
324.253	266.5
324.482	554.5
324.71	1127.5
324.939	1446.5
325.168	560.5
325.397	180.5
325.626	132.5
325.855	113.5
326.084	112.5
326.313	133.5
326.542	119.5
326.77	191.5
326.999	332.5
327.228	641.5
327.457	1123.5
327.686	942.5
327.914	268.5
328.143	161.5
328.372	132.5
328.6	120.5
328.829	113.5
329.058	112.5
329.287	117.5
329.515	102.5
329.744	97.5
329.972	102.5
330.201	125.5
330.43	125.5
330.658	121.5
330.887	125.5
331.115	104.5
331.344	88.5
331.572	97.5
331.801	96.5
332.03	96.5
332.258	92.5
332.486	98.5
332.715	90.5
332.943	99.5
333.172	101.5
333.4	93.5
333.629	95.5
333.857	106.5
334.085	114.5
334.314	118.5
334.542	129.5
334.771	109.5
334.999	107.5
335.227	97.5
335.455	94.5
335.684	94.5
335.912	89.5
336.14	107.5
336.369	93.5
336.597	101.5
336.825	107.5
337.053	91.5
337.281	114.5
337.51	96.5
337.738	81.5
337.966	88.5
338.194	104.5
338.422	105.5
338.65	103.5
338.878	94.5
339.106	94.5
339.334	98.5
339.562	94.5
339.79	74.5
340.018	97.5
340.246	97.5
340.474	111.5
340.702	100.5
340.93	87.5
341.158	100.5
341.386	94.5
341.614	99.5
341.842	85.5
342.07	82.5
342.298	94.5
342.526	96.5
342.754	100.5
342.981	89.5
343.209	97.5
343.437	103.5
343.665	109.5
343.893	106.5
344.12	101.5
344.348	102.5
344.576	89.5
344.804	96.5
345.031	88.5
345.259	101.5
345.487	91.5
345.714	105.5
345.942	93.5
346.17	91.5
346.397	85.5
346.625	85.5
346.853	93.5
347.08	97.5
347.308	91.5
347.535	93.5
347.763	102.5
347.99	88.5
348.218	104.5
348.445	90.5
348.673	96.5
348.9	105.5
349.128	89.5
349.355	88.5
349.583	90.5
349.81	98.5
350.037	92.5
350.265	85.5
350.492	94.5
350.72	96.5
350.947	105.5
351.174	95.5
351.402	113.5
351.629	90.5
351.856	104.5
352.083	89.5
352.311	99.5
352.538	119.5
352.765	94.5
352.992	104.5
353.22	97.5
353.447	107.5
353.674	91.5
353.901	102.5
354.128	108.5
354.355	107.5
354.583	97.5
354.81	114.5
355.037	89.5
355.264	107.5
355.491	104.5
355.718	99.5
355.945	88.5
356.172	107.5
356.399	84.5
356.626	82.5
356.853	84.5
357.08	97.5
357.307	80.5
357.534	104.5
357.761	93.5
357.988	89.5
358.215	104.5
358.441	101.5
358.668	90.5
358.895	90.5
359.122	87.5
359.349	103.5
359.576	95.5
359.802	85.5
360.029	94.5
360.256	93.5
360.483	102.5
360.709	89.5
360.936	104.5
361.163	102.5
361.39	91.5
361.616	87.5
361.843	91.5
362.07	84.5
362.296	110.5
362.523	90.5
362.749	94.5
362.976	90.5
363.203	108.5
363.429	88.5
363.656	92.5
363.882	96.5
364.109	104.5
364.335	92.5
364.562	84.5
364.788	90.5
365.015	96.5
365.241	100.5
365.468	91.5
365.694	98.5
365.92	84.5
366.147	103.5
366.373	97.5
366.599	91.5
366.826	98.5
367.052	103.5
367.278	89.5
367.505	89.5
367.731	97.5
367.957	99.5
368.184	86.5
368.41	96.5
368.636	97.5
368.862	108.5
369.089	106.5
369.315	100.5
369.541	78.5
369.767	86.5
369.993	97.5
370.219	93.5
370.445	97.5
370.672	93.5
370.898	101.5
371.124	77.5
371.35	101.5
371.576	92.5
371.802	98.5
372.028	87.5
372.254	98.5
372.48	95.5
372.706	92.5
372.932	100.5
373.158	90.5
373.384	112.5
373.61	94.5
373.835	93.5
374.061	88.5
374.287	94.5
374.513	92.5
374.739	93.5
374.965	100.5
375.191	93.5
375.416	88.5
375.642	88.5
375.868	82.5
376.094	82.5
376.319	89.5
376.545	102.5
376.771	87.5
376.997	98.5
377.222	93.5
377.448	100.5
377.674	73.5
377.899	100.5
378.125	93.5
378.35	87.5
378.576	90.5
378.802	74.5
379.027	95.5
379.253	92.5
379.478	97.5
379.704	94.5
379.929	97.5
380.155	106.5
380.38	110.5
380.606	101.5
380.831	93.5
381.057	115.5
381.282	101.5
381.507	102.5
381.733	92.5
381.958	107.5
382.184	98.5
382.409	93.5
382.634	103.5
382.86	117.5
383.085	101.5
383.31	107.5
383.535	106.5
383.761	101.5
383.986	104.5
384.211	102.5
384.436	99.5
384.662	99.5
384.887	92.5
385.112	109.5
385.337	117.5
385.562	100.5
385.787	116.5
386.013	110.5
386.238	99.5
386.463	102.5
386.688	115.5
386.913	109.5
387.138	101.5
387.363	111.5
387.588	111.5
387.813	118.5
388.038	96.5
388.263	100.5
388.488	115.5
388.713	93.5
388.938	82.5
389.163	103.5
389.387	100.5
389.612	97.5
389.837	97.5
390.062	100.5
390.287	99.5
390.512	95.5
390.736	93.5
390.961	87.5
391.186	84.5
391.411	101.5
391.636	101.5
391.86	77.5
392.085	83.5
392.31	86.5
392.534	86.5
392.759	99.5
392.984	90.5
393.208	94.5
393.433	95.5
393.658	100.5
393.882	90.5
394.107	88.5
394.331	96.5
394.556	97.5
394.78	85.5
395.005	92.5
395.229	87.5
395.454	97.5
395.678	96.5
395.903	89.5
396.127	94.5
396.352	90.5
396.576	96.5
396.801	96.5
397.025	92.5
397.249	78.5
397.474	96.5
397.698	94.5
397.922	94.5
398.147	89.5
398.371	88.5
398.595	94.5
398.82	92.5
399.044	84.5
399.268	82.5
399.492	98.5
399.717	98.5
399.941	85.5
400.165	93.5
400.389	93.5
400.613	86.5
400.837	86.5
401.062	89.5
401.286	93.5
401.51	86.5
401.734	80.5
401.958	92.5
402.182	108.5
402.406	145.5
402.63	108.5
402.854	89.5
403.078	96.5
403.302	94.5
403.526	85.5
403.75	92.5
403.974	94.5
404.198	89.5
404.422	88.5
404.645	92.5
404.869	101.5
405.093	103.5
405.317	97.5
405.541	108.5
405.765	105.5
405.988	98.5
406.212	135.5
406.436	173.5
406.66	120.5
406.883	102.5
407.107	96.5
407.331	98.5
407.555	96.5
407.778	105.5
408.002	93.5
408.226	74.5
408.449	91.5
408.673	91.5
408.896	97.5
409.12	89.5
409.344	73.5
409.567	89.5
409.791	93.5
410.014	94.5
410.238	85.5
410.461	89.5
410.685	100.5
410.908	97.5
411.132	97.5
411.355	92.5
411.578	94.5
411.802	91.5
412.025	82.5
412.249	90.5
412.472	97.5
412.695	101.5
412.919	80.5
413.142	97.5
413.365	90.5
413.589	98.5
413.812	93.5
414.035	96.5
414.258	92.5
414.482	86.5
414.705	87.5
414.928	88.5
415.151	93.5
415.374	83.5
415.597	86.5
415.821	81.5
416.044	100.5
416.267	96.5
416.49	95.5
416.713	91.5
416.936	91.5
417.159	85.5
417.382	95.5
417.605	81.5
417.828	84.5
418.051	101.5
418.274	88.5
418.497	94.5
418.72	76.5
418.943	86.5
419.166	100.5
419.389	106.5
419.611	88.5
419.834	89.5
420.057	95.5
420.28	84.5
420.503	101.5
420.726	96.5
420.948	79.5
421.171	104.5
421.394	93.5
421.617	75.5
421.839	92.5
422.062	86.5
422.285	100.5
422.507	98.5
422.73	102.5
422.953	100.5
423.175	92.5
423.398	98.5
423.621	93.5
423.843	88.5
424.066	89.5
424.288	82.5
424.511	86.5
424.733	106.5
424.956	103.5
425.178	104.5
425.401	92.5
425.623	88.5
425.846	87.5
426.068	92.5
426.291	99.5
426.513	84.5
426.735	96.5
426.958	77.5
427.18	100.5
427.402	106.5
427.625	125.5
427.847	102.5
428.069	109.5
428.292	102.5
428.514	88.5
428.736	73.5
428.958	98.5
429.181	89.5
429.403	81.5
429.625	92.5
429.847	90.5
430.069	85.5
430.292	100.5
430.514	78.5
430.736	88.5
430.958	89.5
431.18	79.5
431.402	97.5
431.624	93.5
431.846	98.5
432.068	99.5
432.29	86.5
432.512	97.5
432.734	101.5
432.956	89.5
433.178	97.5
433.4	99.5
433.622	104.5
433.844	88.5
434.066	94.5
434.287	104.5
434.509	100.5
434.731	100.5
434.953	96.5
435.175	69.5
435.397	88.5
435.618	87.5
435.84	96.5
436.062	108.5
436.284	98.5
436.505	95.5
436.727	103.5
436.949	82.5
437.17	84.5
437.392	83.5
437.614	86.5
437.835	96.5
438.057	91.5
438.278	96.5
438.5	116.5
438.721	110.5
438.943	89.5
439.165	74.5
439.386	80.5
439.608	86.5
439.829	90.5
440.05	105.5
440.272	115.5
440.493	88.5
440.715	82.5
440.936	89.5
441.158	88.5
441.379	92.5
441.6	84.5
441.822	89.5
442.043	106.5
442.264	95.5
442.486	110.5
442.707	89.5
442.928	95.5
443.149	89.5
443.371	114.5
443.592	97.5
443.813	94.5
444.034	104.5
444.255	86.5
444.476	78.5
444.698	75.5
444.919	86.5
445.14	122.5
445.361	121.5
445.582	104.5
445.803	120.5
446.024	116.5
446.245	120.5
446.466	101.5
446.687	97.5
446.908	86.5
447.129	92.5
447.35	82.5
447.571	89.5
447.792	90.5
448.013	100.5
448.234	104.5
448.455	89.5
448.675	104.5
448.896	112.5
449.117	91.5
449.338	93.5
449.559	118.5
449.779	111.5
450	89.5
450.221	88.5
450.442	79.5
450.662	90.5
450.883	99.5
451.104	95.5
451.324	90.5
451.545	84.5
451.766	101.5
451.986	88.5
452.207	92.5
452.428	107.5
452.648	97.5
452.869	98.5
453.089	96.5
453.31	93.5
453.53	97.5
453.751	85.5
453.971	98.5
454.192	84.5
454.412	92.5
454.633	81.5
454.853	88.5
455.073	88.5
455.294	92.5
455.514	109.5
455.734	89.5
455.955	86.5
456.175	79.5
456.395	80.5
456.616	88.5
456.836	90.5
457.056	85.5
457.276	93.5
457.497	80.5
457.717	87.5
457.937	67.5
458.157	92.5
458.377	109.5
458.598	104.5
458.818	119.5
459.038	128.5
459.258	101.5
459.478	103.5
459.698	94.5
459.918	94.5
460.138	96.5
460.358	74.5
460.578	91.5
460.798	98.5
461.018	80.5
461.238	90.5
461.458	73.5
461.678	77.5
461.898	78.5
462.118	92.5
462.338	94.5
462.558	88.5
462.777	87.5
462.997	82.5
463.217	89.5
463.437	76.5
463.657	98.5
463.876	102.5
464.096	88.5
464.316	87.5
464.536	93.5
464.755	89.5
464.975	97.5
465.195	123.5
465.414	125.5
465.634	91.5
465.854	93.5
466.073	97.5
466.293	93.5
466.512	90.5
466.732	90.5
466.951	85.5
467.171	98.5
467.391	94.5
467.61	99.5
467.829	101.5
468.049	103.5
468.268	93.5
468.488	73.5
468.707	89.5
468.927	96.5
469.146	90.5
469.365	97.5
469.585	90.5
469.804	99.5
470.023	100.5
470.243	94.5
470.462	91.5
470.681	110.5
470.901	90.5
471.12	95.5
471.339	75.5
471.558	94.5
471.777	102.5
471.997	100.5
472.216	103.5
472.435	117.5
472.654	87.5
472.873	102.5
473.092	93.5
473.311	78.5
473.53	97.5
473.749	92.5
473.968	99.5
474.187	93.5
474.406	92.5
474.625	94.5
474.844	80.5
475.063	79.5
475.282	90.5
475.501	101.5
475.72	101.5
475.939	88.5
476.158	92.5
476.377	102.5
476.596	91.5
476.814	92.5
477.033	94.5
477.252	95.5
477.471	88.5
477.69	78.5
477.908	101.5
478.127	89.5
478.346	97.5
478.564	81.5
478.783	92.5
479.002	81.5
479.22	94.5
479.439	103.5
479.658	96.5
479.876	89.5
480.095	93.5
480.313	93.5
480.532	89.5
480.751	95.5
480.969	106.5
481.188	174.5
481.406	124.5
481.624	104.5
481.843	94.5
482.061	89.5
482.28	102.5
482.498	91.5
482.717	81.5
482.935	100.5
483.153	102.5
483.372	96.5
483.59	100.5
483.808	86.5
484.027	99.5
484.245	103.5
484.463	95.5
484.681	96.5
484.9	94.5
485.118	86.5
485.336	101.5
485.554	98.5
485.772	105.5
485.99	96.5
486.209	103.5
486.427	107.5
486.645	89.5
486.863	120.5
487.081	99.5
487.299	110.5
487.517	98.5
487.735	113.5
487.953	100.5
488.171	88.5
488.389	90.5
488.607	109.5
488.825	90.5
489.043	100.5
489.261	101.5
489.479	82.5
489.696	94.5
489.914	95.5
490.132	82.5
490.35	95.5
490.568	89.5
490.786	91.5
491.003	93.5
491.221	85.5
491.439	90.5
491.657	96.5
491.874	84.5
492.092	81.5
492.31	87.5
492.527	97.5
492.745	97.5
492.963	98.5
493.18	80.5
493.398	101.5
493.615	105.5
493.833	93.5
494.05	90.5
494.268	76.5
494.485	97.5
494.703	92.5
494.92	117.5
495.138	91.5
495.355	95.5
495.573	98.5
495.79	105.5
496.008	85.5
496.225	86.5
496.442	102.5
496.66	91.5
496.877	93.5
497.094	81.5
497.312	90.5
497.529	87.5
497.746	98.5
497.963	84.5
498.181	97.5
498.398	76.5
498.615	107.5
498.832	115.5
499.049	85.5
499.267	92.5
499.484	89.5
499.701	97.5
499.918	91.5
500.135	103.5
500.352	96.5
500.569	104.5
500.786	86.5
501.003	94.5
501.22	85.5
501.437	93.5
501.654	80.5
501.871	94.5
502.088	98.5
502.305	95.5
502.522	108.5
502.739	96.5
502.956	75.5
503.172	94.5
503.389	86.5
503.606	87.5
503.823	100.5
504.04	106.5
504.256	79.5
504.473	88.5
504.69	81.5
504.907	88.5
505.123	98.5
505.34	111.5
505.557	94.5
505.773	104.5
505.99	88.5
506.207	86.5
506.423	93.5
506.64	103.5
506.856	95.5
507.073	92.5
507.289	93.5
507.506	110.5
507.722	102.5
507.939	109.5
508.155	95.5
508.372	91.5
508.588	100.5
508.805	86.5
509.021	101.5
509.238	89.5
509.454	100.5
509.67	103.5
509.887	118.5
510.103	124.5
510.319	171.5
510.536	547.5
510.752	1638.5
510.968	473.5
511.184	132.5
511.401	100.5
511.617	99.5
511.833	95.5
512.049	83.5
512.265	82.5
512.481	90.5
512.698	102.5
512.914	89.5
513.13	95.5
513.346	100.5
513.562	96.5
513.778	100.5
513.994	93.5
514.21	94.5
514.426	113.5
514.642	113.5
514.858	106.5
515.074	129.5
515.29	311.5
515.506	934.5
515.721	369.5
515.937	125.5
516.153	109.5
516.369	89.5
516.585	81.5
516.801	99.5
517.016	98.5
517.232	92.5
517.448	103.5
517.664	89.5
517.879	98.5
518.095	97.5
518.311	89.5
518.527	82.5
518.742	99.5
518.958	106.5
519.173	92.5
519.389	97.5
519.605	88.5
519.82	95.5
520.036	113.5
520.251	93.5
520.467	108.5
520.682	106.5
520.898	100.5
521.113	105.5
521.329	115.5
521.544	165.5
521.76	394.5
521.975	1518.5
522.19	900.5
522.406	228.5
522.621	121.5
522.836	105.5
523.052	105.5
523.267	87.5
523.482	101.5
523.698	95.5
523.913	101.5
524.128	92.5
524.343	79.5
524.559	88.5
524.774	79.5
524.989	92.5
525.204	100.5
525.419	88.5
525.634	113.5
525.849	106.5
526.064	97.5
526.28	90.5
526.495	80.5
526.71	106.5
526.925	104.5
527.14	84.5
527.355	108.5
527.57	98.5
527.785	93.5
527.999	105.5
528.214	88.5
528.429	94.5
528.644	100.5
528.859	94.5
529.074	83.5
529.289	120.5
529.503	133.5
529.718	105.5
529.933	100.5
530.148	108.5
530.363	103.5
530.577	84.5
530.792	79.5
531.007	106.5
531.221	101.5
531.436	86.5
531.651	78.5
531.865	91.5
532.08	88.5
532.295	101.5
532.509	79.5
532.724	96.5
532.938	91.5
533.153	103.5
533.367	97.5
533.582	104.5
533.796	90.5
534.011	104.5
534.225	91.5
534.44	90.5
534.654	92.5
534.868	100.5
