Data from Uncirc_1980_H10_HRD10591_00011.txt Node
Date: Wed Jan 03 12:36:57 EST 2024
User: Yrep
Spectrometer: HR+D1059
Trigger mode: 1
Integration Time (sec): 1.000000E-1
Scans to average: 1
Electric dark correction enabled: true
Nonlinearity correction enabled: false
Boxcar width: 0
XAxis mode: Wavelengths
Number of Pixels in Spectrum: 2048
>>>>>Begin Spectral Data<<<<<
223.165	-18.31
223.4	-18.31
223.635	-18.31
223.869	-21.31
224.104	-19.31
224.338	-10.31
224.573	-15.31
224.808	-17.31
225.042	6.69
225.277	-9.31
225.511	0.69
225.746	6.69
225.98	-3.31
226.215	3.69
226.449	10.69
226.683	21.69
226.918	38.69
227.152	25.69
227.387	35.69
227.621	42.69
227.856	42.69
228.09	35.69
228.324	47.69
228.559	47.69
228.793	71.69
229.027	55.69
229.262	66.69
229.496	77.69
229.73	76.69
229.964	77.69
230.199	73.69
230.433	58.69
230.667	84.69
230.901	77.69
231.136	61.69
231.37	80.69
231.604	70.69
231.838	76.69
232.072	90.69
232.306	69.69
232.541	75.69
232.775	80.69
233.009	67.69
233.243	85.69
233.477	84.69
233.711	87.69
233.945	71.69
234.179	76.69
234.413	75.69
234.647	84.69
234.881	89.69
235.115	67.69
235.349	85.69
235.583	84.69
235.817	65.69
236.051	76.69
236.285	78.69
236.519	76.69
236.753	80.69
236.987	75.69
237.221	76.69
237.455	89.69
237.689	70.69
237.922	76.69
238.156	73.69
238.39	83.69
238.624	75.69
238.858	84.69
239.091	82.69
239.325	60.69
239.559	72.69
239.793	80.69
240.027	87.69
240.26	69.69
240.494	88.69
240.728	82.69
240.961	69.69
241.195	88.69
241.429	76.69
241.662	68.69
241.896	72.69
242.13	78.69
242.363	75.69
242.597	66.69
242.83	75.69
243.064	81.69
243.298	82.69
243.531	75.69
243.765	92.69
243.998	82.69
244.232	77.69
244.465	74.69
244.699	88.69
244.932	76.69
245.166	63.69
245.399	62.69
245.633	77.69
245.866	78.69
246.099	82.69
246.333	77.69
246.566	80.69
246.8	74.69
247.033	69.69
247.266	71.69
247.5	72.69
247.733	85.69
247.966	71.69
248.2	82.69
248.433	66.69
248.666	85.69
248.899	84.69
249.133	70.69
249.366	84.69
249.599	83.69
249.832	86.69
250.066	76.69
250.299	76.69
250.532	66.69
250.765	70.69
250.998	83.69
251.231	74.69
251.465	69.69
251.698	82.69
251.931	67.69
252.164	85.69
252.397	89.69
252.63	90.69
252.863	69.69
253.096	82.69
253.329	78.69
253.562	84.69
253.795	85.69
254.028	75.69
254.261	92.69
254.494	86.69
254.727	69.69
254.96	86.69
255.193	74.69
255.426	76.69
255.659	77.69
255.892	82.69
256.124	88.69
256.357	83.69
256.59	83.69
256.823	76.69
257.056	87.69
257.289	87.69
257.521	78.69
257.754	81.69
257.987	94.69
258.22	77.69
258.452	67.69
258.685	70.69
258.918	77.69
259.151	84.69
259.383	76.69
259.616	75.69
259.849	75.69
260.081	76.69
260.314	80.69
260.547	86.69
260.779	70.69
261.012	72.69
261.244	78.69
261.477	88.69
261.71	88.69
261.942	104.69
262.175	94.69
262.407	94.69
262.64	68.69
262.872	90.69
263.105	77.69
263.337	82.69
263.57	78.69
263.802	76.69
264.035	84.69
264.267	76.69
264.499	83.69
264.732	68.69
264.964	71.69
265.197	88.69
265.429	81.69
265.661	76.69
265.894	75.69
266.126	77.69
266.358	81.69
266.591	78.69
266.823	85.69
267.055	88.69
267.287	86.69
267.52	84.69
267.752	90.69
267.984	82.69
268.216	77.69
268.448	86.69
268.681	86.69
268.913	75.69
269.145	77.69
269.377	89.69
269.609	79.69
269.841	94.69
270.073	86.69
270.306	71.69
270.538	77.69
270.77	80.69
271.002	85.69
271.234	77.69
271.466	78.69
271.698	87.69
271.93	84.69
272.162	80.69
272.394	86.69
272.626	73.69
272.858	93.69
273.09	82.69
273.322	80.69
273.553	80.69
273.785	91.69
274.017	84.69
274.249	81.69
274.481	84.69
274.713	69.69
274.945	80.69
275.176	93.69
275.408	78.69
275.64	107.69
275.872	82.69
276.104	89.69
276.335	69.69
276.567	80.69
276.799	92.69
277.031	91.69
277.262	74.69
277.494	96.69
277.726	95.69
277.957	92.69
278.189	84.69
278.421	93.69
278.652	92.69
278.884	93.69
279.115	82.69
279.347	90.69
279.579	83.69
279.81	83.69
280.042	66.69
280.273	86.69
280.505	82.69
280.736	89.69
280.968	94.69
281.199	78.69
281.431	85.69
281.662	83.69
281.894	84.69
282.125	83.69
282.356	80.69
282.588	101.69
282.819	96.69
283.051	91.69
283.282	80.69
283.513	96.69
283.745	94.69
283.976	96.69
284.207	71.69
284.439	67.69
284.67	81.69
284.901	82.69
285.132	81.69
285.364	94.69
285.595	63.69
285.826	88.69
286.057	77.69
286.288	74.69
286.52	91.69
286.751	81.69
286.982	86.69
287.213	93.69
287.444	92.69
287.675	82.69
287.906	75.69
288.138	77.69
288.369	91.69
288.6	100.69
288.831	83.69
289.062	81.69
289.293	70.69
289.524	79.69
289.755	80.69
289.986	81.69
290.217	71.69
290.448	98.69
290.679	88.69
290.91	86.69
291.141	93.69
291.371	77.69
291.602	84.69
291.833	92.69
292.064	83.69
292.295	87.69
292.526	79.69
292.757	86.69
292.987	82.69
293.218	94.69
293.449	98.69
293.68	92.69
293.91	72.69
294.141	83.69
294.372	93.69
294.603	92.69
294.833	102.69
295.064	75.69
295.295	70.69
295.525	74.69
295.756	89.69
295.987	112.69
296.217	107.69
296.448	103.69
296.679	80.69
296.909	96.69
297.14	83.69
297.37	82.69
297.601	83.69
297.831	76.69
298.062	91.69
298.292	92.69
298.523	89.69
298.753	100.69
298.984	86.69
299.214	70.69
299.445	84.69
299.675	94.69
299.905	84.69
300.136	89.69
300.366	91.69
300.597	78.69
300.827	88.69
301.057	90.69
301.288	88.69
301.518	102.69
301.748	89.69
301.979	96.69
302.209	81.69
302.439	76.69
302.669	89.69
302.9	90.69
303.13	85.69
303.36	92.69
303.59	104.69
303.82	93.69
304.051	90.69
304.281	90.69
304.511	86.69
304.741	82.69
304.971	91.69
305.201	81.69
305.431	88.69
305.661	81.69
305.891	78.69
306.121	90.69
306.352	92.69
306.582	89.69
306.812	85.69
307.042	83.69
307.272	90.69
307.502	87.69
307.731	94.69
307.961	84.69
308.191	77.69
308.421	90.69
308.651	97.69
308.881	89.69
309.111	101.69
309.341	99.69
309.571	88.69
309.8	82.69
310.03	106.69
310.26	103.69
310.49	84.69
310.72	101.69
310.949	103.69
311.179	97.69
311.409	101.69
311.639	84.69
311.868	85.69
312.098	91.69
312.328	89.69
312.557	84.69
312.787	93.69
313.017	77.69
313.246	88.69
313.476	89.69
313.706	89.69
313.935	95.69
314.165	95.69
314.394	97.69
314.624	91.69
314.853	85.69
315.083	99.69
315.312	93.69
315.542	76.69
315.771	82.69
316.001	75.69
316.23	89.69
316.46	90.69
316.689	83.69
316.919	91.69
317.148	102.69
317.377	108.69
317.607	85.69
317.836	75.69
318.065	90.69
318.295	83.69
318.524	91.69
318.753	87.69
318.983	93.69
319.212	121.69
319.441	92.69
319.67	101.69
319.9	96.69
320.129	97.69
320.358	93.69
320.587	82.69
320.816	91.69
321.046	95.69
321.275	89.69
321.504	78.69
321.733	92.69
321.962	80.69
322.191	91.69
322.42	97.69
322.649	86.69
322.878	90.69
323.108	122.69
323.337	105.69
323.566	117.69
323.795	118.69
324.024	152.69
324.253	268.69
324.482	537.69
324.71	1051.69
324.939	1349.69
325.168	532.69
325.397	184.69
325.626	94.69
325.855	114.69
326.084	108.69
326.313	114.69
326.542	120.69
326.77	176.69
326.999	323.69
327.228	616.69
327.457	1088.69
327.686	894.69
327.914	255.69
328.143	152.69
328.372	123.69
328.6	105.69
328.829	93.69
329.058	100.69
329.287	103.69
329.515	96.69
329.744	99.69
329.972	100.69
330.201	100.69
330.43	107.69
330.658	108.69
330.887	108.69
331.115	84.69
331.344	92.69
331.572	86.69
331.801	88.69
332.03	98.69
332.258	102.69
332.486	91.69
332.715	82.69
332.943	85.69
333.172	90.69
333.4	97.69
333.629	106.69
333.857	100.69
334.085	91.69
334.314	103.69
334.542	124.69
334.771	115.69
334.999	94.69
335.227	88.69
335.455	99.69
335.684	100.69
335.912	97.69
336.14	105.69
336.369	87.69
336.597	102.69
336.825	92.69
337.053	90.69
337.281	99.69
337.51	85.69
337.738	80.69
337.966	85.69
338.194	91.69
338.422	89.69
338.65	100.69
338.878	101.69
339.106	90.69
339.334	98.69
339.562	98.69
339.79	94.69
340.018	84.69
340.246	76.69
340.474	85.69
340.702	92.69
340.93	88.69
341.158	99.69
341.386	103.69
341.614	85.69
341.842	92.69
342.07	86.69
342.298	89.69
342.526	83.69
342.754	76.69
342.981	84.69
343.209	93.69
343.437	101.69
343.665	89.69
343.893	91.69
344.12	91.69
344.348	87.69
344.576	98.69
344.804	85.69
345.031	79.69
345.259	88.69
345.487	94.69
345.714	92.69
345.942	76.69
346.17	92.69
346.397	88.69
346.625	111.69
346.853	95.69
347.08	81.69
347.308	80.69
347.535	97.69
347.763	96.69
347.99	102.69
348.218	99.69
348.445	104.69
348.673	108.69
348.9	96.69
349.128	98.69
349.355	81.69
349.583	96.69
349.81	94.69
350.037	93.69
350.265	95.69
350.492	92.69
350.72	97.69
350.947	93.69
351.174	101.69
351.402	106.69
351.629	91.69
351.856	96.69
352.083	96.69
352.311	105.69
352.538	100.69
352.765	103.69
352.992	114.69
353.22	101.69
353.447	98.69
353.674	88.69
353.901	93.69
354.128	98.69
354.355	94.69
354.583	104.69
354.81	97.69
355.037	92.69
355.264	115.69
355.491	93.69
355.718	92.69
355.945	87.69
356.172	82.69
356.399	106.69
356.626	78.69
356.853	96.69
357.08	89.69
357.307	95.69
357.534	92.69
357.761	103.69
357.988	106.69
358.215	107.69
358.441	88.69
358.668	113.69
358.895	99.69
359.122	103.69
359.349	83.69
359.576	86.69
359.802	111.69
360.029	104.69
360.256	101.69
360.483	96.69
360.709	108.69
360.936	101.69
361.163	103.69
361.39	92.69
361.616	90.69
361.843	75.69
362.07	88.69
362.296	85.69
362.523	80.69
362.749	88.69
362.976	101.69
363.203	101.69
363.429	80.69
363.656	96.69
363.882	91.69
364.109	97.69
364.335	86.69
364.562	86.69
364.788	81.69
365.015	105.69
365.241	103.69
365.468	117.69
365.694	96.69
365.92	82.69
366.147	91.69
366.373	81.69
366.599	84.69
366.826	93.69
367.052	86.69
367.278	79.69
367.505	89.69
367.731	102.69
367.957	86.69
368.184	96.69
368.41	89.69
368.636	98.69
368.862	106.69
369.089	94.69
369.315	82.69
369.541	96.69
369.767	92.69
369.993	103.69
370.219	87.69
370.445	94.69
370.672	94.69
370.898	89.69
371.124	82.69
371.35	92.69
371.576	96.69
371.802	76.69
372.028	96.69
372.254	86.69
372.48	91.69
372.706	96.69
372.932	88.69
373.158	81.69
373.384	99.69
373.61	105.69
373.835	84.69
374.061	85.69
374.287	86.69
374.513	105.69
374.739	82.69
374.965	93.69
375.191	90.69
375.416	93.69
375.642	94.69
375.868	86.69
376.094	94.69
376.319	83.69
376.545	93.69
376.771	92.69
376.997	92.69
377.222	110.69
377.448	86.69
377.674	107.69
377.899	79.69
378.125	109.69
378.35	99.69
378.576	83.69
378.802	111.69
379.027	97.69
379.253	97.69
379.478	82.69
379.704	92.69
379.929	112.69
380.155	99.69
380.38	108.69
380.606	100.69
380.831	102.69
381.057	112.69
381.282	116.69
381.507	104.69
381.733	98.69
381.958	112.69
382.184	88.69
382.409	108.69
382.634	125.69
382.86	121.69
383.085	106.69
383.31	120.69
383.535	114.69
383.761	115.69
383.986	106.69
384.211	102.69
384.436	111.69
384.662	116.69
384.887	125.69
385.112	123.69
385.337	138.69
385.562	134.69
385.787	132.69
386.013	139.69
386.238	135.69
386.463	135.69
386.688	145.69
386.913	126.69
387.138	121.69
387.363	116.69
387.588	118.69
387.813	129.69
388.038	115.69
388.263	145.69
388.488	162.69
388.713	100.69
388.938	94.69
389.163	98.69
389.387	97.69
389.612	98.69
389.837	92.69
390.062	88.69
390.287	82.69
390.512	89.69
390.736	96.69
390.961	97.69
391.186	104.69
391.411	98.69
391.636	83.69
391.86	93.69
392.085	79.69
392.31	89.69
392.534	82.69
392.759	85.69
392.984	77.69
393.208	82.69
393.433	93.69
393.658	100.69
393.882	93.69
394.107	80.69
394.331	100.69
394.556	76.69
394.78	92.69
395.005	96.69
395.229	83.69
395.454	90.69
395.678	77.69
395.903	93.69
396.127	87.69
396.352	81.69
396.576	86.69
396.801	98.69
397.025	86.69
397.249	90.69
397.474	90.69
397.698	81.69
397.922	82.69
398.147	85.69
398.371	91.69
398.595	107.69
398.82	83.69
399.044	74.69
399.268	77.69
399.492	85.69
399.717	90.69
399.941	69.69
400.165	75.69
400.389	90.69
400.613	99.69
400.837	88.69
401.062	86.69
401.286	90.69
401.51	90.69
401.734	81.69
401.958	91.69
402.182	114.69
402.406	121.69
402.63	90.69
402.854	88.69
403.078	77.69
403.302	83.69
403.526	95.69
403.75	77.69
403.974	68.69
404.198	77.69
404.422	97.69
404.645	99.69
404.869	98.69
405.093	83.69
405.317	82.69
405.541	100.69
405.765	90.69
405.988	101.69
406.212	133.69
406.436	171.69
406.66	114.69
406.883	98.69
407.107	84.69
407.331	68.69
407.555	96.69
407.778	74.69
408.002	81.69
408.226	91.69
408.449	82.69
408.673	102.69
408.896	97.69
409.12	85.69
409.344	90.69
409.567	86.69
409.791	106.69
410.014	92.69
410.238	97.69
410.461	93.69
410.685	91.69
410.908	99.69
411.132	91.69
411.355	94.69
411.578	93.69
411.802	101.69
412.025	86.69
412.249	83.69
412.472	85.69
412.695	97.69
412.919	89.69
413.142	91.69
413.365	98.69
413.589	73.69
413.812	86.69
414.035	82.69
414.258	90.69
414.482	99.69
414.705	102.69
414.928	101.69
415.151	90.69
415.374	105.69
415.597	78.69
415.821	80.69
416.044	99.69
416.267	90.69
416.49	96.69
416.713	96.69
416.936	89.69
417.159	97.69
417.382	90.69
417.605	98.69
417.828	81.69
418.051	89.69
418.274	93.69
418.497	91.69
418.72	79.69
418.943	80.69
419.166	100.69
419.389	84.69
419.611	86.69
419.834	92.69
420.057	94.69
420.28	88.69
420.503	73.69
420.726	77.69
420.948	83.69
421.171	83.69
421.394	95.69
421.617	102.69
421.839	98.69
422.062	84.69
422.285	76.69
422.507	89.69
422.73	92.69
422.953	117.69
423.175	93.69
423.398	88.69
423.621	75.69
423.843	84.69
424.066	72.69
424.288	84.69
424.511	80.69
424.733	86.69
424.956	96.69
425.178	83.69
425.401	103.69
425.623	95.69
425.846	83.69
426.068	80.69
426.291	94.69
426.513	99.69
426.735	76.69
426.958	99.69
427.18	80.69
427.402	124.69
427.625	140.69
427.847	101.69
428.069	100.69
428.292	82.69
428.514	88.69
428.736	97.69
428.958	74.69
429.181	76.69
429.403	78.69
429.625	67.69
429.847	81.69
430.069	93.69
430.292	94.69
430.514	83.69
430.736	78.69
430.958	87.69
431.18	89.69
431.402	78.69
431.624	88.69
431.846	91.69
432.068	80.69
432.29	91.69
432.512	82.69
432.734	80.69
432.956	100.69
433.178	80.69
433.4	88.69
433.622	90.69
433.844	88.69
434.066	102.69
434.287	105.69
434.509	86.69
434.731	86.69
434.953	81.69
435.175	84.69
435.397	77.69
435.618	97.69
435.84	97.69
436.062	105.69
436.284	89.69
436.505	108.69
436.727	90.69
436.949	107.69
437.17	98.69
437.392	87.69
437.614	104.69
437.835	94.69
438.057	96.69
438.278	109.69
438.5	98.69
438.721	108.69
438.943	89.69
439.165	82.69
439.386	74.69
439.608	80.69
439.829	87.69
440.05	103.69
440.272	119.69
440.493	102.69
440.715	91.69
440.936	83.69
441.158	84.69
441.379	83.69
441.6	84.69
441.822	85.69
442.043	89.69
442.264	98.69
442.486	104.69
442.707	95.69
442.928	91.69
443.149	104.69
443.371	99.69
443.592	100.69
443.813	98.69
444.034	92.69
444.255	92.69
444.476	87.69
444.698	75.69
444.919	92.69
445.14	132.69
445.361	101.69
445.582	103.69
445.803	120.69
446.024	109.69
446.245	111.69
446.466	104.69
446.687	91.69
446.908	96.69
447.129	93.69
447.35	91.69
447.571	88.69
447.792	88.69
448.013	94.69
448.234	85.69
448.455	96.69
448.675	117.69
448.896	97.69
449.117	101.69
449.338	91.69
449.559	105.69
449.779	110.69
450	96.69
450.221	91.69
450.442	80.69
450.662	80.69
450.883	81.69
451.104	86.69
451.324	89.69
451.545	72.69
451.766	93.69
451.986	74.69
452.207	86.69
452.428	93.69
452.648	91.69
452.869	95.69
453.089	98.69
453.31	104.69
453.53	90.69
453.751	83.69
453.971	78.69
454.192	87.69
454.412	93.69
454.633	84.69
454.853	82.69
455.073	73.69
455.294	75.69
455.514	80.69
455.734	107.69
455.955	91.69
456.175	77.69
456.395	85.69
456.616	78.69
456.836	76.69
457.056	77.69
457.276	88.69
457.497	81.69
457.717	95.69
457.937	83.69
458.157	89.69
458.377	80.69
458.598	93.69
458.818	107.69
459.038	103.69
459.258	92.69
459.478	97.69
459.698	80.69
459.918	92.69
460.138	67.69
460.358	74.69
460.578	88.69
460.798	93.69
461.018	91.69
461.238	83.69
461.458	90.69
461.678	82.69
461.898	82.69
462.118	80.69
462.338	76.69
462.558	81.69
462.777	91.69
462.997	87.69
463.217	74.69
463.437	84.69
463.657	82.69
463.876	93.69
464.096	97.69
464.316	91.69
464.536	89.69
464.755	90.69
464.975	94.69
465.195	125.69
465.414	120.69
465.634	97.69
465.854	76.69
466.073	81.69
466.293	84.69
466.512	83.69
466.732	67.69
466.951	90.69
467.171	87.69
467.391	94.69
467.61	82.69
467.829	89.69
468.049	86.69
468.268	106.69
468.488	81.69
468.707	91.69
468.927	89.69
469.146	80.69
469.365	104.69
469.585	94.69
469.804	80.69
470.023	78.69
470.243	85.69
470.462	96.69
470.681	96.69
470.901	80.69
471.12	70.69
471.339	99.69
471.558	86.69
471.777	90.69
471.997	82.69
472.216	101.69
472.435	124.69
472.654	80.69
472.873	81.69
473.092	94.69
473.311	87.69
473.53	65.69
473.749	90.69
473.968	83.69
474.187	96.69
474.406	89.69
474.625	87.69
474.844	89.69
475.063	93.69
475.282	80.69
475.501	86.69
475.72	100.69
475.939	91.69
476.158	89.69
476.377	68.69
476.596	98.69
476.814	87.69
477.033	89.69
477.252	97.69
477.471	76.69
477.69	100.69
477.908	83.69
478.127	88.69
478.346	82.69
478.564	77.69
478.783	88.69
479.002	90.69
479.22	88.69
479.439	97.69
479.658	89.69
479.876	92.69
480.095	80.69
480.313	85.69
480.532	88.69
480.751	100.69
480.969	98.69
481.188	150.69
481.406	121.69
481.624	96.69
481.843	86.69
482.061	83.69
482.28	94.69
482.498	85.69
482.717	95.69
482.935	81.69
483.153	94.69
483.372	77.69
483.59	84.69
483.808	76.69
484.027	92.69
484.245	89.69
484.463	104.69
484.681	97.69
484.9	93.69
485.118	86.69
485.336	102.69
485.554	98.69
485.772	96.69
485.99	97.69
486.209	100.69
486.427	94.69
486.645	91.69
486.863	112.69
487.081	98.69
487.299	91.69
487.517	96.69
487.735	84.69
487.953	90.69
488.171	97.69
488.389	101.69
488.607	96.69
488.825	101.69
489.043	71.69
489.261	73.69
489.479	93.69
489.696	86.69
489.914	77.69
490.132	87.69
490.35	94.69
490.568	76.69
490.786	88.69
491.003	82.69
491.221	77.69
491.439	67.69
491.657	86.69
491.874	88.69
492.092	88.69
492.31	86.69
492.527	94.69
492.745	112.69
492.963	106.69
493.18	94.69
493.398	84.69
493.615	93.69
493.833	89.69
494.05	87.69
494.268	102.69
494.485	80.69
494.703	84.69
494.92	94.69
495.138	93.69
495.355	89.69
495.573	105.69
495.79	90.69
496.008	78.69
496.225	97.69
496.442	66.69
496.66	85.69
496.877	95.69
497.094	90.69
497.312	97.69
497.529	80.69
497.746	97.69
497.963	95.69
498.181	91.69
498.398	91.69
498.615	91.69
498.832	94.69
499.049	91.69
499.267	80.69
499.484	90.69
499.701	77.69
499.918	89.69
500.135	98.69
500.352	91.69
500.569	92.69
500.786	94.69
501.003	87.69
501.22	68.69
501.437	75.69
501.654	87.69
501.871	89.69
502.088	94.69
502.305	84.69
502.522	89.69
502.739	78.69
502.956	87.69
503.172	92.69
503.389	76.69
503.606	82.69
503.823	96.69
504.04	77.69
504.256	89.69
504.473	76.69
504.69	94.69
504.907	92.69
505.123	77.69
505.34	85.69
505.557	94.69
505.773	76.69
505.99	77.69
506.207	84.69
506.423	78.69
506.64	98.69
506.856	86.69
507.073	74.69
507.289	82.69
507.506	98.69
507.722	100.69
507.939	94.69
508.155	90.69
508.372	88.69
508.588	85.69
508.805	86.69
509.021	90.69
509.238	74.69
509.454	96.69
509.67	105.69
509.887	110.69
510.103	114.69
510.319	153.69
510.536	505.69
510.752	1536.69
510.968	439.69
511.184	133.69
511.401	107.69
511.617	100.69
511.833	83.69
512.049	93.69
512.265	88.69
512.481	89.69
512.698	102.69
512.914	92.69
513.13	98.69
513.346	88.69
513.562	100.69
513.778	100.69
513.994	105.69
514.21	103.69
514.426	100.69
514.642	115.69
514.858	101.69
515.074	123.69
515.29	295.69
515.506	908.69
515.721	341.69
515.937	104.69
516.153	97.69
516.369	89.69
516.585	86.69
