Data from Uncirc_1980_H10_HRD10591_00016.txt Node
Date: Wed Jan 03 12:36:58 EST 2024
User: Yrep
Spectrometer: HR+D1059
Trigger mode: 1
Integration Time (sec): 1.000000E-1
Scans to average: 1
Electric dark correction enabled: true
Nonlinearity correction enabled: false
Boxcar width: 0
XAxis mode: Wavelengths
Number of Pixels in Spectrum: 2048
>>>>>Begin Spectral Data<<<<<
223.165	-12.06
223.4	-12.06
223.635	-12.06
223.869	-21.06
224.104	-25.06
224.338	-27.06
224.573	-13.06
224.808	-18.06
225.042	-21.06
225.277	-11.06
225.511	7.94
225.746	16.94
225.98	-4.06
226.215	13.94
226.449	17.94
226.683	30.94
226.918	31.94
227.152	32.94
227.387	57.94
227.621	26.94
227.856	49.94
228.09	51.94
228.324	57.94
228.559	60.94
228.793	68.94
229.027	54.94
229.262	65.94
229.496	62.94
229.73	68.94
229.964	82.94
230.199	71.94
230.433	76.94
230.667	59.94
230.901	88.94
231.136	69.94
231.37	93.94
231.604	68.94
231.838	82.94
232.072	76.94
232.306	71.94
232.541	68.94
232.775	75.94
233.009	75.94
233.243	63.94
233.477	77.94
233.711	89.94
233.945	76.94
234.179	90.94
234.413	87.94
234.647	74.94
234.881	67.94
235.115	72.94
235.349	83.94
235.583	86.94
235.817	76.94
236.051	81.94
236.285	77.94
236.519	85.94
236.753	74.94
236.987	66.94
237.221	72.94
237.455	72.94
237.689	82.94
237.922	82.94
238.156	87.94
238.39	88.94
238.624	69.94
238.858	80.94
239.091	80.94
239.325	79.94
239.559	80.94
239.793	69.94
240.027	80.94
240.26	66.94
240.494	91.94
240.728	76.94
240.961	74.94
241.195	70.94
241.429	68.94
241.662	69.94
241.896	80.94
242.13	80.94
242.363	75.94
242.597	68.94
242.83	66.94
243.064	92.94
243.298	76.94
243.531	79.94
243.765	87.94
243.998	84.94
244.232	89.94
244.465	84.94
244.699	95.94
244.932	80.94
245.166	73.94
245.399	81.94
245.633	62.94
245.866	86.94
246.099	85.94
246.333	73.94
246.566	78.94
246.8	67.94
247.033	73.94
247.266	86.94
247.5	72.94
247.733	70.94
247.966	88.94
248.2	83.94
248.433	78.94
248.666	72.94
248.899	80.94
249.133	91.94
249.366	100.94
249.599	93.94
249.832	83.94
250.066	68.94
250.299	74.94
250.532	89.94
250.765	71.94
250.998	82.94
251.231	78.94
251.465	86.94
251.698	73.94
251.931	59.94
252.164	89.94
252.397	69.94
252.63	72.94
252.863	74.94
253.096	88.94
253.329	80.94
253.562	78.94
253.795	70.94
254.028	80.94
254.261	66.94
254.494	77.94
254.727	75.94
254.96	84.94
255.193	83.94
255.426	71.94
255.659	72.94
255.892	89.94
256.124	72.94
256.357	84.94
256.59	72.94
256.823	81.94
257.056	89.94
257.289	85.94
257.521	70.94
257.754	88.94
257.987	77.94
258.22	85.94
258.452	91.94
258.685	81.94
258.918	76.94
259.151	73.94
259.383	83.94
259.616	80.94
259.849	83.94
260.081	77.94
260.314	76.94
260.547	81.94
260.779	67.94
261.012	80.94
261.244	78.94
261.477	96.94
261.71	82.94
261.942	96.94
262.175	106.94
262.407	88.94
262.64	97.94
262.872	70.94
263.105	80.94
263.337	74.94
263.57	75.94
263.802	80.94
264.035	93.94
264.267	91.94
264.499	87.94
264.732	84.94
264.964	79.94
265.197	70.94
265.429	88.94
265.661	87.94
265.894	79.94
266.126	81.94
266.358	74.94
266.591	75.94
266.823	78.94
267.055	87.94
267.287	75.94
267.52	86.94
267.752	81.94
267.984	80.94
268.216	74.94
268.448	94.94
268.681	73.94
268.913	96.94
269.145	79.94
269.377	86.94
269.609	73.94
269.841	77.94
270.073	91.94
270.306	82.94
270.538	87.94
270.77	73.94
271.002	76.94
271.234	75.94
271.466	73.94
271.698	81.94
271.93	83.94
272.162	76.94
272.394	89.94
272.626	65.94
272.858	79.94
273.09	93.94
273.322	79.94
273.553	84.94
273.785	89.94
274.017	83.94
274.249	74.94
274.481	87.94
274.713	83.94
274.945	73.94
275.176	76.94
275.408	92.94
275.64	73.94
275.872	72.94
276.104	82.94
276.335	86.94
276.567	89.94
276.799	99.94
277.031	89.94
277.262	86.94
277.494	90.94
277.726	80.94
277.957	86.94
278.189	70.94
278.421	104.94
278.652	82.94
278.884	84.94
279.115	75.94
279.347	69.94
279.579	98.94
279.81	76.94
280.042	78.94
280.273	88.94
280.505	75.94
280.736	69.94
280.968	95.94
281.199	86.94
281.431	78.94
281.662	92.94
281.894	83.94
282.125	98.94
282.356	89.94
282.588	107.94
282.819	88.94
283.051	84.94
283.282	81.94
283.513	92.94
283.745	87.94
283.976	84.94
284.207	93.94
284.439	74.94
284.67	87.94
284.901	79.94
285.132	97.94
285.364	86.94
285.595	84.94
285.826	85.94
286.057	89.94
286.288	89.94
286.52	99.94
286.751	84.94
286.982	75.94
287.213	76.94
287.444	76.94
287.675	89.94
287.906	77.94
288.138	83.94
288.369	94.94
288.6	76.94
288.831	87.94
289.062	87.94
289.293	86.94
289.524	80.94
289.755	87.94
289.986	96.94
290.217	77.94
290.448	66.94
290.679	90.94
290.91	88.94
291.141	70.94
291.371	90.94
291.602	78.94
291.833	76.94
292.064	89.94
292.295	69.94
292.526	76.94
292.757	89.94
292.987	92.94
293.218	99.94
293.449	89.94
293.68	77.94
293.91	68.94
294.141	79.94
294.372	84.94
294.603	79.94
294.833	93.94
295.064	86.94
295.295	85.94
295.525	93.94
295.756	95.94
295.987	96.94
296.217	113.94
296.448	100.94
296.679	77.94
296.909	93.94
297.14	91.94
297.37	87.94
297.601	76.94
297.831	97.94
298.062	96.94
298.292	70.94
298.523	83.94
298.753	82.94
298.984	75.94
299.214	77.94
299.445	90.94
299.675	82.94
299.905	101.94
300.136	73.94
300.366	93.94
300.597	89.94
300.827	82.94
301.057	87.94
301.288	92.94
301.518	98.94
301.748	90.94
301.979	96.94
302.209	91.94
302.439	89.94
302.669	87.94
302.9	82.94
303.13	94.94
303.36	89.94
303.59	91.94
303.82	87.94
304.051	92.94
304.281	90.94
304.511	93.94
304.741	87.94
304.971	77.94
305.201	108.94
305.431	84.94
305.661	89.94
305.891	74.94
306.121	80.94
306.352	85.94
306.582	97.94
306.812	78.94
307.042	82.94
307.272	85.94
307.502	88.94
307.731	85.94
307.961	90.94
308.191	98.94
308.421	81.94
308.651	80.94
308.881	91.94
309.111	92.94
309.341	89.94
309.571	92.94
309.8	84.94
310.03	95.94
310.26	80.94
310.49	91.94
310.72	92.94
310.949	88.94
311.179	90.94
311.409	93.94
311.639	87.94
311.868	90.94
312.098	96.94
312.328	93.94
312.557	83.94
312.787	104.94
313.017	87.94
313.246	82.94
313.476	92.94
313.706	72.94
313.935	72.94
314.165	90.94
314.394	96.94
314.624	107.94
314.853	89.94
315.083	92.94
315.312	83.94
315.542	90.94
315.771	108.94
316.001	104.94
316.23	92.94
316.46	66.94
316.689	84.94
316.919	79.94
317.148	84.94
317.377	87.94
317.607	78.94
317.836	86.94
318.065	104.94
318.295	94.94
318.524	84.94
318.753	82.94
318.983	97.94
319.212	91.94
319.441	92.94
319.67	107.94
319.9	92.94
320.129	94.94
320.358	89.94
320.587	88.94
320.816	90.94
321.046	73.94
321.275	74.94
321.504	83.94
321.733	77.94
321.962	93.94
322.191	91.94
322.42	100.94
322.649	86.94
322.878	104.94
323.108	105.94
323.337	126.94
323.566	98.94
323.795	128.94
324.024	145.94
324.253	289.94
324.482	552.94
324.71	1088.94
324.939	1434.94
325.168	532.94
325.397	168.94
325.626	127.94
325.855	98.94
326.084	106.94
326.313	119.94
326.542	122.94
326.77	181.94
326.999	331.94
327.228	619.94
327.457	1131.94
327.686	907.94
327.914	242.94
328.143	162.94
328.372	118.94
328.6	108.94
328.829	93.94
329.058	114.94
329.287	104.94
329.515	97.94
329.744	104.94
329.972	105.94
330.201	100.94
330.43	108.94
330.658	101.94
330.887	107.94
331.115	97.94
331.344	102.94
331.572	93.94
331.801	90.94
332.03	82.94
332.258	91.94
332.486	100.94
332.715	72.94
332.943	92.94
333.172	88.94
333.4	84.94
333.629	97.94
333.857	96.94
334.085	100.94
334.314	102.94
334.542	117.94
334.771	100.94
334.999	85.94
335.227	99.94
335.455	89.94
335.684	86.94
335.912	93.94
336.14	89.94
336.369	83.94
336.597	83.94
336.825	87.94
337.053	92.94
337.281	99.94
337.51	87.94
337.738	87.94
337.966	85.94
338.194	88.94
338.422	93.94
338.65	82.94
338.878	82.94
339.106	79.94
339.334	92.94
339.562	93.94
339.79	90.94
340.018	88.94
340.246	90.94
340.474	90.94
340.702	87.94
340.93	93.94
341.158	88.94
341.386	116.94
341.614	99.94
341.842	92.94
342.07	102.94
342.298	84.94
342.526	96.94
342.754	88.94
342.981	85.94
343.209	76.94
343.437	103.94
343.665	99.94
343.893	85.94
344.12	107.94
344.348	97.94
344.576	82.94
344.804	89.94
345.031	91.94
345.259	78.94
345.487	86.94
345.714	97.94
345.942	88.94
346.17	96.94
346.397	92.94
346.625	78.94
346.853	96.94
347.08	88.94
347.308	87.94
347.535	66.94
347.763	77.94
347.99	94.94
348.218	91.94
348.445	102.94
348.673	84.94
348.9	95.94
349.128	96.94
349.355	78.94
349.583	91.94
349.81	81.94
350.037	91.94
350.265	101.94
350.492	98.94
350.72	94.94
350.947	77.94
351.174	84.94
351.402	88.94
351.629	106.94
351.856	90.94
352.083	90.94
352.311	81.94
352.538	108.94
352.765	104.94
352.992	104.94
353.22	110.94
353.447	99.94
353.674	98.94
353.901	105.94
354.128	111.94
354.355	98.94
354.583	105.94
354.81	86.94
355.037	100.94
355.264	91.94
355.491	98.94
355.718	93.94
355.945	84.94
356.172	84.94
356.399	85.94
356.626	101.94
356.853	80.94
357.08	98.94
357.307	105.94
357.534	97.94
357.761	89.94
357.988	97.94
358.215	106.94
358.441	103.94
358.668	100.94
358.895	103.94
359.122	96.94
359.349	94.94
359.576	97.94
359.802	84.94
360.029	95.94
360.256	98.94
360.483	89.94
360.709	84.94
360.936	83.94
361.163	92.94
361.39	90.94
361.616	104.94
361.843	87.94
362.07	87.94
362.296	86.94
362.523	89.94
362.749	97.94
362.976	97.94
363.203	84.94
363.429	73.94
363.656	90.94
363.882	100.94
364.109	86.94
364.335	84.94
364.562	91.94
364.788	94.94
365.015	104.94
365.241	88.94
365.468	93.94
365.694	98.94
365.92	99.94
366.147	82.94
366.373	81.94
366.599	78.94
366.826	78.94
367.052	81.94
367.278	87.94
367.505	81.94
367.731	101.94
367.957	99.94
368.184	84.94
368.41	102.94
368.636	102.94
368.862	121.94
369.089	94.94
369.315	97.94
369.541	89.94
369.767	88.94
369.993	63.94
370.219	96.94
370.445	77.94
370.672	74.94
370.898	81.94
371.124	86.94
371.35	83.94
371.576	103.94
371.802	91.94
372.028	81.94
372.254	92.94
372.48	86.94
372.706	88.94
372.932	86.94
373.158	80.94
373.384	76.94
373.61	90.94
373.835	84.94
374.061	86.94
374.287	70.94
374.513	89.94
374.739	93.94
374.965	98.94
375.191	91.94
375.416	93.94
375.642	93.94
375.868	101.94
376.094	87.94
376.319	84.94
376.545	86.94
376.771	88.94
376.997	82.94
377.222	86.94
377.448	90.94
377.674	86.94
377.899	85.94
378.125	91.94
378.35	92.94
378.576	83.94
378.802	91.94
379.027	90.94
379.253	98.94
379.478	84.94
379.704	102.94
379.929	103.94
380.155	94.94
380.38	91.94
380.606	96.94
380.831	90.94
381.057	96.94
381.282	107.94
381.507	90.94
381.733	114.94
381.958	122.94
382.184	97.94
382.409	112.94
382.634	100.94
382.86	97.94
383.085	121.94
383.31	107.94
383.535	108.94
383.761	116.94
383.986	100.94
384.211	113.94
384.436	105.94
384.662	109.94
384.887	133.94
385.112	131.94
385.337	122.94
385.562	118.94
385.787	122.94
386.013	136.94
386.238	117.94
386.463	97.94
386.688	138.94
386.913	104.94
387.138	123.94
387.363	107.94
387.588	112.94
387.813	103.94
388.038	120.94
388.263	140.94
388.488	126.94
388.713	95.94
388.938	99.94
389.163	96.94
389.387	91.94
389.612	83.94
389.837	97.94
390.062	86.94
390.287	93.94
390.512	85.94
390.736	93.94
390.961	89.94
391.186	84.94
391.411	88.94
391.636	84.94
391.86	88.94
392.085	81.94
392.31	74.94
392.534	87.94
392.759	72.94
392.984	92.94
393.208	85.94
393.433	92.94
393.658	88.94
393.882	79.94
394.107	91.94
394.331	90.94
394.556	93.94
394.78	100.94
395.005	97.94
395.229	92.94
395.454	80.94
395.678	70.94
395.903	82.94
396.127	96.94
396.352	88.94
396.576	83.94
396.801	91.94
397.025	90.94
397.249	92.94
397.474	100.94
397.698	71.94
397.922	84.94
398.147	86.94
398.371	98.94
398.595	93.94
398.82	74.94
399.044	70.94
399.268	79.94
399.492	85.94
399.717	84.94
399.941	76.94
400.165	90.94
400.389	92.94
400.613	88.94
400.837	92.94
401.062	77.94
401.286	99.94
401.51	88.94
401.734	97.94
401.958	90.94
402.182	118.94
402.406	115.94
402.63	93.94
402.854	89.94
403.078	89.94
403.302	76.94
403.526	95.94
403.75	97.94
403.974	78.94
404.198	82.94
404.422	96.94
404.645	59.94
404.869	90.94
405.093	87.94
405.317	97.94
405.541	91.94
405.765	82.94
405.988	110.94
406.212	128.94
406.436	161.94
406.66	107.94
406.883	99.94
407.107	81.94
407.331	87.94
407.555	88.94
407.778	98.94
408.002	99.94
408.226	98.94
408.449	91.94
408.673	90.94
408.896	103.94
409.12	92.94
409.344	95.94
409.567	82.94
409.791	83.94
410.014	86.94
410.238	90.94
410.461	88.94
410.685	98.94
410.908	84.94
411.132	100.94
411.355	77.94
411.578	84.94
411.802	80.94
412.025	72.94
412.249	94.94
412.472	101.94
412.695	96.94
412.919	86.94
413.142	85.94
413.365	92.94
413.589	89.94
413.812	98.94
414.035	89.94
414.258	91.94
414.482	94.94
414.705	103.94
414.928	81.94
415.151	94.94
415.374	96.94
415.597	80.94
415.821	94.94
416.044	91.94
416.267	72.94
416.49	97.94
416.713	94.94
416.936	86.94
417.159	90.94
417.382	85.94
417.605	93.94
417.828	98.94
418.051	82.94
418.274	85.94
418.497	85.94
418.72	89.94
418.943	94.94
419.166	93.94
419.389	84.94
419.611	87.94
419.834	97.94
420.057	91.94
420.28	99.94
420.503	85.94
420.726	78.94
420.948	84.94
421.171	94.94
421.394	93.94
421.617	93.94
421.839	88.94
422.062	88.94
422.285	84.94
422.507	97.94
422.73	103.94
422.953	85.94
423.175	95.94
423.398	88.94
423.621	90.94
423.843	83.94
424.066	77.94
424.288	93.94
424.511	91.94
424.733	90.94
424.956	85.94
425.178	92.94
425.401	95.94
425.623	98.94
425.846	90.94
426.068	85.94
426.291	89.94
426.513	91.94
426.735	93.94
426.958	104.94
427.18	113.94
427.402	100.94
427.625	119.94
427.847	118.94
428.069	106.94
428.292	88.94
428.514	90.94
428.736	69.94
428.958	68.94
429.181	85.94
429.403	83.94
429.625	80.94
429.847	82.94
430.069	105.94
430.292	90.94
430.514	87.94
430.736	85.94
430.958	84.94
431.18	87.94
431.402	96.94
431.624	91.94
431.846	86.94
432.068	96.94
432.29	75.94
432.512	78.94
432.734	83.94
432.956	74.94
433.178	99.94
433.4	94.94
433.622	98.94
433.844	81.94
434.066	103.94
434.287	82.94
434.509	97.94
434.731	88.94
434.953	78.94
435.175	84.94
435.397	98.94
435.618	97.94
435.84	82.94
436.062	119.94
436.284	100.94
436.505	82.94
436.727	85.94
436.949	95.94
437.17	82.94
437.392	84.94
437.614	89.94
437.835	100.94
438.057	111.94
438.278	95.94
438.5	96.94
438.721	103.94
438.943	91.94
439.165	75.94
439.386	85.94
439.608	92.94
439.829	102.94
440.05	109.94
440.272	118.94
440.493	75.94
440.715	82.94
440.936	92.94
441.158	87.94
441.379	84.94
441.6	75.94
441.822	96.94
442.043	98.94
442.264	92.94
442.486	91.94
442.707	88.94
442.928	83.94
443.149	105.94
443.371	105.94
443.592	95.94
443.813	93.94
444.034	103.94
444.255	93.94
444.476	82.94
444.698	88.94
444.919	74.94
445.14	125.94
445.361	110.94
445.582	112.94
445.803	96.94
446.024	110.94
446.245	98.94
446.466	83.94
446.687	75.94
446.908	89.94
447.129	75.94
447.35	90.94
447.571	92.94
447.792	81.94
448.013	90.94
448.234	90.94
448.455	90.94
448.675	103.94
448.896	90.94
449.117	88.94
449.338	91.94
449.559	116.94
449.779	116.94
450	91.94
450.221	80.94
450.442	81.94
450.662	82.94
450.883	89.94
451.104	88.94
451.324	91.94
451.545	98.94
451.766	86.94
451.986	100.94
452.207	90.94
452.428	74.94
452.648	95.94
452.869	99.94
453.089	97.94
453.31	98.94
453.53	92.94
453.751	80.94
453.971	92.94
454.192	92.94
454.412	76.94
454.633	84.94
454.853	87.94
455.073	89.94
455.294	88.94
455.514	100.94
455.734	85.94
455.955	76.94
456.175	82.94
456.395	104.94
456.616	92.94
456.836	91.94
457.056	85.94
457.276	82.94
457.497	93.94
457.717	85.94
457.937	90.94
458.157	91.94
458.377	77.94
458.598	95.94
458.818	116.94
459.038	109.94
459.258	96.94
459.478	90.94
459.698	76.94
459.918	86.94
460.138	84.94
460.358	85.94
460.578	95.94
460.798	82.94
461.018	77.94
461.238	70.94
461.458	86.94
461.678	80.94
461.898	80.94
462.118	82.94
462.338	81.94
462.558	71.94
462.777	85.94
462.997	70.94
463.217	75.94
463.437	88.94
463.657	88.94
463.876	89.94
464.096	77.94
464.316	86.94
464.536	72.94
464.755	98.94
464.975	90.94
465.195	128.94
465.414	116.94
465.634	85.94
465.854	94.94
466.073	87.94
466.293	80.94
466.512	93.94
466.732	96.94
466.951	93.94
467.171	102.94
467.391	93.94
467.61	80.94
467.829	96.94
468.049	99.94
468.268	74.94
468.488	73.94
468.707	92.94
468.927	81.94
469.146	74.94
469.365	80.94
469.585	81.94
469.804	97.94
470.023	101.94
470.243	80.94
470.462	89.94
470.681	99.94
470.901	101.94
471.12	87.94
471.339	88.94
471.558	89.94
471.777	65.94
471.997	82.94
472.216	103.94
472.435	131.94
472.654	80.94
472.873	77.94
473.092	73.94
473.311	89.94
473.53	77.94
473.749	93.94
473.968	98.94
474.187	102.94
474.406	97.94
474.625	87.94
474.844	81.94
475.063	84.94
475.282	93.94
475.501	90.94
475.72	95.94
475.939	77.94
476.158	85.94
476.377	96.94
476.596	88.94
476.814	92.94
477.033	76.94
477.252	79.94
477.471	76.94
477.69	83.94
477.908	78.94
478.127	80.94
478.346	85.94
478.564	86.94
478.783	99.94
479.002	95.94
479.22	99.94
479.439	96.94
479.658	88.94
479.876	92.94
480.095	94.94
480.313	101.94
480.532	82.94
480.751	92.94
480.969	101.94
481.188	157.94
481.406	120.94
481.624	74.94
481.843	85.94
482.061	90.94
482.28	86.94
482.498	72.94
482.717	93.94
482.935	74.94
483.153	75.94
483.372	81.94
483.59	96.94
483.808	88.94
484.027	88.94
484.245	90.94
484.463	99.94
484.681	89.94
484.9	90.94
485.118	81.94
485.336	88.94
485.554	98.94
485.772	100.94
485.99	94.94
486.209	105.94
486.427	104.94
486.645	110.94
486.863	93.94
487.081	100.94
487.299	90.94
487.517	91.94
487.735	75.94
487.953	103.94
488.171	94.94
488.389	102.94
488.607	95.94
488.825	95.94
489.043	78.94
489.261	80.94
489.479	74.94
489.696	92.94
489.914	89.94
490.132	82.94
490.35	90.94
490.568	82.94
490.786	94.94
491.003	90.94
491.221	88.94
491.439	84.94
491.657	89.94
491.874	82.94
492.092	89.94
492.31	92.94
492.527	94.94
492.745	93.94
492.963	85.94
493.18	82.94
493.398	86.94
493.615	85.94
493.833	104.94
494.05	96.94
494.268	88.94
494.485	102.94
494.703	88.94
494.92	96.94
495.138	93.94
495.355	97.94
495.573	84.94
495.79	94.94
496.008	95.94
496.225	98.94
496.442	91.94
496.66	92.94
496.877	92.94
497.094	89.94
497.312	88.94
497.529	94.94
497.746	106.94
497.963	86.94
498.181	86.94
498.398	94.94
498.615	108.94
498.832	93.94
499.049	84.94
499.267	90.94
499.484	91.94
499.701	100.94
499.918	102.94
500.135	80.94
500.352	96.94
500.569	102.94
500.786	92.94
501.003	82.94
501.22	76.94
501.437	77.94
501.654	74.94
501.871	98.94
502.088	84.94
502.305	90.94
502.522	92.94
502.739	76.94
502.956	91.94
503.172	96.94
503.389	86.94
503.606	81.94
503.823	80.94
504.04	98.94
504.256	87.94
504.473	88.94
504.69	90.94
504.907	80.94
505.123	92.94
505.34	83.94
505.557	92.94
505.773	81.94
505.99	88.94
506.207	93.94
506.423	92.94
506.64	89.94
506.856	96.94
507.073	88.94
507.289	89.94
507.506	94.94
507.722	98.94
507.939	102.94
508.155	91.94
508.372	92.94
508.588	94.94
508.805	94.94
509.021	97.94
509.238	96.94
509.454	87.94
509.67	102.94
509.887	100.94
510.103	125.94
510.319	182.94
510.536	529.94
510.752	1540.94
510.968	436.94
511.184	125.94
511.401	96.94
511.617	88.94
511.833	88.94
512.049	100.94
512.265	89.94
512.481	98.94
512.698	82.94
512.914	83.94
513.13	82.94
513.346	101.94
513.562	90.94
513.778	85.94
513.994	93.94
514.21	102.94
514.426	93.94
514.642	104.94
514.858	98.94
515.074	130.94
515.29	286.94
515.506	881.94
515.721	330.94
515.937	128.94
516.153	106.94
516.369	96.94
516.585	88.94
516.801	97.94
517.016	98.94
517.232	96.94
