Data from Uncirc_1980_H10_HRD10591_00055.txt Node
Date: Wed Jan 03 12:37:06 EST 2024
User: Yrep
Spectrometer: HR+D1059
Trigger mode: 1
Integration Time (sec): 1.000000E-1
Scans to average: 1
Electric dark correction enabled: true
Nonlinearity correction enabled: false
Boxcar width: 0
XAxis mode: Wavelengths
Number of Pixels in Spectrum: 2048
>>>>>Begin Spectral Data<<<<<
223.165	-16.25
223.4	-16.25
223.635	-16.25
223.869	-26.25
224.104	-16.25
224.338	-14.25
224.573	-12.25
224.808	-13.25
225.042	-10.25
225.277	-8.25
225.511	-0.25
225.746	-4.25
225.98	10.75
226.215	15.75
226.449	21.75
226.683	14.75
226.918	27.75
227.152	30.75
227.387	30.75
227.621	44.75
227.856	45.75
228.09	53.75
228.324	51.75
228.559	71.75
228.793	62.75
229.027	69.75
229.262	74.75
229.496	78.75
229.73	87.75
229.964	73.75
230.199	80.75
230.433	84.75
230.667	67.75
230.901	80.75
231.136	85.75
231.37	72.75
231.604	69.75
231.838	76.75
232.072	81.75
232.306	75.75
232.541	99.75
232.775	91.75
233.009	87.75
233.243	79.75
233.477	80.75
233.711	67.75
233.945	87.75
234.179	83.75
234.413	76.75
234.647	61.75
234.881	88.75
235.115	89.75
235.349	81.75
235.583	72.75
235.817	81.75
236.051	91.75
236.285	75.75
236.519	90.75
236.753	79.75
236.987	81.75
237.221	71.75
237.455	90.75
237.689	89.75
237.922	85.75
238.156	79.75
238.39	73.75
238.624	75.75
238.858	82.75
239.091	89.75
239.325	80.75
239.559	96.75
239.793	96.75
240.027	84.75
240.26	99.75
240.494	72.75
240.728	84.75
240.961	84.75
241.195	83.75
241.429	73.75
241.662	55.75
241.896	69.75
242.13	73.75
242.363	79.75
242.597	75.75
242.83	69.75
243.064	89.75
243.298	78.75
243.531	85.75
243.765	93.75
243.998	90.75
244.232	97.75
244.465	76.75
244.699	91.75
244.932	89.75
245.166	89.75
245.399	87.75
245.633	88.75
245.866	91.75
246.099	73.75
246.333	70.75
246.566	85.75
246.8	77.75
247.033	75.75
247.266	90.75
247.5	80.75
247.733	86.75
247.966	85.75
248.2	97.75
248.433	83.75
248.666	86.75
248.899	89.75
249.133	91.75
249.366	102.75
249.599	100.75
249.832	81.75
250.066	77.75
250.299	74.75
250.532	86.75
250.765	90.75
250.998	80.75
251.231	83.75
251.465	77.75
251.698	79.75
251.931	86.75
252.164	72.75
252.397	85.75
252.63	79.75
252.863	74.75
253.096	82.75
253.329	114.75
253.562	83.75
253.795	95.75
254.028	90.75
254.261	92.75
254.494	88.75
254.727	92.75
254.96	86.75
255.193	93.75
255.426	86.75
255.659	98.75
255.892	89.75
256.124	82.75
256.357	99.75
256.59	73.75
256.823	80.75
257.056	79.75
257.289	85.75
257.521	89.75
257.754	81.75
257.987	81.75
258.22	87.75
258.452	86.75
258.685	81.75
258.918	81.75
259.151	78.75
259.383	87.75
259.616	98.75
259.849	89.75
260.081	73.75
260.314	89.75
260.547	80.75
260.779	87.75
261.012	87.75
261.244	88.75
261.477	88.75
261.71	90.75
261.942	106.75
262.175	100.75
262.407	93.75
262.64	80.75
262.872	84.75
263.105	89.75
263.337	82.75
263.57	91.75
263.802	82.75
264.035	78.75
264.267	87.75
264.499	85.75
264.732	74.75
264.964	85.75
265.197	87.75
265.429	87.75
265.661	86.75
265.894	90.75
266.126	81.75
266.358	96.75
266.591	79.75
266.823	85.75
267.055	76.75
267.287	93.75
267.52	86.75
267.752	98.75
267.984	78.75
268.216	71.75
268.448	86.75
268.681	87.75
268.913	87.75
269.145	82.75
269.377	86.75
269.609	95.75
269.841	95.75
270.073	80.75
270.306	77.75
270.538	83.75
270.77	91.75
271.002	87.75
271.234	76.75
271.466	97.75
271.698	90.75
271.93	80.75
272.162	85.75
272.394	89.75
272.626	92.75
272.858	93.75
273.09	82.75
273.322	90.75
273.553	91.75
273.785	95.75
274.017	80.75
274.249	86.75
274.481	98.75
274.713	88.75
274.945	82.75
275.176	84.75
275.408	99.75
275.64	86.75
275.872	85.75
276.104	116.75
276.335	92.75
276.567	98.75
276.799	95.75
277.031	109.75
277.262	90.75
277.494	85.75
277.726	93.75
277.957	79.75
278.189	91.75
278.421	87.75
278.652	95.75
278.884	81.75
279.115	93.75
279.347	82.75
279.579	82.75
279.81	91.75
280.042	93.75
280.273	101.75
280.505	90.75
280.736	108.75
280.968	74.75
281.199	88.75
281.431	71.75
281.662	86.75
281.894	99.75
282.125	106.75
282.356	111.75
282.588	132.75
282.819	99.75
283.051	90.75
283.282	89.75
283.513	97.75
283.745	98.75
283.976	93.75
284.207	82.75
284.439	97.75
284.67	90.75
284.901	94.75
285.132	91.75
285.364	83.75
285.595	78.75
285.826	71.75
286.057	83.75
286.288	90.75
286.52	79.75
286.751	85.75
286.982	88.75
287.213	91.75
287.444	89.75
287.675	91.75
287.906	84.75
288.138	94.75
288.369	101.75
288.6	94.75
288.831	82.75
289.062	119.75
289.293	78.75
289.524	90.75
289.755	87.75
289.986	92.75
290.217	99.75
290.448	91.75
290.679	83.75
290.91	92.75
291.141	89.75
291.371	81.75
291.602	80.75
291.833	81.75
292.064	90.75
292.295	87.75
292.526	108.75
292.757	111.75
292.987	101.75
293.218	103.75
293.449	99.75
293.68	84.75
293.91	91.75
294.141	93.75
294.372	87.75
294.603	102.75
294.833	90.75
295.064	87.75
295.295	98.75
295.525	92.75
295.756	93.75
295.987	93.75
296.217	122.75
296.448	119.75
296.679	96.75
296.909	103.75
297.14	85.75
297.37	101.75
297.601	96.75
297.831	88.75
298.062	95.75
298.292	101.75
298.523	92.75
298.753	81.75
298.984	82.75
299.214	73.75
299.445	87.75
299.675	81.75
299.905	90.75
300.136	94.75
300.366	91.75
300.597	90.75
300.827	97.75
301.057	101.75
301.288	111.75
301.518	95.75
301.748	89.75
301.979	98.75
302.209	92.75
302.439	96.75
302.669	78.75
302.9	83.75
303.13	99.75
303.36	93.75
303.59	98.75
303.82	92.75
304.051	90.75
304.281	79.75
304.511	100.75
304.741	91.75
304.971	91.75
305.201	92.75
305.431	94.75
305.661	94.75
305.891	102.75
306.121	96.75
306.352	100.75
306.582	110.75
306.812	90.75
307.042	106.75
307.272	86.75
307.502	76.75
307.731	90.75
307.961	95.75
308.191	97.75
308.421	96.75
308.651	93.75
308.881	99.75
309.111	81.75
309.341	97.75
309.571	100.75
309.8	87.75
310.03	93.75
310.26	100.75
310.49	95.75
310.72	99.75
310.949	97.75
311.179	105.75
311.409	105.75
311.639	87.75
311.868	94.75
312.098	94.75
312.328	106.75
312.557	97.75
312.787	92.75
313.017	103.75
313.246	97.75
313.476	92.75
313.706	88.75
313.935	85.75
314.165	97.75
314.394	91.75
314.624	106.75
314.853	105.75
315.083	84.75
315.312	86.75
315.542	105.75
315.771	93.75
316.001	92.75
316.23	82.75
316.46	97.75
316.689	93.75
316.919	91.75
317.148	94.75
317.377	97.75
317.607	99.75
317.836	93.75
318.065	94.75
318.295	90.75
318.524	103.75
318.753	97.75
318.983	106.75
319.212	109.75
319.441	100.75
319.67	101.75
319.9	86.75
320.129	96.75
320.358	100.75
320.587	91.75
320.816	98.75
321.046	108.75
321.275	107.75
321.504	95.75
321.733	105.75
321.962	91.75
322.191	102.75
322.42	102.75
322.649	114.75
322.878	118.75
323.108	126.75
323.337	114.75
323.566	113.75
323.795	142.75
324.024	179.75
324.253	287.75
324.482	581.75
324.71	1157.75
324.939	1531.75
325.168	569.75
325.397	192.75
325.626	132.75
325.855	123.75
326.084	112.75
326.313	121.75
326.542	146.75
326.77	182.75
326.999	345.75
327.228	674.75
327.457	1198.75
327.686	970.75
327.914	271.75
328.143	169.75
328.372	123.75
328.6	110.75
328.829	109.75
329.058	121.75
329.287	114.75
329.515	95.75
329.744	98.75
329.972	104.75
330.201	111.75
330.43	123.75
330.658	126.75
330.887	117.75
331.115	118.75
331.344	107.75
331.572	98.75
331.801	106.75
332.03	97.75
332.258	99.75
332.486	98.75
332.715	108.75
332.943	99.75
333.172	97.75
333.4	91.75
333.629	100.75
333.857	101.75
334.085	99.75
334.314	109.75
334.542	122.75
334.771	121.75
334.999	109.75
335.227	96.75
335.455	102.75
335.684	97.75
335.912	97.75
336.14	103.75
336.369	105.75
336.597	91.75
336.825	97.75
337.053	87.75
337.281	106.75
337.51	115.75
337.738	103.75
337.966	91.75
338.194	96.75
338.422	96.75
338.65	106.75
338.878	96.75
339.106	96.75
339.334	100.75
339.562	84.75
339.79	103.75
340.018	89.75
340.246	88.75
340.474	79.75
340.702	97.75
340.93	104.75
341.158	96.75
341.386	93.75
341.614	98.75
341.842	94.75
342.07	93.75
342.298	94.75
342.526	81.75
342.754	102.75
342.981	99.75
343.209	106.75
343.437	100.75
343.665	87.75
343.893	105.75
344.12	95.75
344.348	103.75
344.576	86.75
344.804	89.75
345.031	89.75
345.259	96.75
345.487	106.75
345.714	110.75
345.942	97.75
346.17	96.75
346.397	82.75
346.625	93.75
346.853	100.75
347.08	91.75
347.308	101.75
347.535	93.75
347.763	111.75
347.99	89.75
348.218	99.75
348.445	90.75
348.673	103.75
348.9	91.75
349.128	96.75
349.355	108.75
349.583	120.75
349.81	84.75
350.037	112.75
350.265	103.75
350.492	99.75
350.72	111.75
350.947	103.75
351.174	99.75
351.402	106.75
351.629	102.75
351.856	99.75
352.083	96.75
352.311	99.75
352.538	99.75
352.765	111.75
352.992	112.75
353.22	110.75
353.447	112.75
353.674	105.75
353.901	100.75
354.128	96.75
354.355	103.75
354.583	89.75
354.81	107.75
355.037	105.75
355.264	107.75
355.491	109.75
355.718	92.75
355.945	77.75
356.172	91.75
356.399	93.75
356.626	97.75
356.853	94.75
357.08	109.75
357.307	105.75
357.534	94.75
357.761	89.75
357.988	106.75
358.215	96.75
358.441	101.75
358.668	91.75
358.895	99.75
359.122	88.75
359.349	90.75
359.576	93.75
359.802	89.75
360.029	78.75
360.256	101.75
360.483	111.75
360.709	103.75
360.936	96.75
361.163	113.75
361.39	98.75
361.616	88.75
361.843	93.75
362.07	96.75
362.296	106.75
362.523	99.75
362.749	97.75
362.976	83.75
363.203	95.75
363.429	88.75
363.656	110.75
363.882	93.75
364.109	86.75
364.335	85.75
364.562	98.75
364.788	101.75
365.015	109.75
365.241	98.75
365.468	111.75
365.694	91.75
365.92	100.75
366.147	83.75
366.373	87.75
366.599	101.75
366.826	109.75
367.052	77.75
367.278	98.75
367.505	89.75
367.731	94.75
367.957	83.75
368.184	104.75
368.41	104.75
368.636	105.75
368.862	107.75
369.089	97.75
369.315	94.75
369.541	97.75
369.767	92.75
369.993	106.75
370.219	98.75
370.445	92.75
370.672	100.75
370.898	97.75
371.124	98.75
371.35	107.75
371.576	99.75
371.802	90.75
372.028	87.75
372.254	93.75
372.48	99.75
372.706	109.75
372.932	105.75
373.158	103.75
373.384	103.75
373.61	97.75
373.835	107.75
374.061	93.75
374.287	93.75
374.513	99.75
374.739	106.75
374.965	106.75
375.191	92.75
375.416	92.75
375.642	94.75
375.868	84.75
376.094	107.75
376.319	84.75
376.545	98.75
376.771	90.75
376.997	93.75
377.222	82.75
377.448	100.75
377.674	91.75
377.899	85.75
378.125	96.75
378.35	97.75
378.576	98.75
378.802	101.75
379.027	102.75
379.253	90.75
379.478	99.75
379.704	109.75
379.929	103.75
380.155	94.75
380.38	106.75
380.606	102.75
380.831	102.75
381.057	105.75
381.282	90.75
381.507	108.75
381.733	91.75
381.958	91.75
382.184	94.75
382.409	98.75
382.634	107.75
382.86	106.75
383.085	99.75
383.31	94.75
383.535	101.75
383.761	118.75
383.986	107.75
384.211	98.75
384.436	96.75
384.662	106.75
384.887	106.75
385.112	113.75
385.337	99.75
385.562	99.75
385.787	114.75
386.013	114.75
386.238	124.75
386.463	118.75
386.688	120.75
386.913	102.75
387.138	97.75
387.363	100.75
387.588	104.75
387.813	118.75
388.038	106.75
388.263	108.75
388.488	110.75
388.713	103.75
388.938	115.75
389.163	105.75
389.387	107.75
389.612	105.75
389.837	102.75
390.062	105.75
390.287	86.75
390.512	85.75
390.736	95.75
390.961	95.75
391.186	89.75
391.411	75.75
391.636	91.75
391.86	97.75
392.085	101.75
392.31	88.75
392.534	89.75
392.759	103.75
392.984	93.75
393.208	86.75
393.433	97.75
393.658	96.75
393.882	93.75
394.107	87.75
394.331	91.75
394.556	105.75
394.78	91.75
395.005	93.75
395.229	86.75
395.454	94.75
395.678	106.75
395.903	96.75
396.127	98.75
396.352	83.75
396.576	91.75
396.801	97.75
397.025	87.75
397.249	103.75
397.474	85.75
397.698	79.75
397.922	91.75
398.147	103.75
398.371	87.75
398.595	101.75
398.82	94.75
399.044	96.75
399.268	95.75
399.492	91.75
399.717	94.75
399.941	74.75
400.165	86.75
400.389	81.75
400.613	95.75
400.837	85.75
401.062	91.75
401.286	77.75
401.51	82.75
401.734	94.75
401.958	109.75
402.182	114.75
402.406	136.75
402.63	108.75
402.854	99.75
403.078	107.75
403.302	101.75
403.526	89.75
403.75	72.75
403.974	87.75
404.198	85.75
404.422	94.75
404.645	81.75
404.869	80.75
405.093	99.75
405.317	97.75
405.541	96.75
405.765	104.75
405.988	110.75
406.212	145.75
406.436	168.75
406.66	140.75
406.883	89.75
407.107	99.75
407.331	125.75
407.555	93.75
407.778	114.75
408.002	95.75
408.226	82.75
408.449	76.75
408.673	91.75
408.896	91.75
409.12	95.75
409.344	97.75
409.567	94.75
409.791	101.75
410.014	108.75
410.238	108.75
410.461	105.75
410.685	92.75
410.908	93.75
411.132	112.75
411.355	106.75
411.578	91.75
411.802	83.75
412.025	98.75
412.249	106.75
412.472	90.75
412.695	106.75
412.919	94.75
413.142	94.75
413.365	82.75
413.589	82.75
413.812	90.75
414.035	82.75
414.258	90.75
414.482	88.75
414.705	89.75
414.928	93.75
415.151	100.75
415.374	93.75
415.597	102.75
415.821	88.75
416.044	93.75
416.267	89.75
416.49	99.75
416.713	89.75
416.936	95.75
417.159	78.75
417.382	97.75
417.605	97.75
417.828	93.75
418.051	101.75
418.274	95.75
418.497	96.75
418.72	82.75
418.943	85.75
419.166	101.75
419.389	87.75
419.611	106.75
419.834	97.75
420.057	95.75
420.28	113.75
420.503	93.75
420.726	97.75
420.948	101.75
421.171	104.75
421.394	91.75
421.617	87.75
421.839	88.75
422.062	98.75
422.285	89.75
422.507	104.75
422.73	104.75
422.953	92.75
423.175	99.75
423.398	85.75
423.621	91.75
423.843	93.75
424.066	86.75
424.288	96.75
424.511	91.75
424.733	107.75
424.956	104.75
425.178	95.75
425.401	94.75
425.623	97.75
425.846	101.75
426.068	93.75
426.291	108.75
426.513	98.75
426.735	117.75
426.958	97.75
427.18	101.75
427.402	117.75
427.625	133.75
427.847	109.75
428.069	114.75
428.292	103.75
428.514	99.75
428.736	87.75
428.958	85.75
429.181	89.75
429.403	73.75
429.625	97.75
429.847	91.75
430.069	100.75
430.292	97.75
430.514	97.75
430.736	89.75
430.958	85.75
431.18	78.75
431.402	76.75
431.624	95.75
431.846	107.75
432.068	72.75
432.29	93.75
432.512	92.75
432.734	99.75
432.956	107.75
433.178	107.75
433.4	92.75
433.622	94.75
433.844	93.75
434.066	103.75
434.287	105.75
434.509	100.75
434.731	91.75
434.953	75.75
435.175	113.75
435.397	77.75
435.618	82.75
435.84	91.75
436.062	118.75
436.284	98.75
436.505	99.75
436.727	109.75
436.949	95.75
437.17	96.75
437.392	100.75
437.614	92.75
437.835	104.75
438.057	101.75
438.278	122.75
438.5	110.75
438.721	120.75
438.943	95.75
439.165	95.75
439.386	104.75
439.608	93.75
439.829	98.75
440.05	124.75
440.272	114.75
440.493	95.75
440.715	95.75
440.936	88.75
441.158	105.75
441.379	97.75
441.6	95.75
441.822	95.75
442.043	104.75
442.264	105.75
442.486	117.75
442.707	86.75
442.928	96.75
443.149	107.75
443.371	109.75
443.592	101.75
443.813	104.75
444.034	99.75
444.255	106.75
444.476	94.75
444.698	99.75
444.919	90.75
445.14	144.75
445.361	128.75
445.582	112.75
445.803	128.75
446.024	119.75
446.245	126.75
446.466	105.75
446.687	98.75
446.908	82.75
447.129	79.75
447.35	95.75
447.571	89.75
447.792	110.75
448.013	94.75
448.234	98.75
448.455	113.75
448.675	120.75
448.896	106.75
449.117	109.75
449.338	109.75
449.559	93.75
449.779	121.75
450	104.75
450.221	92.75
450.442	81.75
450.662	86.75
450.883	101.75
451.104	95.75
451.324	90.75
451.545	99.75
451.766	102.75
451.986	111.75
452.207	99.75
452.428	87.75
452.648	93.75
452.869	96.75
453.089	110.75
453.31	110.75
453.53	79.75
453.751	97.75
453.971	99.75
454.192	98.75
454.412	89.75
454.633	95.75
454.853	102.75
455.073	89.75
455.294	114.75
455.514	98.75
455.734	97.75
455.955	86.75
456.175	93.75
456.395	87.75
456.616	88.75
456.836	89.75
457.056	86.75
457.276	96.75
457.497	89.75
457.717	86.75
457.937	98.75
458.157	103.75
458.377	103.75
458.598	107.75
458.818	117.75
459.038	139.75
459.258	96.75
459.478	97.75
459.698	85.75
459.918	99.75
460.138	98.75
460.358	100.75
460.578	96.75
460.798	85.75
461.018	90.75
461.238	96.75
461.458	82.75
461.678	89.75
461.898	105.75
462.118	89.75
462.338	96.75
462.558	94.75
462.777	92.75
462.997	83.75
463.217	75.75
463.437	81.75
463.657	101.75
463.876	108.75
464.096	100.75
464.316	86.75
464.536	102.75
464.755	88.75
464.975	102.75
465.195	129.75
465.414	132.75
465.634	95.75
465.854	89.75
466.073	89.75
466.293	89.75
466.512	79.75
466.732	89.75
466.951	89.75
467.171	78.75
467.391	101.75
467.61	93.75
467.829	86.75
468.049	108.75
468.268	101.75
468.488	81.75
468.707	82.75
468.927	70.75
469.146	76.75
469.365	76.75
469.585	85.75
469.804	93.75
470.023	91.75
470.243	102.75
470.462	104.75
470.681	111.75
470.901	85.75
471.12	92.75
471.339	92.75
471.558	90.75
471.777	85.75
471.997	81.75
472.216	118.75
472.435	123.75
472.654	99.75
472.873	105.75
473.092	95.75
473.311	105.75
473.53	83.75
473.749	102.75
473.968	98.75
474.187	99.75
474.406	94.75
474.625	90.75
474.844	81.75
475.063	78.75
475.282	107.75
475.501	90.75
475.72	91.75
475.939	93.75
476.158	90.75
476.377	88.75
476.596	77.75
476.814	97.75
477.033	97.75
477.252	103.75
477.471	82.75
477.69	83.75
477.908	99.75
478.127	102.75
478.346	78.75
478.564	93.75
478.783	100.75
479.002	104.75
479.22	90.75
479.439	110.75
479.658	97.75
479.876	89.75
480.095	82.75
480.313	95.75
480.532	79.75
480.751	91.75
480.969	110.75
481.188	178.75
481.406	134.75
481.624	102.75
481.843	87.75
482.061	90.75
482.28	90.75
482.498	87.75
482.717	85.75
482.935	75.75
483.153	93.75
483.372	87.75
483.59	97.75
483.808	97.75
484.027	103.75
484.245	95.75
484.463	95.75
484.681	105.75
484.9	94.75
485.118	89.75
485.336	80.75
485.554	102.75
485.772	116.75
485.99	93.75
486.209	109.75
486.427	101.75
486.645	106.75
486.863	115.75
487.081	90.75
487.299	105.75
487.517	98.75
487.735	103.75
487.953	93.75
488.171	102.75
488.389	101.75
488.607	108.75
488.825	89.75
489.043	93.75
489.261	97.75
489.479	93.75
489.696	94.75
489.914	98.75
490.132	106.75
490.35	93.75
490.568	96.75
490.786	97.75
491.003	99.75
491.221	91.75
491.439	83.75
491.657	97.75
491.874	98.75
492.092	90.75
492.31	93.75
492.527	94.75
492.745	89.75
492.963	99.75
493.18	97.75
493.398	97.75
493.615	98.75
493.833	113.75
494.05	82.75
494.268	98.75
494.485	93.75
494.703	90.75
494.92	91.75
495.138	87.75
495.355	102.75
495.573	101.75
495.79	96.75
496.008	98.75
496.225	101.75
496.442	91.75
496.66	88.75
496.877	90.75
497.094	106.75
497.312	92.75
497.529	88.75
497.746	99.75
497.963	97.75
498.181	102.75
498.398	97.75
498.615	104.75
498.832	95.75
499.049	104.75
499.267	95.75
499.484	83.75
499.701	89.75
499.918	89.75
500.135	104.75
500.352	98.75
500.569	91.75
500.786	98.75
501.003	86.75
501.22	81.75
501.437	103.75
501.654	89.75
501.871	102.75
502.088	98.75
502.305	84.75
502.522	105.75
502.739	102.75
502.956	85.75
503.172	89.75
503.389	89.75
503.606	102.75
503.823	97.75
504.04	96.75
504.256	102.75
504.473	72.75
504.69	78.75
504.907	94.75
505.123	106.75
505.34	87.75
505.557	99.75
505.773	99.75
505.99	95.75
506.207	109.75
506.423	99.75
506.64	99.75
506.856	107.75
507.073	87.75
507.289	104.75
507.506	94.75
507.722	98.75
507.939	101.75
508.155	119.75
508.372	88.75
508.588	94.75
508.805	110.75
509.021	95.75
509.238	97.75
509.454	97.75
509.67	99.75
509.887	110.75
510.103	122.75
510.319	201.75
510.536	586.75
510.752	1817.75
510.968	514.75
511.184	137.75
511.401	101.75
511.617	109.75
511.833	90.75
512.049	112.75
512.265	101.75
512.481	88.75
512.698	95.75
512.914	111.75
513.13	97.75
513.346	98.75
513.562	97.75
513.778	99.75
513.994	101.75
514.21	96.75
514.426	113.75
