Data from Uncirc_1980_H10_HRD10591_00057.txt Node
Date: Wed Jan 03 12:37:06 EST 2024
User: Yrep
Spectrometer: HR+D1059
Trigger mode: 1
Integration Time (sec): 1.000000E-1
Scans to average: 1
Electric dark correction enabled: true
Nonlinearity correction enabled: false
Boxcar width: 0
XAxis mode: Wavelengths
Number of Pixels in Spectrum: 2048
>>>>>Begin Spectral Data<<<<<
223.165	-10.44
223.4	-10.44
223.635	-10.44
223.869	-17.44
224.104	-20.44
224.338	-16.44
224.573	-6.44
224.808	-1.44
225.042	-16.44
225.277	-15.44
225.511	-7.44
225.746	-12.44
225.98	13.56
226.215	7.56
226.449	5.56
226.683	44.56
226.918	13.56
227.152	39.56
227.387	32.56
227.621	49.56
227.856	48.56
228.09	53.56
228.324	55.56
228.559	52.56
228.793	57.56
229.027	64.56
229.262	49.56
229.496	68.56
229.73	75.56
229.964	84.56
230.199	71.56
230.433	85.56
230.667	72.56
230.901	79.56
231.136	72.56
231.37	79.56
231.604	81.56
231.838	83.56
232.072	91.56
232.306	79.56
232.541	85.56
232.775	83.56
233.009	83.56
233.243	96.56
233.477	84.56
233.711	80.56
233.945	77.56
234.179	77.56
234.413	81.56
234.647	67.56
234.881	71.56
235.115	84.56
235.349	88.56
235.583	84.56
235.817	73.56
236.051	85.56
236.285	79.56
236.519	89.56
236.753	78.56
236.987	78.56
237.221	78.56
237.455	84.56
237.689	86.56
237.922	81.56
238.156	69.56
238.39	78.56
238.624	91.56
238.858	85.56
239.091	76.56
239.325	78.56
239.559	79.56
239.793	75.56
240.027	71.56
240.26	70.56
240.494	61.56
240.728	69.56
240.961	79.56
241.195	87.56
241.429	81.56
241.662	83.56
241.896	68.56
242.13	71.56
242.363	75.56
242.597	89.56
242.83	67.56
243.064	83.56
243.298	79.56
243.531	77.56
243.765	80.56
243.998	83.56
244.232	89.56
244.465	90.56
244.699	81.56
244.932	73.56
245.166	74.56
245.399	93.56
245.633	80.56
245.866	80.56
246.099	72.56
246.333	83.56
246.566	101.56
246.8	87.56
247.033	83.56
247.266	85.56
247.5	78.56
247.733	80.56
247.966	81.56
248.2	83.56
248.433	73.56
248.666	68.56
248.899	71.56
249.133	83.56
249.366	104.56
249.599	96.56
249.832	83.56
250.066	73.56
250.299	90.56
250.532	90.56
250.765	67.56
250.998	86.56
251.231	87.56
251.465	81.56
251.698	89.56
251.931	97.56
252.164	75.56
252.397	81.56
252.63	76.56
252.863	93.56
253.096	75.56
253.329	89.56
253.562	83.56
253.795	76.56
254.028	76.56
254.261	72.56
254.494	87.56
254.727	82.56
254.96	91.56
255.193	77.56
255.426	74.56
255.659	76.56
255.892	81.56
256.124	91.56
256.357	83.56
256.59	88.56
256.823	69.56
257.056	89.56
257.289	91.56
257.521	89.56
257.754	78.56
257.987	84.56
258.22	87.56
258.452	85.56
258.685	89.56
258.918	87.56
259.151	76.56
259.383	87.56
259.616	94.56
259.849	70.56
260.081	87.56
260.314	73.56
260.547	78.56
260.779	85.56
261.012	87.56
261.244	83.56
261.477	80.56
261.71	87.56
261.942	95.56
262.175	77.56
262.407	87.56
262.64	71.56
262.872	76.56
263.105	91.56
263.337	75.56
263.57	74.56
263.802	86.56
264.035	86.56
264.267	87.56
264.499	82.56
264.732	79.56
264.964	79.56
265.197	88.56
265.429	72.56
265.661	87.56
265.894	91.56
266.126	80.56
266.358	77.56
266.591	77.56
266.823	84.56
267.055	76.56
267.287	95.56
267.52	95.56
267.752	84.56
267.984	83.56
268.216	73.56
268.448	84.56
268.681	66.56
268.913	108.56
269.145	88.56
269.377	87.56
269.609	85.56
269.841	78.56
270.073	75.56
270.306	103.56
270.538	93.56
270.77	87.56
271.002	91.56
271.234	76.56
271.466	70.56
271.698	88.56
271.93	91.56
272.162	84.56
272.394	100.56
272.626	95.56
272.858	85.56
273.09	83.56
273.322	77.56
273.553	96.56
273.785	91.56
274.017	84.56
274.249	74.56
274.481	80.56
274.713	93.56
274.945	78.56
275.176	69.56
275.408	87.56
275.64	81.56
275.872	78.56
276.104	99.56
276.335	83.56
276.567	94.56
276.799	95.56
277.031	91.56
277.262	96.56
277.494	80.56
277.726	78.56
277.957	89.56
278.189	87.56
278.421	88.56
278.652	95.56
278.884	95.56
279.115	77.56
279.347	94.56
279.579	97.56
279.81	73.56
280.042	96.56
280.273	87.56
280.505	92.56
280.736	96.56
280.968	83.56
281.199	78.56
281.431	84.56
281.662	90.56
281.894	86.56
282.125	78.56
282.356	101.56
282.588	126.56
282.819	114.56
283.051	91.56
283.282	88.56
283.513	72.56
283.745	96.56
283.976	74.56
284.207	92.56
284.439	104.56
284.67	90.56
284.901	75.56
285.132	78.56
285.364	91.56
285.595	73.56
285.826	99.56
286.057	89.56
286.288	90.56
286.52	95.56
286.751	92.56
286.982	89.56
287.213	80.56
287.444	93.56
287.675	80.56
287.906	75.56
288.138	91.56
288.369	86.56
288.6	97.56
288.831	76.56
289.062	95.56
289.293	84.56
289.524	106.56
289.755	85.56
289.986	94.56
290.217	104.56
290.448	88.56
290.679	97.56
290.91	92.56
291.141	97.56
291.371	95.56
291.602	97.56
291.833	94.56
292.064	76.56
292.295	93.56
292.526	80.56
292.757	91.56
292.987	94.56
293.218	91.56
293.449	79.56
293.68	97.56
293.91	96.56
294.141	98.56
294.372	101.56
294.603	88.56
294.833	84.56
295.064	79.56
295.295	95.56
295.525	89.56
295.756	101.56
295.987	112.56
296.217	125.56
296.448	119.56
296.679	94.56
296.909	93.56
297.14	104.56
297.37	91.56
297.601	69.56
297.831	80.56
298.062	92.56
298.292	91.56
298.523	97.56
298.753	85.56
298.984	85.56
299.214	99.56
299.445	96.56
299.675	115.56
299.905	99.56
300.136	78.56
300.366	90.56
300.597	91.56
300.827	103.56
301.057	105.56
301.288	95.56
301.518	83.56
301.748	98.56
301.979	87.56
302.209	91.56
302.439	84.56
302.669	87.56
302.9	97.56
303.13	81.56
303.36	88.56
303.59	94.56
303.82	103.56
304.051	77.56
304.281	83.56
304.511	89.56
304.741	92.56
304.971	95.56
305.201	93.56
305.431	86.56
305.661	92.56
305.891	97.56
306.121	102.56
306.352	89.56
306.582	89.56
306.812	86.56
307.042	96.56
307.272	95.56
307.502	101.56
307.731	89.56
307.961	97.56
308.191	85.56
308.421	100.56
308.651	109.56
308.881	89.56
309.111	101.56
309.341	84.56
309.571	101.56
309.8	88.56
310.03	89.56
310.26	97.56
310.49	100.56
310.72	99.56
310.949	99.56
311.179	102.56
311.409	95.56
311.639	71.56
311.868	105.56
312.098	94.56
312.328	89.56
312.557	94.56
312.787	86.56
313.017	101.56
313.246	104.56
313.476	91.56
313.706	88.56
313.935	96.56
314.165	99.56
314.394	95.56
314.624	94.56
314.853	87.56
315.083	103.56
315.312	101.56
315.542	92.56
315.771	85.56
316.001	87.56
316.23	93.56
316.46	108.56
316.689	89.56
316.919	87.56
317.148	95.56
317.377	100.56
317.607	91.56
317.836	87.56
318.065	97.56
318.295	106.56
318.524	77.56
318.753	84.56
318.983	95.56
319.212	93.56
319.441	99.56
319.67	97.56
319.9	81.56
320.129	95.56
320.358	103.56
320.587	99.56
320.816	103.56
321.046	87.56
321.275	85.56
321.504	88.56
321.733	111.56
321.962	89.56
322.191	90.56
322.42	92.56
322.649	101.56
322.878	104.56
323.108	101.56
323.337	119.56
323.566	115.56
323.795	139.56
324.024	174.56
324.253	274.56
324.482	545.56
324.71	1067.56
324.939	1441.56
325.168	573.56
325.397	180.56
325.626	125.56
325.855	125.56
326.084	116.56
326.313	108.56
326.542	135.56
326.77	167.56
326.999	308.56
327.228	636.56
327.457	1131.56
327.686	899.56
327.914	281.56
328.143	161.56
328.372	142.56
328.6	115.56
328.829	106.56
329.058	112.56
329.287	124.56
329.515	103.56
329.744	92.56
329.972	95.56
330.201	121.56
330.43	104.56
330.658	119.56
330.887	107.56
331.115	119.56
331.344	103.56
331.572	95.56
331.801	80.56
332.03	93.56
332.258	84.56
332.486	100.56
332.715	92.56
332.943	82.56
333.172	95.56
333.4	88.56
333.629	91.56
333.857	107.56
334.085	97.56
334.314	97.56
334.542	140.56
334.771	110.56
334.999	100.56
335.227	100.56
335.455	87.56
335.684	82.56
335.912	100.56
336.14	108.56
336.369	87.56
336.597	102.56
336.825	86.56
337.053	97.56
337.281	95.56
337.51	103.56
337.738	90.56
337.966	79.56
338.194	85.56
338.422	103.56
338.65	89.56
338.878	96.56
339.106	82.56
339.334	92.56
339.562	102.56
339.79	101.56
340.018	84.56
340.246	76.56
340.474	86.56
340.702	100.56
340.93	93.56
341.158	101.56
341.386	89.56
341.614	86.56
341.842	82.56
342.07	99.56
342.298	76.56
342.526	88.56
342.754	91.56
342.981	90.56
343.209	89.56
343.437	94.56
343.665	95.56
343.893	70.56
344.12	100.56
344.348	86.56
344.576	79.56
344.804	85.56
345.031	102.56
345.259	94.56
345.487	93.56
345.714	83.56
345.942	85.56
346.17	95.56
346.397	83.56
346.625	76.56
346.853	89.56
347.08	95.56
347.308	97.56
347.535	78.56
347.763	103.56
347.99	101.56
348.218	99.56
348.445	93.56
348.673	101.56
348.9	87.56
349.128	100.56
349.355	89.56
349.583	107.56
349.81	92.56
350.037	108.56
350.265	89.56
350.492	88.56
350.72	88.56
350.947	108.56
351.174	109.56
351.402	107.56
351.629	85.56
351.856	91.56
352.083	100.56
352.311	107.56
352.538	102.56
352.765	110.56
352.992	109.56
353.22	104.56
353.447	94.56
353.674	102.56
353.901	96.56
354.128	93.56
354.355	89.56
354.583	101.56
354.81	95.56
355.037	89.56
355.264	95.56
355.491	99.56
355.718	93.56
355.945	91.56
356.172	92.56
356.399	91.56
356.626	98.56
356.853	110.56
357.08	95.56
357.307	87.56
357.534	96.56
357.761	102.56
357.988	92.56
358.215	109.56
358.441	83.56
358.668	101.56
358.895	87.56
359.122	89.56
359.349	87.56
359.576	87.56
359.802	93.56
360.029	85.56
360.256	84.56
360.483	75.56
360.709	90.56
360.936	100.56
361.163	87.56
361.39	100.56
361.616	91.56
361.843	103.56
362.07	88.56
362.296	94.56
362.523	101.56
362.749	77.56
362.976	91.56
363.203	102.56
363.429	83.56
363.656	104.56
363.882	84.56
364.109	93.56
364.335	97.56
364.562	89.56
364.788	90.56
365.015	79.56
365.241	84.56
365.468	104.56
365.694	100.56
365.92	93.56
366.147	86.56
366.373	88.56
366.599	72.56
366.826	77.56
367.052	83.56
367.278	98.56
367.505	107.56
367.731	88.56
367.957	97.56
368.184	85.56
368.41	86.56
368.636	99.56
368.862	115.56
369.089	102.56
369.315	96.56
369.541	91.56
369.767	92.56
369.993	96.56
370.219	86.56
370.445	77.56
370.672	85.56
370.898	80.56
371.124	94.56
371.35	87.56
371.576	92.56
371.802	80.56
372.028	84.56
372.254	79.56
372.48	75.56
372.706	78.56
372.932	93.56
373.158	85.56
373.384	80.56
373.61	83.56
373.835	92.56
374.061	95.56
374.287	86.56
374.513	83.56
374.739	91.56
374.965	100.56
375.191	102.56
375.416	91.56
375.642	99.56
375.868	85.56
376.094	87.56
376.319	78.56
376.545	101.56
376.771	87.56
376.997	88.56
377.222	90.56
377.448	92.56
377.674	103.56
377.899	97.56
378.125	102.56
378.35	94.56
378.576	87.56
378.802	93.56
379.027	88.56
379.253	92.56
379.478	95.56
379.704	103.56
379.929	99.56
380.155	95.56
380.38	87.56
380.606	98.56
380.831	93.56
381.057	99.56
381.282	94.56
381.507	85.56
381.733	102.56
381.958	97.56
382.184	97.56
382.409	112.56
382.634	109.56
382.86	111.56
383.085	102.56
383.31	99.56
383.535	120.56
383.761	101.56
383.986	106.56
384.211	95.56
384.436	93.56
384.662	102.56
384.887	113.56
385.112	106.56
385.337	94.56
385.562	106.56
385.787	110.56
386.013	119.56
386.238	118.56
386.463	99.56
386.688	101.56
386.913	111.56
387.138	110.56
387.363	95.56
387.588	101.56
387.813	96.56
388.038	117.56
388.263	107.56
388.488	102.56
388.713	94.56
388.938	79.56
389.163	95.56
389.387	97.56
389.612	95.56
389.837	90.56
390.062	89.56
390.287	94.56
390.512	79.56
390.736	87.56
390.961	92.56
391.186	99.56
391.411	98.56
391.636	103.56
391.86	97.56
392.085	84.56
392.31	87.56
392.534	85.56
392.759	79.56
392.984	92.56
393.208	77.56
393.433	96.56
393.658	100.56
393.882	79.56
394.107	81.56
394.331	89.56
394.556	78.56
394.78	94.56
395.005	83.56
395.229	88.56
395.454	93.56
395.678	90.56
395.903	91.56
396.127	76.56
396.352	81.56
396.576	83.56
396.801	73.56
397.025	97.56
397.249	89.56
397.474	84.56
397.698	92.56
397.922	92.56
398.147	93.56
398.371	79.56
398.595	80.56
398.82	82.56
399.044	92.56
399.268	82.56
399.492	87.56
399.717	95.56
399.941	96.56
400.165	90.56
400.389	99.56
400.613	87.56
400.837	89.56
401.062	88.56
401.286	78.56
401.51	83.56
401.734	89.56
401.958	90.56
402.182	99.56
402.406	128.56
402.63	108.56
402.854	83.56
403.078	109.56
403.302	92.56
403.526	82.56
403.75	95.56
403.974	89.56
404.198	97.56
404.422	84.56
404.645	80.56
404.869	85.56
405.093	84.56
405.317	88.56
405.541	105.56
405.765	95.56
405.988	107.56
406.212	129.56
406.436	160.56
406.66	125.56
406.883	102.56
407.107	101.56
407.331	87.56
407.555	84.56
407.778	80.56
408.002	98.56
408.226	84.56
408.449	86.56
408.673	86.56
408.896	97.56
409.12	83.56
409.344	89.56
409.567	78.56
409.791	91.56
410.014	77.56
410.238	93.56
410.461	90.56
410.685	94.56
410.908	105.56
411.132	110.56
411.355	89.56
411.578	90.56
411.802	91.56
412.025	85.56
412.249	101.56
412.472	88.56
412.695	85.56
412.919	93.56
413.142	94.56
413.365	89.56
413.589	72.56
413.812	91.56
414.035	83.56
414.258	110.56
414.482	101.56
414.705	103.56
414.928	95.56
415.151	103.56
415.374	95.56
415.597	86.56
415.821	79.56
416.044	101.56
416.267	91.56
416.49	93.56
416.713	99.56
416.936	96.56
417.159	87.56
417.382	80.56
417.605	87.56
417.828	83.56
418.051	96.56
418.274	94.56
418.497	81.56
418.72	100.56
418.943	94.56
419.166	104.56
419.389	100.56
419.611	95.56
419.834	83.56
420.057	75.56
420.28	81.56
420.503	98.56
420.726	81.56
420.948	92.56
421.171	97.56
421.394	95.56
421.617	85.56
421.839	93.56
422.062	79.56
422.285	106.56
422.507	91.56
422.73	94.56
422.953	105.56
423.175	81.56
423.398	92.56
423.621	97.56
423.843	83.56
424.066	78.56
424.288	79.56
424.511	81.56
424.733	85.56
424.956	106.56
425.178	80.56
425.401	95.56
425.623	83.56
425.846	90.56
426.068	86.56
426.291	87.56
426.513	85.56
426.735	73.56
426.958	88.56
427.18	114.56
427.402	119.56
427.625	124.56
427.847	119.56
428.069	104.56
428.292	84.56
428.514	75.56
428.736	81.56
428.958	86.56
429.181	101.56
429.403	86.56
429.625	78.56
429.847	87.56
430.069	91.56
430.292	94.56
430.514	83.56
430.736	91.56
430.958	83.56
431.18	85.56
431.402	86.56
431.624	81.56
431.846	77.56
432.068	92.56
432.29	87.56
432.512	93.56
432.734	86.56
432.956	92.56
433.178	92.56
433.4	91.56
433.622	96.56
433.844	77.56
434.066	75.56
434.287	98.56
434.509	92.56
434.731	92.56
434.953	94.56
435.175	97.56
435.397	98.56
435.618	98.56
435.84	95.56
436.062	88.56
436.284	100.56
436.505	102.56
436.727	89.56
436.949	80.56
437.17	89.56
437.392	80.56
437.614	84.56
437.835	92.56
438.057	99.56
438.278	99.56
438.5	99.56
438.721	96.56
438.943	107.56
439.165	87.56
439.386	92.56
439.608	91.56
439.829	94.56
440.05	102.56
440.272	130.56
440.493	98.56
440.715	89.56
440.936	104.56
441.158	86.56
441.379	76.56
441.6	92.56
441.822	85.56
442.043	96.56
442.264	94.56
442.486	100.56
442.707	96.56
442.928	108.56
443.149	88.56
443.371	122.56
443.592	95.56
443.813	101.56
444.034	94.56
444.255	86.56
444.476	89.56
444.698	81.56
444.919	91.56
445.14	128.56
445.361	117.56
445.582	107.56
445.803	112.56
446.024	105.56
446.245	105.56
446.466	102.56
446.687	79.56
446.908	87.56
447.129	85.56
447.35	94.56
447.571	81.56
447.792	83.56
448.013	85.56
448.234	107.56
448.455	95.56
448.675	90.56
448.896	102.56
449.117	98.56
449.338	76.56
449.559	91.56
449.779	109.56
450	99.56
450.221	89.56
450.442	91.56
450.662	85.56
450.883	93.56
451.104	96.56
451.324	70.56
451.545	78.56
451.766	84.56
451.986	89.56
452.207	93.56
452.428	88.56
452.648	90.56
452.869	99.56
453.089	104.56
453.31	101.56
453.53	85.56
453.751	96.56
453.971	103.56
454.192	98.56
454.412	77.56
454.633	94.56
454.853	96.56
455.073	88.56
455.294	86.56
455.514	86.56
455.734	95.56
455.955	88.56
456.175	85.56
456.395	101.56
456.616	80.56
456.836	94.56
457.056	80.56
457.276	74.56
457.497	97.56
457.717	83.56
457.937	91.56
458.157	93.56
458.377	87.56
458.598	105.56
458.818	111.56
459.038	118.56
459.258	94.56
459.478	86.56
459.698	73.56
459.918	103.56
460.138	85.56
460.358	83.56
460.578	91.56
460.798	84.56
461.018	85.56
461.238	85.56
461.458	81.56
461.678	83.56
461.898	83.56
462.118	90.56
462.338	81.56
462.558	78.56
462.777	85.56
462.997	85.56
463.217	94.56
463.437	99.56
463.657	94.56
463.876	95.56
464.096	101.56
464.316	96.56
464.536	90.56
464.755	88.56
464.975	95.56
465.195	124.56
465.414	123.56
465.634	89.56
465.854	92.56
466.073	83.56
466.293	103.56
466.512	91.56
466.732	89.56
466.951	87.56
467.171	111.56
467.391	87.56
467.61	97.56
467.829	88.56
468.049	97.56
468.268	93.56
468.488	90.56
468.707	71.56
468.927	100.56
469.146	94.56
469.365	84.56
469.585	96.56
469.804	86.56
470.023	101.56
470.243	103.56
470.462	82.56
470.681	99.56
470.901	71.56
471.12	95.56
471.339	101.56
471.558	81.56
471.777	99.56
471.997	84.56
472.216	108.56
472.435	123.56
472.654	107.56
472.873	81.56
473.092	86.56
473.311	89.56
473.53	77.56
473.749	89.56
473.968	84.56
474.187	98.56
474.406	101.56
474.625	88.56
474.844	96.56
475.063	73.56
475.282	101.56
475.501	83.56
475.72	87.56
475.939	84.56
476.158	86.56
476.377	78.56
476.596	90.56
476.814	86.56
477.033	90.56
477.252	96.56
477.471	109.56
477.69	92.56
477.908	83.56
478.127	79.56
478.346	80.56
478.564	98.56
478.783	71.56
479.002	96.56
479.22	88.56
479.439	99.56
479.658	89.56
479.876	85.56
480.095	80.56
480.313	87.56
480.532	83.56
480.751	95.56
480.969	99.56
481.188	160.56
481.406	126.56
481.624	104.56
481.843	92.56
482.061	93.56
482.28	89.56
482.498	100.56
482.717	93.56
482.935	76.56
483.153	97.56
483.372	80.56
483.59	102.56
483.808	105.56
484.027	90.56
484.245	81.56
484.463	85.56
484.681	99.56
484.9	106.56
485.118	88.56
485.336	90.56
485.554	94.56
485.772	105.56
485.99	105.56
486.209	97.56
486.427	112.56
486.645	96.56
486.863	112.56
487.081	97.56
487.299	100.56
487.517	106.56
487.735	95.56
487.953	81.56
488.171	101.56
488.389	96.56
488.607	103.56
488.825	89.56
489.043	95.56
489.261	92.56
489.479	86.56
489.696	82.56
489.914	76.56
490.132	85.56
490.35	94.56
490.568	94.56
490.786	104.56
491.003	94.56
491.221	89.56
491.439	92.56
491.657	92.56
491.874	94.56
492.092	93.56
492.31	91.56
492.527	94.56
492.745	79.56
492.963	94.56
493.18	104.56
493.398	77.56
493.615	93.56
493.833	89.56
494.05	106.56
494.268	96.56
494.485	95.56
494.703	94.56
494.92	94.56
495.138	96.56
495.355	82.56
495.573	90.56
495.79	77.56
496.008	93.56
496.225	100.56
496.442	89.56
496.66	100.56
496.877	89.56
497.094	95.56
497.312	93.56
497.529	88.56
497.746	96.56
497.963	84.56
498.181	103.56
498.398	105.56
498.615	104.56
498.832	99.56
499.049	84.56
499.267	93.56
499.484	92.56
499.701	79.56
499.918	94.56
500.135	85.56
500.352	75.56
500.569	93.56
500.786	89.56
501.003	94.56
501.22	88.56
501.437	88.56
501.654	78.56
501.871	99.56
502.088	76.56
502.305	94.56
502.522	104.56
502.739	96.56
502.956	83.56
503.172	91.56
503.389	90.56
503.606	89.56
503.823	97.56
504.04	90.56
504.256	85.56
504.473	94.56
504.69	92.56
504.907	88.56
505.123	94.56
505.34	83.56
505.557	94.56
505.773	104.56
505.99	104.56
506.207	87.56
506.423	88.56
506.64	96.56
506.856	89.56
507.073	88.56
507.289	100.56
507.506	86.56
507.722	113.56
507.939	107.56
508.155	94.56
508.372	105.56
508.588	93.56
508.805	87.56
509.021	92.56
509.238	94.56
509.454	99.56
509.67	106.56
509.887	106.56
510.103	106.56
510.319	183.56
510.536	584.56
510.752	1709.56
510.968	477.56
511.184	132.56
511.401	104.56
511.617	90.56
511.833	102.56
512.049	105.56
512.265	89.56
512.481	98.56
512.698	75.56
512.914	85.56
513.13	97.56
513.346	91.56
513.562	91.56
513.778	108.56
513.994	107.56
514.21	112.56
514.426	111.56
514.642	118.56
514.858	103.56
515.074	142.56
515.29	322.56
515.506	947.56
515.721	363.56
515.937	140.56
516.153	122.56
