Data from Uncirc_1980_H10_HRD10591_00025.txt Node
Date: Wed Jan 03 12:37:00 EST 2024
User: Yrep
Spectrometer: HR+D1059
Trigger mode: 1
Integration Time (sec): 1.000000E-1
Scans to average: 1
Electric dark correction enabled: true
Nonlinearity correction enabled: false
Boxcar width: 0
XAxis mode: Wavelengths
Number of Pixels in Spectrum: 2048
>>>>>Begin Spectral Data<<<<<
223.165	-16.88
223.4	-16.88
223.635	-16.88
223.869	-10.88
224.104	-17.88
224.338	-4.88
224.573	-16.88
224.808	-14.88
225.042	-9.88
225.277	-20.88
225.511	-0.88
225.746	-0.88
225.98	1.12
226.215	20.12
226.449	6.12
226.683	26.12
226.918	29.12
227.152	32.12
227.387	35.12
227.621	37.12
227.856	50.12
228.09	56.12
228.324	44.12
228.559	53.12
228.793	61.12
229.027	57.12
229.262	71.12
229.496	70.12
229.73	87.12
229.964	76.12
230.199	69.12
230.433	75.12
230.667	83.12
230.901	76.12
231.136	77.12
231.37	80.12
231.604	94.12
231.838	82.12
232.072	74.12
232.306	84.12
232.541	94.12
232.775	82.12
233.009	95.12
233.243	86.12
233.477	86.12
233.711	93.12
233.945	80.12
234.179	79.12
234.413	71.12
234.647	86.12
234.881	86.12
235.115	74.12
235.349	82.12
235.583	78.12
235.817	67.12
236.051	69.12
236.285	86.12
236.519	77.12
236.753	79.12
236.987	60.12
237.221	90.12
237.455	80.12
237.689	78.12
237.922	69.12
238.156	87.12
238.39	78.12
238.624	81.12
238.858	81.12
239.091	88.12
239.325	85.12
239.559	80.12
239.793	89.12
240.027	72.12
240.26	68.12
240.494	76.12
240.728	70.12
240.961	67.12
241.195	70.12
241.429	63.12
241.662	71.12
241.896	86.12
242.13	66.12
242.363	59.12
242.597	69.12
242.83	75.12
243.064	82.12
243.298	84.12
243.531	76.12
243.765	86.12
243.998	80.12
244.232	76.12
244.465	85.12
244.699	68.12
244.932	80.12
245.166	86.12
245.399	84.12
245.633	68.12
245.866	68.12
246.099	69.12
246.333	76.12
246.566	90.12
246.8	79.12
247.033	59.12
247.266	76.12
247.5	83.12
247.733	95.12
247.966	71.12
248.2	98.12
248.433	71.12
248.666	70.12
248.899	84.12
249.133	74.12
249.366	85.12
249.599	83.12
249.832	92.12
250.066	92.12
250.299	76.12
250.532	86.12
250.765	91.12
250.998	74.12
251.231	76.12
251.465	84.12
251.698	98.12
251.931	76.12
252.164	79.12
252.397	64.12
252.63	83.12
252.863	85.12
253.096	87.12
253.329	87.12
253.562	77.12
253.795	72.12
254.028	87.12
254.261	81.12
254.494	84.12
254.727	96.12
254.96	98.12
255.193	74.12
255.426	78.12
255.659	73.12
255.892	94.12
256.124	82.12
256.357	77.12
256.59	76.12
256.823	87.12
257.056	82.12
257.289	90.12
257.521	82.12
257.754	78.12
257.987	80.12
258.22	82.12
258.452	86.12
258.685	86.12
258.918	87.12
259.151	83.12
259.383	70.12
259.616	82.12
259.849	68.12
260.081	84.12
260.314	99.12
260.547	89.12
260.779	92.12
261.012	86.12
261.244	72.12
261.477	98.12
261.71	86.12
261.942	98.12
262.175	95.12
262.407	88.12
262.64	83.12
262.872	76.12
263.105	84.12
263.337	91.12
263.57	75.12
263.802	86.12
264.035	82.12
264.267	75.12
264.499	85.12
264.732	88.12
264.964	80.12
265.197	85.12
265.429	84.12
265.661	88.12
265.894	91.12
266.126	80.12
266.358	85.12
266.591	72.12
266.823	73.12
267.055	70.12
267.287	85.12
267.52	86.12
267.752	94.12
267.984	80.12
268.216	75.12
268.448	80.12
268.681	86.12
268.913	88.12
269.145	88.12
269.377	77.12
269.609	72.12
269.841	74.12
270.073	74.12
270.306	86.12
270.538	85.12
270.77	86.12
271.002	82.12
271.234	92.12
271.466	85.12
271.698	86.12
271.93	78.12
272.162	82.12
272.394	90.12
272.626	87.12
272.858	84.12
273.09	92.12
273.322	98.12
273.553	82.12
273.785	78.12
274.017	79.12
274.249	95.12
274.481	74.12
274.713	75.12
274.945	88.12
275.176	77.12
275.408	80.12
275.64	93.12
275.872	84.12
276.104	78.12
276.335	93.12
276.567	84.12
276.799	104.12
277.031	100.12
277.262	90.12
277.494	78.12
277.726	77.12
277.957	79.12
278.189	88.12
278.421	82.12
278.652	101.12
278.884	99.12
279.115	94.12
279.347	90.12
279.579	79.12
279.81	80.12
280.042	94.12
280.273	93.12
280.505	88.12
280.736	84.12
280.968	76.12
281.199	85.12
281.431	100.12
281.662	77.12
281.894	91.12
282.125	78.12
282.356	121.12
282.588	120.12
282.819	105.12
283.051	87.12
283.282	84.12
283.513	100.12
283.745	73.12
283.976	78.12
284.207	94.12
284.439	99.12
284.67	86.12
284.901	71.12
285.132	104.12
285.364	98.12
285.595	91.12
285.826	99.12
286.057	78.12
286.288	85.12
286.52	93.12
286.751	74.12
286.982	78.12
287.213	102.12
287.444	88.12
287.675	83.12
287.906	85.12
288.138	86.12
288.369	91.12
288.6	96.12
288.831	79.12
289.062	86.12
289.293	88.12
289.524	91.12
289.755	94.12
289.986	93.12
290.217	94.12
290.448	70.12
290.679	88.12
290.91	85.12
291.141	90.12
291.371	85.12
291.602	93.12
291.833	86.12
292.064	91.12
292.295	97.12
292.526	94.12
292.757	94.12
292.987	89.12
293.218	92.12
293.449	76.12
293.68	86.12
293.91	106.12
294.141	79.12
294.372	80.12
294.603	92.12
294.833	82.12
295.064	83.12
295.295	88.12
295.525	95.12
295.756	111.12
295.987	105.12
296.217	119.12
296.448	126.12
296.679	83.12
296.909	95.12
297.14	86.12
297.37	100.12
297.601	106.12
297.831	90.12
298.062	75.12
298.292	91.12
298.523	103.12
298.753	75.12
298.984	86.12
299.214	90.12
299.445	88.12
299.675	85.12
299.905	88.12
300.136	82.12
300.366	83.12
300.597	71.12
300.827	88.12
301.057	98.12
301.288	93.12
301.518	102.12
301.748	94.12
301.979	111.12
302.209	94.12
302.439	95.12
302.669	91.12
302.9	94.12
303.13	80.12
303.36	92.12
303.59	98.12
303.82	103.12
304.051	87.12
304.281	85.12
304.511	91.12
304.741	104.12
304.971	95.12
305.201	93.12
305.431	90.12
305.661	90.12
305.891	94.12
306.121	99.12
306.352	106.12
306.582	92.12
306.812	97.12
307.042	91.12
307.272	84.12
307.502	104.12
307.731	88.12
307.961	91.12
308.191	90.12
308.421	86.12
308.651	92.12
308.881	88.12
309.111	85.12
309.341	94.12
309.571	101.12
309.8	89.12
310.03	81.12
310.26	96.12
310.49	91.12
310.72	94.12
310.949	90.12
311.179	104.12
311.409	92.12
311.639	101.12
311.868	106.12
312.098	95.12
312.328	95.12
312.557	103.12
312.787	95.12
313.017	93.12
313.246	74.12
313.476	80.12
313.706	87.12
313.935	96.12
314.165	90.12
314.394	99.12
314.624	102.12
314.853	89.12
315.083	88.12
315.312	91.12
315.542	100.12
315.771	91.12
316.001	99.12
316.23	82.12
316.46	93.12
316.689	93.12
316.919	93.12
317.148	86.12
317.377	86.12
317.607	95.12
317.836	94.12
318.065	95.12
318.295	82.12
318.524	76.12
318.753	83.12
318.983	72.12
319.212	100.12
319.441	103.12
319.67	100.12
319.9	98.12
320.129	87.12
320.358	89.12
320.587	92.12
320.816	88.12
321.046	100.12
321.275	90.12
321.504	90.12
321.733	98.12
321.962	109.12
322.191	97.12
322.42	102.12
322.649	111.12
322.878	103.12
323.108	118.12
323.337	113.12
323.566	128.12
323.795	135.12
324.024	160.12
324.253	315.12
324.482	648.12
324.71	1303.12
324.939	1741.12
325.168	644.12
325.397	219.12
325.626	131.12
325.855	120.12
326.084	107.12
326.313	111.12
326.542	129.12
326.77	192.12
326.999	372.12
327.228	763.12
327.457	1364.12
327.686	1076.12
327.914	310.12
328.143	174.12
328.372	139.12
328.6	113.12
328.829	106.12
329.058	113.12
329.287	99.12
329.515	103.12
329.744	100.12
329.972	109.12
330.201	108.12
330.43	112.12
330.658	103.12
330.887	111.12
331.115	105.12
331.344	94.12
331.572	104.12
331.801	88.12
332.03	102.12
332.258	98.12
332.486	86.12
332.715	86.12
332.943	105.12
333.172	95.12
333.4	92.12
333.629	86.12
333.857	105.12
334.085	109.12
334.314	118.12
334.542	115.12
334.771	121.12
334.999	103.12
335.227	106.12
335.455	91.12
335.684	106.12
335.912	82.12
336.14	108.12
336.369	88.12
336.597	87.12
336.825	106.12
337.053	97.12
337.281	96.12
337.51	68.12
337.738	99.12
337.966	77.12
338.194	105.12
338.422	92.12
338.65	94.12
338.878	87.12
339.106	66.12
339.334	92.12
339.562	84.12
339.79	95.12
340.018	106.12
340.246	94.12
340.474	77.12
340.702	74.12
340.93	94.12
341.158	92.12
341.386	91.12
341.614	98.12
341.842	94.12
342.07	86.12
342.298	106.12
342.526	76.12
342.754	97.12
342.981	85.12
343.209	97.12
343.437	92.12
343.665	78.12
343.893	93.12
344.12	88.12
344.348	95.12
344.576	80.12
344.804	96.12
345.031	100.12
345.259	94.12
345.487	100.12
345.714	84.12
345.942	95.12
346.17	85.12
346.397	88.12
346.625	93.12
346.853	87.12
347.08	99.12
347.308	92.12
347.535	92.12
347.763	102.12
347.99	98.12
348.218	102.12
348.445	104.12
348.673	83.12
348.9	92.12
349.128	99.12
349.355	104.12
349.583	84.12
349.81	99.12
350.037	106.12
350.265	94.12
350.492	83.12
350.72	82.12
350.947	100.12
351.174	112.12
351.402	105.12
351.629	100.12
351.856	92.12
352.083	104.12
352.311	94.12
352.538	107.12
352.765	106.12
352.992	99.12
353.22	102.12
353.447	89.12
353.674	90.12
353.901	95.12
354.128	106.12
354.355	96.12
354.583	109.12
354.81	102.12
355.037	94.12
355.264	101.12
355.491	85.12
355.718	93.12
355.945	95.12
356.172	106.12
356.399	102.12
356.626	80.12
356.853	77.12
357.08	89.12
357.307	92.12
357.534	88.12
357.761	106.12
357.988	83.12
358.215	91.12
358.441	97.12
358.668	93.12
358.895	103.12
359.122	85.12
359.349	93.12
359.576	106.12
359.802	101.12
360.029	106.12
360.256	93.12
360.483	97.12
360.709	92.12
360.936	84.12
361.163	95.12
361.39	88.12
361.616	92.12
361.843	94.12
362.07	76.12
362.296	92.12
362.523	94.12
362.749	99.12
362.976	98.12
363.203	74.12
363.429	89.12
363.656	85.12
363.882	86.12
364.109	86.12
364.335	84.12
364.562	91.12
364.788	82.12
365.015	92.12
365.241	85.12
365.468	106.12
365.694	98.12
365.92	86.12
366.147	93.12
366.373	84.12
366.599	79.12
366.826	88.12
367.052	81.12
367.278	87.12
367.505	85.12
367.731	92.12
367.957	89.12
368.184	79.12
368.41	97.12
368.636	93.12
368.862	105.12
369.089	107.12
369.315	86.12
369.541	98.12
369.767	103.12
369.993	80.12
370.219	87.12
370.445	92.12
370.672	88.12
370.898	84.12
371.124	103.12
371.35	80.12
371.576	84.12
371.802	96.12
372.028	77.12
372.254	93.12
372.48	86.12
372.706	90.12
372.932	98.12
373.158	88.12
373.384	93.12
373.61	94.12
373.835	104.12
374.061	98.12
374.287	102.12
374.513	84.12
374.739	94.12
374.965	95.12
375.191	84.12
375.416	84.12
375.642	85.12
375.868	90.12
376.094	88.12
376.319	88.12
376.545	97.12
376.771	88.12
376.997	70.12
377.222	83.12
377.448	79.12
377.674	90.12
377.899	93.12
378.125	82.12
378.35	98.12
378.576	83.12
378.802	92.12
379.027	91.12
379.253	82.12
379.478	96.12
379.704	88.12
379.929	92.12
380.155	85.12
380.38	92.12
380.606	98.12
380.831	102.12
381.057	102.12
381.282	102.12
381.507	92.12
381.733	103.12
381.958	98.12
382.184	109.12
382.409	115.12
382.634	112.12
382.86	108.12
383.085	99.12
383.31	100.12
383.535	107.12
383.761	115.12
383.986	110.12
384.211	96.12
384.436	104.12
384.662	95.12
384.887	106.12
385.112	110.12
385.337	103.12
385.562	113.12
385.787	119.12
386.013	116.12
386.238	106.12
386.463	104.12
386.688	111.12
386.913	118.12
387.138	95.12
387.363	120.12
387.588	117.12
387.813	110.12
388.038	115.12
388.263	143.12
388.488	118.12
388.713	100.12
388.938	98.12
389.163	89.12
389.387	94.12
389.612	108.12
389.837	98.12
390.062	92.12
390.287	83.12
390.512	87.12
390.736	90.12
390.961	91.12
391.186	78.12
391.411	84.12
391.636	90.12
391.86	93.12
392.085	84.12
392.31	85.12
392.534	93.12
392.759	78.12
392.984	87.12
393.208	83.12
393.433	106.12
393.658	99.12
393.882	99.12
394.107	87.12
394.331	84.12
394.556	84.12
394.78	84.12
395.005	78.12
395.229	82.12
395.454	94.12
395.678	79.12
395.903	99.12
396.127	93.12
396.352	85.12
396.576	84.12
396.801	92.12
397.025	73.12
397.249	89.12
397.474	84.12
397.698	83.12
397.922	87.12
398.147	81.12
398.371	79.12
398.595	89.12
398.82	87.12
399.044	87.12
399.268	95.12
399.492	92.12
399.717	83.12
399.941	84.12
400.165	84.12
400.389	94.12
400.613	92.12
400.837	83.12
401.062	91.12
401.286	89.12
401.51	85.12
401.734	93.12
401.958	95.12
402.182	107.12
402.406	129.12
402.63	102.12
402.854	91.12
403.078	79.12
403.302	82.12
403.526	87.12
403.75	86.12
403.974	82.12
404.198	82.12
404.422	83.12
404.645	99.12
404.869	85.12
405.093	102.12
405.317	87.12
405.541	89.12
405.765	92.12
405.988	107.12
406.212	134.12
406.436	166.12
406.66	125.12
406.883	101.12
407.107	88.12
407.331	83.12
407.555	94.12
407.778	104.12
408.002	89.12
408.226	93.12
408.449	89.12
408.673	90.12
408.896	90.12
409.12	87.12
409.344	89.12
409.567	95.12
409.791	93.12
410.014	93.12
410.238	85.12
410.461	90.12
410.685	97.12
410.908	100.12
411.132	105.12
411.355	96.12
411.578	87.12
411.802	97.12
412.025	83.12
412.249	97.12
412.472	95.12
412.695	84.12
412.919	66.12
413.142	90.12
413.365	86.12
413.589	85.12
413.812	62.12
414.035	85.12
414.258	87.12
414.482	93.12
414.705	99.12
414.928	96.12
415.151	104.12
415.374	90.12
415.597	86.12
415.821	80.12
416.044	86.12
416.267	82.12
416.49	83.12
416.713	75.12
416.936	77.12
417.159	85.12
417.382	90.12
417.605	83.12
417.828	93.12
418.051	85.12
418.274	94.12
418.497	82.12
418.72	83.12
418.943	91.12
419.166	74.12
419.389	95.12
419.611	88.12
419.834	96.12
420.057	91.12
420.28	98.12
420.503	88.12
420.726	82.12
420.948	74.12
421.171	88.12
421.394	97.12
421.617	85.12
421.839	82.12
422.062	101.12
422.285	84.12
422.507	85.12
422.73	100.12
422.953	92.12
423.175	80.12
423.398	93.12
423.621	84.12
423.843	87.12
424.066	96.12
424.288	87.12
424.511	84.12
424.733	84.12
424.956	101.12
425.178	88.12
425.401	94.12
425.623	102.12
425.846	99.12
426.068	96.12
426.291	76.12
426.513	88.12
426.735	91.12
426.958	88.12
427.18	98.12
427.402	128.12
427.625	118.12
427.847	112.12
428.069	97.12
428.292	95.12
428.514	76.12
428.736	79.12
428.958	72.12
429.181	96.12
429.403	87.12
429.625	91.12
429.847	97.12
430.069	94.12
430.292	101.12
430.514	77.12
430.736	88.12
430.958	75.12
431.18	77.12
431.402	86.12
431.624	94.12
431.846	95.12
432.068	74.12
432.29	84.12
432.512	78.12
432.734	88.12
432.956	100.12
433.178	98.12
433.4	107.12
433.622	102.12
433.844	76.12
434.066	95.12
434.287	92.12
434.509	71.12
434.731	98.12
434.953	88.12
435.175	90.12
435.397	92.12
435.618	99.12
435.84	105.12
436.062	108.12
436.284	95.12
436.505	96.12
436.727	94.12
436.949	95.12
437.17	96.12
437.392	77.12
437.614	88.12
437.835	107.12
438.057	98.12
438.278	92.12
438.5	90.12
438.721	96.12
438.943	98.12
439.165	89.12
439.386	94.12
439.608	92.12
439.829	95.12
440.05	107.12
440.272	122.12
440.493	108.12
440.715	91.12
440.936	90.12
441.158	78.12
441.379	89.12
441.6	84.12
441.822	96.12
442.043	78.12
442.264	94.12
442.486	85.12
442.707	83.12
442.928	90.12
443.149	107.12
443.371	117.12
443.592	103.12
443.813	111.12
444.034	104.12
444.255	96.12
444.476	78.12
444.698	70.12
444.919	90.12
445.14	127.12
445.361	137.12
445.582	108.12
445.803	134.12
446.024	115.12
446.245	123.12
446.466	107.12
446.687	78.12
446.908	84.12
447.129	92.12
447.35	84.12
447.571	93.12
447.792	100.12
448.013	88.12
448.234	100.12
448.455	99.12
448.675	109.12
448.896	109.12
449.117	102.12
449.338	98.12
449.559	116.12
449.779	128.12
450	85.12
450.221	85.12
450.442	87.12
450.662	95.12
450.883	91.12
451.104	101.12
451.324	100.12
451.545	87.12
451.766	84.12
451.986	92.12
452.207	109.12
452.428	86.12
452.648	94.12
452.869	91.12
453.089	89.12
453.31	96.12
453.53	91.12
453.751	88.12
453.971	86.12
454.192	96.12
454.412	84.12
454.633	88.12
454.853	82.12
455.073	104.12
455.294	109.12
455.514	88.12
455.734	73.12
455.955	80.12
456.175	94.12
456.395	86.12
456.616	85.12
456.836	87.12
457.056	94.12
457.276	94.12
457.497	80.12
457.717	83.12
457.937	76.12
458.157	91.12
458.377	89.12
458.598	93.12
458.818	119.12
459.038	126.12
459.258	105.12
459.478	86.12
459.698	88.12
459.918	83.12
460.138	65.12
460.358	87.12
460.578	92.12
460.798	77.12
461.018	94.12
461.238	90.12
461.458	94.12
461.678	87.12
461.898	95.12
462.118	88.12
462.338	80.12
462.558	66.12
462.777	94.12
462.997	84.12
463.217	92.12
463.437	74.12
463.657	85.12
463.876	78.12
464.096	82.12
464.316	68.12
464.536	71.12
464.755	91.12
464.975	102.12
465.195	129.12
465.414	132.12
465.634	85.12
465.854	70.12
466.073	69.12
466.293	94.12
466.512	91.12
466.732	67.12
466.951	84.12
467.171	84.12
467.391	96.12
467.61	95.12
467.829	92.12
468.049	99.12
468.268	91.12
468.488	79.12
468.707	84.12
468.927	84.12
469.146	79.12
469.365	93.12
469.585	76.12
469.804	82.12
470.023	86.12
470.243	88.12
470.462	102.12
470.681	101.12
470.901	93.12
471.12	93.12
471.339	94.12
471.558	92.12
471.777	80.12
471.997	84.12
472.216	96.12
472.435	127.12
472.654	98.12
472.873	91.12
473.092	97.12
473.311	86.12
473.53	92.12
473.749	75.12
473.968	80.12
474.187	92.12
474.406	93.12
474.625	70.12
474.844	91.12
475.063	87.12
475.282	97.12
475.501	88.12
475.72	95.12
475.939	78.12
476.158	92.12
476.377	98.12
476.596	88.12
476.814	96.12
477.033	85.12
477.252	70.12
477.471	90.12
477.69	96.12
477.908	84.12
478.127	96.12
478.346	92.12
478.564	95.12
478.783	77.12
479.002	80.12
479.22	82.12
479.439	88.12
479.658	99.12
479.876	76.12
480.095	95.12
480.313	109.12
480.532	89.12
480.751	90.12
480.969	96.12
481.188	153.12
481.406	138.12
481.624	91.12
481.843	107.12
482.061	92.12
482.28	73.12
482.498	82.12
482.717	81.12
482.935	87.12
483.153	79.12
483.372	88.12
483.59	95.12
483.808	66.12
484.027	84.12
484.245	92.12
484.463	102.12
484.681	106.12
484.9	92.12
485.118	83.12
485.336	102.12
485.554	99.12
485.772	91.12
485.99	99.12
486.209	91.12
486.427	110.12
486.645	106.12
486.863	99.12
487.081	94.12
487.299	96.12
487.517	100.12
487.735	83.12
487.953	104.12
488.171	95.12
488.389	90.12
488.607	102.12
488.825	98.12
489.043	91.12
489.261	78.12
489.479	94.12
489.696	87.12
489.914	97.12
490.132	85.12
490.35	85.12
490.568	89.12
490.786	89.12
491.003	83.12
491.221	97.12
491.439	74.12
491.657	99.12
491.874	90.12
492.092	86.12
492.31	105.12
492.527	90.12
492.745	104.12
492.963	82.12
493.18	83.12
493.398	98.12
493.615	86.12
493.833	104.12
494.05	95.12
494.268	99.12
494.485	96.12
494.703	88.12
494.92	84.12
495.138	104.12
495.355	96.12
495.573	92.12
495.79	89.12
496.008	84.12
496.225	96.12
496.442	77.12
496.66	106.12
496.877	96.12
497.094	98.12
497.312	88.12
497.529	89.12
497.746	93.12
497.963	100.12
498.181	88.12
498.398	81.12
498.615	111.12
498.832	111.12
499.049	90.12
499.267	88.12
499.484	98.12
499.701	98.12
499.918	94.12
500.135	74.12
500.352	86.12
500.569	90.12
500.786	79.12
501.003	98.12
501.22	96.12
501.437	92.12
501.654	92.12
501.871	94.12
502.088	95.12
502.305	84.12
502.522	93.12
502.739	93.12
502.956	95.12
503.172	99.12
503.389	102.12
503.606	107.12
503.823	111.12
504.04	93.12
504.256	87.12
504.473	88.12
504.69	101.12
504.907	100.12
505.123	98.12
505.34	98.12
505.557	78.12
505.773	88.12
505.99	93.12
506.207	78.12
506.423	91.12
506.64	83.12
506.856	101.12
507.073	79.12
507.289	97.12
507.506	89.12
507.722	104.12
507.939	102.12
508.155	94.12
508.372	91.12
508.588	96.12
508.805	98.12
509.021	107.12
509.238	104.12
509.454	108.12
509.67	102.12
509.887	107.12
510.103	107.12
510.319	180.12
510.536	574.12
510.752	1739.12
510.968	503.12
511.184	140.12
511.401	98.12
511.617	89.12
511.833	88.12
512.049	86.12
512.265	91.12
512.481	90.12
512.698	101.12
512.914	86.12
513.13	81.12
513.346	86.12
513.562	98.12
513.778	91.12
513.994	90.12
514.21	110.12
514.426	115.12
514.642	109.12
514.858	108.12
515.074	133.12
515.29	336.12
515.506	1044.12
515.721	396.12
515.937	126.12
516.153	97.12
