Data from Uncirc_1980_H10_HRD10591_00017.txt Node
Date: Wed Jan 03 12:36:58 EST 2024
User: Yrep
Spectrometer: HR+D1059
Trigger mode: 1
Integration Time (sec): 1.000000E-1
Scans to average: 1
Electric dark correction enabled: true
Nonlinearity correction enabled: false
Boxcar width: 0
XAxis mode: Wavelengths
Number of Pixels in Spectrum: 2048
>>>>>Begin Spectral Data<<<<<
223.165	-17.31
223.4	-17.31
223.635	-17.31
223.869	-7.31
224.104	-15.31
224.338	-12.31
224.573	-1.31
224.808	-15.31
225.042	-16.31
225.277	-2.31
225.511	1.69
225.746	10.69
225.98	1.69
226.215	11.69
226.449	10.69
226.683	8.69
226.918	6.69
227.152	35.69
227.387	38.69
227.621	35.69
227.856	39.69
228.09	51.69
228.324	59.69
228.559	65.69
228.793	74.69
229.027	57.69
229.262	71.69
229.496	73.69
229.73	80.69
229.964	75.69
230.199	79.69
230.433	86.69
230.667	81.69
230.901	80.69
231.136	94.69
231.37	83.69
231.604	83.69
231.838	89.69
232.072	93.69
232.306	99.69
232.541	89.69
232.775	77.69
233.009	102.69
233.243	97.69
233.477	82.69
233.711	70.69
233.945	75.69
234.179	101.69
234.413	85.69
234.647	82.69
234.881	83.69
235.115	90.69
235.349	87.69
235.583	73.69
235.817	82.69
236.051	82.69
236.285	79.69
236.519	73.69
236.753	89.69
236.987	88.69
237.221	82.69
237.455	71.69
237.689	81.69
237.922	78.69
238.156	79.69
238.39	87.69
238.624	83.69
238.858	82.69
239.091	80.69
239.325	64.69
239.559	64.69
239.793	92.69
240.027	77.69
240.26	85.69
240.494	76.69
240.728	70.69
240.961	78.69
241.195	71.69
241.429	64.69
241.662	82.69
241.896	83.69
242.13	77.69
242.363	75.69
242.597	81.69
242.83	81.69
243.064	77.69
243.298	75.69
243.531	73.69
243.765	83.69
243.998	90.69
244.232	85.69
244.465	90.69
244.699	72.69
244.932	82.69
245.166	87.69
245.399	59.69
245.633	82.69
245.866	65.69
246.099	76.69
246.333	81.69
246.566	94.69
246.8	86.69
247.033	80.69
247.266	72.69
247.5	67.69
247.733	77.69
247.966	87.69
248.2	89.69
248.433	80.69
248.666	89.69
248.899	79.69
249.133	85.69
249.366	69.69
249.599	92.69
249.832	89.69
250.066	85.69
250.299	87.69
250.532	87.69
250.765	75.69
250.998	65.69
251.231	92.69
251.465	85.69
251.698	85.69
251.931	89.69
252.164	90.69
252.397	81.69
252.63	93.69
252.863	87.69
253.096	76.69
253.329	79.69
253.562	86.69
253.795	70.69
254.028	85.69
254.261	90.69
254.494	86.69
254.727	88.69
254.96	95.69
255.193	71.69
255.426	82.69
255.659	89.69
255.892	108.69
256.124	96.69
256.357	90.69
256.59	83.69
256.823	70.69
257.056	99.69
257.289	68.69
257.521	94.69
257.754	91.69
257.987	104.69
258.22	86.69
258.452	82.69
258.685	81.69
258.918	90.69
259.151	97.69
259.383	80.69
259.616	81.69
259.849	87.69
260.081	83.69
260.314	87.69
260.547	93.69
260.779	86.69
261.012	81.69
261.244	95.69
261.477	87.69
261.71	80.69
261.942	103.69
262.175	99.69
262.407	86.69
262.64	97.69
262.872	89.69
263.105	87.69
263.337	83.69
263.57	91.69
263.802	86.69
264.035	69.69
264.267	80.69
264.499	91.69
264.732	84.69
264.964	65.69
265.197	97.69
265.429	87.69
265.661	86.69
265.894	90.69
266.126	82.69
266.358	90.69
266.591	91.69
266.823	95.69
267.055	101.69
267.287	85.69
267.52	92.69
267.752	89.69
267.984	83.69
268.216	91.69
268.448	101.69
268.681	81.69
268.913	85.69
269.145	91.69
269.377	87.69
269.609	89.69
269.841	86.69
270.073	80.69
270.306	97.69
270.538	85.69
270.77	82.69
271.002	119.69
271.234	89.69
271.466	92.69
271.698	95.69
271.93	91.69
272.162	99.69
272.394	91.69
272.626	85.69
272.858	74.69
273.09	81.69
273.322	89.69
273.553	91.69
273.785	90.69
274.017	91.69
274.249	91.69
274.481	75.69
274.713	95.69
274.945	89.69
275.176	91.69
275.408	93.69
275.64	78.69
275.872	76.69
276.104	76.69
276.335	77.69
276.567	99.69
276.799	100.69
277.031	86.69
277.262	95.69
277.494	99.69
277.726	81.69
277.957	74.69
278.189	86.69
278.421	100.69
278.652	85.69
278.884	87.69
279.115	86.69
279.347	83.69
279.579	91.69
279.81	70.69
280.042	117.69
280.273	92.69
280.505	77.69
280.736	82.69
280.968	99.69
281.199	82.69
281.431	76.69
281.662	86.69
281.894	94.69
282.125	95.69
282.356	123.69
282.588	115.69
282.819	119.69
283.051	96.69
283.282	92.69
283.513	80.69
283.745	93.69
283.976	90.69
284.207	78.69
284.439	88.69
284.67	89.69
284.901	100.69
285.132	82.69
285.364	72.69
285.595	76.69
285.826	85.69
286.057	89.69
286.288	86.69
286.52	96.69
286.751	99.69
286.982	89.69
287.213	82.69
287.444	87.69
287.675	98.69
287.906	105.69
288.138	88.69
288.369	90.69
288.6	93.69
288.831	106.69
289.062	107.69
289.293	91.69
289.524	96.69
289.755	110.69
289.986	89.69
290.217	87.69
290.448	96.69
290.679	95.69
290.91	96.69
291.141	81.69
291.371	81.69
291.602	89.69
291.833	86.69
292.064	94.69
292.295	103.69
292.526	79.69
292.757	80.69
292.987	84.69
293.218	79.69
293.449	82.69
293.68	94.69
293.91	80.69
294.141	87.69
294.372	77.69
294.603	92.69
294.833	93.69
295.064	96.69
295.295	104.69
295.525	93.69
295.756	101.69
295.987	111.69
296.217	103.69
296.448	113.69
296.679	106.69
296.909	94.69
297.14	93.69
297.37	94.69
297.601	81.69
297.831	79.69
298.062	82.69
298.292	99.69
298.523	98.69
298.753	92.69
298.984	91.69
299.214	99.69
299.445	79.69
299.675	90.69
299.905	100.69
300.136	91.69
300.366	88.69
300.597	96.69
300.827	77.69
301.057	98.69
301.288	115.69
301.518	97.69
301.748	98.69
301.979	93.69
302.209	85.69
302.439	94.69
302.669	98.69
302.9	104.69
303.13	91.69
303.36	101.69
303.59	92.69
303.82	98.69
304.051	81.69
304.281	85.69
304.511	90.69
304.741	89.69
304.971	94.69
305.201	85.69
305.431	99.69
305.661	95.69
305.891	97.69
306.121	111.69
306.352	92.69
306.582	98.69
306.812	93.69
307.042	93.69
307.272	85.69
307.502	92.69
307.731	94.69
307.961	89.69
308.191	87.69
308.421	93.69
308.651	89.69
308.881	86.69
309.111	97.69
309.341	96.69
309.571	99.69
309.8	92.69
310.03	90.69
310.26	96.69
310.49	103.69
310.72	101.69
310.949	97.69
311.179	103.69
311.409	91.69
311.639	106.69
311.868	92.69
312.098	95.69
312.328	104.69
312.557	92.69
312.787	103.69
313.017	108.69
313.246	105.69
313.476	76.69
313.706	94.69
313.935	101.69
314.165	93.69
314.394	97.69
314.624	89.69
314.853	101.69
315.083	96.69
315.312	90.69
315.542	88.69
315.771	87.69
316.001	104.69
316.23	107.69
316.46	94.69
316.689	93.69
316.919	86.69
317.148	93.69
317.377	101.69
317.607	101.69
317.836	91.69
318.065	101.69
318.295	93.69
318.524	95.69
318.753	91.69
318.983	93.69
319.212	107.69
319.441	105.69
319.67	96.69
319.9	108.69
320.129	95.69
320.358	95.69
320.587	103.69
320.816	92.69
321.046	110.69
321.275	98.69
321.504	104.69
321.733	99.69
321.962	93.69
322.191	92.69
322.42	101.69
322.649	107.69
322.878	98.69
323.108	99.69
323.337	101.69
323.566	121.69
323.795	139.69
324.024	173.69
324.253	337.69
324.482	665.69
324.71	1311.69
324.939	1805.69
325.168	686.69
325.397	211.69
325.626	136.69
325.855	109.69
326.084	119.69
326.313	118.69
326.542	141.69
326.77	218.69
326.999	381.69
327.228	750.69
327.457	1412.69
327.686	1142.69
327.914	317.69
328.143	177.69
328.372	139.69
328.6	115.69
328.829	104.69
329.058	123.69
329.287	132.69
329.515	108.69
329.744	122.69
329.972	102.69
330.201	121.69
330.43	127.69
330.658	122.69
330.887	124.69
331.115	116.69
331.344	86.69
331.572	98.69
331.801	106.69
332.03	104.69
332.258	108.69
332.486	93.69
332.715	100.69
332.943	82.69
333.172	92.69
333.4	95.69
333.629	106.69
333.857	120.69
334.085	110.69
334.314	108.69
334.542	134.69
334.771	118.69
334.999	108.69
335.227	101.69
335.455	102.69
335.684	89.69
335.912	104.69
336.14	111.69
336.369	85.69
336.597	107.69
336.825	107.69
337.053	93.69
337.281	99.69
337.51	104.69
337.738	81.69
337.966	85.69
338.194	95.69
338.422	94.69
338.65	96.69
338.878	105.69
339.106	87.69
339.334	99.69
339.562	82.69
339.79	88.69
340.018	103.69
340.246	87.69
340.474	99.69
340.702	98.69
340.93	81.69
341.158	93.69
341.386	89.69
341.614	94.69
341.842	94.69
342.07	89.69
342.298	97.69
342.526	87.69
342.754	94.69
342.981	109.69
343.209	100.69
343.437	103.69
343.665	85.69
343.893	85.69
344.12	89.69
344.348	97.69
344.576	90.69
344.804	90.69
345.031	88.69
345.259	93.69
345.487	87.69
345.714	94.69
345.942	93.69
346.17	87.69
346.397	89.69
346.625	89.69
346.853	89.69
347.08	82.69
347.308	91.69
347.535	98.69
347.763	110.69
347.99	90.69
348.218	114.69
348.445	91.69
348.673	103.69
348.9	101.69
349.128	92.69
349.355	81.69
349.583	87.69
349.81	101.69
350.037	98.69
350.265	93.69
350.492	92.69
350.72	96.69
350.947	90.69
351.174	95.69
351.402	115.69
351.629	106.69
351.856	100.69
352.083	107.69
352.311	95.69
352.538	102.69
352.765	107.69
352.992	105.69
353.22	112.69
353.447	101.69
353.674	103.69
353.901	99.69
354.128	112.69
354.355	112.69
354.583	108.69
354.81	97.69
355.037	111.69
355.264	99.69
355.491	91.69
355.718	90.69
355.945	109.69
356.172	94.69
356.399	92.69
356.626	102.69
356.853	89.69
357.08	95.69
357.307	104.69
357.534	82.69
357.761	105.69
357.988	83.69
358.215	109.69
358.441	105.69
358.668	92.69
358.895	83.69
359.122	104.69
359.349	86.69
359.576	97.69
359.802	93.69
360.029	95.69
360.256	114.69
360.483	95.69
360.709	89.69
360.936	97.69
361.163	93.69
361.39	106.69
361.616	93.69
361.843	83.69
362.07	101.69
362.296	92.69
362.523	86.69
362.749	87.69
362.976	93.69
363.203	93.69
363.429	103.69
363.656	94.69
363.882	97.69
364.109	112.69
364.335	97.69
364.562	91.69
364.788	94.69
365.015	95.69
365.241	94.69
365.468	117.69
365.694	103.69
365.92	108.69
366.147	77.69
366.373	99.69
366.599	78.69
366.826	94.69
367.052	88.69
367.278	93.69
367.505	82.69
367.731	95.69
367.957	85.69
368.184	103.69
368.41	104.69
368.636	101.69
368.862	112.69
369.089	111.69
369.315	102.69
369.541	100.69
369.767	87.69
369.993	90.69
370.219	92.69
370.445	89.69
370.672	91.69
370.898	95.69
371.124	101.69
371.35	108.69
371.576	95.69
371.802	103.69
372.028	88.69
372.254	96.69
372.48	95.69
372.706	100.69
372.932	93.69
373.158	97.69
373.384	96.69
373.61	99.69
373.835	81.69
374.061	94.69
374.287	99.69
374.513	94.69
374.739	83.69
374.965	97.69
375.191	97.69
375.416	87.69
375.642	102.69
375.868	83.69
376.094	97.69
376.319	97.69
376.545	85.69
376.771	103.69
376.997	103.69
377.222	100.69
377.448	104.69
377.674	112.69
377.899	99.69
378.125	110.69
378.35	94.69
378.576	97.69
378.802	106.69
379.027	97.69
379.253	90.69
379.478	96.69
379.704	86.69
379.929	104.69
380.155	96.69
380.38	98.69
380.606	106.69
380.831	101.69
381.057	93.69
381.282	100.69
381.507	107.69
381.733	111.69
381.958	101.69
382.184	102.69
382.409	105.69
382.634	115.69
382.86	91.69
383.085	109.69
383.31	120.69
383.535	109.69
383.761	105.69
383.986	108.69
384.211	117.69
384.436	95.69
384.662	106.69
384.887	123.69
385.112	119.69
385.337	120.69
385.562	135.69
385.787	120.69
386.013	124.69
386.238	118.69
386.463	120.69
386.688	115.69
386.913	115.69
387.138	131.69
387.363	121.69
387.588	111.69
387.813	110.69
388.038	127.69
388.263	129.69
388.488	117.69
388.713	99.69
388.938	95.69
389.163	112.69
389.387	101.69
389.612	96.69
389.837	109.69
390.062	93.69
390.287	83.69
390.512	93.69
390.736	99.69
390.961	94.69
391.186	111.69
391.411	106.69
391.636	97.69
391.86	89.69
392.085	98.69
392.31	79.69
392.534	81.69
392.759	101.69
392.984	104.69
393.208	94.69
393.433	98.69
393.658	89.69
393.882	95.69
394.107	91.69
394.331	91.69
394.556	99.69
394.78	102.69
395.005	94.69
395.229	85.69
395.454	95.69
395.678	104.69
395.903	105.69
396.127	93.69
396.352	88.69
396.576	99.69
396.801	102.69
397.025	95.69
397.249	90.69
397.474	120.69
397.698	85.69
397.922	85.69
398.147	91.69
398.371	94.69
398.595	81.69
398.82	87.69
399.044	67.69
399.268	100.69
399.492	94.69
399.717	92.69
399.941	101.69
400.165	93.69
400.389	94.69
400.613	92.69
400.837	97.69
401.062	93.69
401.286	103.69
401.51	96.69
401.734	110.69
401.958	104.69
402.182	131.69
402.406	138.69
402.63	100.69
402.854	99.69
403.078	111.69
403.302	88.69
403.526	89.69
403.75	88.69
403.974	83.69
404.198	96.69
404.422	85.69
404.645	100.69
404.869	103.69
405.093	110.69
405.317	91.69
405.541	111.69
405.765	103.69
405.988	108.69
406.212	165.69
406.436	198.69
406.66	123.69
406.883	109.69
407.107	101.69
407.331	103.69
407.555	103.69
407.778	95.69
408.002	94.69
408.226	87.69
408.449	90.69
408.673	105.69
408.896	108.69
409.12	97.69
409.344	93.69
409.567	94.69
409.791	95.69
410.014	96.69
410.238	94.69
410.461	97.69
410.685	96.69
410.908	103.69
411.132	107.69
411.355	105.69
411.578	96.69
411.802	82.69
412.025	91.69
412.249	93.69
412.472	89.69
412.695	106.69
412.919	96.69
413.142	78.69
413.365	98.69
413.589	87.69
413.812	93.69
414.035	99.69
414.258	86.69
414.482	103.69
414.705	91.69
414.928	84.69
415.151	91.69
415.374	103.69
415.597	95.69
415.821	98.69
416.044	91.69
416.267	90.69
416.49	82.69
416.713	94.69
416.936	101.69
417.159	88.69
417.382	89.69
417.605	92.69
417.828	101.69
418.051	96.69
418.274	97.69
418.497	99.69
418.72	102.69
418.943	93.69
419.166	83.69
419.389	101.69
419.611	96.69
419.834	88.69
420.057	78.69
420.28	93.69
420.503	97.69
420.726	82.69
420.948	105.69
421.171	105.69
421.394	82.69
421.617	80.69
421.839	94.69
422.062	87.69
422.285	96.69
422.507	95.69
422.73	107.69
422.953	91.69
423.175	95.69
423.398	92.69
423.621	89.69
423.843	81.69
424.066	92.69
424.288	101.69
424.511	96.69
424.733	102.69
424.956	102.69
425.178	95.69
425.401	97.69
425.623	109.69
425.846	102.69
426.068	104.69
426.291	109.69
426.513	85.69
426.735	105.69
426.958	94.69
427.18	118.69
427.402	123.69
427.625	146.69
427.847	136.69
428.069	93.69
428.292	87.69
428.514	81.69
428.736	90.69
428.958	93.69
429.181	89.69
429.403	98.69
429.625	86.69
429.847	97.69
430.069	87.69
430.292	97.69
430.514	83.69
430.736	79.69
430.958	93.69
431.18	80.69
431.402	85.69
431.624	89.69
431.846	91.69
432.068	93.69
432.29	80.69
432.512	99.69
432.734	95.69
432.956	78.69
433.178	101.69
433.4	103.69
433.622	97.69
433.844	93.69
434.066	96.69
434.287	102.69
434.509	94.69
434.731	90.69
434.953	96.69
435.175	90.69
435.397	94.69
435.618	97.69
435.84	102.69
436.062	118.69
436.284	116.69
436.505	102.69
436.727	97.69
436.949	91.69
437.17	93.69
437.392	85.69
437.614	99.69
437.835	105.69
438.057	107.69
438.278	111.69
438.5	99.69
438.721	121.69
438.943	106.69
439.165	78.69
439.386	100.69
439.608	98.69
439.829	92.69
440.05	113.69
440.272	122.69
440.493	84.69
440.715	85.69
440.936	97.69
441.158	89.69
441.379	81.69
441.6	105.69
441.822	78.69
442.043	93.69
442.264	114.69
442.486	95.69
442.707	101.69
442.928	106.69
443.149	124.69
443.371	113.69
443.592	113.69
443.813	106.69
444.034	107.69
444.255	98.69
444.476	88.69
444.698	96.69
444.919	82.69
445.14	140.69
445.361	125.69
445.582	123.69
445.803	132.69
446.024	118.69
446.245	126.69
446.466	105.69
446.687	85.69
446.908	84.69
447.129	99.69
447.35	104.69
447.571	92.69
447.792	91.69
448.013	89.69
448.234	101.69
448.455	98.69
448.675	112.69
448.896	104.69
449.117	94.69
449.338	107.69
449.559	131.69
449.779	123.69
450	92.69
450.221	103.69
450.442	85.69
450.662	90.69
450.883	93.69
451.104	103.69
451.324	80.69
451.545	92.69
451.766	85.69
451.986	91.69
452.207	89.69
452.428	115.69
452.648	98.69
452.869	99.69
453.089	109.69
453.31	112.69
453.53	79.69
453.751	72.69
453.971	109.69
454.192	116.69
454.412	95.69
454.633	93.69
454.853	100.69
455.073	97.69
455.294	101.69
455.514	94.69
455.734	92.69
455.955	91.69
456.175	89.69
456.395	92.69
456.616	89.69
456.836	89.69
457.056	90.69
457.276	81.69
457.497	82.69
457.717	78.69
457.937	94.69
458.157	69.69
458.377	83.69
458.598	87.69
458.818	129.69
459.038	145.69
459.258	117.69
459.478	100.69
459.698	102.69
459.918	86.69
460.138	87.69
460.358	97.69
460.578	85.69
460.798	97.69
461.018	90.69
461.238	73.69
461.458	87.69
461.678	85.69
461.898	77.69
462.118	101.69
462.338	89.69
462.558	82.69
462.777	89.69
462.997	85.69
463.217	89.69
463.437	96.69
463.657	86.69
463.876	81.69
464.096	87.69
464.316	77.69
464.536	89.69
464.755	108.69
464.975	114.69
465.195	133.69
465.414	138.69
465.634	93.69
465.854	87.69
466.073	75.69
466.293	107.69
466.512	97.69
466.732	102.69
466.951	98.69
467.171	87.69
467.391	101.69
467.61	101.69
467.829	110.69
468.049	87.69
468.268	89.69
468.488	90.69
468.707	101.69
468.927	97.69
469.146	93.69
469.365	95.69
469.585	91.69
469.804	90.69
470.023	91.69
470.243	94.69
470.462	93.69
470.681	115.69
470.901	95.69
471.12	93.69
471.339	103.69
471.558	87.69
471.777	101.69
471.997	107.69
472.216	100.69
472.435	131.69
472.654	96.69
472.873	94.69
473.092	82.69
473.311	80.69
473.53	82.69
473.749	97.69
473.968	95.69
474.187	96.69
474.406	107.69
474.625	91.69
474.844	93.69
475.063	95.69
475.282	97.69
475.501	92.69
475.72	91.69
475.939	89.69
476.158	94.69
476.377	89.69
476.596	97.69
476.814	105.69
477.033	93.69
477.252	87.69
477.471	85.69
477.69	88.69
477.908	89.69
478.127	94.69
478.346	91.69
478.564	97.69
478.783	105.69
479.002	95.69
479.22	89.69
479.439	96.69
479.658	103.69
479.876	102.69
480.095	98.69
480.313	96.69
480.532	97.69
480.751	83.69
480.969	115.69
481.188	194.69
481.406	122.69
481.624	91.69
481.843	90.69
482.061	80.69
482.28	93.69
482.498	95.69
482.717	76.69
482.935	87.69
483.153	89.69
483.372	94.69
483.59	79.69
483.808	95.69
484.027	104.69
484.245	95.69
484.463	99.69
484.681	97.69
484.9	99.69
485.118	105.69
485.336	82.69
485.554	103.69
485.772	85.69
485.99	104.69
486.209	106.69
486.427	91.69
486.645	110.69
486.863	115.69
487.081	91.69
487.299	106.69
487.517	101.69
487.735	91.69
487.953	97.69
488.171	94.69
488.389	96.69
488.607	105.69
488.825	76.69
489.043	86.69
489.261	90.69
489.479	100.69
489.696	90.69
489.914	92.69
490.132	101.69
490.35	91.69
490.568	88.69
490.786	90.69
491.003	88.69
491.221	81.69
491.439	94.69
491.657	92.69
491.874	94.69
492.092	93.69
492.31	96.69
492.527	89.69
492.745	88.69
492.963	88.69
493.18	88.69
493.398	76.69
493.615	94.69
493.833	89.69
494.05	80.69
494.268	92.69
494.485	81.69
494.703	91.69
494.92	101.69
495.138	93.69
495.355	96.69
495.573	96.69
495.79	91.69
496.008	95.69
496.225	96.69
496.442	98.69
496.66	89.69
496.877	95.69
497.094	105.69
497.312	85.69
497.529	99.69
497.746	88.69
497.963	90.69
498.181	98.69
498.398	103.69
498.615	93.69
498.832	87.69
499.049	98.69
499.267	93.69
499.484	82.69
499.701	97.69
499.918	90.69
500.135	91.69
500.352	99.69
500.569	104.69
500.786	79.69
501.003	97.69
501.22	97.69
501.437	95.69
501.654	95.69
501.871	108.69
502.088	82.69
502.305	98.69
502.522	96.69
502.739	93.69
502.956	86.69
503.172	110.69
503.389	92.69
503.606	109.69
503.823	103.69
504.04	81.69
504.256	94.69
504.473	91.69
504.69	85.69
504.907	87.69
505.123	80.69
505.34	94.69
505.557	112.69
505.773	93.69
505.99	82.69
506.207	85.69
506.423	77.69
506.64	87.69
506.856	94.69
507.073	112.69
507.289	94.69
507.506	106.69
507.722	114.69
507.939	102.69
508.155	89.69
508.372	99.69
508.588	85.69
508.805	83.69
509.021	89.69
509.238	101.69
509.454	96.69
509.67	99.69
509.887	102.69
510.103	111.69
510.319	194.69
510.536	584.69
510.752	1769.69
510.968	514.69
511.184	140.69
511.401	108.69
511.617	107.69
511.833	96.69
512.049	103.69
512.265	93.69
512.481	110.69
512.698	88.69
512.914	89.69
513.13	91.69
513.346	85.69
513.562	89.69
513.778	95.69
513.994	103.69
514.21	96.69
514.426	108.69
514.642	121.69
