Data from Uncirc_1980_H10_HRD10591_00034.txt Node
Date: Wed Jan 03 12:37:02 EST 2024
User: Yrep
Spectrometer: HR+D1059
Trigger mode: 1
Integration Time (sec): 1.000000E-1
Scans to average: 1
Electric dark correction enabled: true
Nonlinearity correction enabled: false
Boxcar width: 0
XAxis mode: Wavelengths
Number of Pixels in Spectrum: 2048
>>>>>Begin Spectral Data<<<<<
223.165	-23.06
223.4	-23.06
223.635	-23.06
223.869	-25.06
224.104	-8.06
224.338	-14.06
224.573	-20.06
224.808	-9.06
225.042	-5.06
225.277	2.94
225.511	-4.06
225.746	4.94
225.98	6.94
226.215	7.94
226.449	20.94
226.683	16.94
226.918	20.94
227.152	26.94
227.387	33.94
227.621	37.94
227.856	50.94
228.09	48.94
228.324	61.94
228.559	55.94
228.793	69.94
229.027	71.94
229.262	71.94
229.496	72.94
229.73	82.94
229.964	72.94
230.199	72.94
230.433	75.94
230.667	71.94
230.901	75.94
231.136	86.94
231.37	80.94
231.604	68.94
231.838	85.94
232.072	86.94
232.306	89.94
232.541	67.94
232.775	94.94
233.009	88.94
233.243	68.94
233.477	91.94
233.711	84.94
233.945	78.94
234.179	83.94
234.413	78.94
234.647	70.94
234.881	86.94
235.115	70.94
235.349	76.94
235.583	78.94
235.817	85.94
236.051	75.94
236.285	85.94
236.519	79.94
236.753	81.94
236.987	80.94
237.221	76.94
237.455	83.94
237.689	69.94
237.922	78.94
238.156	75.94
238.39	73.94
238.624	84.94
238.858	65.94
239.091	76.94
239.325	90.94
239.559	87.94
239.793	69.94
240.027	85.94
240.26	73.94
240.494	80.94
240.728	73.94
240.961	79.94
241.195	66.94
241.429	81.94
241.662	75.94
241.896	77.94
242.13	68.94
242.363	77.94
242.597	79.94
242.83	71.94
243.064	67.94
243.298	76.94
243.531	80.94
243.765	77.94
243.998	92.94
244.232	109.94
244.465	84.94
244.699	83.94
244.932	82.94
245.166	84.94
245.399	78.94
245.633	74.94
245.866	76.94
246.099	84.94
246.333	77.94
246.566	78.94
246.8	73.94
247.033	93.94
247.266	81.94
247.5	94.94
247.733	75.94
247.966	72.94
248.2	92.94
248.433	76.94
248.666	85.94
248.899	93.94
249.133	77.94
249.366	103.94
249.599	86.94
249.832	87.94
250.066	99.94
250.299	67.94
250.532	92.94
250.765	77.94
250.998	80.94
251.231	86.94
251.465	74.94
251.698	70.94
251.931	74.94
252.164	86.94
252.397	71.94
252.63	104.94
252.863	89.94
253.096	75.94
253.329	75.94
253.562	76.94
253.795	83.94
254.028	87.94
254.261	79.94
254.494	85.94
254.727	79.94
254.96	84.94
255.193	94.94
255.426	92.94
255.659	83.94
255.892	79.94
256.124	69.94
256.357	89.94
256.59	86.94
256.823	74.94
257.056	78.94
257.289	80.94
257.521	90.94
257.754	84.94
257.987	83.94
258.22	85.94
258.452	78.94
258.685	73.94
258.918	72.94
259.151	87.94
259.383	89.94
259.616	82.94
259.849	88.94
260.081	95.94
260.314	91.94
260.547	81.94
260.779	85.94
261.012	86.94
261.244	79.94
261.477	93.94
261.71	93.94
261.942	103.94
262.175	108.94
262.407	90.94
262.64	86.94
262.872	80.94
263.105	79.94
263.337	79.94
263.57	78.94
263.802	91.94
264.035	92.94
264.267	77.94
264.499	61.94
264.732	89.94
264.964	94.94
265.197	80.94
265.429	97.94
265.661	71.94
265.894	88.94
266.126	89.94
266.358	80.94
266.591	72.94
266.823	74.94
267.055	97.94
267.287	93.94
267.52	90.94
267.752	84.94
267.984	87.94
268.216	100.94
268.448	95.94
268.681	80.94
268.913	79.94
269.145	83.94
269.377	79.94
269.609	91.94
269.841	84.94
270.073	83.94
270.306	97.94
270.538	87.94
270.77	81.94
271.002	85.94
271.234	85.94
271.466	93.94
271.698	84.94
271.93	96.94
272.162	80.94
272.394	75.94
272.626	76.94
272.858	82.94
273.09	77.94
273.322	84.94
273.553	94.94
273.785	94.94
274.017	91.94
274.249	87.94
274.481	86.94
274.713	100.94
274.945	85.94
275.176	90.94
275.408	94.94
275.64	85.94
275.872	72.94
276.104	88.94
276.335	91.94
276.567	79.94
276.799	107.94
277.031	103.94
277.262	93.94
277.494	85.94
277.726	92.94
277.957	79.94
278.189	81.94
278.421	96.94
278.652	97.94
278.884	79.94
279.115	77.94
279.347	94.94
279.579	93.94
279.81	97.94
280.042	88.94
280.273	87.94
280.505	94.94
280.736	75.94
280.968	92.94
281.199	74.94
281.431	83.94
281.662	104.94
281.894	78.94
282.125	86.94
282.356	100.94
282.588	121.94
282.819	104.94
283.051	98.94
283.282	88.94
283.513	89.94
283.745	76.94
283.976	83.94
284.207	92.94
284.439	95.94
284.67	74.94
284.901	95.94
285.132	79.94
285.364	95.94
285.595	93.94
285.826	105.94
286.057	88.94
286.288	91.94
286.52	89.94
286.751	89.94
286.982	83.94
287.213	94.94
287.444	87.94
287.675	88.94
287.906	88.94
288.138	88.94
288.369	87.94
288.6	91.94
288.831	64.94
289.062	93.94
289.293	89.94
289.524	96.94
289.755	93.94
289.986	94.94
290.217	87.94
290.448	93.94
290.679	87.94
290.91	79.94
291.141	79.94
291.371	96.94
291.602	91.94
291.833	83.94
292.064	90.94
292.295	82.94
292.526	100.94
292.757	89.94
292.987	98.94
293.218	83.94
293.449	83.94
293.68	89.94
293.91	92.94
294.141	94.94
294.372	88.94
294.603	93.94
294.833	80.94
295.064	76.94
295.295	97.94
295.525	92.94
295.756	101.94
295.987	111.94
296.217	134.94
296.448	114.94
296.679	85.94
296.909	84.94
297.14	83.94
297.37	84.94
297.601	77.94
297.831	92.94
298.062	92.94
298.292	95.94
298.523	105.94
298.753	85.94
298.984	94.94
299.214	101.94
299.445	94.94
299.675	102.94
299.905	81.94
300.136	92.94
300.366	85.94
300.597	84.94
300.827	78.94
301.057	89.94
301.288	98.94
301.518	94.94
301.748	90.94
301.979	100.94
302.209	87.94
302.439	107.94
302.669	80.94
302.9	87.94
303.13	87.94
303.36	89.94
303.59	97.94
303.82	100.94
304.051	100.94
304.281	102.94
304.511	85.94
304.741	83.94
304.971	80.94
305.201	89.94
305.431	79.94
305.661	87.94
305.891	111.94
306.121	87.94
306.352	96.94
306.582	105.94
306.812	110.94
307.042	96.94
307.272	91.94
307.502	81.94
307.731	87.94
307.961	86.94
308.191	106.94
308.421	84.94
308.651	86.94
308.881	100.94
309.111	89.94
309.341	80.94
309.571	96.94
309.8	95.94
310.03	96.94
310.26	107.94
310.49	93.94
310.72	109.94
310.949	95.94
311.179	99.94
311.409	93.94
311.639	92.94
311.868	107.94
312.098	99.94
312.328	105.94
312.557	109.94
312.787	110.94
313.017	99.94
313.246	84.94
313.476	84.94
313.706	103.94
313.935	95.94
314.165	95.94
314.394	83.94
314.624	80.94
314.853	80.94
315.083	98.94
315.312	90.94
315.542	93.94
315.771	97.94
316.001	97.94
316.23	84.94
316.46	79.94
316.689	87.94
316.919	76.94
317.148	91.94
317.377	105.94
317.607	87.94
317.836	94.94
318.065	83.94
318.295	92.94
318.524	94.94
318.753	90.94
318.983	89.94
319.212	102.94
319.441	109.94
319.67	94.94
319.9	93.94
320.129	96.94
320.358	95.94
320.587	102.94
320.816	85.94
321.046	86.94
321.275	86.94
321.504	94.94
321.733	101.94
321.962	99.94
322.191	108.94
322.42	104.94
322.649	99.94
322.878	109.94
323.108	109.94
323.337	108.94
323.566	95.94
323.795	117.94
324.024	165.94
324.253	296.94
324.482	560.94
324.71	1149.94
324.939	1524.94
325.168	561.94
325.397	187.94
325.626	127.94
325.855	116.94
326.084	111.94
326.313	101.94
326.542	149.94
326.77	179.94
326.999	333.94
327.228	675.94
327.457	1212.94
327.686	951.94
327.914	273.94
328.143	163.94
328.372	129.94
328.6	113.94
328.829	106.94
329.058	115.94
329.287	117.94
329.515	90.94
329.744	106.94
329.972	124.94
330.201	110.94
330.43	133.94
330.658	111.94
330.887	119.94
331.115	116.94
331.344	90.94
331.572	95.94
331.801	88.94
332.03	101.94
332.258	97.94
332.486	102.94
332.715	83.94
332.943	92.94
333.172	97.94
333.4	103.94
333.629	87.94
333.857	99.94
334.085	106.94
334.314	112.94
334.542	124.94
334.771	120.94
334.999	99.94
335.227	102.94
335.455	107.94
335.684	99.94
335.912	113.94
336.14	96.94
336.369	101.94
336.597	99.94
336.825	101.94
337.053	86.94
337.281	95.94
337.51	90.94
337.738	94.94
337.966	93.94
338.194	104.94
338.422	79.94
338.65	77.94
338.878	90.94
339.106	77.94
339.334	103.94
339.562	98.94
339.79	83.94
340.018	97.94
340.246	77.94
340.474	107.94
340.702	101.94
340.93	93.94
341.158	91.94
341.386	82.94
341.614	101.94
341.842	108.94
342.07	99.94
342.298	96.94
342.526	91.94
342.754	87.94
342.981	84.94
343.209	91.94
343.437	99.94
343.665	83.94
343.893	77.94
344.12	91.94
344.348	83.94
344.576	89.94
344.804	99.94
345.031	85.94
345.259	105.94
345.487	89.94
345.714	104.94
345.942	106.94
346.17	99.94
346.397	98.94
346.625	76.94
346.853	82.94
347.08	88.94
347.308	84.94
347.535	111.94
347.763	106.94
347.99	102.94
348.218	103.94
348.445	101.94
348.673	86.94
348.9	92.94
349.128	89.94
349.355	85.94
349.583	101.94
349.81	86.94
350.037	102.94
350.265	97.94
350.492	116.94
350.72	101.94
350.947	102.94
351.174	109.94
351.402	85.94
351.629	99.94
351.856	113.94
352.083	92.94
352.311	96.94
352.538	100.94
352.765	95.94
352.992	99.94
353.22	104.94
353.447	93.94
353.674	97.94
353.901	110.94
354.128	92.94
354.355	94.94
354.583	91.94
354.81	92.94
355.037	105.94
355.264	91.94
355.491	101.94
355.718	91.94
355.945	108.94
356.172	91.94
356.399	84.94
356.626	90.94
356.853	85.94
357.08	105.94
357.307	107.94
357.534	92.94
357.761	95.94
357.988	111.94
358.215	99.94
358.441	103.94
358.668	109.94
358.895	82.94
359.122	95.94
359.349	97.94
359.576	89.94
359.802	98.94
360.029	103.94
360.256	104.94
360.483	103.94
360.709	93.94
360.936	117.94
361.163	84.94
361.39	88.94
361.616	79.94
361.843	86.94
362.07	87.94
362.296	80.94
362.523	69.94
362.749	100.94
362.976	104.94
363.203	88.94
363.429	85.94
363.656	87.94
363.882	86.94
364.109	80.94
364.335	104.94
364.562	98.94
364.788	88.94
365.015	104.94
365.241	84.94
365.468	100.94
365.694	113.94
365.92	91.94
366.147	85.94
366.373	81.94
366.599	89.94
366.826	84.94
367.052	97.94
367.278	93.94
367.505	83.94
367.731	100.94
367.957	96.94
368.184	108.94
368.41	108.94
368.636	114.94
368.862	102.94
369.089	92.94
369.315	83.94
369.541	97.94
369.767	101.94
369.993	101.94
370.219	100.94
370.445	80.94
370.672	74.94
370.898	90.94
371.124	91.94
371.35	75.94
371.576	86.94
371.802	94.94
372.028	99.94
372.254	91.94
372.48	87.94
372.706	94.94
372.932	96.94
373.158	89.94
373.384	100.94
373.61	105.94
373.835	76.94
374.061	97.94
374.287	94.94
374.513	83.94
374.739	100.94
374.965	93.94
375.191	92.94
375.416	94.94
375.642	89.94
375.868	81.94
376.094	82.94
376.319	85.94
376.545	91.94
376.771	77.94
376.997	92.94
377.222	84.94
377.448	99.94
377.674	99.94
377.899	94.94
378.125	83.94
378.35	92.94
378.576	93.94
378.802	99.94
379.027	93.94
379.253	108.94
379.478	93.94
379.704	86.94
379.929	92.94
380.155	102.94
380.38	103.94
380.606	93.94
380.831	96.94
381.057	100.94
381.282	99.94
381.507	97.94
381.733	89.94
381.958	102.94
382.184	97.94
382.409	102.94
382.634	100.94
382.86	107.94
383.085	97.94
383.31	93.94
383.535	97.94
383.761	108.94
383.986	104.94
384.211	103.94
384.436	100.94
384.662	108.94
384.887	109.94
385.112	105.94
385.337	108.94
385.562	101.94
385.787	117.94
386.013	104.94
386.238	113.94
386.463	110.94
386.688	114.94
386.913	99.94
387.138	98.94
387.363	92.94
387.588	109.94
387.813	99.94
388.038	99.94
388.263	117.94
388.488	104.94
388.713	105.94
388.938	90.94
389.163	97.94
389.387	96.94
389.612	96.94
389.837	96.94
390.062	94.94
390.287	90.94
390.512	97.94
390.736	93.94
390.961	102.94
391.186	95.94
391.411	98.94
391.636	81.94
391.86	79.94
392.085	80.94
392.31	85.94
392.534	75.94
392.759	90.94
392.984	72.94
393.208	87.94
393.433	92.94
393.658	79.94
393.882	75.94
394.107	106.94
394.331	92.94
394.556	91.94
394.78	92.94
395.005	93.94
395.229	96.94
395.454	100.94
395.678	86.94
395.903	83.94
396.127	87.94
396.352	90.94
396.576	91.94
396.801	94.94
397.025	94.94
397.249	72.94
397.474	92.94
397.698	87.94
397.922	73.94
398.147	96.94
398.371	88.94
398.595	89.94
398.82	78.94
399.044	93.94
399.268	84.94
399.492	103.94
399.717	85.94
399.941	88.94
400.165	88.94
400.389	92.94
400.613	80.94
400.837	86.94
401.062	97.94
401.286	78.94
401.51	85.94
401.734	105.94
401.958	83.94
402.182	105.94
402.406	128.94
402.63	105.94
402.854	90.94
403.078	100.94
403.302	94.94
403.526	91.94
403.75	102.94
403.974	93.94
404.198	79.94
404.422	85.94
404.645	87.94
404.869	74.94
405.093	91.94
405.317	101.94
405.541	98.94
405.765	79.94
405.988	117.94
406.212	151.94
406.436	174.94
406.66	120.94
406.883	103.94
407.107	103.94
407.331	88.94
407.555	94.94
407.778	81.94
408.002	84.94
408.226	80.94
408.449	94.94
408.673	99.94
408.896	93.94
409.12	96.94
409.344	92.94
409.567	76.94
409.791	87.94
410.014	85.94
410.238	105.94
410.461	113.94
410.685	96.94
410.908	96.94
411.132	102.94
411.355	100.94
411.578	94.94
411.802	93.94
412.025	89.94
412.249	102.94
412.472	92.94
412.695	88.94
412.919	89.94
413.142	101.94
413.365	89.94
413.589	79.94
413.812	91.94
414.035	86.94
414.258	81.94
414.482	85.94
414.705	94.94
414.928	102.94
415.151	81.94
415.374	90.94
415.597	87.94
415.821	86.94
416.044	90.94
416.267	102.94
416.49	85.94
416.713	95.94
416.936	85.94
417.159	92.94
417.382	83.94
417.605	93.94
417.828	101.94
418.051	82.94
418.274	92.94
418.497	95.94
418.72	94.94
418.943	92.94
419.166	77.94
419.389	105.94
419.611	97.94
419.834	91.94
420.057	77.94
420.28	91.94
420.503	87.94
420.726	78.94
420.948	83.94
421.171	89.94
421.394	107.94
421.617	96.94
421.839	87.94
422.062	84.94
422.285	82.94
422.507	89.94
422.73	96.94
422.953	106.94
423.175	84.94
423.398	76.94
423.621	94.94
423.843	94.94
424.066	95.94
424.288	90.94
424.511	96.94
424.733	92.94
424.956	100.94
425.178	84.94
425.401	100.94
425.623	102.94
425.846	85.94
426.068	84.94
426.291	92.94
426.513	83.94
426.735	99.94
426.958	83.94
427.18	99.94
427.402	123.94
427.625	132.94
427.847	108.94
428.069	104.94
428.292	85.94
428.514	88.94
428.736	92.94
428.958	90.94
429.181	84.94
429.403	96.94
429.625	90.94
429.847	97.94
430.069	89.94
430.292	89.94
430.514	77.94
430.736	89.94
430.958	82.94
431.18	78.94
431.402	86.94
431.624	77.94
431.846	107.94
432.068	79.94
432.29	80.94
432.512	88.94
432.734	85.94
432.956	101.94
433.178	96.94
433.4	104.94
433.622	88.94
433.844	87.94
434.066	82.94
434.287	75.94
434.509	91.94
434.731	92.94
434.953	90.94
435.175	80.94
435.397	91.94
435.618	104.94
435.84	100.94
436.062	89.94
436.284	120.94
436.505	85.94
436.727	95.94
436.949	81.94
437.17	87.94
437.392	84.94
437.614	70.94
437.835	95.94
438.057	106.94
438.278	106.94
438.5	100.94
438.721	105.94
438.943	98.94
439.165	79.94
439.386	68.94
439.608	93.94
439.829	89.94
440.05	103.94
440.272	107.94
440.493	89.94
440.715	99.94
440.936	95.94
441.158	86.94
441.379	95.94
441.6	80.94
441.822	90.94
442.043	99.94
442.264	95.94
442.486	89.94
442.707	93.94
442.928	84.94
443.149	99.94
443.371	127.94
443.592	105.94
443.813	107.94
444.034	87.94
444.255	95.94
444.476	76.94
444.698	87.94
444.919	82.94
445.14	139.94
445.361	116.94
445.582	99.94
445.803	129.94
446.024	111.94
446.245	116.94
446.466	99.94
446.687	95.94
446.908	89.94
447.129	93.94
447.35	78.94
447.571	93.94
447.792	77.94
448.013	87.94
448.234	86.94
448.455	82.94
448.675	89.94
448.896	105.94
449.117	83.94
449.338	87.94
449.559	128.94
449.779	102.94
450	79.94
450.221	98.94
450.442	105.94
450.662	84.94
450.883	102.94
451.104	100.94
451.324	89.94
451.545	85.94
451.766	89.94
451.986	92.94
452.207	99.94
452.428	93.94
452.648	101.94
452.869	104.94
453.089	106.94
453.31	99.94
453.53	101.94
453.751	100.94
453.971	94.94
454.192	113.94
454.412	86.94
454.633	87.94
454.853	92.94
455.073	92.94
455.294	101.94
455.514	78.94
455.734	103.94
455.955	80.94
456.175	95.94
456.395	86.94
456.616	67.94
456.836	79.94
457.056	87.94
457.276	92.94
457.497	92.94
457.717	71.94
457.937	91.94
458.157	80.94
458.377	104.94
458.598	95.94
458.818	121.94
459.038	132.94
459.258	97.94
459.478	91.94
459.698	89.94
459.918	85.94
460.138	78.94
460.358	68.94
460.578	87.94
460.798	91.94
461.018	87.94
461.238	96.94
461.458	80.94
461.678	80.94
461.898	82.94
462.118	95.94
462.338	94.94
462.558	92.94
462.777	76.94
462.997	94.94
463.217	108.94
463.437	101.94
463.657	91.94
463.876	94.94
464.096	79.94
464.316	95.94
464.536	86.94
464.755	84.94
464.975	102.94
465.195	144.94
465.414	115.94
465.634	100.94
465.854	93.94
466.073	96.94
466.293	98.94
466.512	83.94
466.732	73.94
466.951	77.94
467.171	80.94
467.391	91.94
467.61	99.94
467.829	89.94
468.049	96.94
468.268	99.94
468.488	88.94
468.707	76.94
468.927	79.94
469.146	85.94
469.365	86.94
469.585	78.94
469.804	83.94
470.023	89.94
470.243	97.94
470.462	97.94
470.681	110.94
470.901	90.94
471.12	77.94
471.339	85.94
471.558	75.94
471.777	93.94
471.997	100.94
472.216	120.94
472.435	122.94
472.654	101.94
472.873	79.94
473.092	79.94
473.311	89.94
473.53	103.94
473.749	97.94
473.968	97.94
474.187	97.94
474.406	89.94
474.625	79.94
474.844	92.94
475.063	91.94
475.282	88.94
475.501	93.94
475.72	87.94
475.939	94.94
476.158	81.94
476.377	85.94
476.596	75.94
476.814	86.94
477.033	72.94
477.252	85.94
477.471	67.94
477.69	78.94
477.908	76.94
478.127	76.94
478.346	93.94
478.564	95.94
478.783	85.94
479.002	100.94
479.22	91.94
479.439	99.94
479.658	118.94
479.876	81.94
480.095	85.94
480.313	83.94
480.532	90.94
480.751	88.94
480.969	113.94
481.188	172.94
481.406	130.94
481.624	101.94
481.843	81.94
482.061	88.94
482.28	89.94
482.498	89.94
482.717	87.94
482.935	96.94
483.153	92.94
483.372	73.94
483.59	87.94
483.808	85.94
484.027	89.94
484.245	85.94
484.463	79.94
484.681	96.94
484.9	83.94
485.118	89.94
485.336	110.94
485.554	100.94
485.772	99.94
485.99	116.94
486.209	91.94
486.427	105.94
486.645	106.94
486.863	89.94
487.081	94.94
487.299	104.94
487.517	97.94
487.735	91.94
487.953	93.94
488.171	78.94
488.389	93.94
488.607	94.94
488.825	105.94
489.043	101.94
489.261	99.94
489.479	84.94
489.696	87.94
489.914	88.94
490.132	90.94
490.35	105.94
490.568	99.94
490.786	95.94
491.003	100.94
491.221	81.94
491.439	92.94
491.657	84.94
491.874	93.94
492.092	92.94
492.31	90.94
492.527	84.94
492.745	91.94
492.963	85.94
493.18	92.94
493.398	83.94
493.615	94.94
493.833	78.94
494.05	92.94
494.268	85.94
494.485	106.94
494.703	95.94
494.92	83.94
495.138	85.94
495.355	99.94
495.573	111.94
495.79	101.94
496.008	92.94
496.225	87.94
496.442	81.94
496.66	84.94
496.877	93.94
497.094	83.94
497.312	78.94
497.529	91.94
497.746	87.94
497.963	107.94
498.181	87.94
498.398	84.94
498.615	99.94
498.832	101.94
499.049	95.94
499.267	97.94
499.484	87.94
499.701	94.94
499.918	98.94
500.135	92.94
500.352	85.94
500.569	96.94
500.786	88.94
501.003	90.94
501.22	91.94
501.437	99.94
501.654	88.94
501.871	83.94
502.088	103.94
502.305	89.94
502.522	89.94
502.739	88.94
502.956	96.94
503.172	84.94
503.389	90.94
503.606	109.94
503.823	108.94
504.04	88.94
504.256	81.94
504.473	91.94
504.69	106.94
504.907	101.94
505.123	84.94
505.34	99.94
505.557	94.94
505.773	79.94
505.99	89.94
506.207	90.94
506.423	80.94
506.64	98.94
506.856	107.94
507.073	94.94
507.289	88.94
507.506	83.94
507.722	109.94
507.939	105.94
508.155	91.94
508.372	85.94
508.588	96.94
508.805	102.94
509.021	85.94
509.238	97.94
509.454	89.94
509.67	120.94
509.887	107.94
510.103	119.94
510.319	178.94
510.536	561.94
510.752	1699.94
510.968	475.94
511.184	137.94
511.401	103.94
511.617	77.94
511.833	104.94
512.049	94.94
512.265	88.94
512.481	89.94
512.698	107.94
512.914	90.94
513.13	93.94
513.346	79.94
513.562	83.94
513.778	100.94
513.994	100.94
514.21	93.94
514.426	109.94
514.642	133.94
514.858	112.94
515.074	139.94
515.29	312.94
515.506	992.94
515.721	364.94
