Data from Uncirc_1980_H10_HRD10591_00067.txt Node
Date: Wed Jan 03 12:37:08 EST 2024
User: Yrep
Spectrometer: HR+D1059
Trigger mode: 1
Integration Time (sec): 1.000000E-1
Scans to average: 1
Electric dark correction enabled: true
Nonlinearity correction enabled: false
Boxcar width: 0
XAxis mode: Wavelengths
Number of Pixels in Spectrum: 2048
>>>>>Begin Spectral Data<<<<<
223.165	-20.38
223.4	-20.38
223.635	-20.38
223.869	-17.38
224.104	-10.38
224.338	-20.38
224.573	-13.38
224.808	-15.38
225.042	-8.38
225.277	-10.38
225.511	-7.38
225.746	13.62
225.98	-7.38
226.215	19.62
226.449	10.62
226.683	19.62
226.918	33.62
227.152	33.62
227.387	45.62
227.621	32.62
227.856	48.62
228.09	47.62
228.324	60.62
228.559	54.62
228.793	61.62
229.027	71.62
229.262	72.62
229.496	71.62
229.73	90.62
229.964	85.62
230.199	77.62
230.433	68.62
230.667	83.62
230.901	83.62
231.136	76.62
231.37	80.62
231.604	81.62
231.838	88.62
232.072	85.62
232.306	87.62
232.541	85.62
232.775	72.62
233.009	103.62
233.243	91.62
233.477	86.62
233.711	70.62
233.945	97.62
234.179	88.62
234.413	88.62
234.647	88.62
234.881	95.62
235.115	67.62
235.349	93.62
235.583	78.62
235.817	84.62
236.051	97.62
236.285	94.62
236.519	85.62
236.753	67.62
236.987	84.62
237.221	95.62
237.455	94.62
237.689	76.62
237.922	75.62
238.156	87.62
238.39	93.62
238.624	73.62
238.858	69.62
239.091	73.62
239.325	83.62
239.559	93.62
239.793	67.62
240.027	70.62
240.26	58.62
240.494	73.62
240.728	75.62
240.961	80.62
241.195	86.62
241.429	84.62
241.662	87.62
241.896	80.62
242.13	75.62
242.363	76.62
242.597	79.62
242.83	92.62
243.064	81.62
243.298	87.62
243.531	82.62
243.765	87.62
243.998	68.62
244.232	73.62
244.465	92.62
244.699	99.62
244.932	85.62
245.166	86.62
245.399	89.62
245.633	87.62
245.866	88.62
246.099	79.62
246.333	80.62
246.566	80.62
246.8	75.62
247.033	78.62
247.266	73.62
247.5	73.62
247.733	88.62
247.966	83.62
248.2	95.62
248.433	84.62
248.666	85.62
248.899	89.62
249.133	96.62
249.366	107.62
249.599	83.62
249.832	76.62
250.066	77.62
250.299	90.62
250.532	91.62
250.765	84.62
250.998	83.62
251.231	73.62
251.465	84.62
251.698	79.62
251.931	77.62
252.164	75.62
252.397	68.62
252.63	88.62
252.863	95.62
253.096	70.62
253.329	83.62
253.562	79.62
253.795	84.62
254.028	81.62
254.261	85.62
254.494	77.62
254.727	83.62
254.96	84.62
255.193	86.62
255.426	85.62
255.659	93.62
255.892	79.62
256.124	70.62
256.357	86.62
256.59	83.62
256.823	76.62
257.056	85.62
257.289	87.62
257.521	76.62
257.754	83.62
257.987	99.62
258.22	85.62
258.452	95.62
258.685	94.62
258.918	84.62
259.151	83.62
259.383	84.62
259.616	87.62
259.849	76.62
260.081	73.62
260.314	84.62
260.547	85.62
260.779	79.62
261.012	77.62
261.244	79.62
261.477	91.62
261.71	101.62
261.942	109.62
262.175	108.62
262.407	88.62
262.64	81.62
262.872	91.62
263.105	85.62
263.337	90.62
263.57	93.62
263.802	90.62
264.035	92.62
264.267	84.62
264.499	67.62
264.732	81.62
264.964	87.62
265.197	80.62
265.429	78.62
265.661	86.62
265.894	98.62
266.126	91.62
266.358	82.62
266.591	89.62
266.823	100.62
267.055	74.62
267.287	91.62
267.52	86.62
267.752	88.62
267.984	86.62
268.216	86.62
268.448	98.62
268.681	76.62
268.913	89.62
269.145	87.62
269.377	95.62
269.609	93.62
269.841	85.62
270.073	86.62
270.306	88.62
270.538	86.62
270.77	89.62
271.002	81.62
271.234	103.62
271.466	74.62
271.698	81.62
271.93	90.62
272.162	71.62
272.394	81.62
272.626	91.62
272.858	92.62
273.09	80.62
273.322	89.62
273.553	85.62
273.785	67.62
274.017	84.62
274.249	91.62
274.481	87.62
274.713	88.62
274.945	95.62
275.176	74.62
275.408	79.62
275.64	95.62
275.872	96.62
276.104	87.62
276.335	81.62
276.567	104.62
276.799	75.62
277.031	88.62
277.262	93.62
277.494	94.62
277.726	79.62
277.957	100.62
278.189	75.62
278.421	85.62
278.652	88.62
278.884	93.62
279.115	98.62
279.347	87.62
279.579	76.62
279.81	87.62
280.042	97.62
280.273	87.62
280.505	77.62
280.736	83.62
280.968	71.62
281.199	95.62
281.431	85.62
281.662	83.62
281.894	88.62
282.125	113.62
282.356	113.62
282.588	138.62
282.819	111.62
283.051	96.62
283.282	77.62
283.513	88.62
283.745	87.62
283.976	85.62
284.207	98.62
284.439	89.62
284.67	86.62
284.901	78.62
285.132	84.62
285.364	95.62
285.595	88.62
285.826	99.62
286.057	93.62
286.288	85.62
286.52	80.62
286.751	99.62
286.982	90.62
287.213	87.62
287.444	85.62
287.675	80.62
287.906	99.62
288.138	95.62
288.369	97.62
288.6	94.62
288.831	93.62
289.062	88.62
289.293	95.62
289.524	75.62
289.755	87.62
289.986	83.62
290.217	93.62
290.448	106.62
290.679	97.62
290.91	100.62
291.141	85.62
291.371	75.62
291.602	81.62
291.833	93.62
292.064	68.62
292.295	94.62
292.526	99.62
292.757	103.62
292.987	78.62
293.218	89.62
293.449	87.62
293.68	99.62
293.91	97.62
294.141	102.62
294.372	97.62
294.603	95.62
294.833	85.62
295.064	88.62
295.295	96.62
295.525	78.62
295.756	111.62
295.987	109.62
296.217	120.62
296.448	111.62
296.679	93.62
296.909	83.62
297.14	83.62
297.37	88.62
297.601	85.62
297.831	85.62
298.062	92.62
298.292	88.62
298.523	81.62
298.753	88.62
298.984	88.62
299.214	86.62
299.445	89.62
299.675	84.62
299.905	103.62
300.136	92.62
300.366	95.62
300.597	84.62
300.827	95.62
301.057	113.62
301.288	96.62
301.518	88.62
301.748	93.62
301.979	94.62
302.209	95.62
302.439	88.62
302.669	90.62
302.9	80.62
303.13	99.62
303.36	102.62
303.59	87.62
303.82	89.62
304.051	101.62
304.281	98.62
304.511	97.62
304.741	92.62
304.971	97.62
305.201	100.62
305.431	89.62
305.661	95.62
305.891	84.62
306.121	101.62
306.352	87.62
306.582	103.62
306.812	96.62
307.042	92.62
307.272	94.62
307.502	100.62
307.731	97.62
307.961	101.62
308.191	92.62
308.421	87.62
308.651	94.62
308.881	91.62
309.111	82.62
309.341	94.62
309.571	92.62
309.8	100.62
310.03	89.62
310.26	108.62
310.49	91.62
310.72	92.62
310.949	86.62
311.179	97.62
311.409	98.62
311.639	78.62
311.868	104.62
312.098	95.62
312.328	96.62
312.557	105.62
312.787	95.62
313.017	96.62
313.246	102.62
313.476	95.62
313.706	83.62
313.935	88.62
314.165	90.62
314.394	92.62
314.624	94.62
314.853	99.62
315.083	95.62
315.312	92.62
315.542	86.62
315.771	83.62
316.001	100.62
316.23	87.62
316.46	99.62
316.689	105.62
316.919	100.62
317.148	99.62
317.377	93.62
317.607	105.62
317.836	88.62
318.065	94.62
318.295	95.62
318.524	79.62
318.753	91.62
318.983	86.62
319.212	97.62
319.441	99.62
319.67	107.62
319.9	94.62
320.129	92.62
320.358	106.62
320.587	107.62
320.816	105.62
321.046	102.62
321.275	89.62
321.504	92.62
321.733	93.62
321.962	104.62
322.191	91.62
322.42	100.62
322.649	103.62
322.878	116.62
323.108	107.62
323.337	114.62
323.566	119.62
323.795	133.62
324.024	176.62
324.253	316.62
324.482	693.62
324.71	1389.62
324.939	1829.62
325.168	700.62
325.397	220.62
325.626	118.62
325.855	129.62
326.084	131.62
326.313	115.62
326.542	137.62
326.77	207.62
326.999	379.62
327.228	764.62
327.457	1395.62
327.686	1122.62
327.914	325.62
328.143	171.62
328.372	150.62
328.6	127.62
328.829	125.62
329.058	120.62
329.287	114.62
329.515	122.62
329.744	96.62
329.972	100.62
330.201	118.62
330.43	114.62
330.658	121.62
330.887	127.62
331.115	109.62
331.344	112.62
331.572	112.62
331.801	99.62
332.03	104.62
332.258	90.62
332.486	88.62
332.715	87.62
332.943	106.62
333.172	104.62
333.4	97.62
333.629	111.62
333.857	100.62
334.085	113.62
334.314	127.62
334.542	131.62
334.771	116.62
334.999	108.62
335.227	101.62
335.455	103.62
335.684	103.62
335.912	89.62
336.14	85.62
336.369	85.62
336.597	83.62
336.825	81.62
337.053	87.62
337.281	100.62
337.51	93.62
337.738	102.62
337.966	95.62
338.194	89.62
338.422	87.62
338.65	98.62
338.878	95.62
339.106	97.62
339.334	75.62
339.562	91.62
339.79	94.62
340.018	109.62
340.246	97.62
340.474	99.62
340.702	100.62
340.93	95.62
341.158	93.62
341.386	84.62
341.614	90.62
341.842	94.62
342.07	99.62
342.298	83.62
342.526	87.62
342.754	93.62
342.981	86.62
343.209	91.62
343.437	103.62
343.665	91.62
343.893	96.62
344.12	96.62
344.348	100.62
344.576	96.62
344.804	94.62
345.031	93.62
345.259	92.62
345.487	105.62
345.714	85.62
345.942	102.62
346.17	89.62
346.397	96.62
346.625	105.62
346.853	97.62
347.08	100.62
347.308	103.62
347.535	100.62
347.763	96.62
347.99	104.62
348.218	95.62
348.445	97.62
348.673	101.62
348.9	84.62
349.128	108.62
349.355	99.62
349.583	96.62
349.81	101.62
350.037	97.62
350.265	103.62
350.492	106.62
350.72	92.62
350.947	118.62
351.174	112.62
351.402	107.62
351.629	102.62
351.856	92.62
352.083	108.62
352.311	104.62
352.538	96.62
352.765	115.62
352.992	119.62
353.22	105.62
353.447	97.62
353.674	100.62
353.901	107.62
354.128	109.62
354.355	109.62
354.583	92.62
354.81	95.62
355.037	100.62
355.264	77.62
355.491	101.62
355.718	92.62
355.945	87.62
356.172	105.62
356.399	90.62
356.626	87.62
356.853	99.62
357.08	95.62
357.307	106.62
357.534	106.62
357.761	95.62
357.988	109.62
358.215	88.62
358.441	104.62
358.668	93.62
358.895	91.62
359.122	97.62
359.349	99.62
359.576	96.62
359.802	83.62
360.029	101.62
360.256	91.62
360.483	97.62
360.709	101.62
360.936	101.62
361.163	95.62
361.39	115.62
361.616	92.62
361.843	101.62
362.07	104.62
362.296	99.62
362.523	86.62
362.749	89.62
362.976	103.62
363.203	94.62
363.429	93.62
363.656	97.62
363.882	92.62
364.109	96.62
364.335	85.62
364.562	70.62
364.788	93.62
365.015	97.62
365.241	117.62
365.468	106.62
365.694	100.62
365.92	88.62
366.147	95.62
366.373	92.62
366.599	91.62
366.826	92.62
367.052	90.62
367.278	98.62
367.505	101.62
367.731	103.62
367.957	103.62
368.184	95.62
368.41	108.62
368.636	111.62
368.862	118.62
369.089	99.62
369.315	75.62
369.541	96.62
369.767	94.62
369.993	84.62
370.219	93.62
370.445	109.62
370.672	85.62
370.898	86.62
371.124	95.62
371.35	91.62
371.576	102.62
371.802	95.62
372.028	92.62
372.254	86.62
372.48	94.62
372.706	93.62
372.932	103.62
373.158	104.62
373.384	99.62
373.61	84.62
373.835	97.62
374.061	85.62
374.287	99.62
374.513	95.62
374.739	91.62
374.965	91.62
375.191	91.62
375.416	90.62
375.642	99.62
375.868	97.62
376.094	106.62
376.319	97.62
376.545	82.62
376.771	86.62
376.997	100.62
377.222	83.62
377.448	87.62
377.674	96.62
377.899	90.62
378.125	84.62
378.35	93.62
378.576	94.62
378.802	104.62
379.027	103.62
379.253	97.62
379.478	100.62
379.704	95.62
379.929	97.62
380.155	94.62
380.38	91.62
380.606	102.62
380.831	92.62
381.057	100.62
381.282	94.62
381.507	110.62
381.733	119.62
381.958	80.62
382.184	97.62
382.409	108.62
382.634	90.62
382.86	111.62
383.085	108.62
383.31	104.62
383.535	113.62
383.761	98.62
383.986	110.62
384.211	97.62
384.436	102.62
384.662	103.62
384.887	99.62
385.112	94.62
385.337	106.62
385.562	114.62
385.787	108.62
386.013	101.62
386.238	107.62
386.463	95.62
386.688	102.62
386.913	98.62
387.138	80.62
387.363	102.62
387.588	101.62
387.813	90.62
388.038	107.62
388.263	122.62
388.488	124.62
388.713	95.62
388.938	96.62
389.163	103.62
389.387	97.62
389.612	89.62
389.837	101.62
390.062	89.62
390.287	89.62
390.512	102.62
390.736	88.62
390.961	89.62
391.186	99.62
391.411	99.62
391.636	106.62
391.86	79.62
392.085	91.62
392.31	75.62
392.534	87.62
392.759	85.62
392.984	96.62
393.208	75.62
393.433	87.62
393.658	89.62
393.882	75.62
394.107	88.62
394.331	89.62
394.556	89.62
394.78	110.62
395.005	88.62
395.229	95.62
395.454	86.62
395.678	91.62
395.903	87.62
396.127	88.62
396.352	105.62
396.576	93.62
396.801	102.62
397.025	83.62
397.249	78.62
397.474	99.62
397.698	95.62
397.922	97.62
398.147	85.62
398.371	86.62
398.595	89.62
398.82	77.62
399.044	85.62
399.268	94.62
399.492	81.62
399.717	85.62
399.941	83.62
400.165	96.62
400.389	89.62
400.613	105.62
400.837	96.62
401.062	89.62
401.286	91.62
401.51	61.62
401.734	87.62
401.958	95.62
402.182	104.62
402.406	142.62
402.63	113.62
402.854	106.62
403.078	95.62
403.302	89.62
403.526	94.62
403.75	85.62
403.974	83.62
404.198	89.62
404.422	93.62
404.645	72.62
404.869	89.62
405.093	87.62
405.317	98.62
405.541	93.62
405.765	92.62
405.988	112.62
406.212	154.62
406.436	191.62
406.66	120.62
406.883	92.62
407.107	105.62
407.331	80.62
407.555	97.62
407.778	101.62
408.002	103.62
408.226	89.62
408.449	93.62
408.673	85.62
408.896	80.62
409.12	99.62
409.344	93.62
409.567	87.62
409.791	97.62
410.014	105.62
410.238	98.62
410.461	101.62
410.685	93.62
410.908	105.62
411.132	113.62
411.355	105.62
411.578	94.62
411.802	115.62
412.025	98.62
412.249	87.62
412.472	91.62
412.695	99.62
412.919	100.62
413.142	94.62
413.365	94.62
413.589	84.62
413.812	79.62
414.035	94.62
414.258	91.62
414.482	97.62
414.705	79.62
414.928	103.62
415.151	95.62
415.374	101.62
415.597	85.62
415.821	102.62
416.044	99.62
416.267	95.62
416.49	88.62
416.713	91.62
416.936	83.62
417.159	83.62
417.382	88.62
417.605	101.62
417.828	95.62
418.051	99.62
418.274	73.62
418.497	89.62
418.72	96.62
418.943	101.62
419.166	92.62
419.389	99.62
419.611	84.62
419.834	99.62
420.057	98.62
420.28	83.62
420.503	93.62
420.726	87.62
420.948	92.62
421.171	96.62
421.394	88.62
421.617	97.62
421.839	72.62
422.062	89.62
422.285	99.62
422.507	97.62
422.73	108.62
422.953	101.62
423.175	84.62
423.398	83.62
423.621	96.62
423.843	91.62
424.066	89.62
424.288	87.62
424.511	96.62
424.733	100.62
424.956	101.62
425.178	111.62
425.401	95.62
425.623	92.62
425.846	83.62
426.068	94.62
426.291	105.62
426.513	84.62
426.735	86.62
426.958	87.62
427.18	102.62
427.402	126.62
427.625	143.62
427.847	121.62
428.069	110.62
428.292	99.62
428.514	95.62
428.736	92.62
428.958	79.62
429.181	91.62
429.403	85.62
429.625	94.62
429.847	86.62
430.069	94.62
430.292	96.62
430.514	101.62
430.736	84.62
430.958	95.62
431.18	86.62
431.402	80.62
431.624	81.62
431.846	101.62
432.068	86.62
432.29	89.62
432.512	90.62
432.734	83.62
432.956	80.62
433.178	105.62
433.4	85.62
433.622	97.62
433.844	89.62
434.066	93.62
434.287	82.62
434.509	85.62
434.731	77.62
434.953	87.62
435.175	99.62
435.397	78.62
435.618	107.62
435.84	95.62
436.062	119.62
436.284	110.62
436.505	102.62
436.727	80.62
436.949	85.62
437.17	81.62
437.392	88.62
437.614	89.62
437.835	111.62
438.057	103.62
438.278	119.62
438.5	104.62
438.721	114.62
438.943	98.62
439.165	89.62
439.386	75.62
439.608	100.62
439.829	108.62
440.05	117.62
440.272	128.62
440.493	89.62
440.715	88.62
440.936	99.62
441.158	91.62
441.379	88.62
441.6	100.62
441.822	90.62
442.043	96.62
442.264	103.62
442.486	113.62
442.707	95.62
442.928	107.62
443.149	118.62
443.371	125.62
443.592	118.62
443.813	127.62
444.034	107.62
444.255	97.62
444.476	100.62
444.698	87.62
444.919	78.62
445.14	139.62
445.361	116.62
445.582	118.62
445.803	145.62
446.024	140.62
446.245	129.62
446.466	110.62
446.687	89.62
446.908	80.62
447.129	91.62
447.35	80.62
447.571	81.62
447.792	94.62
448.013	102.62
448.234	101.62
448.455	108.62
448.675	121.62
448.896	122.62
449.117	125.62
449.338	117.62
449.559	129.62
449.779	128.62
450	107.62
450.221	95.62
450.442	86.62
450.662	97.62
450.883	103.62
451.104	108.62
451.324	106.62
451.545	91.62
451.766	91.62
451.986	91.62
452.207	103.62
452.428	89.62
452.648	91.62
452.869	99.62
453.089	100.62
453.31	115.62
453.53	84.62
453.751	98.62
453.971	105.62
454.192	112.62
454.412	102.62
454.633	96.62
454.853	99.62
455.073	70.62
455.294	83.62
455.514	90.62
455.734	101.62
455.955	86.62
456.175	88.62
456.395	78.62
456.616	91.62
456.836	75.62
457.056	87.62
457.276	88.62
457.497	86.62
457.717	94.62
457.937	80.62
458.157	87.62
458.377	91.62
458.598	95.62
458.818	127.62
459.038	131.62
459.258	109.62
459.478	96.62
459.698	96.62
459.918	96.62
460.138	89.62
460.358	103.62
460.578	87.62
460.798	89.62
461.018	83.62
461.238	97.62
461.458	96.62
461.678	77.62
461.898	83.62
462.118	87.62
462.338	80.62
462.558	86.62
462.777	87.62
462.997	85.62
463.217	88.62
463.437	91.62
463.657	95.62
463.876	89.62
464.096	97.62
464.316	76.62
464.536	83.62
464.755	86.62
464.975	108.62
465.195	135.62
465.414	135.62
465.634	94.62
465.854	81.62
466.073	87.62
466.293	103.62
466.512	86.62
466.732	93.62
466.951	89.62
467.171	96.62
467.391	96.62
467.61	90.62
467.829	105.62
468.049	116.62
468.268	94.62
468.488	85.62
468.707	88.62
468.927	93.62
469.146	85.62
469.365	84.62
469.585	87.62
469.804	108.62
470.023	87.62
470.243	101.62
470.462	91.62
470.681	99.62
470.901	81.62
471.12	90.62
471.339	101.62
471.558	81.62
471.777	80.62
471.997	86.62
472.216	105.62
472.435	131.62
472.654	111.62
472.873	87.62
473.092	91.62
473.311	95.62
473.53	87.62
473.749	92.62
473.968	86.62
474.187	101.62
474.406	96.62
474.625	99.62
474.844	76.62
475.063	85.62
475.282	96.62
475.501	89.62
475.72	84.62
475.939	91.62
476.158	94.62
476.377	85.62
476.596	74.62
476.814	91.62
477.033	87.62
477.252	86.62
477.471	92.62
477.69	85.62
477.908	89.62
478.127	95.62
478.346	96.62
478.564	94.62
478.783	103.62
479.002	93.62
479.22	94.62
479.439	104.62
479.658	104.62
479.876	79.62
480.095	89.62
480.313	85.62
480.532	87.62
480.751	104.62
480.969	105.62
481.188	193.62
481.406	139.62
481.624	77.62
481.843	75.62
482.061	77.62
482.28	95.62
482.498	95.62
482.717	87.62
482.935	86.62
483.153	97.62
483.372	106.62
483.59	80.62
483.808	97.62
484.027	93.62
484.245	79.62
484.463	105.62
484.681	113.62
484.9	96.62
485.118	87.62
485.336	87.62
485.554	96.62
485.772	92.62
485.99	117.62
486.209	105.62
486.427	116.62
486.645	120.62
486.863	103.62
487.081	106.62
487.299	101.62
487.517	92.62
487.735	89.62
487.953	97.62
488.171	94.62
488.389	93.62
488.607	107.62
488.825	89.62
489.043	93.62
489.261	99.62
489.479	89.62
489.696	95.62
489.914	86.62
490.132	77.62
490.35	109.62
490.568	101.62
490.786	90.62
491.003	91.62
491.221	104.62
491.439	68.62
491.657	93.62
491.874	83.62
492.092	96.62
492.31	93.62
492.527	85.62
492.745	100.62
492.963	90.62
493.18	91.62
493.398	91.62
493.615	99.62
493.833	94.62
494.05	98.62
494.268	107.62
494.485	88.62
494.703	91.62
494.92	96.62
495.138	91.62
495.355	96.62
495.573	103.62
495.79	97.62
496.008	80.62
496.225	96.62
496.442	84.62
496.66	98.62
496.877	92.62
497.094	91.62
497.312	99.62
497.529	91.62
497.746	91.62
497.963	90.62
498.181	93.62
498.398	94.62
498.615	100.62
498.832	104.62
499.049	90.62
499.267	86.62
499.484	92.62
499.701	88.62
499.918	89.62
500.135	99.62
500.352	92.62
500.569	100.62
500.786	87.62
501.003	101.62
501.22	94.62
501.437	110.62
501.654	89.62
501.871	96.62
502.088	93.62
502.305	92.62
502.522	96.62
502.739	97.62
502.956	87.62
503.172	97.62
503.389	99.62
503.606	110.62
503.823	98.62
504.04	109.62
504.256	84.62
504.473	102.62
504.69	90.62
504.907	89.62
505.123	89.62
505.34	74.62
505.557	89.62
505.773	103.62
505.99	93.62
506.207	82.62
506.423	89.62
506.64	94.62
506.856	103.62
507.073	99.62
507.289	87.62
507.506	98.62
507.722	106.62
507.939	104.62
508.155	110.62
508.372	100.62
508.588	92.62
508.805	110.62
509.021	92.62
509.238	85.62
509.454	91.62
509.67	94.62
509.887	107.62
510.103	121.62
510.319	200.62
510.536	637.62
510.752	1932.62
510.968	547.62
511.184	141.62
511.401	118.62
511.617	110.62
511.833	107.62
512.049	92.62
512.265	77.62
512.481	83.62
512.698	86.62
512.914	90.62
513.13	87.62
513.346	95.62
513.562	96.62
513.778	110.62
513.994	100.62
514.21	105.62
514.426	115.62
514.642	121.62
514.858	118.62
515.074	152.62
