Data from Uncirc_1980_H10_HRD10591_00068.txt Node
Date: Wed Jan 03 12:37:09 EST 2024
User: Yrep
Spectrometer: HR+D1059
Trigger mode: 1
Integration Time (sec): 1.000000E-1
Scans to average: 1
Electric dark correction enabled: true
Nonlinearity correction enabled: false
Boxcar width: 0
XAxis mode: Wavelengths
Number of Pixels in Spectrum: 2048
>>>>>Begin Spectral Data<<<<<
223.165	-21.88
223.4	-21.88
223.635	-21.88
223.869	-17.88
224.104	-22.88
224.338	-21.88
224.573	-9.88
224.808	-9.88
225.042	-6.88
225.277	-2.88
225.511	-8.88
225.746	-8.88
225.98	7.12
226.215	11.12
226.449	9.12
226.683	32.12
226.918	32.12
227.152	40.12
227.387	38.12
227.621	30.12
227.856	47.12
228.09	36.12
228.324	40.12
228.559	44.12
228.793	46.12
229.027	55.12
229.262	70.12
229.496	56.12
229.73	68.12
229.964	67.12
230.199	57.12
230.433	60.12
230.667	53.12
230.901	79.12
231.136	73.12
231.37	82.12
231.604	76.12
231.838	84.12
232.072	97.12
232.306	76.12
232.541	80.12
232.775	82.12
233.009	81.12
233.243	73.12
233.477	85.12
233.711	69.12
233.945	60.12
234.179	82.12
234.413	70.12
234.647	74.12
234.881	81.12
235.115	83.12
235.349	82.12
235.583	57.12
235.817	67.12
236.051	62.12
236.285	81.12
236.519	65.12
236.753	67.12
236.987	76.12
237.221	69.12
237.455	72.12
237.689	65.12
237.922	70.12
238.156	72.12
238.39	71.12
238.624	85.12
238.858	84.12
239.091	67.12
239.325	71.12
239.559	81.12
239.793	92.12
240.027	64.12
240.26	61.12
240.494	70.12
240.728	73.12
240.961	70.12
241.195	69.12
241.429	67.12
241.662	60.12
241.896	60.12
242.13	75.12
242.363	88.12
242.597	79.12
242.83	63.12
243.064	65.12
243.298	53.12
243.531	82.12
243.765	65.12
243.998	80.12
244.232	76.12
244.465	80.12
244.699	76.12
244.932	84.12
245.166	84.12
245.399	86.12
245.633	78.12
245.866	81.12
246.099	82.12
246.333	69.12
246.566	72.12
246.8	73.12
247.033	76.12
247.266	76.12
247.5	76.12
247.733	68.12
247.966	80.12
248.2	73.12
248.433	76.12
248.666	81.12
248.899	80.12
249.133	76.12
249.366	93.12
249.599	82.12
249.832	70.12
250.066	89.12
250.299	78.12
250.532	68.12
250.765	73.12
250.998	82.12
251.231	74.12
251.465	77.12
251.698	82.12
251.931	66.12
252.164	60.12
252.397	81.12
252.63	69.12
252.863	65.12
253.096	62.12
253.329	94.12
253.562	68.12
253.795	55.12
254.028	81.12
254.261	67.12
254.494	67.12
254.727	76.12
254.96	76.12
255.193	70.12
255.426	76.12
255.659	74.12
255.892	76.12
256.124	93.12
256.357	85.12
256.59	70.12
256.823	68.12
257.056	80.12
257.289	89.12
257.521	81.12
257.754	88.12
257.987	71.12
258.22	82.12
258.452	68.12
258.685	78.12
258.918	67.12
259.151	78.12
259.383	76.12
259.616	82.12
259.849	73.12
260.081	97.12
260.314	83.12
260.547	80.12
260.779	91.12
261.012	90.12
261.244	68.12
261.477	89.12
261.71	72.12
261.942	97.12
262.175	97.12
262.407	82.12
262.64	85.12
262.872	79.12
263.105	81.12
263.337	86.12
263.57	89.12
263.802	91.12
264.035	75.12
264.267	77.12
264.499	84.12
264.732	71.12
264.964	76.12
265.197	67.12
265.429	76.12
265.661	64.12
265.894	66.12
266.126	84.12
266.358	88.12
266.591	83.12
266.823	66.12
267.055	74.12
267.287	79.12
267.52	58.12
267.752	84.12
267.984	79.12
268.216	76.12
268.448	70.12
268.681	92.12
268.913	82.12
269.145	80.12
269.377	78.12
269.609	73.12
269.841	87.12
270.073	79.12
270.306	87.12
270.538	82.12
270.77	72.12
271.002	91.12
271.234	78.12
271.466	76.12
271.698	74.12
271.93	89.12
272.162	76.12
272.394	75.12
272.626	79.12
272.858	77.12
273.09	80.12
273.322	76.12
273.553	87.12
273.785	74.12
274.017	89.12
274.249	76.12
274.481	81.12
274.713	77.12
274.945	78.12
275.176	81.12
275.408	80.12
275.64	73.12
275.872	89.12
276.104	94.12
276.335	86.12
276.567	87.12
276.799	94.12
277.031	96.12
277.262	86.12
277.494	92.12
277.726	86.12
277.957	76.12
278.189	79.12
278.421	58.12
278.652	91.12
278.884	88.12
279.115	87.12
279.347	78.12
279.579	69.12
279.81	96.12
280.042	92.12
280.273	76.12
280.505	83.12
280.736	74.12
280.968	95.12
281.199	88.12
281.431	88.12
281.662	78.12
281.894	79.12
282.125	92.12
282.356	84.12
282.588	100.12
282.819	101.12
283.051	87.12
283.282	72.12
283.513	86.12
283.745	76.12
283.976	72.12
284.207	67.12
284.439	69.12
284.67	72.12
284.901	88.12
285.132	65.12
285.364	92.12
285.595	77.12
285.826	88.12
286.057	87.12
286.288	88.12
286.52	78.12
286.751	89.12
286.982	84.12
287.213	91.12
287.444	87.12
287.675	92.12
287.906	84.12
288.138	80.12
288.369	83.12
288.6	73.12
288.831	72.12
289.062	93.12
289.293	83.12
289.524	84.12
289.755	69.12
289.986	64.12
290.217	73.12
290.448	86.12
290.679	84.12
290.91	81.12
291.141	80.12
291.371	81.12
291.602	82.12
291.833	74.12
292.064	72.12
292.295	73.12
292.526	82.12
292.757	85.12
292.987	82.12
293.218	79.12
293.449	80.12
293.68	70.12
293.91	94.12
294.141	85.12
294.372	83.12
294.603	71.12
294.833	86.12
295.064	88.12
295.295	90.12
295.525	86.12
295.756	93.12
295.987	86.12
296.217	105.12
296.448	88.12
296.679	70.12
296.909	79.12
297.14	78.12
297.37	96.12
297.601	82.12
297.831	73.12
298.062	88.12
298.292	87.12
298.523	87.12
298.753	83.12
298.984	86.12
299.214	81.12
299.445	85.12
299.675	82.12
299.905	85.12
300.136	84.12
300.366	86.12
300.597	81.12
300.827	76.12
301.057	78.12
301.288	92.12
301.518	101.12
301.748	78.12
301.979	88.12
302.209	89.12
302.439	93.12
302.669	80.12
302.9	85.12
303.13	79.12
303.36	65.12
303.59	92.12
303.82	89.12
304.051	84.12
304.281	96.12
304.511	85.12
304.741	81.12
304.971	76.12
305.201	89.12
305.431	76.12
305.661	100.12
305.891	78.12
306.121	84.12
306.352	90.12
306.582	78.12
306.812	97.12
307.042	94.12
307.272	90.12
307.502	85.12
307.731	92.12
307.961	71.12
308.191	95.12
308.421	80.12
308.651	80.12
308.881	84.12
309.111	83.12
309.341	84.12
309.571	80.12
309.8	77.12
310.03	84.12
310.26	80.12
310.49	84.12
310.72	89.12
310.949	88.12
311.179	76.12
311.409	80.12
311.639	88.12
311.868	85.12
312.098	84.12
312.328	80.12
312.557	69.12
312.787	78.12
313.017	86.12
313.246	84.12
313.476	87.12
313.706	81.12
313.935	80.12
314.165	93.12
314.394	81.12
314.624	82.12
314.853	83.12
315.083	86.12
315.312	88.12
315.542	95.12
315.771	93.12
316.001	77.12
316.23	84.12
316.46	75.12
316.689	71.12
316.919	94.12
317.148	88.12
317.377	90.12
317.607	81.12
317.836	99.12
318.065	92.12
318.295	77.12
318.524	95.12
318.753	82.12
318.983	90.12
319.212	92.12
319.441	86.12
319.67	94.12
319.9	96.12
320.129	84.12
320.358	94.12
320.587	88.12
320.816	93.12
321.046	80.12
321.275	82.12
321.504	84.12
321.733	94.12
321.962	93.12
322.191	98.12
322.42	95.12
322.649	103.12
322.878	104.12
323.108	99.12
323.337	104.12
323.566	103.12
323.795	132.12
324.024	166.12
324.253	295.12
324.482	576.12
324.71	1143.12
324.939	1535.12
325.168	590.12
325.397	184.12
325.626	130.12
325.855	126.12
326.084	97.12
326.313	118.12
326.542	113.12
326.77	176.12
326.999	343.12
327.228	672.12
327.457	1198.12
327.686	947.12
327.914	292.12
328.143	160.12
328.372	133.12
328.6	102.12
328.829	103.12
329.058	96.12
329.287	105.12
329.515	118.12
329.744	100.12
329.972	100.12
330.201	91.12
330.43	107.12
330.658	113.12
330.887	114.12
331.115	106.12
331.344	86.12
331.572	100.12
331.801	82.12
332.03	93.12
332.258	105.12
332.486	88.12
332.715	88.12
332.943	79.12
333.172	99.12
333.4	97.12
333.629	100.12
333.857	98.12
334.085	101.12
334.314	106.12
334.542	125.12
334.771	117.12
334.999	98.12
335.227	97.12
335.455	86.12
335.684	85.12
335.912	87.12
336.14	92.12
336.369	78.12
336.597	61.12
336.825	105.12
337.053	100.12
337.281	100.12
337.51	95.12
337.738	91.12
337.966	92.12
338.194	85.12
338.422	82.12
338.65	87.12
338.878	88.12
339.106	78.12
339.334	88.12
339.562	80.12
339.79	74.12
340.018	85.12
340.246	89.12
340.474	74.12
340.702	87.12
340.93	73.12
341.158	82.12
341.386	92.12
341.614	85.12
341.842	95.12
342.07	66.12
342.298	100.12
342.526	81.12
342.754	84.12
342.981	93.12
343.209	66.12
343.437	90.12
343.665	87.12
343.893	77.12
344.12	91.12
344.348	97.12
344.576	76.12
344.804	93.12
345.031	80.12
345.259	90.12
345.487	81.12
345.714	83.12
345.942	86.12
346.17	77.12
346.397	86.12
346.625	95.12
346.853	77.12
347.08	87.12
347.308	82.12
347.535	83.12
347.763	105.12
347.99	94.12
348.218	86.12
348.445	102.12
348.673	79.12
348.9	76.12
349.128	82.12
349.355	99.12
349.583	82.12
349.81	84.12
350.037	86.12
350.265	89.12
350.492	98.12
350.72	82.12
350.947	72.12
351.174	86.12
351.402	98.12
351.629	102.12
351.856	96.12
352.083	90.12
352.311	105.12
352.538	90.12
352.765	87.12
352.992	117.12
353.22	97.12
353.447	105.12
353.674	93.12
353.901	95.12
354.128	88.12
354.355	96.12
354.583	80.12
354.81	88.12
355.037	86.12
355.264	101.12
355.491	97.12
355.718	82.12
355.945	91.12
356.172	95.12
356.399	80.12
356.626	83.12
356.853	81.12
357.08	93.12
357.307	89.12
357.534	86.12
357.761	87.12
357.988	104.12
358.215	88.12
358.441	90.12
358.668	84.12
358.895	80.12
359.122	73.12
359.349	80.12
359.576	91.12
359.802	83.12
360.029	91.12
360.256	95.12
360.483	82.12
360.709	84.12
360.936	101.12
361.163	104.12
361.39	84.12
361.616	94.12
361.843	83.12
362.07	85.12
362.296	86.12
362.523	93.12
362.749	91.12
362.976	85.12
363.203	88.12
363.429	75.12
363.656	95.12
363.882	72.12
364.109	83.12
364.335	86.12
364.562	92.12
364.788	89.12
365.015	82.12
365.241	91.12
365.468	101.12
365.694	96.12
365.92	78.12
366.147	70.12
366.373	94.12
366.599	85.12
366.826	87.12
367.052	89.12
367.278	93.12
367.505	76.12
367.731	73.12
367.957	90.12
368.184	98.12
368.41	90.12
368.636	97.12
368.862	96.12
369.089	88.12
369.315	90.12
369.541	81.12
369.767	81.12
369.993	84.12
370.219	81.12
370.445	89.12
370.672	78.12
370.898	88.12
371.124	81.12
371.35	76.12
371.576	90.12
371.802	78.12
372.028	81.12
372.254	85.12
372.48	84.12
372.706	87.12
372.932	76.12
373.158	80.12
373.384	93.12
373.61	85.12
373.835	81.12
374.061	96.12
374.287	95.12
374.513	90.12
374.739	84.12
374.965	79.12
375.191	75.12
375.416	89.12
375.642	95.12
375.868	77.12
376.094	87.12
376.319	89.12
376.545	70.12
376.771	97.12
376.997	94.12
377.222	93.12
377.448	73.12
377.674	98.12
377.899	96.12
378.125	85.12
378.35	93.12
378.576	77.12
378.802	92.12
379.027	88.12
379.253	92.12
379.478	93.12
379.704	76.12
379.929	92.12
380.155	100.12
380.38	86.12
380.606	89.12
380.831	105.12
381.057	86.12
381.282	93.12
381.507	93.12
381.733	83.12
381.958	92.12
382.184	86.12
382.409	81.12
382.634	101.12
382.86	110.12
383.085	103.12
383.31	82.12
383.535	94.12
383.761	89.12
383.986	93.12
384.211	97.12
384.436	87.12
384.662	89.12
384.887	96.12
385.112	97.12
385.337	103.12
385.562	91.12
385.787	90.12
386.013	97.12
386.238	104.12
386.463	96.12
386.688	91.12
386.913	96.12
387.138	107.12
387.363	96.12
387.588	108.12
387.813	104.12
388.038	104.12
388.263	106.12
388.488	88.12
388.713	84.12
388.938	92.12
389.163	102.12
389.387	100.12
389.612	88.12
389.837	88.12
390.062	97.12
390.287	84.12
390.512	92.12
390.736	83.12
390.961	84.12
391.186	95.12
391.411	94.12
391.636	92.12
391.86	71.12
392.085	86.12
392.31	86.12
392.534	80.12
392.759	85.12
392.984	87.12
393.208	72.12
393.433	92.12
393.658	66.12
393.882	80.12
394.107	91.12
394.331	89.12
394.556	88.12
394.78	72.12
395.005	82.12
395.229	78.12
395.454	78.12
395.678	86.12
395.903	88.12
396.127	87.12
396.352	84.12
396.576	82.12
396.801	76.12
397.025	85.12
397.249	96.12
397.474	86.12
397.698	81.12
397.922	96.12
398.147	81.12
398.371	78.12
398.595	76.12
398.82	79.12
399.044	62.12
399.268	77.12
399.492	87.12
399.717	78.12
399.941	81.12
400.165	82.12
400.389	88.12
400.613	76.12
400.837	85.12
401.062	88.12
401.286	65.12
401.51	76.12
401.734	82.12
401.958	94.12
402.182	110.12
402.406	123.12
402.63	106.12
402.854	84.12
403.078	80.12
403.302	79.12
403.526	86.12
403.75	86.12
403.974	85.12
404.198	89.12
404.422	89.12
404.645	81.12
404.869	84.12
405.093	84.12
405.317	83.12
405.541	91.12
405.765	88.12
405.988	103.12
406.212	130.12
406.436	164.12
406.66	119.12
406.883	86.12
407.107	96.12
407.331	82.12
407.555	88.12
407.778	76.12
408.002	82.12
408.226	77.12
408.449	79.12
408.673	91.12
408.896	81.12
409.12	71.12
409.344	89.12
409.567	94.12
409.791	85.12
410.014	80.12
410.238	91.12
410.461	92.12
410.685	83.12
410.908	107.12
411.132	93.12
411.355	93.12
411.578	98.12
411.802	81.12
412.025	74.12
412.249	83.12
412.472	88.12
412.695	81.12
412.919	82.12
413.142	76.12
413.365	92.12
413.589	94.12
413.812	92.12
414.035	85.12
414.258	91.12
414.482	81.12
414.705	81.12
414.928	97.12
415.151	88.12
415.374	82.12
415.597	86.12
415.821	83.12
416.044	83.12
416.267	82.12
416.49	68.12
416.713	78.12
416.936	88.12
417.159	71.12
417.382	76.12
417.605	72.12
417.828	85.12
418.051	96.12
418.274	82.12
418.497	82.12
418.72	89.12
418.943	87.12
419.166	86.12
419.389	94.12
419.611	80.12
419.834	90.12
420.057	96.12
420.28	79.12
420.503	62.12
420.726	85.12
420.948	71.12
421.171	76.12
421.394	84.12
421.617	89.12
421.839	97.12
422.062	80.12
422.285	66.12
422.507	92.12
422.73	96.12
422.953	89.12
423.175	96.12
423.398	99.12
423.621	98.12
423.843	76.12
424.066	84.12
424.288	64.12
424.511	76.12
424.733	96.12
424.956	98.12
425.178	89.12
425.401	97.12
425.623	94.12
425.846	83.12
426.068	82.12
426.291	87.12
426.513	78.12
426.735	83.12
426.958	90.12
427.18	102.12
427.402	97.12
427.625	124.12
427.847	102.12
428.069	92.12
428.292	73.12
428.514	73.12
428.736	92.12
428.958	72.12
429.181	79.12
429.403	79.12
429.625	92.12
429.847	80.12
430.069	92.12
430.292	73.12
430.514	80.12
430.736	94.12
430.958	103.12
431.18	78.12
431.402	67.12
431.624	84.12
431.846	73.12
432.068	91.12
432.29	78.12
432.512	83.12
432.734	81.12
432.956	98.12
433.178	79.12
433.4	94.12
433.622	88.12
433.844	92.12
434.066	89.12
434.287	79.12
434.509	91.12
434.731	96.12
434.953	79.12
435.175	95.12
435.397	90.12
435.618	89.12
435.84	81.12
436.062	87.12
436.284	86.12
436.505	86.12
436.727	83.12
436.949	89.12
437.17	87.12
437.392	76.12
437.614	78.12
437.835	97.12
438.057	104.12
438.278	100.12
438.5	84.12
438.721	92.12
438.943	84.12
439.165	81.12
439.386	74.12
439.608	88.12
439.829	96.12
440.05	102.12
440.272	119.12
440.493	72.12
440.715	83.12
440.936	89.12
441.158	84.12
441.379	70.12
441.6	78.12
441.822	96.12
442.043	92.12
442.264	95.12
442.486	89.12
442.707	106.12
442.928	76.12
443.149	108.12
443.371	114.12
443.592	100.12
443.813	105.12
444.034	101.12
444.255	78.12
444.476	88.12
444.698	89.12
444.919	89.12
445.14	133.12
445.361	110.12
445.582	94.12
445.803	113.12
446.024	95.12
446.245	124.12
446.466	100.12
446.687	76.12
446.908	74.12
447.129	94.12
447.35	89.12
447.571	88.12
447.792	78.12
448.013	86.12
448.234	110.12
448.455	77.12
448.675	94.12
448.896	106.12
449.117	97.12
449.338	81.12
449.559	85.12
449.779	103.12
450	85.12
450.221	86.12
450.442	85.12
450.662	74.12
450.883	100.12
451.104	84.12
451.324	94.12
451.545	96.12
451.766	84.12
451.986	85.12
452.207	88.12
452.428	86.12
452.648	89.12
452.869	83.12
453.089	88.12
453.31	100.12
453.53	83.12
453.751	80.12
453.971	88.12
454.192	89.12
454.412	78.12
454.633	89.12
454.853	76.12
455.073	70.12
455.294	85.12
455.514	104.12
455.734	84.12
455.955	81.12
456.175	85.12
456.395	70.12
456.616	84.12
456.836	68.12
457.056	68.12
457.276	79.12
457.497	70.12
457.717	87.12
457.937	73.12
458.157	80.12
458.377	80.12
458.598	106.12
458.818	118.12
459.038	117.12
459.258	94.12
459.478	65.12
459.698	80.12
459.918	79.12
460.138	85.12
460.358	97.12
460.578	90.12
460.798	76.12
461.018	90.12
461.238	76.12
461.458	80.12
461.678	98.12
461.898	78.12
462.118	77.12
462.338	72.12
462.558	70.12
462.777	89.12
462.997	88.12
463.217	72.12
463.437	81.12
463.657	70.12
463.876	78.12
464.096	82.12
464.316	78.12
464.536	71.12
464.755	76.12
464.975	94.12
465.195	119.12
465.414	128.12
465.634	97.12
465.854	65.12
466.073	72.12
466.293	83.12
466.512	80.12
466.732	82.12
466.951	74.12
467.171	83.12
467.391	92.12
467.61	87.12
467.829	84.12
468.049	97.12
468.268	100.12
468.488	92.12
468.707	74.12
468.927	73.12
469.146	92.12
469.365	76.12
469.585	97.12
469.804	87.12
470.023	86.12
470.243	85.12
470.462	96.12
470.681	97.12
470.901	81.12
471.12	72.12
471.339	82.12
471.558	82.12
471.777	84.12
471.997	89.12
472.216	110.12
472.435	125.12
472.654	94.12
472.873	92.12
473.092	83.12
473.311	77.12
473.53	82.12
473.749	89.12
473.968	88.12
474.187	94.12
474.406	97.12
474.625	89.12
474.844	76.12
475.063	88.12
475.282	95.12
475.501	85.12
475.72	102.12
475.939	91.12
476.158	78.12
476.377	73.12
476.596	86.12
476.814	66.12
477.033	71.12
477.252	81.12
477.471	90.12
477.69	82.12
477.908	84.12
478.127	82.12
478.346	73.12
478.564	89.12
478.783	94.12
479.002	90.12
479.22	74.12
479.439	90.12
479.658	82.12
479.876	98.12
480.095	105.12
480.313	97.12
480.532	93.12
480.751	92.12
480.969	109.12
481.188	181.12
481.406	133.12
481.624	87.12
481.843	97.12
482.061	91.12
482.28	91.12
482.498	81.12
482.717	72.12
482.935	95.12
483.153	87.12
483.372	92.12
483.59	78.12
483.808	84.12
484.027	80.12
484.245	82.12
484.463	81.12
484.681	82.12
484.9	87.12
485.118	83.12
485.336	80.12
485.554	86.12
485.772	101.12
485.99	89.12
486.209	96.12
486.427	101.12
486.645	92.12
486.863	88.12
487.081	100.12
487.299	92.12
487.517	88.12
487.735	89.12
487.953	79.12
488.171	92.12
488.389	87.12
488.607	104.12
488.825	84.12
489.043	95.12
489.261	90.12
489.479	88.12
489.696	100.12
489.914	100.12
490.132	96.12
490.35	81.12
490.568	79.12
490.786	89.12
491.003	101.12
491.221	87.12
491.439	77.12
491.657	98.12
491.874	93.12
492.092	67.12
492.31	88.12
492.527	86.12
492.745	71.12
492.963	95.12
493.18	94.12
493.398	87.12
493.615	92.12
493.833	87.12
494.05	88.12
494.268	84.12
494.485	68.12
494.703	88.12
494.92	83.12
495.138	70.12
495.355	71.12
495.573	92.12
495.79	93.12
496.008	94.12
496.225	84.12
496.442	98.12
496.66	82.12
496.877	87.12
497.094	82.12
497.312	83.12
497.529	83.12
497.746	68.12
497.963	83.12
498.181	88.12
498.398	96.12
498.615	98.12
498.832	100.12
499.049	90.12
499.267	74.12
499.484	88.12
499.701	80.12
499.918	92.12
500.135	92.12
500.352	81.12
500.569	80.12
500.786	90.12
501.003	83.12
501.22	81.12
501.437	86.12
501.654	83.12
501.871	93.12
502.088	90.12
502.305	86.12
502.522	81.12
502.739	86.12
502.956	71.12
503.172	86.12
503.389	78.12
503.606	97.12
503.823	92.12
504.04	79.12
504.256	77.12
504.473	93.12
504.69	86.12
504.907	112.12
505.123	78.12
505.34	89.12
505.557	84.12
505.773	77.12
505.99	77.12
506.207	86.12
506.423	96.12
506.64	70.12
506.856	89.12
507.073	72.12
507.289	79.12
507.506	79.12
507.722	103.12
507.939	97.12
508.155	80.12
508.372	89.12
508.588	90.12
508.805	101.12
509.021	96.12
509.238	81.12
509.454	105.12
509.67	90.12
509.887	97.12
510.103	128.12
510.319	175.12
510.536	585.12
510.752	1776.12
510.968	511.12
511.184	143.12
511.401	103.12
511.617	102.12
511.833	84.12
512.049	79.12
512.265	72.12
512.481	70.12
512.698	86.12
512.914	79.12
513.13	54.12
513.346	85.12
513.562	83.12
513.778	91.12
513.994	90.12
514.21	101.12
514.426	104.12
514.642	122.12
514.858	99.12
515.074	137.12
515.29	329.12
515.506	1036.12
515.721	398.12
515.937	121.12
516.153	96.12
516.369	98.12
516.585	101.12
516.801	88.12
517.016	73.12
517.232	101.12
517.448	73.12
517.664	94.12
517.879	84.12
