Data from Uncirc_1980_H10_HRD10591_00030.txt Node
Date: Wed Jan 03 12:37:01 EST 2024
User: Yrep
Spectrometer: HR+D1059
Trigger mode: 1
Integration Time (sec): 1.000000E-1
Scans to average: 1
Electric dark correction enabled: true
Nonlinearity correction enabled: false
Boxcar width: 0
XAxis mode: Wavelengths
Number of Pixels in Spectrum: 2048
>>>>>Begin Spectral Data<<<<<
223.165	-9.44
223.4	-9.44
223.635	-9.44
223.869	-20.44
224.104	-28.44
224.338	-13.44
224.573	-7.44
224.808	-11.44
225.042	-17.44
225.277	-8.44
225.511	-19.44
225.746	-2.44
225.98	11.56
226.215	7.56
226.449	11.56
226.683	29.56
226.918	34.56
227.152	43.56
227.387	36.56
227.621	46.56
227.856	43.56
228.09	46.56
228.324	49.56
228.559	45.56
228.793	51.56
229.027	56.56
229.262	68.56
229.496	70.56
229.73	78.56
229.964	61.56
230.199	70.56
230.433	87.56
230.667	83.56
230.901	83.56
231.136	90.56
231.37	73.56
231.604	88.56
231.838	82.56
232.072	90.56
232.306	85.56
232.541	70.56
232.775	68.56
233.009	73.56
233.243	82.56
233.477	90.56
233.711	88.56
233.945	73.56
234.179	76.56
234.413	91.56
234.647	80.56
234.881	86.56
235.115	80.56
235.349	83.56
235.583	65.56
235.817	82.56
236.051	68.56
236.285	82.56
236.519	69.56
236.753	83.56
236.987	77.56
237.221	84.56
237.455	67.56
237.689	71.56
237.922	76.56
238.156	75.56
238.39	71.56
238.624	76.56
238.858	64.56
239.091	85.56
239.325	91.56
239.559	75.56
239.793	68.56
240.027	76.56
240.26	82.56
240.494	78.56
240.728	76.56
240.961	93.56
241.195	72.56
241.429	74.56
241.662	74.56
241.896	81.56
242.13	68.56
242.363	68.56
242.597	69.56
242.83	87.56
243.064	82.56
243.298	94.56
243.531	78.56
243.765	73.56
243.998	82.56
244.232	86.56
244.465	86.56
244.699	77.56
244.932	72.56
245.166	75.56
245.399	68.56
245.633	82.56
245.866	72.56
246.099	82.56
246.333	73.56
246.566	82.56
246.8	84.56
247.033	89.56
247.266	86.56
247.5	75.56
247.733	74.56
247.966	82.56
248.2	91.56
248.433	69.56
248.666	80.56
248.899	83.56
249.133	79.56
249.366	94.56
249.599	76.56
249.832	87.56
250.066	64.56
250.299	93.56
250.532	74.56
250.765	67.56
250.998	74.56
251.231	68.56
251.465	80.56
251.698	85.56
251.931	88.56
252.164	77.56
252.397	74.56
252.63	70.56
252.863	84.56
253.096	83.56
253.329	77.56
253.562	78.56
253.795	69.56
254.028	82.56
254.261	65.56
254.494	78.56
254.727	74.56
254.96	77.56
255.193	77.56
255.426	77.56
255.659	94.56
255.892	98.56
256.124	84.56
256.357	88.56
256.59	83.56
256.823	83.56
257.056	67.56
257.289	65.56
257.521	91.56
257.754	72.56
257.987	82.56
258.22	82.56
258.452	80.56
258.685	84.56
258.918	80.56
259.151	91.56
259.383	77.56
259.616	90.56
259.849	86.56
260.081	83.56
260.314	76.56
260.547	65.56
260.779	75.56
261.012	82.56
261.244	60.56
261.477	86.56
261.71	85.56
261.942	96.56
262.175	102.56
262.407	90.56
262.64	84.56
262.872	73.56
263.105	80.56
263.337	91.56
263.57	89.56
263.802	72.56
264.035	80.56
264.267	83.56
264.499	88.56
264.732	99.56
264.964	77.56
265.197	82.56
265.429	96.56
265.661	76.56
265.894	90.56
266.126	94.56
266.358	84.56
266.591	81.56
266.823	88.56
267.055	71.56
267.287	81.56
267.52	84.56
267.752	82.56
267.984	83.56
268.216	92.56
268.448	88.56
268.681	77.56
268.913	88.56
269.145	88.56
269.377	86.56
269.609	90.56
269.841	92.56
270.073	82.56
270.306	98.56
270.538	80.56
270.77	73.56
271.002	84.56
271.234	75.56
271.466	76.56
271.698	84.56
271.93	83.56
272.162	75.56
272.394	78.56
272.626	73.56
272.858	74.56
273.09	91.56
273.322	88.56
273.553	85.56
273.785	77.56
274.017	88.56
274.249	80.56
274.481	78.56
274.713	80.56
274.945	71.56
275.176	82.56
275.408	84.56
275.64	85.56
275.872	75.56
276.104	80.56
276.335	72.56
276.567	78.56
276.799	88.56
277.031	98.56
277.262	89.56
277.494	88.56
277.726	86.56
277.957	70.56
278.189	90.56
278.421	89.56
278.652	76.56
278.884	90.56
279.115	84.56
279.347	69.56
279.579	76.56
279.81	82.56
280.042	80.56
280.273	91.56
280.505	90.56
280.736	92.56
280.968	89.56
281.199	87.56
281.431	85.56
281.662	92.56
281.894	99.56
282.125	82.56
282.356	101.56
282.588	116.56
282.819	100.56
283.051	87.56
283.282	85.56
283.513	79.56
283.745	88.56
283.976	87.56
284.207	74.56
284.439	95.56
284.67	88.56
284.901	78.56
285.132	86.56
285.364	76.56
285.595	85.56
285.826	84.56
286.057	86.56
286.288	96.56
286.52	82.56
286.751	74.56
286.982	76.56
287.213	92.56
287.444	90.56
287.675	86.56
287.906	85.56
288.138	78.56
288.369	92.56
288.6	94.56
288.831	92.56
289.062	92.56
289.293	85.56
289.524	84.56
289.755	88.56
289.986	96.56
290.217	74.56
290.448	90.56
290.679	82.56
290.91	73.56
291.141	84.56
291.371	97.56
291.602	81.56
291.833	74.56
292.064	99.56
292.295	88.56
292.526	95.56
292.757	90.56
292.987	88.56
293.218	82.56
293.449	78.56
293.68	84.56
293.91	87.56
294.141	73.56
294.372	88.56
294.603	70.56
294.833	86.56
295.064	77.56
295.295	84.56
295.525	80.56
295.756	96.56
295.987	101.56
296.217	121.56
296.448	109.56
296.679	100.56
296.909	96.56
297.14	106.56
297.37	86.56
297.601	86.56
297.831	97.56
298.062	89.56
298.292	96.56
298.523	77.56
298.753	75.56
298.984	90.56
299.214	90.56
299.445	90.56
299.675	87.56
299.905	86.56
300.136	88.56
300.366	94.56
300.597	71.56
300.827	98.56
301.057	98.56
301.288	95.56
301.518	77.56
301.748	88.56
301.979	109.56
302.209	93.56
302.439	105.56
302.669	99.56
302.9	105.56
303.13	89.56
303.36	91.56
303.59	81.56
303.82	84.56
304.051	81.56
304.281	73.56
304.511	83.56
304.741	73.56
304.971	91.56
305.201	86.56
305.431	91.56
305.661	89.56
305.891	96.56
306.121	85.56
306.352	96.56
306.582	102.56
306.812	102.56
307.042	90.56
307.272	95.56
307.502	90.56
307.731	89.56
307.961	95.56
308.191	95.56
308.421	81.56
308.651	91.56
308.881	92.56
309.111	94.56
309.341	89.56
309.571	92.56
309.8	100.56
310.03	86.56
310.26	75.56
310.49	95.56
310.72	121.56
310.949	88.56
311.179	79.56
311.409	94.56
311.639	88.56
311.868	87.56
312.098	84.56
312.328	91.56
312.557	96.56
312.787	95.56
313.017	109.56
313.246	92.56
313.476	88.56
313.706	82.56
313.935	99.56
314.165	102.56
314.394	89.56
314.624	94.56
314.853	90.56
315.083	90.56
315.312	85.56
315.542	101.56
315.771	99.56
316.001	93.56
316.23	82.56
316.46	86.56
316.689	84.56
316.919	100.56
317.148	94.56
317.377	92.56
317.607	87.56
317.836	94.56
318.065	90.56
318.295	83.56
318.524	96.56
318.753	95.56
318.983	95.56
319.212	107.56
319.441	93.56
319.67	103.56
319.9	93.56
320.129	88.56
320.358	85.56
320.587	92.56
320.816	104.56
321.046	91.56
321.275	93.56
321.504	92.56
321.733	97.56
321.962	86.56
322.191	90.56
322.42	96.56
322.649	97.56
322.878	102.56
323.108	94.56
323.337	118.56
323.566	110.56
323.795	129.56
324.024	166.56
324.253	293.56
324.482	635.56
324.71	1272.56
324.939	1725.56
325.168	638.56
325.397	192.56
325.626	122.56
325.855	117.56
326.084	104.56
326.313	129.56
326.542	126.56
326.77	194.56
326.999	346.56
327.228	713.56
327.457	1304.56
327.686	1070.56
327.914	291.56
328.143	161.56
328.372	124.56
328.6	107.56
328.829	100.56
329.058	102.56
329.287	114.56
329.515	106.56
329.744	92.56
329.972	84.56
330.201	114.56
330.43	122.56
330.658	109.56
330.887	103.56
331.115	106.56
331.344	84.56
331.572	82.56
331.801	96.56
332.03	82.56
332.258	99.56
332.486	96.56
332.715	82.56
332.943	86.56
333.172	96.56
333.4	87.56
333.629	86.56
333.857	94.56
334.085	100.56
334.314	107.56
334.542	115.56
334.771	122.56
334.999	96.56
335.227	95.56
335.455	90.56
335.684	97.56
335.912	93.56
336.14	92.56
336.369	98.56
336.597	100.56
336.825	85.56
337.053	96.56
337.281	86.56
337.51	90.56
337.738	101.56
337.966	84.56
338.194	89.56
338.422	88.56
338.65	83.56
338.878	89.56
339.106	84.56
339.334	99.56
339.562	83.56
339.79	85.56
340.018	96.56
340.246	81.56
340.474	84.56
340.702	88.56
340.93	92.56
341.158	80.56
341.386	91.56
341.614	90.56
341.842	87.56
342.07	91.56
342.298	91.56
342.526	87.56
342.754	86.56
342.981	69.56
343.209	94.56
343.437	98.56
343.665	96.56
343.893	93.56
344.12	84.56
344.348	102.56
344.576	83.56
344.804	86.56
345.031	90.56
345.259	89.56
345.487	96.56
345.714	84.56
345.942	87.56
346.17	90.56
346.397	81.56
346.625	88.56
346.853	97.56
347.08	80.56
347.308	82.56
347.535	96.56
347.763	100.56
347.99	90.56
348.218	105.56
348.445	95.56
348.673	100.56
348.9	105.56
349.128	91.56
349.355	87.56
349.583	85.56
349.81	91.56
350.037	105.56
350.265	90.56
350.492	97.56
350.72	93.56
350.947	93.56
351.174	88.56
351.402	96.56
351.629	91.56
351.856	102.56
352.083	111.56
352.311	103.56
352.538	88.56
352.765	98.56
352.992	112.56
353.22	105.56
353.447	101.56
353.674	102.56
353.901	92.56
354.128	90.56
354.355	81.56
354.583	93.56
354.81	100.56
355.037	85.56
355.264	97.56
355.491	89.56
355.718	92.56
355.945	93.56
356.172	82.56
356.399	86.56
356.626	97.56
356.853	88.56
357.08	96.56
357.307	94.56
357.534	84.56
357.761	94.56
357.988	98.56
358.215	97.56
358.441	101.56
358.668	94.56
358.895	94.56
359.122	84.56
359.349	83.56
359.576	74.56
359.802	96.56
360.029	99.56
360.256	90.56
360.483	90.56
360.709	93.56
360.936	94.56
361.163	77.56
361.39	93.56
361.616	101.56
361.843	89.56
362.07	88.56
362.296	91.56
362.523	84.56
362.749	82.56
362.976	95.56
363.203	91.56
363.429	82.56
363.656	84.56
363.882	89.56
364.109	97.56
364.335	86.56
364.562	84.56
364.788	88.56
365.015	92.56
365.241	93.56
365.468	103.56
365.694	102.56
365.92	87.56
366.147	86.56
366.373	89.56
366.599	84.56
366.826	91.56
367.052	92.56
367.278	78.56
367.505	103.56
367.731	94.56
367.957	79.56
368.184	85.56
368.41	115.56
368.636	96.56
368.862	100.56
369.089	88.56
369.315	87.56
369.541	103.56
369.767	90.56
369.993	93.56
370.219	99.56
370.445	92.56
370.672	88.56
370.898	74.56
371.124	89.56
371.35	81.56
371.576	99.56
371.802	87.56
372.028	96.56
372.254	82.56
372.48	90.56
372.706	91.56
372.932	98.56
373.158	83.56
373.384	100.56
373.61	92.56
373.835	106.56
374.061	89.56
374.287	86.56
374.513	92.56
374.739	92.56
374.965	89.56
375.191	90.56
375.416	86.56
375.642	74.56
375.868	88.56
376.094	79.56
376.319	82.56
376.545	93.56
376.771	86.56
376.997	91.56
377.222	82.56
377.448	88.56
377.674	81.56
377.899	85.56
378.125	87.56
378.35	97.56
378.576	92.56
378.802	99.56
379.027	96.56
379.253	95.56
379.478	95.56
379.704	93.56
379.929	96.56
380.155	70.56
380.38	93.56
380.606	95.56
380.831	96.56
381.057	107.56
381.282	91.56
381.507	99.56
381.733	102.56
381.958	96.56
382.184	99.56
382.409	107.56
382.634	89.56
382.86	85.56
383.085	99.56
383.31	114.56
383.535	107.56
383.761	95.56
383.986	109.56
384.211	89.56
384.436	97.56
384.662	104.56
384.887	115.56
385.112	113.56
385.337	104.56
385.562	108.56
385.787	113.56
386.013	106.56
386.238	114.56
386.463	121.56
386.688	113.56
386.913	100.56
387.138	101.56
387.363	118.56
387.588	103.56
387.813	95.56
388.038	102.56
388.263	120.56
388.488	118.56
388.713	96.56
388.938	88.56
389.163	96.56
389.387	95.56
389.612	98.56
389.837	89.56
390.062	96.56
390.287	91.56
390.512	80.56
390.736	88.56
390.961	93.56
391.186	97.56
391.411	99.56
391.636	82.56
391.86	77.56
392.085	80.56
392.31	90.56
392.534	76.56
392.759	86.56
392.984	104.56
393.208	87.56
393.433	108.56
393.658	65.56
393.882	75.56
394.107	84.56
394.331	88.56
394.556	82.56
394.78	87.56
395.005	84.56
395.229	71.56
395.454	84.56
395.678	109.56
395.903	83.56
396.127	70.56
396.352	91.56
396.576	97.56
396.801	89.56
397.025	104.56
397.249	70.56
397.474	101.56
397.698	88.56
397.922	88.56
398.147	84.56
398.371	82.56
398.595	71.56
398.82	89.56
399.044	87.56
399.268	91.56
399.492	94.56
399.717	89.56
399.941	83.56
400.165	112.56
400.389	82.56
400.613	87.56
400.837	88.56
401.062	93.56
401.286	101.56
401.51	88.56
401.734	81.56
401.958	88.56
402.182	106.56
402.406	122.56
402.63	101.56
402.854	96.56
403.078	96.56
403.302	88.56
403.526	82.56
403.75	92.56
403.974	93.56
404.198	99.56
404.422	92.56
404.645	89.56
404.869	86.56
405.093	85.56
405.317	88.56
405.541	74.56
405.765	85.56
405.988	88.56
406.212	129.56
406.436	164.56
406.66	122.56
406.883	91.56
407.107	98.56
407.331	93.56
407.555	92.56
407.778	92.56
408.002	91.56
408.226	92.56
408.449	75.56
408.673	86.56
408.896	93.56
409.12	98.56
409.344	88.56
409.567	66.56
409.791	89.56
410.014	92.56
410.238	92.56
410.461	87.56
410.685	104.56
410.908	89.56
411.132	89.56
411.355	91.56
411.578	83.56
411.802	71.56
412.025	88.56
412.249	77.56
412.472	109.56
412.695	98.56
412.919	97.56
413.142	85.56
413.365	90.56
413.589	73.56
413.812	90.56
414.035	91.56
414.258	85.56
414.482	90.56
414.705	85.56
414.928	77.56
415.151	80.56
415.374	92.56
415.597	96.56
415.821	88.56
416.044	79.56
416.267	94.56
416.49	94.56
416.713	91.56
416.936	77.56
417.159	85.56
417.382	87.56
417.605	85.56
417.828	94.56
418.051	101.56
418.274	81.56
418.497	90.56
418.72	90.56
418.943	82.56
419.166	105.56
419.389	100.56
419.611	74.56
419.834	80.56
420.057	93.56
420.28	85.56
420.503	71.56
420.726	84.56
420.948	84.56
421.171	82.56
421.394	86.56
421.617	84.56
421.839	77.56
422.062	84.56
422.285	76.56
422.507	103.56
422.73	93.56
422.953	84.56
423.175	75.56
423.398	92.56
423.621	82.56
423.843	82.56
424.066	74.56
424.288	77.56
424.511	82.56
424.733	98.56
424.956	100.56
425.178	109.56
425.401	93.56
425.623	97.56
425.846	88.56
426.068	87.56
426.291	77.56
426.513	78.56
426.735	85.56
426.958	98.56
427.18	107.56
427.402	110.56
427.625	122.56
427.847	125.56
428.069	102.56
428.292	100.56
428.514	81.56
428.736	86.56
428.958	90.56
429.181	83.56
429.403	65.56
429.625	74.56
429.847	90.56
430.069	93.56
430.292	90.56
430.514	86.56
430.736	77.56
430.958	86.56
431.18	89.56
431.402	91.56
431.624	72.56
431.846	84.56
432.068	82.56
432.29	85.56
432.512	99.56
432.734	100.56
432.956	76.56
433.178	91.56
433.4	87.56
433.622	91.56
433.844	79.56
434.066	88.56
434.287	93.56
434.509	87.56
434.731	80.56
434.953	86.56
435.175	84.56
435.397	86.56
435.618	79.56
435.84	93.56
436.062	123.56
436.284	109.56
436.505	85.56
436.727	101.56
436.949	103.56
437.17	90.56
437.392	82.56
437.614	84.56
437.835	105.56
438.057	95.56
438.278	105.56
438.5	96.56
438.721	117.56
438.943	93.56
439.165	72.56
439.386	80.56
439.608	96.56
439.829	109.56
440.05	106.56
440.272	106.56
440.493	96.56
440.715	90.56
440.936	106.56
441.158	84.56
441.379	82.56
441.6	77.56
441.822	84.56
442.043	90.56
442.264	96.56
442.486	94.56
442.707	84.56
442.928	91.56
443.149	108.56
443.371	109.56
443.592	83.56
443.813	98.56
444.034	103.56
444.255	88.56
444.476	84.56
444.698	84.56
444.919	85.56
445.14	115.56
445.361	111.56
445.582	105.56
445.803	117.56
446.024	125.56
446.245	106.56
446.466	105.56
446.687	86.56
446.908	83.56
447.129	70.56
447.35	97.56
447.571	91.56
447.792	77.56
448.013	102.56
448.234	100.56
448.455	97.56
448.675	106.56
448.896	100.56
449.117	86.56
449.338	85.56
449.559	125.56
449.779	111.56
450	102.56
450.221	79.56
450.442	73.56
450.662	104.56
450.883	96.56
451.104	99.56
451.324	93.56
451.545	87.56
451.766	93.56
451.986	84.56
452.207	76.56
452.428	86.56
452.648	101.56
452.869	102.56
453.089	84.56
453.31	96.56
453.53	74.56
453.751	82.56
453.971	88.56
454.192	98.56
454.412	93.56
454.633	84.56
454.853	86.56
455.073	76.56
455.294	80.56
455.514	92.56
455.734	80.56
455.955	81.56
456.175	98.56
456.395	94.56
456.616	80.56
456.836	89.56
457.056	86.56
457.276	85.56
457.497	76.56
457.717	83.56
457.937	82.56
458.157	74.56
458.377	71.56
458.598	87.56
458.818	122.56
459.038	118.56
459.258	107.56
459.478	84.56
459.698	85.56
459.918	86.56
460.138	74.56
460.358	80.56
460.578	91.56
460.798	86.56
461.018	74.56
461.238	96.56
461.458	95.56
461.678	78.56
461.898	90.56
462.118	104.56
462.338	75.56
462.558	85.56
462.777	69.56
462.997	83.56
463.217	94.56
463.437	90.56
463.657	91.56
463.876	80.56
464.096	86.56
464.316	84.56
464.536	91.56
464.755	85.56
464.975	103.56
465.195	117.56
465.414	113.56
465.634	84.56
465.854	83.56
466.073	102.56
466.293	89.56
466.512	97.56
466.732	73.56
466.951	91.56
467.171	88.56
467.391	92.56
467.61	97.56
467.829	99.56
468.049	96.56
468.268	101.56
468.488	73.56
468.707	89.56
468.927	79.56
469.146	82.56
469.365	100.56
469.585	103.56
469.804	104.56
470.023	92.56
470.243	95.56
470.462	90.56
470.681	105.56
470.901	85.56
471.12	87.56
471.339	72.56
471.558	82.56
471.777	87.56
471.997	75.56
472.216	100.56
472.435	112.56
472.654	72.56
472.873	94.56
473.092	85.56
473.311	84.56
473.53	82.56
473.749	93.56
473.968	91.56
474.187	104.56
474.406	87.56
474.625	93.56
474.844	74.56
475.063	74.56
475.282	73.56
475.501	95.56
475.72	86.56
475.939	88.56
476.158	81.56
476.377	97.56
476.596	93.56
476.814	94.56
477.033	91.56
477.252	76.56
477.471	85.56
477.69	84.56
477.908	92.56
478.127	92.56
478.346	75.56
478.564	94.56
478.783	92.56
479.002	86.56
479.22	82.56
479.439	99.56
479.658	91.56
479.876	97.56
480.095	101.56
480.313	84.56
480.532	84.56
480.751	110.56
480.969	106.56
481.188	150.56
481.406	133.56
481.624	98.56
481.843	81.56
482.061	84.56
482.28	81.56
482.498	73.56
482.717	78.56
482.935	76.56
483.153	70.56
483.372	85.56
483.59	101.56
483.808	87.56
484.027	88.56
484.245	100.56
484.463	94.56
484.681	91.56
484.9	101.56
485.118	92.56
485.336	97.56
485.554	94.56
485.772	84.56
485.99	105.56
486.209	96.56
486.427	96.56
486.645	109.56
486.863	113.56
487.081	100.56
487.299	103.56
487.517	102.56
487.735	87.56
487.953	86.56
488.171	87.56
488.389	88.56
488.607	91.56
488.825	92.56
489.043	91.56
489.261	103.56
489.479	90.56
489.696	90.56
489.914	81.56
490.132	75.56
490.35	71.56
490.568	84.56
490.786	90.56
491.003	74.56
491.221	97.56
491.439	91.56
491.657	88.56
491.874	87.56
492.092	85.56
492.31	77.56
492.527	81.56
492.745	94.56
492.963	76.56
493.18	85.56
493.398	95.56
493.615	99.56
493.833	87.56
494.05	92.56
494.268	78.56
494.485	107.56
494.703	82.56
494.92	92.56
495.138	92.56
495.355	83.56
495.573	83.56
495.79	96.56
496.008	84.56
496.225	82.56
496.442	89.56
496.66	106.56
496.877	86.56
497.094	91.56
497.312	87.56
497.529	79.56
497.746	101.56
497.963	81.56
498.181	69.56
498.398	83.56
498.615	96.56
498.832	103.56
499.049	85.56
499.267	86.56
499.484	72.56
499.701	88.56
499.918	81.56
500.135	85.56
500.352	98.56
500.569	84.56
500.786	81.56
501.003	94.56
501.22	90.56
501.437	82.56
501.654	76.56
501.871	101.56
502.088	72.56
502.305	85.56
502.522	74.56
502.739	99.56
502.956	93.56
503.172	92.56
503.389	89.56
503.606	84.56
503.823	83.56
504.04	88.56
504.256	73.56
504.473	93.56
504.69	71.56
504.907	92.56
505.123	82.56
505.34	83.56
505.557	72.56
505.773	96.56
505.99	87.56
506.207	84.56
506.423	88.56
506.64	85.56
506.856	80.56
507.073	78.56
507.289	103.56
507.506	98.56
507.722	99.56
507.939	96.56
508.155	85.56
508.372	110.56
508.588	90.56
508.805	99.56
509.021	99.56
509.238	92.56
509.454	106.56
509.67	87.56
509.887	109.56
510.103	112.56
510.319	173.56
510.536	601.56
510.752	1720.56
510.968	491.56
511.184	134.56
511.401	96.56
511.617	91.56
511.833	87.56
512.049	101.56
512.265	88.56
512.481	75.56
512.698	86.56
512.914	103.56
513.13	95.56
513.346	93.56
513.562	87.56
513.778	79.56
513.994	99.56
514.21	92.56
514.426	121.56
514.642	97.56
514.858	96.56
515.074	139.56
515.29	316.56
515.506	972.56
515.721	366.56
515.937	117.56
516.153	92.56
516.369	82.56
516.585	105.56
516.801	93.56
