Data from Uncirc_1980_H10_HRD10591_00018.txt Node
Date: Wed Jan 03 12:36:59 EST 2024
User: Yrep
Spectrometer: HR+D1059
Trigger mode: 1
Integration Time (sec): 1.000000E-1
Scans to average: 1
Electric dark correction enabled: true
Nonlinearity correction enabled: false
Boxcar width: 0
XAxis mode: Wavelengths
Number of Pixels in Spectrum: 2048
>>>>>Begin Spectral Data<<<<<
223.165	-28.81
223.4	-28.81
223.635	-28.81
223.869	-19.81
224.104	-21.81
224.338	-1.81
224.573	-11.81
224.808	-13.81
225.042	-1.81
225.277	1.19
225.511	-12.81
225.746	11.19
225.98	3.19
226.215	11.19
226.449	19.19
226.683	13.19
226.918	21.19
227.152	32.19
227.387	44.19
227.621	23.19
227.856	35.19
228.09	43.19
228.324	50.19
228.559	65.19
228.793	48.19
229.027	69.19
229.262	68.19
229.496	82.19
229.73	75.19
229.964	82.19
230.199	71.19
230.433	62.19
230.667	73.19
230.901	86.19
231.136	76.19
231.37	79.19
231.604	73.19
231.838	80.19
232.072	86.19
232.306	75.19
232.541	89.19
232.775	89.19
233.009	79.19
233.243	73.19
233.477	71.19
233.711	80.19
233.945	76.19
234.179	89.19
234.413	89.19
234.647	81.19
234.881	78.19
235.115	93.19
235.349	63.19
235.583	87.19
235.817	83.19
236.051	70.19
236.285	69.19
236.519	67.19
236.753	69.19
236.987	78.19
237.221	98.19
237.455	60.19
237.689	67.19
237.922	85.19
238.156	83.19
238.39	68.19
238.624	75.19
238.858	64.19
239.091	86.19
239.325	74.19
239.559	53.19
239.793	71.19
240.027	89.19
240.26	73.19
240.494	71.19
240.728	79.19
240.961	74.19
241.195	86.19
241.429	78.19
241.662	83.19
241.896	78.19
242.13	69.19
242.363	83.19
242.597	66.19
242.83	75.19
243.064	81.19
243.298	75.19
243.531	68.19
243.765	85.19
243.998	67.19
244.232	60.19
244.465	70.19
244.699	86.19
244.932	77.19
245.166	77.19
245.399	88.19
245.633	70.19
245.866	74.19
246.099	77.19
246.333	72.19
246.566	78.19
246.8	79.19
247.033	85.19
247.266	71.19
247.5	85.19
247.733	76.19
247.966	81.19
248.2	76.19
248.433	76.19
248.666	85.19
248.899	75.19
249.133	74.19
249.366	95.19
249.599	86.19
249.832	85.19
250.066	70.19
250.299	85.19
250.532	74.19
250.765	76.19
250.998	73.19
251.231	88.19
251.465	70.19
251.698	66.19
251.931	82.19
252.164	64.19
252.397	79.19
252.63	80.19
252.863	67.19
253.096	78.19
253.329	84.19
253.562	81.19
253.795	70.19
254.028	85.19
254.261	85.19
254.494	64.19
254.727	89.19
254.96	82.19
255.193	78.19
255.426	83.19
255.659	87.19
255.892	71.19
256.124	78.19
256.357	69.19
256.59	82.19
256.823	85.19
257.056	90.19
257.289	98.19
257.521	85.19
257.754	78.19
257.987	71.19
258.22	86.19
258.452	88.19
258.685	81.19
258.918	69.19
259.151	70.19
259.383	72.19
259.616	87.19
259.849	79.19
260.081	81.19
260.314	77.19
260.547	74.19
260.779	83.19
261.012	82.19
261.244	87.19
261.477	97.19
261.71	83.19
261.942	78.19
262.175	90.19
262.407	89.19
262.64	93.19
262.872	82.19
263.105	83.19
263.337	82.19
263.57	87.19
263.802	84.19
264.035	77.19
264.267	80.19
264.499	94.19
264.732	78.19
264.964	68.19
265.197	79.19
265.429	88.19
265.661	73.19
265.894	68.19
266.126	92.19
266.358	75.19
266.591	89.19
266.823	73.19
267.055	92.19
267.287	86.19
267.52	88.19
267.752	86.19
267.984	81.19
268.216	67.19
268.448	92.19
268.681	69.19
268.913	75.19
269.145	88.19
269.377	77.19
269.609	71.19
269.841	87.19
270.073	74.19
270.306	87.19
270.538	87.19
270.77	88.19
271.002	85.19
271.234	77.19
271.466	97.19
271.698	84.19
271.93	86.19
272.162	92.19
272.394	89.19
272.626	82.19
272.858	77.19
273.09	85.19
273.322	85.19
273.553	74.19
273.785	85.19
274.017	74.19
274.249	81.19
274.481	88.19
274.713	93.19
274.945	97.19
275.176	75.19
275.408	94.19
275.64	85.19
275.872	96.19
276.104	82.19
276.335	85.19
276.567	77.19
276.799	90.19
277.031	82.19
277.262	75.19
277.494	85.19
277.726	77.19
277.957	84.19
278.189	79.19
278.421	80.19
278.652	87.19
278.884	81.19
279.115	87.19
279.347	84.19
279.579	89.19
279.81	77.19
280.042	90.19
280.273	96.19
280.505	75.19
280.736	94.19
280.968	89.19
281.199	90.19
281.431	84.19
281.662	87.19
281.894	93.19
282.125	103.19
282.356	89.19
282.588	100.19
282.819	87.19
283.051	83.19
283.282	86.19
283.513	81.19
283.745	91.19
283.976	90.19
284.207	99.19
284.439	93.19
284.67	63.19
284.901	82.19
285.132	87.19
285.364	75.19
285.595	91.19
285.826	84.19
286.057	91.19
286.288	93.19
286.52	83.19
286.751	97.19
286.982	87.19
287.213	80.19
287.444	88.19
287.675	91.19
287.906	90.19
288.138	86.19
288.369	83.19
288.6	85.19
288.831	65.19
289.062	93.19
289.293	85.19
289.524	91.19
289.755	88.19
289.986	88.19
290.217	102.19
290.448	88.19
290.679	79.19
290.91	95.19
291.141	76.19
291.371	95.19
291.602	96.19
291.833	93.19
292.064	87.19
292.295	90.19
292.526	78.19
292.757	85.19
292.987	100.19
293.218	62.19
293.449	84.19
293.68	89.19
293.91	103.19
294.141	93.19
294.372	86.19
294.603	75.19
294.833	89.19
295.064	90.19
295.295	83.19
295.525	84.19
295.756	87.19
295.987	85.19
296.217	108.19
296.448	113.19
296.679	95.19
296.909	83.19
297.14	89.19
297.37	72.19
297.601	91.19
297.831	98.19
298.062	84.19
298.292	87.19
298.523	89.19
298.753	86.19
298.984	84.19
299.214	81.19
299.445	97.19
299.675	110.19
299.905	86.19
300.136	99.19
300.366	88.19
300.597	105.19
300.827	91.19
301.057	78.19
301.288	97.19
301.518	81.19
301.748	85.19
301.979	102.19
302.209	82.19
302.439	91.19
302.669	93.19
302.9	82.19
303.13	89.19
303.36	91.19
303.59	96.19
303.82	99.19
304.051	83.19
304.281	84.19
304.511	89.19
304.741	94.19
304.971	76.19
305.201	81.19
305.431	84.19
305.661	90.19
305.891	106.19
306.121	98.19
306.352	84.19
306.582	97.19
306.812	97.19
307.042	93.19
307.272	99.19
307.502	99.19
307.731	89.19
307.961	105.19
308.191	79.19
308.421	85.19
308.651	103.19
308.881	86.19
309.111	77.19
309.341	90.19
309.571	84.19
309.8	91.19
310.03	101.19
310.26	98.19
310.49	95.19
310.72	99.19
310.949	82.19
311.179	83.19
311.409	82.19
311.639	89.19
311.868	88.19
312.098	88.19
312.328	89.19
312.557	97.19
312.787	93.19
313.017	99.19
313.246	97.19
313.476	78.19
313.706	88.19
313.935	85.19
314.165	102.19
314.394	93.19
314.624	96.19
314.853	91.19
315.083	97.19
315.312	86.19
315.542	92.19
315.771	95.19
316.001	105.19
316.23	95.19
316.46	87.19
316.689	86.19
316.919	77.19
317.148	85.19
317.377	85.19
317.607	86.19
317.836	95.19
318.065	91.19
318.295	91.19
318.524	93.19
318.753	89.19
318.983	75.19
319.212	107.19
319.441	99.19
319.67	96.19
319.9	104.19
320.129	91.19
320.358	95.19
320.587	106.19
320.816	71.19
321.046	113.19
321.275	87.19
321.504	85.19
321.733	77.19
321.962	92.19
322.191	99.19
322.42	98.19
322.649	91.19
322.878	94.19
323.108	100.19
323.337	103.19
323.566	109.19
323.795	129.19
324.024	165.19
324.253	278.19
324.482	572.19
324.71	1158.19
324.939	1509.19
325.168	565.19
325.397	186.19
325.626	125.19
325.855	105.19
326.084	102.19
326.313	132.19
326.542	133.19
326.77	186.19
326.999	325.19
327.228	658.19
327.457	1190.19
327.686	936.19
327.914	262.19
328.143	147.19
328.372	130.19
328.6	119.19
328.829	101.19
329.058	108.19
329.287	110.19
329.515	102.19
329.744	100.19
329.972	102.19
330.201	108.19
330.43	117.19
330.658	101.19
330.887	119.19
331.115	121.19
331.344	89.19
331.572	92.19
331.801	101.19
332.03	96.19
332.258	88.19
332.486	94.19
332.715	105.19
332.943	105.19
333.172	87.19
333.4	84.19
333.629	102.19
333.857	89.19
334.085	100.19
334.314	99.19
334.542	114.19
334.771	112.19
334.999	109.19
335.227	98.19
335.455	93.19
335.684	88.19
335.912	88.19
336.14	96.19
336.369	91.19
336.597	99.19
336.825	92.19
337.053	96.19
337.281	85.19
337.51	83.19
337.738	88.19
337.966	75.19
338.194	91.19
338.422	88.19
338.65	86.19
338.878	85.19
339.106	106.19
339.334	98.19
339.562	82.19
339.79	85.19
340.018	77.19
340.246	84.19
340.474	87.19
340.702	93.19
340.93	93.19
341.158	93.19
341.386	85.19
341.614	99.19
341.842	99.19
342.07	90.19
342.298	93.19
342.526	85.19
342.754	93.19
342.981	86.19
343.209	84.19
343.437	110.19
343.665	85.19
343.893	80.19
344.12	86.19
344.348	95.19
344.576	85.19
344.804	100.19
345.031	94.19
345.259	98.19
345.487	97.19
345.714	90.19
345.942	98.19
346.17	65.19
346.397	99.19
346.625	106.19
346.853	110.19
347.08	91.19
347.308	83.19
347.535	92.19
347.763	99.19
347.99	90.19
348.218	87.19
348.445	105.19
348.673	90.19
348.9	100.19
349.128	110.19
349.355	95.19
349.583	102.19
349.81	92.19
350.037	81.19
350.265	87.19
350.492	109.19
350.72	107.19
350.947	109.19
351.174	107.19
351.402	116.19
351.629	108.19
351.856	99.19
352.083	101.19
352.311	112.19
352.538	95.19
352.765	95.19
352.992	110.19
353.22	98.19
353.447	102.19
353.674	106.19
353.901	94.19
354.128	114.19
354.355	109.19
354.583	103.19
354.81	102.19
355.037	99.19
355.264	92.19
355.491	93.19
355.718	90.19
355.945	93.19
356.172	88.19
356.399	97.19
356.626	79.19
356.853	103.19
357.08	107.19
357.307	100.19
357.534	103.19
357.761	101.19
357.988	103.19
358.215	104.19
358.441	102.19
358.668	102.19
358.895	92.19
359.122	110.19
359.349	91.19
359.576	76.19
359.802	96.19
360.029	104.19
360.256	107.19
360.483	96.19
360.709	99.19
360.936	107.19
361.163	93.19
361.39	89.19
361.616	93.19
361.843	93.19
362.07	86.19
362.296	92.19
362.523	99.19
362.749	105.19
362.976	94.19
363.203	80.19
363.429	90.19
363.656	77.19
363.882	96.19
364.109	89.19
364.335	94.19
364.562	87.19
364.788	94.19
365.015	91.19
365.241	95.19
365.468	83.19
365.694	110.19
365.92	93.19
366.147	73.19
366.373	86.19
366.599	97.19
366.826	99.19
367.052	87.19
367.278	86.19
367.505	86.19
367.731	72.19
367.957	97.19
368.184	95.19
368.41	89.19
368.636	99.19
368.862	108.19
369.089	92.19
369.315	77.19
369.541	81.19
369.767	89.19
369.993	80.19
370.219	94.19
370.445	76.19
370.672	95.19
370.898	85.19
371.124	94.19
371.35	89.19
371.576	83.19
371.802	90.19
372.028	77.19
372.254	104.19
372.48	83.19
372.706	92.19
372.932	79.19
373.158	85.19
373.384	91.19
373.61	105.19
373.835	89.19
374.061	90.19
374.287	87.19
374.513	77.19
374.739	81.19
374.965	76.19
375.191	94.19
375.416	95.19
375.642	93.19
375.868	94.19
376.094	85.19
376.319	86.19
376.545	78.19
376.771	95.19
376.997	102.19
377.222	100.19
377.448	89.19
377.674	93.19
377.899	95.19
378.125	102.19
378.35	107.19
378.576	93.19
378.802	100.19
379.027	92.19
379.253	88.19
379.478	104.19
379.704	115.19
379.929	99.19
380.155	96.19
380.38	103.19
380.606	105.19
380.831	98.19
381.057	102.19
381.282	107.19
381.507	97.19
381.733	101.19
381.958	104.19
382.184	116.19
382.409	121.19
382.634	117.19
382.86	102.19
383.085	107.19
383.31	112.19
383.535	109.19
383.761	117.19
383.986	112.19
384.211	108.19
384.436	115.19
384.662	101.19
384.887	109.19
385.112	111.19
385.337	125.19
385.562	129.19
385.787	127.19
386.013	109.19
386.238	126.19
386.463	111.19
386.688	127.19
386.913	124.19
387.138	132.19
387.363	115.19
387.588	109.19
387.813	114.19
388.038	124.19
388.263	112.19
388.488	129.19
388.713	106.19
388.938	109.19
389.163	98.19
389.387	95.19
389.612	73.19
389.837	95.19
390.062	90.19
390.287	86.19
390.512	95.19
390.736	98.19
390.961	89.19
391.186	92.19
391.411	108.19
391.636	98.19
391.86	86.19
392.085	82.19
392.31	81.19
392.534	73.19
392.759	90.19
392.984	106.19
393.208	92.19
393.433	84.19
393.658	71.19
393.882	103.19
394.107	76.19
394.331	93.19
394.556	101.19
394.78	92.19
395.005	83.19
395.229	78.19
395.454	105.19
395.678	82.19
395.903	76.19
396.127	81.19
396.352	91.19
396.576	60.19
396.801	82.19
397.025	102.19
397.249	77.19
397.474	84.19
397.698	95.19
397.922	84.19
398.147	93.19
398.371	99.19
398.595	95.19
398.82	100.19
399.044	87.19
399.268	87.19
399.492	95.19
399.717	87.19
399.941	103.19
400.165	85.19
400.389	101.19
400.613	87.19
400.837	82.19
401.062	92.19
401.286	83.19
401.51	81.19
401.734	71.19
401.958	91.19
402.182	117.19
402.406	106.19
402.63	93.19
402.854	91.19
403.078	94.19
403.302	84.19
403.526	104.19
403.75	99.19
403.974	89.19
404.198	93.19
404.422	84.19
404.645	83.19
404.869	76.19
405.093	102.19
405.317	102.19
405.541	105.19
405.765	99.19
405.988	113.19
406.212	138.19
406.436	155.19
406.66	126.19
406.883	74.19
407.107	94.19
407.331	89.19
407.555	90.19
407.778	92.19
408.002	75.19
408.226	85.19
408.449	99.19
408.673	92.19
408.896	89.19
409.12	88.19
409.344	92.19
409.567	90.19
409.791	88.19
410.014	107.19
410.238	83.19
410.461	93.19
410.685	91.19
410.908	106.19
411.132	105.19
411.355	75.19
411.578	113.19
411.802	92.19
412.025	105.19
412.249	94.19
412.472	99.19
412.695	98.19
412.919	92.19
413.142	88.19
413.365	88.19
413.589	89.19
413.812	89.19
414.035	99.19
414.258	95.19
414.482	87.19
414.705	93.19
414.928	75.19
415.151	91.19
415.374	78.19
415.597	76.19
415.821	81.19
416.044	95.19
416.267	76.19
416.49	91.19
416.713	85.19
416.936	91.19
417.159	87.19
417.382	84.19
417.605	72.19
417.828	93.19
418.051	89.19
418.274	81.19
418.497	93.19
418.72	80.19
418.943	96.19
419.166	101.19
419.389	95.19
419.611	94.19
419.834	85.19
420.057	83.19
420.28	83.19
420.503	76.19
420.726	92.19
420.948	81.19
421.171	83.19
421.394	83.19
421.617	89.19
421.839	91.19
422.062	90.19
422.285	77.19
422.507	97.19
422.73	113.19
422.953	88.19
423.175	101.19
423.398	94.19
423.621	99.19
423.843	77.19
424.066	92.19
424.288	94.19
424.511	99.19
424.733	101.19
424.956	98.19
425.178	92.19
425.401	74.19
425.623	107.19
425.846	89.19
426.068	86.19
426.291	94.19
426.513	89.19
426.735	100.19
426.958	86.19
427.18	91.19
427.402	115.19
427.625	130.19
427.847	101.19
428.069	109.19
428.292	95.19
428.514	93.19
428.736	98.19
428.958	81.19
429.181	79.19
429.403	78.19
429.625	83.19
429.847	93.19
430.069	102.19
430.292	98.19
430.514	86.19
430.736	90.19
430.958	90.19
431.18	88.19
431.402	98.19
431.624	80.19
431.846	97.19
432.068	91.19
432.29	84.19
432.512	92.19
432.734	86.19
432.956	91.19
433.178	82.19
433.4	87.19
433.622	86.19
433.844	93.19
434.066	94.19
434.287	86.19
434.509	90.19
434.731	89.19
434.953	96.19
435.175	101.19
435.397	69.19
435.618	81.19
435.84	92.19
436.062	100.19
436.284	99.19
436.505	93.19
436.727	87.19
436.949	75.19
437.17	81.19
437.392	81.19
437.614	87.19
437.835	95.19
438.057	102.19
438.278	90.19
438.5	93.19
438.721	113.19
438.943	94.19
439.165	85.19
439.386	98.19
439.608	97.19
439.829	89.19
440.05	116.19
440.272	126.19
440.493	87.19
440.715	81.19
440.936	80.19
441.158	83.19
441.379	87.19
441.6	103.19
441.822	99.19
442.043	83.19
442.264	97.19
442.486	97.19
442.707	90.19
442.928	98.19
443.149	98.19
443.371	102.19
443.592	101.19
443.813	97.19
444.034	103.19
444.255	89.19
444.476	93.19
444.698	110.19
444.919	77.19
445.14	132.19
445.361	110.19
445.582	117.19
445.803	115.19
446.024	114.19
446.245	101.19
446.466	107.19
446.687	86.19
446.908	99.19
447.129	85.19
447.35	73.19
447.571	100.19
447.792	80.19
448.013	101.19
448.234	92.19
448.455	102.19
448.675	102.19
448.896	103.19
449.117	86.19
449.338	95.19
449.559	117.19
449.779	109.19
450	89.19
450.221	103.19
450.442	90.19
450.662	89.19
450.883	98.19
451.104	97.19
451.324	98.19
451.545	69.19
451.766	87.19
451.986	99.19
452.207	78.19
452.428	90.19
452.648	86.19
452.869	97.19
453.089	88.19
453.31	99.19
453.53	99.19
453.751	99.19
453.971	95.19
454.192	98.19
454.412	99.19
454.633	94.19
454.853	86.19
455.073	86.19
455.294	83.19
455.514	98.19
455.734	88.19
455.955	88.19
456.175	80.19
456.395	80.19
456.616	105.19
456.836	85.19
457.056	73.19
457.276	96.19
457.497	92.19
457.717	86.19
457.937	86.19
458.157	88.19
458.377	88.19
458.598	93.19
458.818	117.19
459.038	126.19
459.258	98.19
459.478	86.19
459.698	89.19
459.918	95.19
460.138	74.19
460.358	83.19
460.578	89.19
460.798	79.19
461.018	81.19
461.238	93.19
461.458	82.19
461.678	92.19
461.898	98.19
462.118	90.19
462.338	72.19
462.558	73.19
462.777	86.19
462.997	81.19
463.217	88.19
463.437	87.19
463.657	91.19
463.876	97.19
464.096	101.19
464.316	93.19
464.536	77.19
464.755	82.19
464.975	88.19
465.195	130.19
465.414	110.19
465.634	85.19
465.854	93.19
466.073	84.19
466.293	79.19
466.512	91.19
466.732	90.19
466.951	97.19
467.171	98.19
467.391	90.19
467.61	103.19
467.829	89.19
468.049	91.19
468.268	82.19
468.488	86.19
468.707	83.19
468.927	87.19
469.146	85.19
469.365	90.19
469.585	99.19
469.804	85.19
470.023	86.19
470.243	76.19
470.462	93.19
470.681	91.19
470.901	94.19
471.12	101.19
471.339	91.19
471.558	89.19
471.777	85.19
471.997	87.19
472.216	105.19
472.435	124.19
472.654	87.19
472.873	92.19
473.092	89.19
473.311	85.19
473.53	83.19
473.749	77.19
473.968	82.19
474.187	93.19
474.406	90.19
474.625	84.19
474.844	76.19
475.063	99.19
475.282	83.19
475.501	83.19
475.72	81.19
475.939	84.19
476.158	93.19
476.377	89.19
476.596	82.19
476.814	97.19
477.033	82.19
477.252	91.19
477.471	93.19
477.69	79.19
477.908	86.19
478.127	83.19
478.346	77.19
478.564	91.19
478.783	89.19
479.002	86.19
479.22	97.19
479.439	106.19
479.658	78.19
479.876	88.19
480.095	90.19
480.313	78.19
480.532	103.19
480.751	89.19
480.969	99.19
481.188	174.19
481.406	125.19
481.624	89.19
481.843	99.19
482.061	84.19
482.28	85.19
482.498	91.19
482.717	92.19
482.935	87.19
483.153	104.19
483.372	94.19
483.59	82.19
483.808	93.19
484.027	103.19
484.245	101.19
484.463	79.19
484.681	103.19
484.9	95.19
485.118	97.19
485.336	91.19
485.554	97.19
485.772	95.19
485.99	118.19
486.209	107.19
486.427	105.19
486.645	106.19
486.863	108.19
487.081	94.19
487.299	99.19
487.517	88.19
487.735	88.19
487.953	89.19
488.171	106.19
488.389	98.19
488.607	102.19
488.825	84.19
489.043	91.19
489.261	93.19
489.479	108.19
489.696	94.19
489.914	101.19
490.132	90.19
490.35	84.19
490.568	91.19
490.786	75.19
491.003	82.19
491.221	87.19
491.439	88.19
491.657	103.19
491.874	93.19
492.092	89.19
492.31	91.19
492.527	88.19
492.745	94.19
492.963	88.19
493.18	94.19
493.398	81.19
493.615	98.19
493.833	113.19
494.05	76.19
494.268	97.19
494.485	103.19
494.703	87.19
494.92	79.19
495.138	108.19
495.355	93.19
495.573	94.19
495.79	99.19
496.008	92.19
496.225	91.19
496.442	78.19
496.66	89.19
496.877	91.19
497.094	88.19
497.312	83.19
497.529	91.19
497.746	99.19
497.963	91.19
498.181	99.19
498.398	93.19
498.615	83.19
498.832	94.19
499.049	98.19
499.267	88.19
499.484	108.19
499.701	87.19
499.918	96.19
500.135	96.19
500.352	100.19
500.569	91.19
500.786	86.19
501.003	84.19
501.22	94.19
501.437	82.19
501.654	101.19
501.871	109.19
502.088	88.19
502.305	90.19
502.522	77.19
502.739	68.19
502.956	88.19
503.172	78.19
503.389	97.19
503.606	101.19
503.823	83.19
504.04	78.19
504.256	97.19
504.473	95.19
504.69	95.19
504.907	114.19
505.123	77.19
505.34	99.19
505.557	91.19
505.773	81.19
505.99	86.19
506.207	99.19
506.423	87.19
506.64	80.19
506.856	112.19
507.073	84.19
507.289	90.19
507.506	103.19
507.722	89.19
507.939	99.19
508.155	82.19
508.372	85.19
508.588	89.19
508.805	101.19
509.021	97.19
509.238	94.19
509.454	87.19
509.67	92.19
509.887	111.19
510.103	107.19
510.319	171.19
510.536	557.19
510.752	1583.19
510.968	460.19
511.184	117.19
511.401	104.19
511.617	100.19
511.833	93.19
512.049	87.19
512.265	90.19
512.481	77.19
512.698	103.19
512.914	87.19
513.13	102.19
513.346	94.19
513.562	93.19
513.778	101.19
513.994	101.19
514.21	98.19
514.426	106.19
514.642	106.19
514.858	114.19
515.074	127.19
515.29	297.19
515.506	900.19
515.721	349.19
515.937	122.19
516.153	97.19
