Data from Uncirc_1980_H10_HRD10591_00044.txt Node
Date: Wed Jan 03 12:37:04 EST 2024
User: Yrep
Spectrometer: HR+D1059
Trigger mode: 1
Integration Time (sec): 1.000000E-1
Scans to average: 1
Electric dark correction enabled: true
Nonlinearity correction enabled: false
Boxcar width: 0
XAxis mode: Wavelengths
Number of Pixels in Spectrum: 2048
>>>>>Begin Spectral Data<<<<<
223.165	-12.06
223.4	-12.06
223.635	-12.06
223.869	-21.06
224.104	-10.06
224.338	-16.06
224.573	-11.06
224.808	-10.06
225.042	-16.06
225.277	-15.06
225.511	4.94
225.746	8.94
225.98	-3.06
226.215	0.94
226.449	25.94
226.683	15.94
226.918	18.94
227.152	38.94
227.387	30.94
227.621	41.94
227.856	66.94
228.09	55.94
228.324	49.94
228.559	56.94
228.793	51.94
229.027	57.94
229.262	79.94
229.496	91.94
229.73	75.94
229.964	67.94
230.199	71.94
230.433	66.94
230.667	88.94
230.901	98.94
231.136	83.94
231.37	78.94
231.604	73.94
231.838	77.94
232.072	88.94
232.306	75.94
232.541	89.94
232.775	73.94
233.009	77.94
233.243	68.94
233.477	90.94
233.711	81.94
233.945	84.94
234.179	80.94
234.413	88.94
234.647	72.94
234.881	84.94
235.115	78.94
235.349	82.94
235.583	86.94
235.817	82.94
236.051	64.94
236.285	89.94
236.519	88.94
236.753	91.94
236.987	96.94
237.221	80.94
237.455	66.94
237.689	69.94
237.922	87.94
238.156	84.94
238.39	69.94
238.624	82.94
238.858	71.94
239.091	75.94
239.325	79.94
239.559	83.94
239.793	87.94
240.027	78.94
240.26	90.94
240.494	74.94
240.728	79.94
240.961	80.94
241.195	68.94
241.429	79.94
241.662	78.94
241.896	94.94
242.13	79.94
242.363	70.94
242.597	69.94
242.83	88.94
243.064	70.94
243.298	76.94
243.531	78.94
243.765	87.94
243.998	74.94
244.232	67.94
244.465	76.94
244.699	62.94
244.932	82.94
245.166	78.94
245.399	76.94
245.633	73.94
245.866	86.94
246.099	71.94
246.333	82.94
246.566	79.94
246.8	76.94
247.033	79.94
247.266	84.94
247.5	83.94
247.733	71.94
247.966	67.94
248.2	70.94
248.433	74.94
248.666	84.94
248.899	68.94
249.133	91.94
249.366	92.94
249.599	99.94
249.832	80.94
250.066	82.94
250.299	73.94
250.532	69.94
250.765	85.94
250.998	91.94
251.231	78.94
251.465	76.94
251.698	76.94
251.931	80.94
252.164	88.94
252.397	76.94
252.63	77.94
252.863	72.94
253.096	76.94
253.329	82.94
253.562	84.94
253.795	78.94
254.028	84.94
254.261	92.94
254.494	86.94
254.727	90.94
254.96	94.94
255.193	98.94
255.426	86.94
255.659	85.94
255.892	88.94
256.124	84.94
256.357	80.94
256.59	90.94
256.823	79.94
257.056	92.94
257.289	79.94
257.521	78.94
257.754	80.94
257.987	85.94
258.22	89.94
258.452	88.94
258.685	82.94
258.918	72.94
259.151	78.94
259.383	83.94
259.616	89.94
259.849	73.94
260.081	75.94
260.314	82.94
260.547	75.94
260.779	85.94
261.012	85.94
261.244	77.94
261.477	95.94
261.71	87.94
261.942	100.94
262.175	108.94
262.407	92.94
262.64	85.94
262.872	71.94
263.105	73.94
263.337	73.94
263.57	100.94
263.802	98.94
264.035	72.94
264.267	87.94
264.499	76.94
264.732	84.94
264.964	79.94
265.197	92.94
265.429	94.94
265.661	85.94
265.894	93.94
266.126	84.94
266.358	94.94
266.591	86.94
266.823	92.94
267.055	77.94
267.287	79.94
267.52	90.94
267.752	92.94
267.984	78.94
268.216	90.94
268.448	80.94
268.681	67.94
268.913	74.94
269.145	90.94
269.377	84.94
269.609	84.94
269.841	74.94
270.073	82.94
270.306	95.94
270.538	79.94
270.77	78.94
271.002	88.94
271.234	82.94
271.466	93.94
271.698	86.94
271.93	88.94
272.162	89.94
272.394	102.94
272.626	82.94
272.858	73.94
273.09	88.94
273.322	94.94
273.553	82.94
273.785	101.94
274.017	85.94
274.249	78.94
274.481	73.94
274.713	70.94
274.945	95.94
275.176	96.94
275.408	88.94
275.64	91.94
275.872	91.94
276.104	95.94
276.335	75.94
276.567	100.94
276.799	96.94
277.031	94.94
277.262	88.94
277.494	111.94
277.726	88.94
277.957	88.94
278.189	91.94
278.421	82.94
278.652	78.94
278.884	83.94
279.115	102.94
279.347	84.94
279.579	77.94
279.81	83.94
280.042	81.94
280.273	89.94
280.505	85.94
280.736	88.94
280.968	79.94
281.199	80.94
281.431	82.94
281.662	84.94
281.894	86.94
282.125	88.94
282.356	112.94
282.588	101.94
282.819	102.94
283.051	104.94
283.282	86.94
283.513	85.94
283.745	93.94
283.976	83.94
284.207	87.94
284.439	94.94
284.67	85.94
284.901	75.94
285.132	93.94
285.364	92.94
285.595	92.94
285.826	95.94
286.057	102.94
286.288	90.94
286.52	91.94
286.751	87.94
286.982	87.94
287.213	92.94
287.444	91.94
287.675	90.94
287.906	95.94
288.138	78.94
288.369	90.94
288.6	94.94
288.831	111.94
289.062	96.94
289.293	95.94
289.524	89.94
289.755	87.94
289.986	85.94
290.217	80.94
290.448	100.94
290.679	97.94
290.91	93.94
291.141	93.94
291.371	82.94
291.602	84.94
291.833	93.94
292.064	83.94
292.295	90.94
292.526	85.94
292.757	82.94
292.987	73.94
293.218	96.94
293.449	89.94
293.68	87.94
293.91	88.94
294.141	74.94
294.372	99.94
294.603	97.94
294.833	87.94
295.064	79.94
295.295	90.94
295.525	96.94
295.756	102.94
295.987	99.94
296.217	118.94
296.448	102.94
296.679	100.94
296.909	95.94
297.14	93.94
297.37	94.94
297.601	78.94
297.831	99.94
298.062	93.94
298.292	94.94
298.523	102.94
298.753	87.94
298.984	85.94
299.214	79.94
299.445	85.94
299.675	101.94
299.905	99.94
300.136	100.94
300.366	101.94
300.597	80.94
300.827	97.94
301.057	86.94
301.288	100.94
301.518	95.94
301.748	88.94
301.979	100.94
302.209	88.94
302.439	95.94
302.669	97.94
302.9	104.94
303.13	98.94
303.36	80.94
303.59	90.94
303.82	115.94
304.051	94.94
304.281	100.94
304.511	95.94
304.741	78.94
304.971	72.94
305.201	92.94
305.431	92.94
305.661	87.94
305.891	82.94
306.121	105.94
306.352	102.94
306.582	90.94
306.812	86.94
307.042	81.94
307.272	95.94
307.502	87.94
307.731	92.94
307.961	85.94
308.191	90.94
308.421	94.94
308.651	88.94
308.881	106.94
309.111	83.94
309.341	76.94
309.571	92.94
309.8	82.94
310.03	101.94
310.26	99.94
310.49	92.94
310.72	96.94
310.949	102.94
311.179	84.94
311.409	100.94
311.639	96.94
311.868	107.94
312.098	83.94
312.328	90.94
312.557	87.94
312.787	96.94
313.017	96.94
313.246	93.94
313.476	92.94
313.706	72.94
313.935	87.94
314.165	91.94
314.394	106.94
314.624	109.94
314.853	96.94
315.083	98.94
315.312	88.94
315.542	83.94
315.771	97.94
316.001	89.94
316.23	87.94
316.46	100.94
316.689	88.94
316.919	85.94
317.148	88.94
317.377	87.94
317.607	87.94
317.836	88.94
318.065	81.94
318.295	106.94
318.524	89.94
318.753	91.94
318.983	90.94
319.212	103.94
319.441	101.94
319.67	95.94
319.9	89.94
320.129	90.94
320.358	84.94
320.587	103.94
320.816	103.94
321.046	102.94
321.275	93.94
321.504	100.94
321.733	93.94
321.962	103.94
322.191	91.94
322.42	98.94
322.649	104.94
322.878	109.94
323.108	101.94
323.337	124.94
323.566	124.94
323.795	130.94
324.024	169.94
324.253	292.94
324.482	580.94
324.71	1163.94
324.939	1547.94
325.168	574.94
325.397	189.94
325.626	134.94
325.855	119.94
326.084	131.94
326.313	117.94
326.542	124.94
326.77	186.94
326.999	325.94
327.228	685.94
327.457	1204.94
327.686	964.94
327.914	283.94
328.143	158.94
328.372	136.94
328.6	117.94
328.829	111.94
329.058	124.94
329.287	125.94
329.515	109.94
329.744	90.94
329.972	96.94
330.201	104.94
330.43	117.94
330.658	114.94
330.887	105.94
331.115	120.94
331.344	80.94
331.572	98.94
331.801	107.94
332.03	115.94
332.258	93.94
332.486	90.94
332.715	107.94
332.943	92.94
333.172	103.94
333.4	100.94
333.629	97.94
333.857	105.94
334.085	117.94
334.314	97.94
334.542	108.94
334.771	106.94
334.999	92.94
335.227	107.94
335.455	83.94
335.684	98.94
335.912	80.94
336.14	96.94
336.369	83.94
336.597	105.94
336.825	83.94
337.053	104.94
337.281	102.94
337.51	89.94
337.738	88.94
337.966	84.94
338.194	91.94
338.422	105.94
338.65	85.94
338.878	100.94
339.106	94.94
339.334	94.94
339.562	86.94
339.79	93.94
340.018	96.94
340.246	96.94
340.474	92.94
340.702	105.94
340.93	75.94
341.158	92.94
341.386	91.94
341.614	90.94
341.842	98.94
342.07	88.94
342.298	91.94
342.526	79.94
342.754	112.94
342.981	85.94
343.209	79.94
343.437	84.94
343.665	70.94
343.893	82.94
344.12	93.94
344.348	100.94
344.576	88.94
344.804	91.94
345.031	86.94
345.259	94.94
345.487	88.94
345.714	95.94
345.942	88.94
346.17	90.94
346.397	86.94
346.625	90.94
346.853	94.94
347.08	94.94
347.308	88.94
347.535	108.94
347.763	96.94
347.99	101.94
348.218	84.94
348.445	101.94
348.673	87.94
348.9	88.94
349.128	90.94
349.355	86.94
349.583	99.94
349.81	87.94
350.037	93.94
350.265	93.94
350.492	79.94
350.72	105.94
350.947	96.94
351.174	99.94
351.402	93.94
351.629	103.94
351.856	95.94
352.083	96.94
352.311	111.94
352.538	99.94
352.765	79.94
352.992	103.94
353.22	102.94
353.447	85.94
353.674	104.94
353.901	107.94
354.128	94.94
354.355	90.94
354.583	87.94
354.81	103.94
355.037	95.94
355.264	100.94
355.491	106.94
355.718	100.94
355.945	104.94
356.172	101.94
356.399	80.94
356.626	100.94
356.853	78.94
357.08	98.94
357.307	102.94
357.534	87.94
357.761	83.94
357.988	88.94
358.215	95.94
358.441	109.94
358.668	79.94
358.895	93.94
359.122	104.94
359.349	91.94
359.576	93.94
359.802	92.94
360.029	104.94
360.256	105.94
360.483	87.94
360.709	110.94
360.936	86.94
361.163	95.94
361.39	94.94
361.616	106.94
361.843	99.94
362.07	101.94
362.296	108.94
362.523	102.94
362.749	94.94
362.976	98.94
363.203	94.94
363.429	99.94
363.656	94.94
363.882	94.94
364.109	95.94
364.335	95.94
364.562	80.94
364.788	100.94
365.015	94.94
365.241	83.94
365.468	97.94
365.694	90.94
365.92	86.94
366.147	98.94
366.373	88.94
366.599	76.94
366.826	94.94
367.052	77.94
367.278	102.94
367.505	96.94
367.731	95.94
367.957	89.94
368.184	92.94
368.41	79.94
368.636	98.94
368.862	98.94
369.089	107.94
369.315	94.94
369.541	100.94
369.767	94.94
369.993	89.94
370.219	97.94
370.445	90.94
370.672	83.94
370.898	79.94
371.124	87.94
371.35	84.94
371.576	90.94
371.802	76.94
372.028	88.94
372.254	92.94
372.48	82.94
372.706	86.94
372.932	97.94
373.158	85.94
373.384	94.94
373.61	92.94
373.835	92.94
374.061	85.94
374.287	97.94
374.513	100.94
374.739	93.94
374.965	89.94
375.191	102.94
375.416	88.94
375.642	100.94
375.868	110.94
376.094	80.94
376.319	91.94
376.545	92.94
376.771	100.94
376.997	99.94
377.222	98.94
377.448	91.94
377.674	102.94
377.899	104.94
378.125	91.94
378.35	90.94
378.576	86.94
378.802	94.94
379.027	92.94
379.253	89.94
379.478	102.94
379.704	82.94
379.929	93.94
380.155	97.94
380.38	101.94
380.606	107.94
380.831	90.94
381.057	104.94
381.282	99.94
381.507	93.94
381.733	104.94
381.958	96.94
382.184	94.94
382.409	104.94
382.634	127.94
382.86	106.94
383.085	100.94
383.31	93.94
383.535	99.94
383.761	99.94
383.986	89.94
384.211	103.94
384.436	100.94
384.662	101.94
384.887	99.94
385.112	112.94
385.337	110.94
385.562	114.94
385.787	115.94
386.013	122.94
386.238	121.94
386.463	111.94
386.688	110.94
386.913	109.94
387.138	115.94
387.363	101.94
387.588	100.94
387.813	109.94
388.038	130.94
388.263	106.94
388.488	108.94
388.713	84.94
388.938	107.94
389.163	105.94
389.387	106.94
389.612	107.94
389.837	99.94
390.062	101.94
390.287	90.94
390.512	79.94
390.736	84.94
390.961	96.94
391.186	102.94
391.411	82.94
391.636	95.94
391.86	87.94
392.085	92.94
392.31	96.94
392.534	89.94
392.759	92.94
392.984	94.94
393.208	102.94
393.433	101.94
393.658	95.94
393.882	96.94
394.107	90.94
394.331	72.94
394.556	77.94
394.78	90.94
395.005	87.94
395.229	100.94
395.454	94.94
395.678	90.94
395.903	87.94
396.127	88.94
396.352	85.94
396.576	83.94
396.801	95.94
397.025	102.94
397.249	88.94
397.474	75.94
397.698	75.94
397.922	92.94
398.147	94.94
398.371	86.94
398.595	83.94
398.82	97.94
399.044	83.94
399.268	84.94
399.492	86.94
399.717	96.94
399.941	78.94
400.165	92.94
400.389	98.94
400.613	97.94
400.837	85.94
401.062	84.94
401.286	73.94
401.51	82.94
401.734	111.94
401.958	109.94
402.182	106.94
402.406	143.94
402.63	103.94
402.854	97.94
403.078	83.94
403.302	90.94
403.526	84.94
403.75	89.94
403.974	86.94
404.198	74.94
404.422	95.94
404.645	82.94
404.869	92.94
405.093	96.94
405.317	92.94
405.541	91.94
405.765	96.94
405.988	119.94
406.212	130.94
406.436	175.94
406.66	120.94
406.883	100.94
407.107	92.94
407.331	89.94
407.555	84.94
407.778	98.94
408.002	103.94
408.226	72.94
408.449	89.94
408.673	83.94
408.896	96.94
409.12	86.94
409.344	88.94
409.567	89.94
409.791	94.94
410.014	94.94
410.238	95.94
410.461	84.94
410.685	95.94
410.908	102.94
411.132	86.94
411.355	92.94
411.578	94.94
411.802	94.94
412.025	96.94
412.249	105.94
412.472	111.94
412.695	95.94
412.919	95.94
413.142	97.94
413.365	74.94
413.589	86.94
413.812	82.94
414.035	92.94
414.258	90.94
414.482	100.94
414.705	80.94
414.928	86.94
415.151	90.94
415.374	82.94
415.597	88.94
415.821	88.94
416.044	80.94
416.267	84.94
416.49	93.94
416.713	94.94
416.936	92.94
417.159	77.94
417.382	79.94
417.605	93.94
417.828	93.94
418.051	76.94
418.274	91.94
418.497	99.94
418.72	79.94
418.943	90.94
419.166	80.94
419.389	89.94
419.611	102.94
419.834	97.94
420.057	88.94
420.28	76.94
420.503	81.94
420.726	88.94
420.948	99.94
421.171	90.94
421.394	86.94
421.617	92.94
421.839	101.94
422.062	86.94
422.285	78.94
422.507	109.94
422.73	98.94
422.953	100.94
423.175	80.94
423.398	84.94
423.621	99.94
423.843	79.94
424.066	86.94
424.288	88.94
424.511	99.94
424.733	88.94
424.956	99.94
425.178	95.94
425.401	103.94
425.623	87.94
425.846	93.94
426.068	100.94
426.291	93.94
426.513	94.94
426.735	100.94
426.958	87.94
427.18	107.94
427.402	116.94
427.625	136.94
427.847	120.94
428.069	92.94
428.292	85.94
428.514	92.94
428.736	99.94
428.958	87.94
429.181	104.94
429.403	92.94
429.625	71.94
429.847	95.94
430.069	102.94
430.292	78.94
430.514	88.94
430.736	78.94
430.958	91.94
431.18	90.94
431.402	102.94
431.624	83.94
431.846	90.94
432.068	97.94
432.29	89.94
432.512	77.94
432.734	94.94
432.956	87.94
433.178	115.94
433.4	84.94
433.622	91.94
433.844	84.94
434.066	100.94
434.287	100.94
434.509	87.94
434.731	94.94
434.953	88.94
435.175	99.94
435.397	76.94
435.618	95.94
435.84	107.94
436.062	119.94
436.284	96.94
436.505	74.94
436.727	98.94
436.949	85.94
437.17	80.94
437.392	94.94
437.614	96.94
437.835	94.94
438.057	109.94
438.278	108.94
438.5	90.94
438.721	111.94
438.943	98.94
439.165	86.94
439.386	94.94
439.608	88.94
439.829	105.94
440.05	94.94
440.272	115.94
440.493	96.94
440.715	75.94
440.936	89.94
441.158	96.94
441.379	84.94
441.6	90.94
441.822	88.94
442.043	106.94
442.264	107.94
442.486	90.94
442.707	93.94
442.928	96.94
443.149	111.94
443.371	117.94
443.592	110.94
443.813	97.94
444.034	96.94
444.255	69.94
444.476	98.94
444.698	97.94
444.919	85.94
445.14	135.94
445.361	122.94
445.582	111.94
445.803	112.94
446.024	115.94
446.245	121.94
446.466	94.94
446.687	88.94
446.908	83.94
447.129	106.94
447.35	104.94
447.571	88.94
447.792	89.94
448.013	88.94
448.234	89.94
448.455	79.94
448.675	79.94
448.896	108.94
449.117	94.94
449.338	99.94
449.559	113.94
449.779	124.94
450	92.94
450.221	85.94
450.442	92.94
450.662	100.94
450.883	89.94
451.104	106.94
451.324	101.94
451.545	85.94
451.766	88.94
451.986	98.94
452.207	90.94
452.428	88.94
452.648	94.94
452.869	103.94
453.089	115.94
453.31	105.94
453.53	96.94
453.751	111.94
453.971	103.94
454.192	103.94
454.412	97.94
454.633	92.94
454.853	92.94
455.073	75.94
455.294	83.94
455.514	96.94
455.734	88.94
455.955	96.94
456.175	84.94
456.395	98.94
456.616	85.94
456.836	84.94
457.056	92.94
457.276	91.94
457.497	80.94
457.717	87.94
457.937	87.94
458.157	76.94
458.377	90.94
458.598	100.94
458.818	132.94
459.038	129.94
459.258	93.94
459.478	92.94
459.698	77.94
459.918	74.94
460.138	89.94
460.358	95.94
460.578	91.94
460.798	94.94
461.018	88.94
461.238	86.94
461.458	90.94
461.678	82.94
461.898	94.94
462.118	91.94
462.338	70.94
462.558	90.94
462.777	90.94
462.997	94.94
463.217	91.94
463.437	92.94
463.657	79.94
463.876	87.94
464.096	96.94
464.316	92.94
464.536	87.94
464.755	83.94
464.975	103.94
465.195	129.94
465.414	127.94
465.634	89.94
465.854	83.94
466.073	112.94
466.293	90.94
466.512	88.94
466.732	112.94
466.951	75.94
467.171	75.94
467.391	97.94
467.61	90.94
467.829	111.94
468.049	102.94
468.268	105.94
468.488	80.94
468.707	82.94
468.927	100.94
469.146	99.94
469.365	93.94
469.585	92.94
469.804	80.94
470.023	93.94
470.243	98.94
470.462	91.94
470.681	86.94
470.901	98.94
471.12	83.94
471.339	88.94
471.558	90.94
471.777	76.94
471.997	93.94
472.216	118.94
472.435	136.94
472.654	89.94
472.873	82.94
473.092	90.94
473.311	87.94
473.53	80.94
473.749	80.94
473.968	79.94
474.187	99.94
474.406	85.94
474.625	79.94
474.844	100.94
475.063	94.94
475.282	88.94
475.501	99.94
475.72	81.94
475.939	84.94
476.158	93.94
476.377	92.94
476.596	79.94
476.814	88.94
477.033	85.94
477.252	83.94
477.471	87.94
477.69	87.94
477.908	87.94
478.127	79.94
478.346	84.94
478.564	89.94
478.783	86.94
479.002	99.94
479.22	92.94
479.439	95.94
479.658	104.94
479.876	81.94
480.095	86.94
480.313	88.94
480.532	91.94
480.751	90.94
480.969	104.94
481.188	180.94
481.406	138.94
481.624	91.94
481.843	101.94
482.061	84.94
482.28	105.94
482.498	86.94
482.717	91.94
482.935	82.94
483.153	96.94
483.372	100.94
483.59	73.94
483.808	104.94
484.027	93.94
484.245	87.94
484.463	81.94
484.681	100.94
484.9	74.94
485.118	103.94
485.336	103.94
485.554	102.94
485.772	102.94
485.99	103.94
486.209	96.94
486.427	106.94
486.645	113.94
486.863	95.94
487.081	99.94
487.299	99.94
487.517	92.94
487.735	79.94
487.953	94.94
488.171	85.94
488.389	83.94
488.607	91.94
488.825	97.94
489.043	85.94
489.261	106.94
489.479	100.94
489.696	87.94
489.914	90.94
490.132	80.94
490.35	90.94
490.568	84.94
490.786	90.94
491.003	95.94
491.221	95.94
491.439	95.94
491.657	91.94
491.874	93.94
492.092	88.94
492.31	85.94
492.527	102.94
492.745	99.94
492.963	83.94
493.18	99.94
493.398	91.94
493.615	102.94
493.833	95.94
494.05	98.94
494.268	103.94
494.485	97.94
494.703	73.94
494.92	82.94
495.138	92.94
495.355	90.94
495.573	86.94
495.79	92.94
496.008	95.94
496.225	91.94
496.442	86.94
496.66	99.94
496.877	91.94
497.094	110.94
497.312	89.94
497.529	80.94
497.746	73.94
497.963	80.94
498.181	96.94
498.398	111.94
498.615	109.94
498.832	90.94
499.049	102.94
499.267	89.94
499.484	97.94
499.701	88.94
499.918	111.94
500.135	96.94
500.352	94.94
500.569	76.94
500.786	86.94
501.003	77.94
501.22	89.94
501.437	99.94
501.654	89.94
501.871	109.94
502.088	94.94
502.305	90.94
502.522	100.94
502.739	83.94
502.956	77.94
503.172	80.94
503.389	98.94
503.606	105.94
503.823	96.94
504.04	82.94
504.256	110.94
504.473	89.94
504.69	82.94
504.907	87.94
505.123	92.94
505.34	91.94
505.557	95.94
505.773	91.94
505.99	93.94
506.207	84.94
506.423	94.94
506.64	87.94
506.856	86.94
507.073	92.94
507.289	88.94
507.506	97.94
507.722	94.94
507.939	88.94
508.155	82.94
508.372	96.94
508.588	98.94
508.805	92.94
509.021	94.94
509.238	92.94
509.454	80.94
509.67	102.94
509.887	102.94
510.103	115.94
510.319	182.94
510.536	588.94
510.752	1776.94
510.968	506.94
511.184	139.94
511.401	92.94
511.617	97.94
511.833	92.94
512.049	83.94
512.265	96.94
512.481	95.94
512.698	92.94
512.914	95.94
513.13	104.94
513.346	94.94
513.562	96.94
513.778	94.94
513.994	98.94
514.21	101.94
514.426	106.94
514.642	122.94
514.858	122.94
515.074	135.94
515.29	320.94
515.506	1013.94
515.721	382.94
