Data from Uncirc_1980_H10_HRD10591_00082.txt Node
Date: Wed Jan 03 12:37:11 EST 2024
User: Yrep
Spectrometer: HR+D1059
Trigger mode: 1
Integration Time (sec): 1.000000E-1
Scans to average: 1
Electric dark correction enabled: true
Nonlinearity correction enabled: false
Boxcar width: 0
XAxis mode: Wavelengths
Number of Pixels in Spectrum: 2048
>>>>>Begin Spectral Data<<<<<
223.165	-16.81
223.4	-16.81
223.635	-16.81
223.869	-20.81
224.104	-19.81
224.338	-15.81
224.573	-7.81
224.808	-43.81
225.042	-1.81
225.277	11.19
225.511	8.19
225.746	-2.81
225.98	0.19
226.215	20.19
226.449	24.19
226.683	20.19
226.918	11.19
227.152	34.19
227.387	35.19
227.621	34.19
227.856	49.19
228.09	47.19
228.324	51.19
228.559	59.19
228.793	44.19
229.027	54.19
229.262	67.19
229.496	92.19
229.73	65.19
229.964	59.19
230.199	77.19
230.433	82.19
230.667	75.19
230.901	80.19
231.136	70.19
231.37	76.19
231.604	76.19
231.838	57.19
232.072	83.19
232.306	69.19
232.541	72.19
232.775	88.19
233.009	82.19
233.243	78.19
233.477	81.19
233.711	83.19
233.945	85.19
234.179	83.19
234.413	82.19
234.647	74.19
234.881	89.19
235.115	85.19
235.349	80.19
235.583	82.19
235.817	80.19
236.051	85.19
236.285	80.19
236.519	84.19
236.753	86.19
236.987	78.19
237.221	73.19
237.455	73.19
237.689	74.19
237.922	59.19
238.156	65.19
238.39	69.19
238.624	75.19
238.858	79.19
239.091	92.19
239.325	76.19
239.559	88.19
239.793	72.19
240.027	70.19
240.26	60.19
240.494	81.19
240.728	69.19
240.961	63.19
241.195	77.19
241.429	88.19
241.662	70.19
241.896	63.19
242.13	72.19
242.363	73.19
242.597	81.19
242.83	78.19
243.064	69.19
243.298	60.19
243.531	61.19
243.765	69.19
243.998	76.19
244.232	84.19
244.465	70.19
244.699	86.19
244.932	72.19
245.166	85.19
245.399	84.19
245.633	84.19
245.866	78.19
246.099	77.19
246.333	82.19
246.566	70.19
246.8	64.19
247.033	74.19
247.266	70.19
247.5	90.19
247.733	71.19
247.966	83.19
248.2	84.19
248.433	76.19
248.666	66.19
248.899	72.19
249.133	86.19
249.366	76.19
249.599	89.19
249.832	88.19
250.066	60.19
250.299	84.19
250.532	75.19
250.765	82.19
250.998	78.19
251.231	77.19
251.465	94.19
251.698	85.19
251.931	91.19
252.164	73.19
252.397	81.19
252.63	76.19
252.863	66.19
253.096	85.19
253.329	78.19
253.562	81.19
253.795	75.19
254.028	74.19
254.261	79.19
254.494	70.19
254.727	87.19
254.96	88.19
255.193	91.19
255.426	72.19
255.659	72.19
255.892	85.19
256.124	66.19
256.357	86.19
256.59	85.19
256.823	73.19
257.056	83.19
257.289	78.19
257.521	80.19
257.754	82.19
257.987	91.19
258.22	76.19
258.452	84.19
258.685	87.19
258.918	83.19
259.151	80.19
259.383	88.19
259.616	94.19
259.849	78.19
260.081	71.19
260.314	81.19
260.547	76.19
260.779	74.19
261.012	74.19
261.244	68.19
261.477	99.19
261.71	84.19
261.942	99.19
262.175	105.19
262.407	97.19
262.64	83.19
262.872	69.19
263.105	91.19
263.337	85.19
263.57	74.19
263.802	88.19
264.035	71.19
264.267	60.19
264.499	85.19
264.732	82.19
264.964	87.19
265.197	96.19
265.429	91.19
265.661	73.19
265.894	85.19
266.126	72.19
266.358	76.19
266.591	82.19
266.823	52.19
267.055	81.19
267.287	86.19
267.52	77.19
267.752	84.19
267.984	68.19
268.216	86.19
268.448	89.19
268.681	87.19
268.913	105.19
269.145	86.19
269.377	92.19
269.609	68.19
269.841	71.19
270.073	83.19
270.306	82.19
270.538	85.19
270.77	69.19
271.002	79.19
271.234	68.19
271.466	84.19
271.698	86.19
271.93	86.19
272.162	66.19
272.394	98.19
272.626	70.19
272.858	81.19
273.09	93.19
273.322	88.19
273.553	83.19
273.785	78.19
274.017	83.19
274.249	82.19
274.481	94.19
274.713	86.19
274.945	82.19
275.176	80.19
275.408	85.19
275.64	92.19
275.872	82.19
276.104	78.19
276.335	83.19
276.567	82.19
276.799	98.19
277.031	94.19
277.262	90.19
277.494	80.19
277.726	98.19
277.957	105.19
278.189	72.19
278.421	88.19
278.652	74.19
278.884	92.19
279.115	92.19
279.347	68.19
279.579	89.19
279.81	87.19
280.042	93.19
280.273	106.19
280.505	92.19
280.736	73.19
280.968	75.19
281.199	89.19
281.431	83.19
281.662	84.19
281.894	82.19
282.125	107.19
282.356	100.19
282.588	116.19
282.819	95.19
283.051	90.19
283.282	82.19
283.513	107.19
283.745	84.19
283.976	82.19
284.207	88.19
284.439	95.19
284.67	66.19
284.901	93.19
285.132	74.19
285.364	94.19
285.595	86.19
285.826	84.19
286.057	70.19
286.288	88.19
286.52	77.19
286.751	84.19
286.982	84.19
287.213	92.19
287.444	82.19
287.675	93.19
287.906	95.19
288.138	80.19
288.369	97.19
288.6	90.19
288.831	81.19
289.062	95.19
289.293	71.19
289.524	83.19
289.755	88.19
289.986	82.19
290.217	83.19
290.448	100.19
290.679	87.19
290.91	70.19
291.141	78.19
291.371	78.19
291.602	82.19
291.833	86.19
292.064	85.19
292.295	89.19
292.526	88.19
292.757	81.19
292.987	91.19
293.218	88.19
293.449	94.19
293.68	80.19
293.91	98.19
294.141	85.19
294.372	80.19
294.603	90.19
294.833	85.19
295.064	77.19
295.295	99.19
295.525	85.19
295.756	92.19
295.987	114.19
296.217	124.19
296.448	113.19
296.679	77.19
296.909	89.19
297.14	87.19
297.37	98.19
297.601	92.19
297.831	89.19
298.062	87.19
298.292	83.19
298.523	96.19
298.753	83.19
298.984	86.19
299.214	96.19
299.445	99.19
299.675	84.19
299.905	76.19
300.136	102.19
300.366	93.19
300.597	86.19
300.827	90.19
301.057	100.19
301.288	91.19
301.518	85.19
301.748	88.19
301.979	97.19
302.209	85.19
302.439	75.19
302.669	77.19
302.9	80.19
303.13	78.19
303.36	96.19
303.59	92.19
303.82	98.19
304.051	88.19
304.281	78.19
304.511	91.19
304.741	92.19
304.971	86.19
305.201	94.19
305.431	91.19
305.661	89.19
305.891	85.19
306.121	93.19
306.352	92.19
306.582	94.19
306.812	89.19
307.042	101.19
307.272	81.19
307.502	77.19
307.731	83.19
307.961	101.19
308.191	83.19
308.421	90.19
308.651	85.19
308.881	87.19
309.111	89.19
309.341	92.19
309.571	91.19
309.8	85.19
310.03	91.19
310.26	89.19
310.49	92.19
310.72	94.19
310.949	101.19
311.179	97.19
311.409	100.19
311.639	104.19
311.868	88.19
312.098	88.19
312.328	95.19
312.557	81.19
312.787	82.19
313.017	82.19
313.246	78.19
313.476	88.19
313.706	88.19
313.935	73.19
314.165	84.19
314.394	90.19
314.624	92.19
314.853	92.19
315.083	87.19
315.312	85.19
315.542	73.19
315.771	92.19
316.001	91.19
316.23	87.19
316.46	90.19
316.689	102.19
316.919	89.19
317.148	89.19
317.377	91.19
317.607	98.19
317.836	98.19
318.065	88.19
318.295	91.19
318.524	90.19
318.753	100.19
318.983	89.19
319.212	97.19
319.441	98.19
319.67	99.19
319.9	93.19
320.129	94.19
320.358	90.19
320.587	96.19
320.816	62.19
321.046	84.19
321.275	110.19
321.504	81.19
321.733	104.19
321.962	93.19
322.191	94.19
322.42	101.19
322.649	110.19
322.878	103.19
323.108	93.19
323.337	96.19
323.566	113.19
323.795	119.19
324.024	159.19
324.253	290.19
324.482	623.19
324.71	1193.19
324.939	1564.19
325.168	589.19
325.397	198.19
325.626	133.19
325.855	101.19
326.084	82.19
326.313	113.19
326.542	137.19
326.77	188.19
326.999	339.19
327.228	724.19
327.457	1240.19
327.686	986.19
327.914	283.19
328.143	152.19
328.372	124.19
328.6	106.19
328.829	107.19
329.058	105.19
329.287	104.19
329.515	90.19
329.744	100.19
329.972	96.19
330.201	112.19
330.43	109.19
330.658	111.19
330.887	102.19
331.115	102.19
331.344	97.19
331.572	98.19
331.801	84.19
332.03	83.19
332.258	95.19
332.486	100.19
332.715	91.19
332.943	76.19
333.172	90.19
333.4	88.19
333.629	90.19
333.857	99.19
334.085	96.19
334.314	108.19
334.542	117.19
334.771	109.19
334.999	90.19
335.227	96.19
335.455	87.19
335.684	92.19
335.912	92.19
336.14	91.19
336.369	84.19
336.597	88.19
336.825	97.19
337.053	99.19
337.281	83.19
337.51	75.19
337.738	94.19
337.966	90.19
338.194	100.19
338.422	84.19
338.65	78.19
338.878	96.19
339.106	105.19
339.334	87.19
339.562	84.19
339.79	93.19
340.018	92.19
340.246	86.19
340.474	98.19
340.702	89.19
340.93	94.19
341.158	80.19
341.386	107.19
341.614	99.19
341.842	77.19
342.07	88.19
342.298	87.19
342.526	97.19
342.754	92.19
342.981	90.19
343.209	97.19
343.437	92.19
343.665	70.19
343.893	78.19
344.12	82.19
344.348	96.19
344.576	93.19
344.804	96.19
345.031	82.19
345.259	85.19
345.487	82.19
345.714	101.19
345.942	94.19
346.17	83.19
346.397	88.19
346.625	90.19
346.853	84.19
347.08	84.19
347.308	93.19
347.535	86.19
347.763	96.19
347.99	90.19
348.218	93.19
348.445	106.19
348.673	97.19
348.9	83.19
349.128	86.19
349.355	91.19
349.583	89.19
349.81	97.19
350.037	102.19
350.265	106.19
350.492	82.19
350.72	100.19
350.947	96.19
351.174	90.19
351.402	96.19
351.629	82.19
351.856	107.19
352.083	96.19
352.311	112.19
352.538	96.19
352.765	98.19
352.992	104.19
353.22	96.19
353.447	88.19
353.674	102.19
353.901	90.19
354.128	91.19
354.355	100.19
354.583	93.19
354.81	100.19
355.037	85.19
355.264	82.19
355.491	101.19
355.718	100.19
355.945	102.19
356.172	86.19
356.399	90.19
356.626	81.19
356.853	86.19
357.08	92.19
357.307	86.19
357.534	82.19
357.761	99.19
357.988	88.19
358.215	103.19
358.441	90.19
358.668	85.19
358.895	82.19
359.122	97.19
359.349	97.19
359.576	93.19
359.802	94.19
360.029	89.19
360.256	105.19
360.483	94.19
360.709	86.19
360.936	97.19
361.163	96.19
361.39	93.19
361.616	88.19
361.843	88.19
362.07	87.19
362.296	88.19
362.523	86.19
362.749	90.19
362.976	88.19
363.203	77.19
363.429	89.19
363.656	93.19
363.882	88.19
364.109	91.19
364.335	92.19
364.562	81.19
364.788	87.19
365.015	102.19
365.241	108.19
365.468	98.19
365.694	98.19
365.92	89.19
366.147	86.19
366.373	93.19
366.599	101.19
366.826	85.19
367.052	100.19
367.278	96.19
367.505	89.19
367.731	88.19
367.957	98.19
368.184	83.19
368.41	91.19
368.636	93.19
368.862	115.19
369.089	111.19
369.315	108.19
369.541	84.19
369.767	78.19
369.993	92.19
370.219	83.19
370.445	86.19
370.672	85.19
370.898	78.19
371.124	84.19
371.35	95.19
371.576	81.19
371.802	93.19
372.028	98.19
372.254	80.19
372.48	67.19
372.706	80.19
372.932	105.19
373.158	101.19
373.384	88.19
373.61	100.19
373.835	89.19
374.061	80.19
374.287	80.19
374.513	83.19
374.739	75.19
374.965	77.19
375.191	93.19
375.416	80.19
375.642	97.19
375.868	82.19
376.094	89.19
376.319	85.19
376.545	89.19
376.771	83.19
376.997	92.19
377.222	90.19
377.448	80.19
377.674	76.19
377.899	90.19
378.125	94.19
378.35	88.19
378.576	85.19
378.802	106.19
379.027	97.19
379.253	97.19
379.478	95.19
379.704	92.19
379.929	92.19
380.155	85.19
380.38	98.19
380.606	97.19
380.831	113.19
381.057	109.19
381.282	89.19
381.507	97.19
381.733	99.19
381.958	81.19
382.184	96.19
382.409	96.19
382.634	93.19
382.86	88.19
383.085	90.19
383.31	94.19
383.535	99.19
383.761	98.19
383.986	102.19
384.211	83.19
384.436	101.19
384.662	108.19
384.887	93.19
385.112	101.19
385.337	103.19
385.562	85.19
385.787	92.19
386.013	105.19
386.238	91.19
386.463	90.19
386.688	101.19
386.913	95.19
387.138	88.19
387.363	96.19
387.588	84.19
387.813	92.19
388.038	102.19
388.263	116.19
388.488	92.19
388.713	99.19
388.938	91.19
389.163	105.19
389.387	100.19
389.612	93.19
389.837	119.19
390.062	94.19
390.287	90.19
390.512	77.19
390.736	82.19
390.961	96.19
391.186	77.19
391.411	94.19
391.636	86.19
391.86	86.19
392.085	71.19
392.31	76.19
392.534	102.19
392.759	93.19
392.984	83.19
393.208	88.19
393.433	89.19
393.658	92.19
393.882	92.19
394.107	82.19
394.331	64.19
394.556	82.19
394.78	85.19
395.005	75.19
395.229	86.19
395.454	82.19
395.678	86.19
395.903	83.19
396.127	81.19
396.352	82.19
396.576	75.19
396.801	90.19
397.025	82.19
397.249	79.19
397.474	77.19
397.698	94.19
397.922	90.19
398.147	81.19
398.371	70.19
398.595	94.19
398.82	93.19
399.044	87.19
399.268	80.19
399.492	97.19
399.717	96.19
399.941	98.19
400.165	86.19
400.389	88.19
400.613	89.19
400.837	85.19
401.062	96.19
401.286	86.19
401.51	92.19
401.734	96.19
401.958	82.19
402.182	103.19
402.406	128.19
402.63	108.19
402.854	89.19
403.078	82.19
403.302	98.19
403.526	97.19
403.75	86.19
403.974	80.19
404.198	85.19
404.422	96.19
404.645	82.19
404.869	105.19
405.093	99.19
405.317	85.19
405.541	87.19
405.765	88.19
405.988	105.19
406.212	145.19
406.436	158.19
406.66	128.19
406.883	90.19
407.107	96.19
407.331	92.19
407.555	97.19
407.778	107.19
408.002	85.19
408.226	101.19
408.449	83.19
408.673	94.19
408.896	78.19
409.12	109.19
409.344	82.19
409.567	82.19
409.791	83.19
410.014	86.19
410.238	81.19
410.461	92.19
410.685	86.19
410.908	91.19
411.132	92.19
411.355	85.19
411.578	78.19
411.802	88.19
412.025	98.19
412.249	95.19
412.472	84.19
412.695	77.19
412.919	88.19
413.142	80.19
413.365	82.19
413.589	89.19
413.812	93.19
414.035	101.19
414.258	92.19
414.482	87.19
414.705	85.19
414.928	80.19
415.151	97.19
415.374	90.19
415.597	88.19
415.821	77.19
416.044	100.19
416.267	76.19
416.49	74.19
416.713	95.19
416.936	100.19
417.159	82.19
417.382	88.19
417.605	84.19
417.828	80.19
418.051	86.19
418.274	88.19
418.497	72.19
418.72	86.19
418.943	97.19
419.166	103.19
419.389	89.19
419.611	104.19
419.834	100.19
420.057	88.19
420.28	89.19
420.503	91.19
420.726	75.19
420.948	85.19
421.171	90.19
421.394	86.19
421.617	82.19
421.839	80.19
422.062	80.19
422.285	92.19
422.507	87.19
422.73	95.19
422.953	76.19
423.175	89.19
423.398	82.19
423.621	80.19
423.843	75.19
424.066	77.19
424.288	76.19
424.511	97.19
424.733	93.19
424.956	88.19
425.178	99.19
425.401	88.19
425.623	92.19
425.846	99.19
426.068	80.19
426.291	86.19
426.513	86.19
426.735	91.19
426.958	68.19
427.18	94.19
427.402	121.19
427.625	138.19
427.847	108.19
428.069	87.19
428.292	91.19
428.514	78.19
428.736	74.19
428.958	67.19
429.181	75.19
429.403	86.19
429.625	76.19
429.847	88.19
430.069	100.19
430.292	93.19
430.514	91.19
430.736	70.19
430.958	91.19
431.18	80.19
431.402	84.19
431.624	93.19
431.846	82.19
432.068	88.19
432.29	93.19
432.512	84.19
432.734	77.19
432.956	95.19
433.178	105.19
433.4	83.19
433.622	77.19
433.844	69.19
434.066	71.19
434.287	90.19
434.509	97.19
434.731	101.19
434.953	76.19
435.175	106.19
435.397	81.19
435.618	96.19
435.84	92.19
436.062	113.19
436.284	122.19
436.505	105.19
436.727	89.19
436.949	94.19
437.17	93.19
437.392	82.19
437.614	82.19
437.835	88.19
438.057	102.19
438.278	95.19
438.5	99.19
438.721	96.19
438.943	86.19
439.165	89.19
439.386	91.19
439.608	95.19
439.829	91.19
440.05	101.19
440.272	96.19
440.493	81.19
440.715	87.19
440.936	98.19
441.158	93.19
441.379	93.19
441.6	80.19
441.822	88.19
442.043	73.19
442.264	85.19
442.486	93.19
442.707	87.19
442.928	98.19
443.149	110.19
443.371	99.19
443.592	80.19
443.813	87.19
444.034	98.19
444.255	90.19
444.476	89.19
444.698	86.19
444.919	93.19
445.14	133.19
445.361	108.19
445.582	103.19
445.803	106.19
446.024	111.19
446.245	110.19
446.466	100.19
446.687	85.19
446.908	86.19
447.129	100.19
447.35	86.19
447.571	91.19
447.792	99.19
448.013	91.19
448.234	85.19
448.455	94.19
448.675	89.19
448.896	98.19
449.117	105.19
449.338	89.19
449.559	106.19
449.779	118.19
450	85.19
450.221	85.19
450.442	81.19
450.662	99.19
450.883	86.19
451.104	108.19
451.324	84.19
451.545	93.19
451.766	96.19
451.986	97.19
452.207	94.19
452.428	99.19
452.648	92.19
452.869	81.19
453.089	106.19
453.31	97.19
453.53	85.19
453.751	94.19
453.971	81.19
454.192	105.19
454.412	88.19
454.633	89.19
454.853	91.19
455.073	84.19
455.294	94.19
455.514	88.19
455.734	74.19
455.955	91.19
456.175	87.19
456.395	90.19
456.616	78.19
456.836	100.19
457.056	91.19
457.276	85.19
457.497	62.19
457.717	84.19
457.937	89.19
458.157	70.19
458.377	82.19
458.598	77.19
458.818	113.19
459.038	121.19
459.258	101.19
459.478	80.19
459.698	80.19
459.918	93.19
460.138	89.19
460.358	77.19
460.578	100.19
460.798	86.19
461.018	97.19
461.238	90.19
461.458	93.19
461.678	84.19
461.898	88.19
462.118	90.19
462.338	87.19
462.558	81.19
462.777	95.19
462.997	84.19
463.217	86.19
463.437	86.19
463.657	99.19
463.876	92.19
464.096	88.19
464.316	89.19
464.536	92.19
464.755	87.19
464.975	104.19
465.195	123.19
465.414	125.19
465.634	91.19
465.854	87.19
466.073	87.19
466.293	99.19
466.512	94.19
466.732	93.19
466.951	68.19
467.171	87.19
467.391	84.19
467.61	102.19
467.829	86.19
468.049	101.19
468.268	98.19
468.488	91.19
468.707	92.19
468.927	84.19
469.146	86.19
469.365	90.19
469.585	82.19
469.804	85.19
470.023	98.19
470.243	75.19
470.462	78.19
470.681	104.19
470.901	61.19
471.12	98.19
471.339	86.19
471.558	97.19
471.777	90.19
471.997	102.19
472.216	105.19
472.435	131.19
472.654	88.19
472.873	80.19
473.092	90.19
473.311	86.19
473.53	86.19
473.749	96.19
473.968	89.19
474.187	101.19
474.406	84.19
474.625	88.19
474.844	92.19
475.063	81.19
475.282	78.19
475.501	77.19
475.72	89.19
475.939	93.19
476.158	81.19
476.377	80.19
476.596	93.19
476.814	84.19
477.033	82.19
477.252	91.19
477.471	75.19
477.69	89.19
477.908	82.19
478.127	83.19
478.346	93.19
478.564	88.19
478.783	93.19
479.002	81.19
479.22	83.19
479.439	89.19
479.658	103.19
479.876	81.19
480.095	98.19
480.313	95.19
480.532	82.19
480.751	69.19
480.969	116.19
481.188	181.19
481.406	133.19
481.624	99.19
481.843	94.19
482.061	96.19
482.28	77.19
482.498	90.19
482.717	89.19
482.935	98.19
483.153	78.19
483.372	74.19
483.59	90.19
483.808	98.19
484.027	88.19
484.245	74.19
484.463	92.19
484.681	88.19
484.9	107.19
485.118	107.19
485.336	78.19
485.554	74.19
485.772	94.19
485.99	101.19
486.209	104.19
486.427	101.19
486.645	78.19
486.863	98.19
487.081	98.19
487.299	112.19
487.517	88.19
487.735	90.19
487.953	83.19
488.171	99.19
488.389	105.19
488.607	94.19
488.825	100.19
489.043	92.19
489.261	85.19
489.479	95.19
489.696	89.19
489.914	97.19
490.132	87.19
490.35	94.19
490.568	107.19
490.786	80.19
491.003	80.19
491.221	91.19
491.439	89.19
491.657	78.19
491.874	89.19
492.092	74.19
492.31	95.19
492.527	83.19
492.745	91.19
492.963	93.19
493.18	96.19
493.398	93.19
493.615	90.19
493.833	105.19
494.05	78.19
494.268	84.19
494.485	92.19
494.703	87.19
494.92	107.19
495.138	93.19
495.355	94.19
495.573	99.19
495.79	91.19
496.008	91.19
496.225	94.19
496.442	65.19
496.66	96.19
496.877	93.19
497.094	95.19
497.312	88.19
497.529	82.19
497.746	84.19
497.963	90.19
498.181	75.19
498.398	82.19
498.615	101.19
498.832	92.19
499.049	85.19
499.267	100.19
499.484	82.19
499.701	91.19
499.918	81.19
500.135	91.19
500.352	91.19
500.569	87.19
500.786	88.19
501.003	103.19
501.22	91.19
501.437	88.19
501.654	91.19
501.871	93.19
502.088	94.19
502.305	95.19
502.522	88.19
502.739	84.19
502.956	93.19
503.172	86.19
503.389	107.19
503.606	90.19
503.823	96.19
504.04	103.19
504.256	86.19
504.473	102.19
504.69	110.19
504.907	99.19
505.123	86.19
505.34	87.19
505.557	76.19
505.773	71.19
505.99	85.19
506.207	85.19
506.423	105.19
506.64	71.19
506.856	83.19
507.073	92.19
507.289	82.19
507.506	88.19
507.722	92.19
507.939	91.19
508.155	68.19
508.372	91.19
508.588	84.19
508.805	96.19
509.021	101.19
509.238	92.19
509.454	87.19
509.67	96.19
509.887	107.19
510.103	107.19
510.319	180.19
510.536	560.19
510.752	1779.19
510.968	493.19
511.184	132.19
511.401	103.19
511.617	91.19
511.833	78.19
512.049	81.19
512.265	81.19
512.481	84.19
512.698	102.19
512.914	83.19
513.13	97.19
513.346	94.19
513.562	86.19
513.778	96.19
513.994	91.19
514.21	90.19
514.426	119.19
514.642	113.19
514.858	112.19
515.074	129.19
515.29	317.19
515.506	998.19
515.721	371.19
515.937	127.19
516.153	107.19
516.369	94.19
516.585	110.19
516.801	89.19
517.016	86.19
517.232	88.19
