Data from Uncirc_1980_H10_HRD10591_00078.txt Node
Date: Wed Jan 03 12:37:11 EST 2024
User: Yrep
Spectrometer: HR+D1059
Trigger mode: 1
Integration Time (sec): 1.000000E-1
Scans to average: 1
Electric dark correction enabled: true
Nonlinearity correction enabled: false
Boxcar width: 0
XAxis mode: Wavelengths
Number of Pixels in Spectrum: 2048
>>>>>Begin Spectral Data<<<<<
223.165	-17.5
223.4	-17.5
223.635	-17.5
223.869	-16.5
224.104	-36.5
224.338	-22.5
224.573	-21.5
224.808	-5.5
225.042	-7.5
225.277	-1.5
225.511	-4.5
225.746	8.5
225.98	6.5
226.215	15.5
226.449	26.5
226.683	35.5
226.918	22.5
227.152	18.5
227.387	40.5
227.621	45.5
227.856	49.5
228.09	49.5
228.324	41.5
228.559	59.5
228.793	70.5
229.027	64.5
229.262	77.5
229.496	76.5
229.73	89.5
229.964	76.5
230.199	77.5
230.433	82.5
230.667	74.5
230.901	68.5
231.136	84.5
231.37	78.5
231.604	72.5
231.838	102.5
232.072	76.5
232.306	92.5
232.541	84.5
232.775	97.5
233.009	71.5
233.243	78.5
233.477	88.5
233.711	97.5
233.945	80.5
234.179	68.5
234.413	78.5
234.647	84.5
234.881	79.5
235.115	84.5
235.349	63.5
235.583	84.5
235.817	87.5
236.051	71.5
236.285	80.5
236.519	74.5
236.753	91.5
236.987	74.5
237.221	62.5
237.455	93.5
237.689	102.5
237.922	78.5
238.156	79.5
238.39	88.5
238.624	81.5
238.858	77.5
239.091	84.5
239.325	68.5
239.559	84.5
239.793	90.5
240.027	80.5
240.26	86.5
240.494	59.5
240.728	72.5
240.961	71.5
241.195	73.5
241.429	86.5
241.662	75.5
241.896	85.5
242.13	82.5
242.363	80.5
242.597	85.5
242.83	79.5
243.064	77.5
243.298	92.5
243.531	73.5
243.765	75.5
243.998	69.5
244.232	82.5
244.465	82.5
244.699	87.5
244.932	79.5
245.166	76.5
245.399	71.5
245.633	87.5
245.866	78.5
246.099	81.5
246.333	79.5
246.566	90.5
246.8	79.5
247.033	84.5
247.266	76.5
247.5	72.5
247.733	73.5
247.966	86.5
248.2	86.5
248.433	73.5
248.666	92.5
248.899	81.5
249.133	89.5
249.366	92.5
249.599	82.5
249.832	75.5
250.066	84.5
250.299	88.5
250.532	82.5
250.765	81.5
250.998	74.5
251.231	65.5
251.465	87.5
251.698	81.5
251.931	88.5
252.164	84.5
252.397	74.5
252.63	88.5
252.863	66.5
253.096	84.5
253.329	76.5
253.562	90.5
253.795	79.5
254.028	91.5
254.261	86.5
254.494	86.5
254.727	86.5
254.96	85.5
255.193	79.5
255.426	78.5
255.659	96.5
255.892	69.5
256.124	80.5
256.357	70.5
256.59	89.5
256.823	84.5
257.056	88.5
257.289	78.5
257.521	80.5
257.754	79.5
257.987	88.5
258.22	88.5
258.452	84.5
258.685	98.5
258.918	91.5
259.151	75.5
259.383	85.5
259.616	69.5
259.849	92.5
260.081	100.5
260.314	93.5
260.547	80.5
260.779	82.5
261.012	82.5
261.244	80.5
261.477	87.5
261.71	80.5
261.942	95.5
262.175	94.5
262.407	81.5
262.64	87.5
262.872	84.5
263.105	86.5
263.337	65.5
263.57	92.5
263.802	100.5
264.035	81.5
264.267	94.5
264.499	87.5
264.732	107.5
264.964	74.5
265.197	88.5
265.429	88.5
265.661	97.5
265.894	79.5
266.126	99.5
266.358	79.5
266.591	94.5
266.823	94.5
267.055	89.5
267.287	84.5
267.52	83.5
267.752	68.5
267.984	91.5
268.216	96.5
268.448	102.5
268.681	87.5
268.913	81.5
269.145	96.5
269.377	93.5
269.609	86.5
269.841	75.5
270.073	84.5
270.306	85.5
270.538	82.5
270.77	80.5
271.002	81.5
271.234	82.5
271.466	74.5
271.698	85.5
271.93	74.5
272.162	95.5
272.394	72.5
272.626	84.5
272.858	80.5
273.09	96.5
273.322	80.5
273.553	93.5
273.785	90.5
274.017	89.5
274.249	88.5
274.481	85.5
274.713	78.5
274.945	75.5
275.176	96.5
275.408	80.5
275.64	88.5
275.872	74.5
276.104	98.5
276.335	103.5
276.567	97.5
276.799	98.5
277.031	89.5
277.262	85.5
277.494	85.5
277.726	84.5
277.957	88.5
278.189	90.5
278.421	79.5
278.652	88.5
278.884	78.5
279.115	81.5
279.347	101.5
279.579	89.5
279.81	82.5
280.042	79.5
280.273	81.5
280.505	94.5
280.736	77.5
280.968	89.5
281.199	95.5
281.431	94.5
281.662	78.5
281.894	102.5
282.125	87.5
282.356	101.5
282.588	115.5
282.819	97.5
283.051	94.5
283.282	94.5
283.513	92.5
283.745	78.5
283.976	86.5
284.207	94.5
284.439	77.5
284.67	84.5
284.901	85.5
285.132	84.5
285.364	82.5
285.595	85.5
285.826	101.5
286.057	91.5
286.288	83.5
286.52	94.5
286.751	91.5
286.982	88.5
287.213	89.5
287.444	100.5
287.675	96.5
287.906	80.5
288.138	89.5
288.369	100.5
288.6	96.5
288.831	78.5
289.062	92.5
289.293	92.5
289.524	100.5
289.755	97.5
289.986	89.5
290.217	92.5
290.448	87.5
290.679	80.5
290.91	97.5
291.141	82.5
291.371	73.5
291.602	81.5
291.833	76.5
292.064	97.5
292.295	89.5
292.526	96.5
292.757	90.5
292.987	90.5
293.218	84.5
293.449	86.5
293.68	81.5
293.91	93.5
294.141	90.5
294.372	84.5
294.603	88.5
294.833	101.5
295.064	86.5
295.295	97.5
295.525	80.5
295.756	111.5
295.987	112.5
296.217	130.5
296.448	113.5
296.679	79.5
296.909	102.5
297.14	106.5
297.37	70.5
297.601	85.5
297.831	89.5
298.062	92.5
298.292	93.5
298.523	101.5
298.753	102.5
298.984	90.5
299.214	102.5
299.445	95.5
299.675	95.5
299.905	110.5
300.136	68.5
300.366	92.5
300.597	91.5
300.827	90.5
301.057	87.5
301.288	111.5
301.518	91.5
301.748	91.5
301.979	95.5
302.209	92.5
302.439	92.5
302.669	91.5
302.9	91.5
303.13	95.5
303.36	107.5
303.59	101.5
303.82	92.5
304.051	89.5
304.281	90.5
304.511	92.5
304.741	95.5
304.971	107.5
305.201	97.5
305.431	105.5
305.661	81.5
305.891	92.5
306.121	94.5
306.352	101.5
306.582	106.5
306.812	100.5
307.042	88.5
307.272	93.5
307.502	100.5
307.731	100.5
307.961	105.5
308.191	82.5
308.421	96.5
308.651	100.5
308.881	93.5
309.111	81.5
309.341	100.5
309.571	95.5
309.8	97.5
310.03	86.5
310.26	95.5
310.49	97.5
310.72	94.5
310.949	103.5
311.179	107.5
311.409	94.5
311.639	77.5
311.868	96.5
312.098	92.5
312.328	88.5
312.557	107.5
312.787	93.5
313.017	87.5
313.246	90.5
313.476	89.5
313.706	101.5
313.935	102.5
314.165	105.5
314.394	105.5
314.624	102.5
314.853	86.5
315.083	107.5
315.312	90.5
315.542	78.5
315.771	96.5
316.001	103.5
316.23	78.5
316.46	90.5
316.689	103.5
316.919	101.5
317.148	111.5
317.377	89.5
317.607	86.5
317.836	94.5
318.065	93.5
318.295	92.5
318.524	91.5
318.753	93.5
318.983	97.5
319.212	95.5
319.441	87.5
319.67	104.5
319.9	103.5
320.129	90.5
320.358	101.5
320.587	89.5
320.816	87.5
321.046	90.5
321.275	104.5
321.504	100.5
321.733	95.5
321.962	102.5
322.191	96.5
322.42	95.5
322.649	121.5
322.878	105.5
323.108	114.5
323.337	114.5
323.566	135.5
323.795	144.5
324.024	179.5
324.253	314.5
324.482	588.5
324.71	1252.5
324.939	1668.5
325.168	624.5
325.397	201.5
325.626	148.5
325.855	116.5
326.084	112.5
326.313	122.5
326.542	127.5
326.77	180.5
326.999	363.5
327.228	712.5
327.457	1258.5
327.686	1002.5
327.914	285.5
328.143	164.5
328.372	133.5
328.6	120.5
328.829	116.5
329.058	123.5
329.287	111.5
329.515	104.5
329.744	110.5
329.972	102.5
330.201	116.5
330.43	134.5
330.658	114.5
330.887	126.5
331.115	104.5
331.344	90.5
331.572	101.5
331.801	96.5
332.03	98.5
332.258	98.5
332.486	88.5
332.715	94.5
332.943	89.5
333.172	101.5
333.4	108.5
333.629	105.5
333.857	121.5
334.085	117.5
334.314	103.5
334.542	126.5
334.771	126.5
334.999	91.5
335.227	87.5
335.455	107.5
335.684	119.5
335.912	102.5
336.14	106.5
336.369	98.5
336.597	100.5
336.825	97.5
337.053	108.5
337.281	99.5
337.51	94.5
337.738	95.5
337.966	92.5
338.194	101.5
338.422	96.5
338.65	104.5
338.878	86.5
339.106	94.5
339.334	93.5
339.562	97.5
339.79	88.5
340.018	95.5
340.246	90.5
340.474	88.5
340.702	100.5
340.93	97.5
341.158	97.5
341.386	90.5
341.614	107.5
341.842	79.5
342.07	72.5
342.298	88.5
342.526	103.5
342.754	114.5
342.981	107.5
343.209	85.5
343.437	113.5
343.665	88.5
343.893	90.5
344.12	94.5
344.348	103.5
344.576	86.5
344.804	94.5
345.031	104.5
345.259	93.5
345.487	104.5
345.714	97.5
345.942	88.5
346.17	102.5
346.397	105.5
346.625	86.5
346.853	105.5
347.08	90.5
347.308	83.5
347.535	87.5
347.763	101.5
347.99	95.5
348.218	99.5
348.445	103.5
348.673	84.5
348.9	89.5
349.128	100.5
349.355	75.5
349.583	101.5
349.81	99.5
350.037	86.5
350.265	98.5
350.492	93.5
350.72	91.5
350.947	94.5
351.174	105.5
351.402	100.5
351.629	87.5
351.856	102.5
352.083	105.5
352.311	104.5
352.538	101.5
352.765	95.5
352.992	111.5
353.22	105.5
353.447	107.5
353.674	96.5
353.901	105.5
354.128	100.5
354.355	111.5
354.583	97.5
354.81	94.5
355.037	103.5
355.264	97.5
355.491	97.5
355.718	106.5
355.945	108.5
356.172	91.5
356.399	96.5
356.626	97.5
356.853	97.5
357.08	93.5
357.307	95.5
357.534	85.5
357.761	100.5
357.988	88.5
358.215	104.5
358.441	88.5
358.668	93.5
358.895	100.5
359.122	94.5
359.349	87.5
359.576	100.5
359.802	98.5
360.029	109.5
360.256	108.5
360.483	103.5
360.709	106.5
360.936	90.5
361.163	89.5
361.39	97.5
361.616	93.5
361.843	99.5
362.07	96.5
362.296	88.5
362.523	84.5
362.749	102.5
362.976	94.5
363.203	95.5
363.429	92.5
363.656	85.5
363.882	88.5
364.109	100.5
364.335	96.5
364.562	101.5
364.788	99.5
365.015	94.5
365.241	98.5
365.468	115.5
365.694	115.5
365.92	100.5
366.147	104.5
366.373	96.5
366.599	79.5
366.826	101.5
367.052	91.5
367.278	98.5
367.505	92.5
367.731	88.5
367.957	88.5
368.184	94.5
368.41	99.5
368.636	97.5
368.862	104.5
369.089	79.5
369.315	80.5
369.541	95.5
369.767	100.5
369.993	99.5
370.219	95.5
370.445	79.5
370.672	82.5
370.898	96.5
371.124	92.5
371.35	87.5
371.576	85.5
371.802	80.5
372.028	86.5
372.254	84.5
372.48	90.5
372.706	100.5
372.932	79.5
373.158	89.5
373.384	89.5
373.61	108.5
373.835	92.5
374.061	89.5
374.287	102.5
374.513	95.5
374.739	81.5
374.965	88.5
375.191	95.5
375.416	97.5
375.642	97.5
375.868	91.5
376.094	94.5
376.319	101.5
376.545	88.5
376.771	101.5
376.997	92.5
377.222	84.5
377.448	77.5
377.674	102.5
377.899	93.5
378.125	94.5
378.35	101.5
378.576	88.5
378.802	93.5
379.027	105.5
379.253	89.5
379.478	112.5
379.704	102.5
379.929	108.5
380.155	89.5
380.38	93.5
380.606	97.5
380.831	97.5
381.057	103.5
381.282	98.5
381.507	90.5
381.733	88.5
381.958	115.5
382.184	91.5
382.409	93.5
382.634	109.5
382.86	90.5
383.085	102.5
383.31	101.5
383.535	97.5
383.761	94.5
383.986	94.5
384.211	91.5
384.436	92.5
384.662	96.5
384.887	104.5
385.112	108.5
385.337	107.5
385.562	105.5
385.787	115.5
386.013	112.5
386.238	119.5
386.463	110.5
386.688	116.5
386.913	98.5
387.138	97.5
387.363	109.5
387.588	101.5
387.813	95.5
388.038	116.5
388.263	109.5
388.488	113.5
388.713	93.5
388.938	102.5
389.163	90.5
389.387	98.5
389.612	95.5
389.837	96.5
390.062	86.5
390.287	106.5
390.512	92.5
390.736	94.5
390.961	89.5
391.186	96.5
391.411	106.5
391.636	98.5
391.86	83.5
392.085	97.5
392.31	92.5
392.534	94.5
392.759	100.5
392.984	89.5
393.208	105.5
393.433	96.5
393.658	78.5
393.882	90.5
394.107	96.5
394.331	94.5
394.556	75.5
394.78	92.5
395.005	88.5
395.229	79.5
395.454	90.5
395.678	100.5
395.903	88.5
396.127	87.5
396.352	97.5
396.576	78.5
396.801	93.5
397.025	81.5
397.249	85.5
397.474	82.5
397.698	100.5
397.922	100.5
398.147	93.5
398.371	93.5
398.595	80.5
398.82	91.5
399.044	89.5
399.268	85.5
399.492	75.5
399.717	86.5
399.941	85.5
400.165	82.5
400.389	95.5
400.613	82.5
400.837	88.5
401.062	103.5
401.286	72.5
401.51	89.5
401.734	88.5
401.958	77.5
402.182	122.5
402.406	133.5
402.63	122.5
402.854	108.5
403.078	112.5
403.302	86.5
403.526	88.5
403.75	88.5
403.974	76.5
404.198	92.5
404.422	98.5
404.645	103.5
404.869	90.5
405.093	90.5
405.317	95.5
405.541	100.5
405.765	106.5
405.988	108.5
406.212	155.5
406.436	178.5
406.66	124.5
406.883	94.5
407.107	96.5
407.331	95.5
407.555	107.5
407.778	100.5
408.002	95.5
408.226	88.5
408.449	80.5
408.673	93.5
408.896	107.5
409.12	105.5
409.344	107.5
409.567	101.5
409.791	96.5
410.014	103.5
410.238	84.5
410.461	86.5
410.685	86.5
410.908	109.5
411.132	122.5
411.355	105.5
411.578	88.5
411.802	85.5
412.025	100.5
412.249	91.5
412.472	102.5
412.695	103.5
412.919	84.5
413.142	109.5
413.365	85.5
413.589	78.5
413.812	94.5
414.035	96.5
414.258	87.5
414.482	81.5
414.705	109.5
414.928	96.5
415.151	87.5
415.374	93.5
415.597	91.5
415.821	92.5
416.044	93.5
416.267	96.5
416.49	86.5
416.713	80.5
416.936	88.5
417.159	93.5
417.382	88.5
417.605	76.5
417.828	97.5
418.051	109.5
418.274	93.5
418.497	89.5
418.72	90.5
418.943	114.5
419.166	100.5
419.389	80.5
419.611	101.5
419.834	100.5
420.057	86.5
420.28	90.5
420.503	80.5
420.726	80.5
420.948	93.5
421.171	82.5
421.394	96.5
421.617	111.5
421.839	85.5
422.062	90.5
422.285	89.5
422.507	103.5
422.73	95.5
422.953	88.5
423.175	88.5
423.398	101.5
423.621	96.5
423.843	84.5
424.066	95.5
424.288	95.5
424.511	98.5
424.733	105.5
424.956	114.5
425.178	102.5
425.401	104.5
425.623	92.5
425.846	93.5
426.068	101.5
426.291	84.5
426.513	98.5
426.735	88.5
426.958	102.5
427.18	106.5
427.402	124.5
427.625	132.5
427.847	122.5
428.069	114.5
428.292	96.5
428.514	90.5
428.736	102.5
428.958	88.5
429.181	84.5
429.403	94.5
429.625	96.5
429.847	82.5
430.069	101.5
430.292	91.5
430.514	86.5
430.736	97.5
430.958	107.5
431.18	92.5
431.402	81.5
431.624	84.5
431.846	88.5
432.068	102.5
432.29	92.5
432.512	92.5
432.734	89.5
432.956	85.5
433.178	112.5
433.4	100.5
433.622	102.5
433.844	90.5
434.066	100.5
434.287	101.5
434.509	80.5
434.731	88.5
434.953	85.5
435.175	89.5
435.397	92.5
435.618	97.5
435.84	88.5
436.062	111.5
436.284	104.5
436.505	104.5
436.727	116.5
436.949	88.5
437.17	92.5
437.392	82.5
437.614	97.5
437.835	94.5
438.057	96.5
438.278	95.5
438.5	111.5
438.721	116.5
438.943	95.5
439.165	76.5
439.386	90.5
439.608	101.5
439.829	87.5
440.05	103.5
440.272	136.5
440.493	108.5
440.715	96.5
440.936	97.5
441.158	80.5
441.379	102.5
441.6	104.5
441.822	90.5
442.043	94.5
442.264	100.5
442.486	102.5
442.707	92.5
442.928	94.5
443.149	120.5
443.371	115.5
443.592	100.5
443.813	100.5
444.034	105.5
444.255	95.5
444.476	84.5
444.698	90.5
444.919	86.5
445.14	145.5
445.361	120.5
445.582	93.5
445.803	109.5
446.024	121.5
446.245	124.5
446.466	103.5
446.687	95.5
446.908	100.5
447.129	90.5
447.35	77.5
447.571	95.5
447.792	82.5
448.013	101.5
448.234	88.5
448.455	89.5
448.675	106.5
448.896	107.5
449.117	89.5
449.338	98.5
449.559	114.5
449.779	121.5
450	94.5
450.221	92.5
450.442	89.5
450.662	95.5
450.883	90.5
451.104	90.5
451.324	91.5
451.545	93.5
451.766	86.5
451.986	103.5
452.207	92.5
452.428	95.5
452.648	90.5
452.869	97.5
453.089	109.5
453.31	132.5
453.53	102.5
453.751	95.5
453.971	103.5
454.192	102.5
454.412	83.5
454.633	78.5
454.853	94.5
455.073	92.5
455.294	84.5
455.514	89.5
455.734	80.5
455.955	84.5
456.175	80.5
456.395	85.5
456.616	86.5
456.836	87.5
457.056	82.5
457.276	89.5
457.497	81.5
457.717	80.5
457.937	92.5
458.157	84.5
458.377	97.5
458.598	109.5
458.818	132.5
459.038	143.5
459.258	93.5
459.478	87.5
459.698	79.5
459.918	86.5
460.138	91.5
460.358	89.5
460.578	92.5
460.798	95.5
461.018	85.5
461.238	98.5
461.458	90.5
461.678	89.5
461.898	95.5
462.118	103.5
462.338	85.5
462.558	92.5
462.777	87.5
462.997	84.5
463.217	95.5
463.437	89.5
463.657	92.5
463.876	94.5
464.096	92.5
464.316	104.5
464.536	87.5
464.755	82.5
464.975	100.5
465.195	124.5
465.414	124.5
465.634	101.5
465.854	96.5
466.073	84.5
466.293	80.5
466.512	88.5
466.732	84.5
466.951	105.5
467.171	109.5
467.391	88.5
467.61	96.5
467.829	95.5
468.049	91.5
468.268	117.5
468.488	106.5
468.707	88.5
468.927	109.5
469.146	75.5
469.365	82.5
469.585	93.5
469.804	89.5
470.023	101.5
470.243	92.5
470.462	97.5
470.681	105.5
470.901	94.5
471.12	96.5
471.339	92.5
471.558	94.5
471.777	101.5
471.997	88.5
472.216	106.5
472.435	143.5
472.654	90.5
472.873	74.5
473.092	97.5
473.311	89.5
473.53	88.5
473.749	89.5
473.968	98.5
474.187	102.5
474.406	94.5
474.625	88.5
474.844	97.5
475.063	86.5
475.282	89.5
475.501	86.5
475.72	97.5
475.939	76.5
476.158	94.5
476.377	100.5
476.596	88.5
476.814	90.5
477.033	95.5
477.252	77.5
477.471	94.5
477.69	101.5
477.908	88.5
478.127	76.5
478.346	92.5
478.564	92.5
478.783	95.5
479.002	94.5
479.22	78.5
479.439	109.5
479.658	102.5
479.876	104.5
480.095	94.5
480.313	100.5
480.532	92.5
480.751	89.5
480.969	113.5
481.188	179.5
481.406	148.5
481.624	109.5
481.843	91.5
482.061	102.5
482.28	96.5
482.498	101.5
482.717	85.5
482.935	96.5
483.153	89.5
483.372	90.5
483.59	97.5
483.808	92.5
484.027	95.5
484.245	102.5
484.463	84.5
484.681	91.5
484.9	105.5
485.118	96.5
485.336	97.5
485.554	91.5
485.772	108.5
485.99	95.5
486.209	109.5
486.427	97.5
486.645	111.5
486.863	103.5
487.081	91.5
487.299	105.5
487.517	105.5
487.735	92.5
487.953	90.5
488.171	107.5
488.389	108.5
488.607	90.5
488.825	97.5
489.043	101.5
489.261	97.5
489.479	96.5
489.696	101.5
489.914	108.5
490.132	101.5
490.35	69.5
490.568	86.5
490.786	96.5
491.003	100.5
491.221	99.5
491.439	92.5
491.657	86.5
491.874	90.5
492.092	94.5
492.31	94.5
492.527	81.5
492.745	97.5
492.963	96.5
493.18	81.5
493.398	91.5
493.615	100.5
493.833	101.5
494.05	91.5
494.268	91.5
494.485	98.5
494.703	93.5
494.92	93.5
495.138	88.5
495.355	109.5
495.573	81.5
495.79	98.5
496.008	91.5
496.225	101.5
496.442	96.5
496.66	95.5
496.877	104.5
497.094	86.5
497.312	88.5
497.529	95.5
497.746	97.5
497.963	90.5
498.181	94.5
498.398	84.5
498.615	114.5
498.832	115.5
499.049	97.5
499.267	86.5
499.484	84.5
499.701	95.5
499.918	107.5
500.135	92.5
500.352	80.5
500.569	84.5
500.786	77.5
501.003	93.5
501.22	97.5
501.437	94.5
501.654	109.5
501.871	106.5
502.088	104.5
502.305	96.5
502.522	97.5
502.739	90.5
502.956	102.5
503.172	90.5
503.389	78.5
503.606	105.5
503.823	81.5
504.04	111.5
504.256	105.5
504.473	95.5
504.69	102.5
504.907	84.5
505.123	102.5
505.34	90.5
505.557	87.5
505.773	92.5
505.99	88.5
506.207	100.5
506.423	93.5
506.64	96.5
506.856	97.5
507.073	84.5
507.289	94.5
507.506	98.5
507.722	105.5
507.939	104.5
508.155	107.5
508.372	106.5
508.588	98.5
508.805	80.5
509.021	94.5
509.238	93.5
509.454	104.5
509.67	118.5
509.887	113.5
510.103	127.5
510.319	192.5
510.536	600.5
510.752	1820.5
510.968	507.5
511.184	122.5
511.401	93.5
511.617	98.5
511.833	101.5
512.049	92.5
512.265	82.5
512.481	86.5
512.698	92.5
512.914	90.5
513.13	103.5
513.346	103.5
513.562	90.5
513.778	110.5
513.994	103.5
514.21	102.5
514.426	116.5
514.642	133.5
514.858	117.5
515.074	141.5
515.29	332.5
515.506	1053.5
515.721	400.5
515.937	145.5
516.153	113.5
516.369	94.5
516.585	102.5
516.801	103.5
517.016	94.5
517.232	106.5
517.448	80.5
517.664	89.5
517.879	82.5
518.095	95.5
518.311	98.5
518.527	88.5
518.742	91.5
518.958	95.5
519.173	99.5
519.389	102.5
519.605	108.5
519.82	102.5
520.036	112.5
520.251	129.5
520.467	101.5
520.682	102.5
520.898	98.5
521.113	125.5
521.329	126.5
521.544	169.5
521.76	417.5
521.975	1732.5
522.19	1028.5
522.406	250.5
522.621	104.5
522.836	97.5
523.052	96.5
523.267	94.5
523.482	89.5
523.698	101.5
523.913	112.5
524.128	99.5
524.343	84.5
524.559	91.5
524.774	92.5
524.989	91.5
525.204	104.5
525.419	94.5
525.634	84.5
525.849	93.5
526.064	110.5
526.28	104.5
526.495	95.5
526.71	93.5
526.925	97.5
527.14	81.5
527.355	90.5
527.57	77.5
527.785	94.5
527.999	98.5
528.214	78.5
528.429	87.5
528.644	98.5
528.859	88.5
529.074	89.5
529.289	124.5
529.503	159.5
529.718	111.5
529.933	105.5
530.148	98.5
530.363	82.5
530.577	103.5
530.792	97.5
531.007	100.5
531.221	94.5
531.436	88.5
531.651	108.5
531.865	98.5
532.08	107.5
532.295	74.5
532.509	97.5
532.724	94.5
532.938	89.5
533.153	103.5
533.367	113.5
533.582	103.5
533.796	92.5
534.011	93.5
