Data from Uncirc_1980_H10_HRD10591_00089.txt Node
Date: Wed Jan 03 12:37:13 EST 2024
User: Yrep
Spectrometer: HR+D1059
Trigger mode: 1
Integration Time (sec): 1.000000E-1
Scans to average: 1
Electric dark correction enabled: true
Nonlinearity correction enabled: false
Boxcar width: 0
XAxis mode: Wavelengths
Number of Pixels in Spectrum: 2048
>>>>>Begin Spectral Data<<<<<
223.165	-13.94
223.4	-13.94
223.635	-13.94
223.869	-8.94
224.104	-23.94
224.338	-12.94
224.573	-4.94
224.808	-20.94
225.042	-6.94
225.277	-23.94
225.511	-0.94
225.746	8.06
225.98	11.06
226.215	15.06
226.449	19.06
226.683	8.06
226.918	31.06
227.152	25.06
227.387	33.06
227.621	25.06
227.856	39.06
228.09	58.06
228.324	56.06
228.559	56.06
228.793	67.06
229.027	59.06
229.262	63.06
229.496	71.06
229.73	77.06
229.964	73.06
230.199	75.06
230.433	79.06
230.667	76.06
230.901	83.06
231.136	72.06
231.37	89.06
231.604	83.06
231.838	81.06
232.072	71.06
232.306	73.06
232.541	75.06
232.775	74.06
233.009	73.06
233.243	70.06
233.477	64.06
233.711	84.06
233.945	73.06
234.179	81.06
234.413	85.06
234.647	70.06
234.881	87.06
235.115	65.06
235.349	86.06
235.583	79.06
235.817	80.06
236.051	71.06
236.285	66.06
236.519	84.06
236.753	76.06
236.987	86.06
237.221	72.06
237.455	80.06
237.689	88.06
237.922	69.06
238.156	63.06
238.39	68.06
238.624	69.06
238.858	74.06
239.091	67.06
239.325	74.06
239.559	82.06
239.793	83.06
240.027	80.06
240.26	67.06
240.494	70.06
240.728	75.06
240.961	73.06
241.195	85.06
241.429	75.06
241.662	87.06
241.896	71.06
242.13	71.06
242.363	66.06
242.597	71.06
242.83	74.06
243.064	76.06
243.298	79.06
243.531	84.06
243.765	91.06
243.998	79.06
244.232	87.06
244.465	76.06
244.699	83.06
244.932	71.06
245.166	82.06
245.399	68.06
245.633	70.06
245.866	76.06
246.099	85.06
246.333	71.06
246.566	79.06
246.8	76.06
247.033	90.06
247.266	75.06
247.5	72.06
247.733	55.06
247.966	81.06
248.2	78.06
248.433	90.06
248.666	77.06
248.899	95.06
249.133	91.06
249.366	81.06
249.599	92.06
249.832	67.06
250.066	81.06
250.299	70.06
250.532	79.06
250.765	91.06
250.998	87.06
251.231	80.06
251.465	86.06
251.698	74.06
251.931	77.06
252.164	67.06
252.397	57.06
252.63	82.06
252.863	87.06
253.096	87.06
253.329	75.06
253.562	84.06
253.795	85.06
254.028	92.06
254.261	83.06
254.494	82.06
254.727	69.06
254.96	77.06
255.193	92.06
255.426	83.06
255.659	82.06
255.892	84.06
256.124	93.06
256.357	80.06
256.59	97.06
256.823	75.06
257.056	80.06
257.289	87.06
257.521	86.06
257.754	74.06
257.987	69.06
258.22	87.06
258.452	74.06
258.685	93.06
258.918	81.06
259.151	81.06
259.383	84.06
259.616	76.06
259.849	86.06
260.081	90.06
260.314	70.06
260.547	70.06
260.779	74.06
261.012	103.06
261.244	89.06
261.477	81.06
261.71	90.06
261.942	108.06
262.175	109.06
262.407	84.06
262.64	79.06
262.872	91.06
263.105	84.06
263.337	91.06
263.57	90.06
263.802	94.06
264.035	90.06
264.267	96.06
264.499	76.06
264.732	84.06
264.964	93.06
265.197	96.06
265.429	91.06
265.661	87.06
265.894	80.06
266.126	73.06
266.358	87.06
266.591	82.06
266.823	87.06
267.055	83.06
267.287	77.06
267.52	69.06
267.752	83.06
267.984	73.06
268.216	79.06
268.448	77.06
268.681	65.06
268.913	86.06
269.145	87.06
269.377	84.06
269.609	75.06
269.841	88.06
270.073	74.06
270.306	71.06
270.538	94.06
270.77	71.06
271.002	91.06
271.234	89.06
271.466	91.06
271.698	91.06
271.93	92.06
272.162	92.06
272.394	81.06
272.626	80.06
272.858	66.06
273.09	84.06
273.322	88.06
273.553	80.06
273.785	81.06
274.017	77.06
274.249	83.06
274.481	83.06
274.713	75.06
274.945	88.06
275.176	87.06
275.408	91.06
275.64	79.06
275.872	96.06
276.104	95.06
276.335	87.06
276.567	89.06
276.799	108.06
277.031	97.06
277.262	95.06
277.494	80.06
277.726	76.06
277.957	72.06
278.189	90.06
278.421	79.06
278.652	68.06
278.884	87.06
279.115	66.06
279.347	71.06
279.579	81.06
279.81	82.06
280.042	80.06
280.273	90.06
280.505	82.06
280.736	83.06
280.968	70.06
281.199	74.06
281.431	95.06
281.662	87.06
281.894	85.06
282.125	97.06
282.356	108.06
282.588	119.06
282.819	98.06
283.051	77.06
283.282	84.06
283.513	90.06
283.745	101.06
283.976	84.06
284.207	76.06
284.439	77.06
284.67	72.06
284.901	66.06
285.132	81.06
285.364	97.06
285.595	89.06
285.826	80.06
286.057	89.06
286.288	103.06
286.52	77.06
286.751	77.06
286.982	72.06
287.213	72.06
287.444	100.06
287.675	93.06
287.906	82.06
288.138	88.06
288.369	79.06
288.6	78.06
288.831	89.06
289.062	92.06
289.293	83.06
289.524	93.06
289.755	93.06
289.986	76.06
290.217	73.06
290.448	84.06
290.679	73.06
290.91	80.06
291.141	86.06
291.371	89.06
291.602	87.06
291.833	102.06
292.064	94.06
292.295	87.06
292.526	82.06
292.757	87.06
292.987	82.06
293.218	91.06
293.449	79.06
293.68	81.06
293.91	96.06
294.141	85.06
294.372	83.06
294.603	87.06
294.833	73.06
295.064	75.06
295.295	86.06
295.525	88.06
295.756	105.06
295.987	102.06
296.217	121.06
296.448	95.06
296.679	101.06
296.909	75.06
297.14	81.06
297.37	91.06
297.601	84.06
297.831	76.06
298.062	87.06
298.292	80.06
298.523	79.06
298.753	85.06
298.984	96.06
299.214	87.06
299.445	85.06
299.675	87.06
299.905	72.06
300.136	102.06
300.366	94.06
300.597	81.06
300.827	92.06
301.057	95.06
301.288	91.06
301.518	77.06
301.748	83.06
301.979	87.06
302.209	87.06
302.439	88.06
302.669	77.06
302.9	95.06
303.13	89.06
303.36	92.06
303.59	95.06
303.82	89.06
304.051	72.06
304.281	93.06
304.511	96.06
304.741	87.06
304.971	97.06
305.201	90.06
305.431	83.06
305.661	91.06
305.891	98.06
306.121	95.06
306.352	110.06
306.582	105.06
306.812	82.06
307.042	88.06
307.272	90.06
307.502	92.06
307.731	92.06
307.961	88.06
308.191	82.06
308.421	91.06
308.651	92.06
308.881	81.06
309.111	94.06
309.341	100.06
309.571	94.06
309.8	88.06
310.03	95.06
310.26	95.06
310.49	97.06
310.72	76.06
310.949	99.06
311.179	85.06
311.409	85.06
311.639	87.06
311.868	95.06
312.098	81.06
312.328	86.06
312.557	110.06
312.787	88.06
313.017	89.06
313.246	92.06
313.476	90.06
313.706	87.06
313.935	100.06
314.165	94.06
314.394	92.06
314.624	92.06
314.853	82.06
315.083	72.06
315.312	75.06
315.542	81.06
315.771	85.06
316.001	88.06
316.23	102.06
316.46	85.06
316.689	90.06
316.919	82.06
317.148	97.06
317.377	95.06
317.607	84.06
317.836	91.06
318.065	93.06
318.295	99.06
318.524	80.06
318.753	97.06
318.983	100.06
319.212	83.06
319.441	89.06
319.67	97.06
319.9	89.06
320.129	87.06
320.358	92.06
320.587	83.06
320.816	114.06
321.046	104.06
321.275	91.06
321.504	93.06
321.733	95.06
321.962	85.06
322.191	98.06
322.42	86.06
322.649	93.06
322.878	97.06
323.108	108.06
323.337	95.06
323.566	116.06
323.795	119.06
324.024	174.06
324.253	302.06
324.482	573.06
324.71	1209.06
324.939	1593.06
325.168	596.06
325.397	197.06
325.626	125.06
325.855	109.06
326.084	110.06
326.313	123.06
326.542	130.06
326.77	183.06
326.999	326.06
327.228	690.06
327.457	1219.06
327.686	981.06
327.914	285.06
328.143	171.06
328.372	121.06
328.6	121.06
328.829	109.06
329.058	112.06
329.287	114.06
329.515	92.06
329.744	95.06
329.972	88.06
330.201	111.06
330.43	115.06
330.658	119.06
330.887	115.06
331.115	96.06
331.344	85.06
331.572	92.06
331.801	92.06
332.03	96.06
332.258	94.06
332.486	80.06
332.715	85.06
332.943	90.06
333.172	92.06
333.4	101.06
333.629	107.06
333.857	99.06
334.085	110.06
334.314	107.06
334.542	130.06
334.771	119.06
334.999	95.06
335.227	81.06
335.455	95.06
335.684	88.06
335.912	78.06
336.14	82.06
336.369	95.06
336.597	98.06
336.825	100.06
337.053	93.06
337.281	66.06
337.51	83.06
337.738	91.06
337.966	81.06
338.194	81.06
338.422	87.06
338.65	101.06
338.878	85.06
339.106	95.06
339.334	98.06
339.562	87.06
339.79	91.06
340.018	88.06
340.246	112.06
340.474	100.06
340.702	81.06
340.93	82.06
341.158	88.06
341.386	65.06
341.614	85.06
341.842	81.06
342.07	79.06
342.298	79.06
342.526	92.06
342.754	84.06
342.981	80.06
343.209	75.06
343.437	85.06
343.665	95.06
343.893	86.06
344.12	82.06
344.348	94.06
344.576	86.06
344.804	88.06
345.031	80.06
345.259	108.06
345.487	73.06
345.714	91.06
345.942	77.06
346.17	81.06
346.397	89.06
346.625	91.06
346.853	89.06
347.08	90.06
347.308	76.06
347.535	83.06
347.763	89.06
347.99	89.06
348.218	106.06
348.445	91.06
348.673	110.06
348.9	86.06
349.128	95.06
349.355	90.06
349.583	77.06
349.81	89.06
350.037	89.06
350.265	80.06
350.492	90.06
350.72	101.06
350.947	93.06
351.174	103.06
351.402	96.06
351.629	103.06
351.856	97.06
352.083	105.06
352.311	113.06
352.538	99.06
352.765	99.06
352.992	107.06
353.22	102.06
353.447	105.06
353.674	105.06
353.901	110.06
354.128	108.06
354.355	97.06
354.583	97.06
354.81	114.06
355.037	101.06
355.264	97.06
355.491	112.06
355.718	92.06
355.945	100.06
356.172	97.06
356.399	104.06
356.626	86.06
356.853	98.06
357.08	101.06
357.307	101.06
357.534	92.06
357.761	95.06
357.988	92.06
358.215	98.06
358.441	81.06
358.668	79.06
358.895	93.06
359.122	80.06
359.349	98.06
359.576	85.06
359.802	83.06
360.029	95.06
360.256	118.06
360.483	90.06
360.709	89.06
360.936	87.06
361.163	98.06
361.39	87.06
361.616	94.06
361.843	79.06
362.07	88.06
362.296	96.06
362.523	97.06
362.749	104.06
362.976	89.06
363.203	82.06
363.429	81.06
363.656	92.06
363.882	80.06
364.109	86.06
364.335	80.06
364.562	91.06
364.788	81.06
365.015	96.06
365.241	96.06
365.468	98.06
365.694	100.06
365.92	72.06
366.147	109.06
366.373	88.06
366.599	69.06
366.826	75.06
367.052	83.06
367.278	90.06
367.505	82.06
367.731	89.06
367.957	80.06
368.184	97.06
368.41	90.06
368.636	114.06
368.862	114.06
369.089	98.06
369.315	92.06
369.541	72.06
369.767	86.06
369.993	90.06
370.219	84.06
370.445	87.06
370.672	91.06
370.898	79.06
371.124	96.06
371.35	86.06
371.576	69.06
371.802	95.06
372.028	76.06
372.254	87.06
372.48	89.06
372.706	93.06
372.932	78.06
373.158	74.06
373.384	91.06
373.61	72.06
373.835	87.06
374.061	93.06
374.287	89.06
374.513	90.06
374.739	87.06
374.965	80.06
375.191	92.06
375.416	87.06
375.642	81.06
375.868	84.06
376.094	87.06
376.319	102.06
376.545	75.06
376.771	77.06
376.997	93.06
377.222	85.06
377.448	71.06
377.674	85.06
377.899	106.06
378.125	104.06
378.35	86.06
378.576	92.06
378.802	91.06
379.027	79.06
379.253	97.06
379.478	91.06
379.704	88.06
379.929	84.06
380.155	93.06
380.38	99.06
380.606	95.06
380.831	87.06
381.057	95.06
381.282	99.06
381.507	93.06
381.733	99.06
381.958	98.06
382.184	95.06
382.409	100.06
382.634	99.06
382.86	85.06
383.085	108.06
383.31	95.06
383.535	102.06
383.761	101.06
383.986	88.06
384.211	100.06
384.436	95.06
384.662	94.06
384.887	101.06
385.112	93.06
385.337	76.06
385.562	89.06
385.787	88.06
386.013	103.06
386.238	109.06
386.463	110.06
386.688	112.06
386.913	106.06
387.138	100.06
387.363	104.06
387.588	83.06
387.813	89.06
388.038	101.06
388.263	119.06
388.488	98.06
388.713	105.06
388.938	99.06
389.163	95.06
389.387	93.06
389.612	107.06
389.837	84.06
390.062	95.06
390.287	83.06
390.512	87.06
390.736	95.06
390.961	88.06
391.186	88.06
391.411	96.06
391.636	88.06
391.86	80.06
392.085	77.06
392.31	83.06
392.534	76.06
392.759	74.06
392.984	79.06
393.208	95.06
393.433	80.06
393.658	78.06
393.882	92.06
394.107	76.06
394.331	95.06
394.556	98.06
394.78	84.06
395.005	81.06
395.229	86.06
395.454	80.06
395.678	87.06
395.903	79.06
396.127	81.06
396.352	76.06
396.576	84.06
396.801	80.06
397.025	88.06
397.249	86.06
397.474	76.06
397.698	69.06
397.922	77.06
398.147	85.06
398.371	81.06
398.595	80.06
398.82	72.06
399.044	81.06
399.268	85.06
399.492	101.06
399.717	99.06
399.941	96.06
400.165	81.06
400.389	108.06
400.613	75.06
400.837	74.06
401.062	74.06
401.286	83.06
401.51	89.06
401.734	88.06
401.958	95.06
402.182	112.06
402.406	141.06
402.63	101.06
402.854	92.06
403.078	85.06
403.302	90.06
403.526	75.06
403.75	79.06
403.974	84.06
404.198	73.06
404.422	79.06
404.645	91.06
404.869	84.06
405.093	105.06
405.317	102.06
405.541	81.06
405.765	94.06
405.988	120.06
406.212	138.06
406.436	172.06
406.66	103.06
406.883	85.06
407.107	86.06
407.331	94.06
407.555	95.06
407.778	84.06
408.002	86.06
408.226	95.06
408.449	99.06
408.673	93.06
408.896	95.06
409.12	90.06
409.344	93.06
409.567	78.06
409.791	91.06
410.014	86.06
410.238	98.06
410.461	83.06
410.685	92.06
410.908	92.06
411.132	102.06
411.355	85.06
411.578	79.06
411.802	93.06
412.025	87.06
412.249	98.06
412.472	93.06
412.695	101.06
412.919	80.06
413.142	68.06
413.365	85.06
413.589	74.06
413.812	84.06
414.035	85.06
414.258	83.06
414.482	87.06
414.705	92.06
414.928	96.06
415.151	81.06
415.374	88.06
415.597	96.06
415.821	81.06
416.044	85.06
416.267	74.06
416.49	86.06
416.713	92.06
416.936	89.06
417.159	91.06
417.382	96.06
417.605	90.06
417.828	98.06
418.051	92.06
418.274	88.06
418.497	80.06
418.72	86.06
418.943	84.06
419.166	80.06
419.389	95.06
419.611	104.06
419.834	70.06
420.057	94.06
420.28	92.06
420.503	75.06
420.726	96.06
420.948	89.06
421.171	99.06
421.394	93.06
421.617	89.06
421.839	82.06
422.062	88.06
422.285	95.06
422.507	99.06
422.73	95.06
422.953	88.06
423.175	71.06
423.398	84.06
423.621	77.06
423.843	80.06
424.066	81.06
424.288	96.06
424.511	86.06
424.733	88.06
424.956	107.06
425.178	93.06
425.401	100.06
425.623	99.06
425.846	86.06
426.068	83.06
426.291	91.06
426.513	92.06
426.735	87.06
426.958	90.06
427.18	84.06
427.402	106.06
427.625	135.06
427.847	124.06
428.069	107.06
428.292	77.06
428.514	74.06
428.736	68.06
428.958	86.06
429.181	91.06
429.403	67.06
429.625	76.06
429.847	100.06
430.069	93.06
430.292	100.06
430.514	75.06
430.736	89.06
430.958	85.06
431.18	89.06
431.402	87.06
431.624	71.06
431.846	88.06
432.068	99.06
432.29	88.06
432.512	98.06
432.734	88.06
432.956	81.06
433.178	92.06
433.4	97.06
433.622	97.06
433.844	89.06
434.066	94.06
434.287	96.06
434.509	87.06
434.731	83.06
434.953	88.06
435.175	88.06
435.397	92.06
435.618	102.06
435.84	109.06
436.062	90.06
436.284	109.06
436.505	85.06
436.727	72.06
436.949	79.06
437.17	85.06
437.392	100.06
437.614	85.06
437.835	82.06
438.057	101.06
438.278	95.06
438.5	93.06
438.721	101.06
438.943	89.06
439.165	93.06
439.386	85.06
439.608	93.06
439.829	89.06
440.05	106.06
440.272	118.06
440.493	95.06
440.715	67.06
440.936	107.06
441.158	79.06
441.379	79.06
441.6	92.06
441.822	81.06
442.043	79.06
442.264	89.06
442.486	94.06
442.707	80.06
442.928	99.06
443.149	106.06
443.371	103.06
443.592	88.06
443.813	98.06
444.034	89.06
444.255	87.06
444.476	93.06
444.698	68.06
444.919	87.06
445.14	136.06
445.361	125.06
445.582	88.06
445.803	114.06
446.024	105.06
446.245	117.06
446.466	102.06
446.687	89.06
446.908	88.06
447.129	67.06
447.35	76.06
447.571	103.06
447.792	89.06
448.013	102.06
448.234	120.06
448.455	95.06
448.675	98.06
448.896	102.06
449.117	92.06
449.338	92.06
449.559	119.06
449.779	128.06
450	99.06
450.221	76.06
450.442	91.06
450.662	80.06
450.883	93.06
451.104	109.06
451.324	103.06
451.545	84.06
451.766	86.06
451.986	81.06
452.207	88.06
452.428	88.06
452.648	87.06
452.869	91.06
453.089	108.06
453.31	106.06
453.53	91.06
453.751	75.06
453.971	96.06
454.192	109.06
454.412	91.06
454.633	95.06
454.853	78.06
455.073	74.06
455.294	74.06
455.514	99.06
455.734	100.06
455.955	90.06
456.175	83.06
456.395	84.06
456.616	78.06
456.836	89.06
457.056	89.06
457.276	77.06
457.497	87.06
457.717	79.06
457.937	80.06
458.157	74.06
458.377	86.06
458.598	82.06
458.818	129.06
459.038	135.06
459.258	99.06
459.478	68.06
459.698	73.06
459.918	73.06
460.138	85.06
460.358	75.06
460.578	81.06
460.798	67.06
461.018	87.06
461.238	80.06
461.458	88.06
461.678	94.06
461.898	89.06
462.118	91.06
462.338	90.06
462.558	97.06
462.777	70.06
462.997	73.06
463.217	81.06
463.437	83.06
463.657	87.06
463.876	100.06
464.096	80.06
464.316	69.06
464.536	95.06
464.755	100.06
464.975	115.06
465.195	137.06
465.414	138.06
465.634	86.06
465.854	87.06
466.073	100.06
466.293	91.06
466.512	76.06
466.732	79.06
466.951	90.06
467.171	94.06
467.391	82.06
467.61	92.06
467.829	89.06
468.049	87.06
468.268	93.06
468.488	97.06
468.707	91.06
468.927	84.06
469.146	80.06
469.365	81.06
469.585	69.06
469.804	84.06
470.023	81.06
470.243	87.06
470.462	90.06
470.681	104.06
470.901	84.06
471.12	73.06
471.339	82.06
471.558	87.06
471.777	84.06
471.997	88.06
472.216	115.06
472.435	132.06
472.654	88.06
472.873	98.06
473.092	72.06
473.311	92.06
473.53	75.06
473.749	85.06
473.968	93.06
474.187	96.06
474.406	99.06
474.625	84.06
474.844	88.06
475.063	76.06
475.282	92.06
475.501	88.06
475.72	87.06
475.939	85.06
476.158	81.06
476.377	84.06
476.596	80.06
476.814	84.06
477.033	84.06
477.252	86.06
477.471	80.06
477.69	85.06
477.908	86.06
478.127	85.06
478.346	83.06
478.564	87.06
478.783	90.06
479.002	100.06
479.22	87.06
479.439	95.06
479.658	96.06
479.876	93.06
480.095	91.06
480.313	81.06
480.532	102.06
480.751	85.06
480.969	115.06
481.188	166.06
481.406	127.06
481.624	96.06
481.843	83.06
482.061	87.06
482.28	86.06
482.498	89.06
482.717	83.06
482.935	92.06
483.153	81.06
483.372	88.06
483.59	79.06
483.808	97.06
484.027	89.06
484.245	90.06
484.463	96.06
484.681	91.06
484.9	95.06
485.118	91.06
485.336	83.06
485.554	93.06
485.772	99.06
485.99	104.06
486.209	96.06
486.427	104.06
486.645	101.06
486.863	110.06
487.081	95.06
487.299	83.06
487.517	97.06
487.735	98.06
487.953	88.06
488.171	102.06
488.389	100.06
488.607	80.06
488.825	87.06
489.043	96.06
489.261	93.06
489.479	88.06
489.696	85.06
489.914	83.06
490.132	82.06
490.35	80.06
490.568	73.06
490.786	88.06
491.003	84.06
491.221	84.06
491.439	89.06
491.657	90.06
491.874	99.06
492.092	82.06
492.31	101.06
492.527	98.06
492.745	83.06
492.963	107.06
493.18	85.06
493.398	72.06
493.615	83.06
493.833	89.06
494.05	103.06
494.268	99.06
494.485	96.06
494.703	96.06
494.92	89.06
495.138	95.06
495.355	87.06
495.573	93.06
495.79	94.06
496.008	85.06
496.225	90.06
496.442	97.06
496.66	100.06
496.877	104.06
497.094	81.06
497.312	92.06
497.529	86.06
497.746	95.06
497.963	76.06
498.181	85.06
498.398	107.06
498.615	96.06
498.832	106.06
499.049	97.06
499.267	84.06
499.484	87.06
499.701	101.06
499.918	93.06
500.135	95.06
500.352	83.06
500.569	87.06
500.786	86.06
501.003	87.06
501.22	88.06
501.437	91.06
501.654	91.06
501.871	98.06
502.088	76.06
502.305	92.06
502.522	91.06
502.739	98.06
502.956	86.06
503.172	88.06
503.389	80.06
503.606	99.06
503.823	92.06
504.04	103.06
504.256	95.06
504.473	88.06
504.69	98.06
504.907	104.06
505.123	81.06
505.34	90.06
505.557	79.06
505.773	83.06
505.99	94.06
506.207	87.06
506.423	89.06
506.64	91.06
506.856	85.06
507.073	82.06
507.289	95.06
507.506	94.06
507.722	100.06
507.939	102.06
508.155	90.06
508.372	104.06
508.588	83.06
508.805	93.06
509.021	103.06
509.238	105.06
509.454	83.06
509.67	87.06
509.887	82.06
510.103	118.06
510.319	189.06
510.536	632.06
510.752	1892.06
510.968	537.06
511.184	132.06
511.401	100.06
511.617	90.06
511.833	107.06
512.049	101.06
512.265	92.06
512.481	93.06
512.698	85.06
512.914	73.06
513.13	107.06
513.346	88.06
513.562	100.06
513.778	92.06
513.994	87.06
514.21	89.06
514.426	124.06
514.642	117.06
514.858	100.06
515.074	138.06
515.29	345.06
515.506	1059.06
515.721	401.06
515.937	135.06
516.153	101.06
516.369	96.06
516.585	95.06
516.801	85.06
517.016	73.06
