Data from Uncirc_1980_H10_HRD10591_00041.txt Node
Date: Wed Jan 03 12:37:03 EST 2024
User: Yrep
Spectrometer: HR+D1059
Trigger mode: 1
Integration Time (sec): 1.000000E-1
Scans to average: 1
Electric dark correction enabled: true
Nonlinearity correction enabled: false
Boxcar width: 0
XAxis mode: Wavelengths
Number of Pixels in Spectrum: 2048
>>>>>Begin Spectral Data<<<<<
223.165	-12.44
223.4	-12.44
223.635	-12.44
223.869	-27.44
224.104	-15.44
224.338	-21.44
224.573	-17.44
224.808	-14.44
225.042	-8.44
225.277	-1.44
225.511	-12.44
225.746	17.56
225.98	5.56
226.215	5.56
226.449	17.56
226.683	31.56
226.918	26.56
227.152	26.56
227.387	38.56
227.621	45.56
227.856	33.56
228.09	50.56
228.324	53.56
228.559	69.56
228.793	61.56
229.027	59.56
229.262	73.56
229.496	81.56
229.73	76.56
229.964	79.56
230.199	67.56
230.433	76.56
230.667	77.56
230.901	73.56
231.136	83.56
231.37	88.56
231.604	68.56
231.838	83.56
232.072	92.56
232.306	72.56
232.541	74.56
232.775	81.56
233.009	81.56
233.243	83.56
233.477	79.56
233.711	83.56
233.945	72.56
234.179	85.56
234.413	77.56
234.647	99.56
234.881	58.56
235.115	81.56
235.349	71.56
235.583	91.56
235.817	87.56
236.051	82.56
236.285	65.56
236.519	76.56
236.753	93.56
236.987	73.56
237.221	73.56
237.455	100.56
237.689	77.56
237.922	91.56
238.156	84.56
238.39	85.56
238.624	60.56
238.858	69.56
239.091	76.56
239.325	64.56
239.559	95.56
239.793	73.56
240.027	87.56
240.26	83.56
240.494	75.56
240.728	73.56
240.961	77.56
241.195	74.56
241.429	82.56
241.662	73.56
241.896	77.56
242.13	83.56
242.363	82.56
242.597	68.56
242.83	73.56
243.064	66.56
243.298	69.56
243.531	72.56
243.765	82.56
243.998	83.56
244.232	91.56
244.465	85.56
244.699	77.56
244.932	69.56
245.166	84.56
245.399	82.56
245.633	72.56
245.866	81.56
246.099	77.56
246.333	81.56
246.566	79.56
246.8	75.56
247.033	79.56
247.266	86.56
247.5	81.56
247.733	75.56
247.966	83.56
248.2	82.56
248.433	83.56
248.666	74.56
248.899	92.56
249.133	72.56
249.366	100.56
249.599	103.56
249.832	79.56
250.066	85.56
250.299	85.56
250.532	88.56
250.765	74.56
250.998	78.56
251.231	74.56
251.465	68.56
251.698	77.56
251.931	75.56
252.164	86.56
252.397	95.56
252.63	95.56
252.863	93.56
253.096	85.56
253.329	82.56
253.562	83.56
253.795	82.56
254.028	81.56
254.261	93.56
254.494	91.56
254.727	77.56
254.96	83.56
255.193	89.56
255.426	82.56
255.659	91.56
255.892	88.56
256.124	84.56
256.357	77.56
256.59	82.56
256.823	81.56
257.056	88.56
257.289	93.56
257.521	85.56
257.754	81.56
257.987	90.56
258.22	89.56
258.452	76.56
258.685	77.56
258.918	88.56
259.151	78.56
259.383	89.56
259.616	83.56
259.849	88.56
260.081	91.56
260.314	75.56
260.547	89.56
260.779	71.56
261.012	94.56
261.244	57.56
261.477	86.56
261.71	94.56
261.942	107.56
262.175	94.56
262.407	74.56
262.64	82.56
262.872	84.56
263.105	94.56
263.337	87.56
263.57	98.56
263.802	85.56
264.035	75.56
264.267	70.56
264.499	72.56
264.732	93.56
264.964	91.56
265.197	84.56
265.429	89.56
265.661	88.56
265.894	81.56
266.126	89.56
266.358	82.56
266.591	76.56
266.823	69.56
267.055	81.56
267.287	74.56
267.52	78.56
267.752	82.56
267.984	70.56
268.216	75.56
268.448	88.56
268.681	89.56
268.913	96.56
269.145	95.56
269.377	93.56
269.609	85.56
269.841	92.56
270.073	87.56
270.306	102.56
270.538	78.56
270.77	83.56
271.002	81.56
271.234	67.56
271.466	72.56
271.698	78.56
271.93	91.56
272.162	87.56
272.394	92.56
272.626	78.56
272.858	82.56
273.09	83.56
273.322	87.56
273.553	97.56
273.785	70.56
274.017	93.56
274.249	92.56
274.481	91.56
274.713	95.56
274.945	92.56
275.176	86.56
275.408	77.56
275.64	97.56
275.872	85.56
276.104	88.56
276.335	86.56
276.567	87.56
276.799	99.56
277.031	94.56
277.262	77.56
277.494	91.56
277.726	81.56
277.957	93.56
278.189	74.56
278.421	78.56
278.652	85.56
278.884	79.56
279.115	93.56
279.347	91.56
279.579	78.56
279.81	90.56
280.042	90.56
280.273	90.56
280.505	101.56
280.736	79.56
280.968	90.56
281.199	93.56
281.431	83.56
281.662	89.56
281.894	83.56
282.125	108.56
282.356	103.56
282.588	126.56
282.819	116.56
283.051	77.56
283.282	105.56
283.513	74.56
283.745	69.56
283.976	99.56
284.207	81.56
284.439	95.56
284.67	78.56
284.901	89.56
285.132	82.56
285.364	96.56
285.595	81.56
285.826	68.56
286.057	90.56
286.288	91.56
286.52	91.56
286.751	94.56
286.982	91.56
287.213	95.56
287.444	91.56
287.675	104.56
287.906	89.56
288.138	94.56
288.369	89.56
288.6	95.56
288.831	76.56
289.062	94.56
289.293	85.56
289.524	86.56
289.755	87.56
289.986	85.56
290.217	99.56
290.448	75.56
290.679	72.56
290.91	83.56
291.141	84.56
291.371	91.56
291.602	95.56
291.833	83.56
292.064	86.56
292.295	87.56
292.526	71.56
292.757	90.56
292.987	79.56
293.218	78.56
293.449	81.56
293.68	90.56
293.91	103.56
294.141	97.56
294.372	81.56
294.603	82.56
294.833	85.56
295.064	83.56
295.295	77.56
295.525	103.56
295.756	105.56
295.987	117.56
296.217	112.56
296.448	102.56
296.679	77.56
296.909	91.56
297.14	79.56
297.37	103.56
297.601	92.56
297.831	93.56
298.062	82.56
298.292	84.56
298.523	88.56
298.753	88.56
298.984	82.56
299.214	83.56
299.445	95.56
299.675	100.56
299.905	82.56
300.136	85.56
300.366	80.56
300.597	79.56
300.827	95.56
301.057	97.56
301.288	101.56
301.518	91.56
301.748	86.56
301.979	94.56
302.209	97.56
302.439	85.56
302.669	96.56
302.9	105.56
303.13	83.56
303.36	91.56
303.59	99.56
303.82	101.56
304.051	84.56
304.281	77.56
304.511	73.56
304.741	90.56
304.971	87.56
305.201	105.56
305.431	92.56
305.661	110.56
305.891	89.56
306.121	95.56
306.352	96.56
306.582	87.56
306.812	86.56
307.042	88.56
307.272	84.56
307.502	83.56
307.731	114.56
307.961	91.56
308.191	103.56
308.421	90.56
308.651	83.56
308.881	94.56
309.111	108.56
309.341	102.56
309.571	111.56
309.8	109.56
310.03	98.56
310.26	93.56
310.49	97.56
310.72	89.56
310.949	102.56
311.179	102.56
311.409	92.56
311.639	105.56
311.868	96.56
312.098	90.56
312.328	85.56
312.557	97.56
312.787	101.56
313.017	92.56
313.246	93.56
313.476	95.56
313.706	90.56
313.935	97.56
314.165	93.56
314.394	91.56
314.624	90.56
314.853	88.56
315.083	100.56
315.312	101.56
315.542	95.56
315.771	88.56
316.001	100.56
316.23	91.56
316.46	84.56
316.689	94.56
316.919	89.56
317.148	89.56
317.377	82.56
317.607	94.56
317.836	98.56
318.065	83.56
318.295	92.56
318.524	88.56
318.753	73.56
318.983	93.56
319.212	97.56
319.441	97.56
319.67	97.56
319.9	90.56
320.129	98.56
320.358	95.56
320.587	84.56
320.816	83.56
321.046	100.56
321.275	90.56
321.504	93.56
321.733	104.56
321.962	103.56
322.191	107.56
322.42	93.56
322.649	85.56
322.878	96.56
323.108	94.56
323.337	113.56
323.566	105.56
323.795	129.56
324.024	174.56
324.253	295.56
324.482	589.56
324.71	1219.56
324.939	1625.56
325.168	613.56
325.397	197.56
325.626	136.56
325.855	124.56
326.084	108.56
326.313	117.56
326.542	127.56
326.77	180.56
326.999	345.56
327.228	693.56
327.457	1281.56
327.686	1033.56
327.914	286.56
328.143	155.56
328.372	133.56
328.6	108.56
328.829	107.56
329.058	102.56
329.287	113.56
329.515	100.56
329.744	92.56
329.972	103.56
330.201	104.56
330.43	124.56
330.658	102.56
330.887	107.56
331.115	108.56
331.344	90.56
331.572	90.56
331.801	97.56
332.03	98.56
332.258	92.56
332.486	91.56
332.715	90.56
332.943	87.56
333.172	84.56
333.4	81.56
333.629	108.56
333.857	101.56
334.085	107.56
334.314	115.56
334.542	116.56
334.771	122.56
334.999	89.56
335.227	89.56
335.455	103.56
335.684	115.56
335.912	101.56
336.14	106.56
336.369	98.56
336.597	84.56
336.825	100.56
337.053	97.56
337.281	80.56
337.51	93.56
337.738	83.56
337.966	86.56
338.194	100.56
338.422	95.56
338.65	95.56
338.878	94.56
339.106	89.56
339.334	94.56
339.562	90.56
339.79	86.56
340.018	79.56
340.246	89.56
340.474	97.56
340.702	84.56
340.93	99.56
341.158	79.56
341.386	84.56
341.614	88.56
341.842	97.56
342.07	100.56
342.298	101.56
342.526	98.56
342.754	92.56
342.981	86.56
343.209	89.56
343.437	91.56
343.665	83.56
343.893	98.56
344.12	92.56
344.348	99.56
344.576	89.56
344.804	92.56
345.031	91.56
345.259	86.56
345.487	78.56
345.714	96.56
345.942	110.56
346.17	93.56
346.397	77.56
346.625	89.56
346.853	87.56
347.08	95.56
347.308	102.56
347.535	87.56
347.763	106.56
347.99	95.56
348.218	97.56
348.445	92.56
348.673	100.56
348.9	77.56
349.128	97.56
349.355	91.56
349.583	100.56
349.81	85.56
350.037	102.56
350.265	99.56
350.492	94.56
350.72	81.56
350.947	107.56
351.174	107.56
351.402	99.56
351.629	102.56
351.856	99.56
352.083	101.56
352.311	94.56
352.538	93.56
352.765	123.56
352.992	110.56
353.22	103.56
353.447	94.56
353.674	113.56
353.901	91.56
354.128	93.56
354.355	102.56
354.583	94.56
354.81	102.56
355.037	97.56
355.264	93.56
355.491	95.56
355.718	92.56
355.945	100.56
356.172	101.56
356.399	93.56
356.626	97.56
356.853	84.56
357.08	81.56
357.307	86.56
357.534	88.56
357.761	86.56
357.988	78.56
358.215	117.56
358.441	99.56
358.668	88.56
358.895	89.56
359.122	88.56
359.349	88.56
359.576	90.56
359.802	91.56
360.029	104.56
360.256	112.56
360.483	99.56
360.709	93.56
360.936	93.56
361.163	93.56
361.39	100.56
361.616	100.56
361.843	86.56
362.07	95.56
362.296	100.56
362.523	100.56
362.749	88.56
362.976	81.56
363.203	99.56
363.429	95.56
363.656	97.56
363.882	83.56
364.109	92.56
364.335	84.56
364.562	81.56
364.788	80.56
365.015	89.56
365.241	97.56
365.468	89.56
365.694	102.56
365.92	86.56
366.147	88.56
366.373	85.56
366.599	94.56
366.826	86.56
367.052	97.56
367.278	89.56
367.505	89.56
367.731	85.56
367.957	89.56
368.184	82.56
368.41	79.56
368.636	98.56
368.862	106.56
369.089	114.56
369.315	97.56
369.541	77.56
369.767	96.56
369.993	89.56
370.219	91.56
370.445	87.56
370.672	104.56
370.898	94.56
371.124	77.56
371.35	89.56
371.576	90.56
371.802	84.56
372.028	81.56
372.254	93.56
372.48	80.56
372.706	79.56
372.932	81.56
373.158	97.56
373.384	90.56
373.61	105.56
373.835	81.56
374.061	105.56
374.287	81.56
374.513	95.56
374.739	78.56
374.965	97.56
375.191	87.56
375.416	81.56
375.642	97.56
375.868	104.56
376.094	96.56
376.319	82.56
376.545	86.56
376.771	87.56
376.997	86.56
377.222	103.56
377.448	94.56
377.674	93.56
377.899	86.56
378.125	96.56
378.35	89.56
378.576	92.56
378.802	89.56
379.027	97.56
379.253	89.56
379.478	106.56
379.704	89.56
379.929	87.56
380.155	86.56
380.38	94.56
380.606	79.56
380.831	102.56
381.057	90.56
381.282	100.56
381.507	111.56
381.733	98.56
381.958	95.56
382.184	91.56
382.409	101.56
382.634	119.56
382.86	91.56
383.085	106.56
383.31	104.56
383.535	102.56
383.761	97.56
383.986	108.56
384.211	92.56
384.436	94.56
384.662	101.56
384.887	99.56
385.112	92.56
385.337	135.56
385.562	113.56
385.787	94.56
386.013	110.56
386.238	125.56
386.463	111.56
386.688	110.56
386.913	107.56
387.138	114.56
387.363	99.56
387.588	97.56
387.813	106.56
388.038	116.56
388.263	105.56
388.488	113.56
388.713	98.56
388.938	98.56
389.163	103.56
389.387	105.56
389.612	87.56
389.837	100.56
390.062	85.56
390.287	86.56
390.512	89.56
390.736	103.56
390.961	89.56
391.186	101.56
391.411	99.56
391.636	95.56
391.86	81.56
392.085	88.56
392.31	97.56
392.534	85.56
392.759	83.56
392.984	77.56
393.208	99.56
393.433	87.56
393.658	94.56
393.882	91.56
394.107	84.56
394.331	101.56
394.556	68.56
394.78	82.56
395.005	92.56
395.229	86.56
395.454	91.56
395.678	89.56
395.903	98.56
396.127	91.56
396.352	90.56
396.576	89.56
396.801	89.56
397.025	87.56
397.249	85.56
397.474	82.56
397.698	73.56
397.922	86.56
398.147	95.56
398.371	97.56
398.595	89.56
398.82	97.56
399.044	86.56
399.268	91.56
399.492	94.56
399.717	95.56
399.941	91.56
400.165	91.56
400.389	91.56
400.613	92.56
400.837	99.56
401.062	93.56
401.286	77.56
401.51	91.56
401.734	95.56
401.958	97.56
402.182	100.56
402.406	136.56
402.63	100.56
402.854	87.56
403.078	89.56
403.302	84.56
403.526	81.56
403.75	93.56
403.974	91.56
404.198	102.56
404.422	82.56
404.645	79.56
404.869	86.56
405.093	98.56
405.317	85.56
405.541	102.56
405.765	89.56
405.988	117.56
406.212	138.56
406.436	151.56
406.66	103.56
406.883	82.56
407.107	89.56
407.331	86.56
407.555	106.56
407.778	97.56
408.002	81.56
408.226	101.56
408.449	75.56
408.673	88.56
408.896	86.56
409.12	86.56
409.344	87.56
409.567	82.56
409.791	96.56
410.014	85.56
410.238	101.56
410.461	92.56
410.685	87.56
410.908	93.56
411.132	97.56
411.355	106.56
411.578	94.56
411.802	81.56
412.025	90.56
412.249	91.56
412.472	91.56
412.695	89.56
412.919	99.56
413.142	91.56
413.365	95.56
413.589	103.56
413.812	95.56
414.035	76.56
414.258	81.56
414.482	89.56
414.705	81.56
414.928	96.56
415.151	76.56
415.374	95.56
415.597	85.56
415.821	85.56
416.044	78.56
416.267	88.56
416.49	86.56
416.713	109.56
416.936	78.56
417.159	85.56
417.382	87.56
417.605	99.56
417.828	85.56
418.051	86.56
418.274	83.56
418.497	82.56
418.72	96.56
418.943	77.56
419.166	78.56
419.389	93.56
419.611	96.56
419.834	93.56
420.057	83.56
420.28	81.56
420.503	89.56
420.726	86.56
420.948	107.56
421.171	101.56
421.394	84.56
421.617	92.56
421.839	75.56
422.062	86.56
422.285	90.56
422.507	112.56
422.73	86.56
422.953	82.56
423.175	87.56
423.398	94.56
423.621	85.56
423.843	88.56
424.066	90.56
424.288	97.56
424.511	88.56
424.733	92.56
424.956	98.56
425.178	97.56
425.401	105.56
425.623	79.56
425.846	75.56
426.068	102.56
426.291	93.56
426.513	87.56
426.735	84.56
426.958	94.56
427.18	86.56
427.402	120.56
427.625	134.56
427.847	102.56
428.069	99.56
428.292	102.56
428.514	83.56
428.736	77.56
428.958	87.56
429.181	83.56
429.403	97.56
429.625	88.56
429.847	71.56
430.069	88.56
430.292	86.56
430.514	81.56
430.736	92.56
430.958	75.56
431.18	79.56
431.402	92.56
431.624	88.56
431.846	84.56
432.068	65.56
432.29	81.56
432.512	100.56
432.734	98.56
432.956	91.56
433.178	95.56
433.4	100.56
433.622	97.56
433.844	96.56
434.066	92.56
434.287	93.56
434.509	91.56
434.731	83.56
434.953	74.56
435.175	81.56
435.397	89.56
435.618	96.56
435.84	93.56
436.062	110.56
436.284	102.56
436.505	100.56
436.727	90.56
436.949	85.56
437.17	85.56
437.392	79.56
437.614	100.56
437.835	95.56
438.057	108.56
438.278	91.56
438.5	98.56
438.721	112.56
438.943	97.56
439.165	94.56
439.386	99.56
439.608	91.56
439.829	89.56
440.05	106.56
440.272	135.56
440.493	102.56
440.715	84.56
440.936	91.56
441.158	86.56
441.379	71.56
441.6	93.56
441.822	93.56
442.043	78.56
442.264	102.56
442.486	88.56
442.707	95.56
442.928	95.56
443.149	114.56
443.371	118.56
443.592	93.56
443.813	99.56
444.034	95.56
444.255	88.56
444.476	87.56
444.698	83.56
444.919	94.56
445.14	139.56
445.361	107.56
445.582	101.56
445.803	116.56
446.024	112.56
446.245	118.56
446.466	105.56
446.687	88.56
446.908	97.56
447.129	87.56
447.35	72.56
447.571	88.56
447.792	97.56
448.013	97.56
448.234	91.56
448.455	81.56
448.675	98.56
448.896	108.56
449.117	94.56
449.338	97.56
449.559	107.56
449.779	109.56
450	86.56
450.221	107.56
450.442	78.56
450.662	87.56
450.883	101.56
451.104	100.56
451.324	94.56
451.545	79.56
451.766	73.56
451.986	76.56
452.207	84.56
452.428	92.56
452.648	82.56
452.869	105.56
453.089	94.56
453.31	100.56
453.53	96.56
453.751	83.56
453.971	78.56
454.192	93.56
454.412	100.56
454.633	83.56
454.853	74.56
455.073	81.56
455.294	76.56
455.514	87.56
455.734	90.56
455.955	87.56
456.175	78.56
456.395	94.56
456.616	78.56
456.836	81.56
457.056	87.56
457.276	94.56
457.497	79.56
457.717	70.56
457.937	87.56
458.157	98.56
458.377	95.56
458.598	88.56
458.818	115.56
459.038	132.56
459.258	102.56
459.478	92.56
459.698	83.56
459.918	66.56
460.138	91.56
460.358	91.56
460.578	92.56
460.798	84.56
461.018	94.56
461.238	81.56
461.458	74.56
461.678	87.56
461.898	91.56
462.118	90.56
462.338	75.56
462.558	86.56
462.777	89.56
462.997	67.56
463.217	85.56
463.437	73.56
463.657	82.56
463.876	83.56
464.096	86.56
464.316	89.56
464.536	93.56
464.755	94.56
464.975	116.56
465.195	142.56
465.414	135.56
465.634	72.56
465.854	86.56
466.073	89.56
466.293	92.56
466.512	85.56
466.732	81.56
466.951	72.56
467.171	102.56
467.391	94.56
467.61	100.56
467.829	91.56
468.049	84.56
468.268	91.56
468.488	76.56
468.707	87.56
468.927	74.56
469.146	91.56
469.365	95.56
469.585	71.56
469.804	79.56
470.023	101.56
470.243	93.56
470.462	90.56
470.681	89.56
470.901	81.56
471.12	83.56
471.339	89.56
471.558	85.56
471.777	89.56
471.997	82.56
472.216	92.56
472.435	125.56
472.654	102.56
472.873	94.56
473.092	97.56
473.311	85.56
473.53	86.56
473.749	103.56
473.968	100.56
474.187	97.56
474.406	104.56
474.625	100.56
474.844	82.56
475.063	78.56
475.282	86.56
475.501	77.56
475.72	82.56
475.939	91.56
476.158	70.56
476.377	84.56
476.596	78.56
476.814	81.56
477.033	91.56
477.252	89.56
477.471	81.56
477.69	93.56
477.908	94.56
478.127	89.56
478.346	73.56
478.564	102.56
478.783	97.56
479.002	96.56
479.22	89.56
479.439	101.56
479.658	96.56
479.876	87.56
480.095	90.56
480.313	92.56
480.532	88.56
480.751	95.56
480.969	107.56
481.188	174.56
481.406	135.56
481.624	88.56
481.843	100.56
482.061	94.56
482.28	82.56
482.498	77.56
482.717	95.56
482.935	95.56
483.153	92.56
483.372	86.56
483.59	94.56
483.808	72.56
484.027	87.56
484.245	85.56
484.463	98.56
484.681	93.56
484.9	84.56
485.118	101.56
485.336	78.56
485.554	79.56
485.772	100.56
485.99	103.56
486.209	101.56
486.427	99.56
486.645	111.56
486.863	107.56
487.081	96.56
487.299	90.56
487.517	85.56
487.735	87.56
487.953	105.56
488.171	97.56
488.389	87.56
488.607	101.56
488.825	86.56
489.043	92.56
489.261	97.56
489.479	86.56
489.696	85.56
489.914	84.56
490.132	92.56
490.35	81.56
490.568	86.56
490.786	85.56
491.003	78.56
491.221	82.56
491.439	93.56
491.657	91.56
491.874	89.56
492.092	84.56
492.31	92.56
492.527	85.56
492.745	85.56
492.963	98.56
493.18	111.56
493.398	84.56
493.615	91.56
493.833	94.56
494.05	82.56
494.268	91.56
494.485	98.56
494.703	89.56
494.92	92.56
495.138	81.56
495.355	94.56
495.573	93.56
495.79	85.56
496.008	95.56
496.225	89.56
496.442	91.56
496.66	91.56
496.877	94.56
497.094	88.56
497.312	87.56
497.529	93.56
497.746	97.56
497.963	74.56
498.181	99.56
498.398	87.56
498.615	108.56
498.832	93.56
499.049	85.56
499.267	87.56
499.484	92.56
499.701	77.56
499.918	92.56
500.135	94.56
500.352	75.56
500.569	81.56
500.786	83.56
501.003	93.56
501.22	99.56
501.437	97.56
501.654	95.56
501.871	100.56
502.088	85.56
502.305	84.56
502.522	101.56
502.739	99.56
502.956	85.56
503.172	75.56
503.389	91.56
503.606	110.56
503.823	83.56
504.04	86.56
504.256	85.56
504.473	94.56
504.69	92.56
504.907	86.56
505.123	93.56
505.34	89.56
505.557	80.56
505.773	83.56
505.99	81.56
506.207	73.56
506.423	82.56
506.64	94.56
506.856	82.56
507.073	77.56
507.289	101.56
507.506	84.56
507.722	88.56
507.939	102.56
508.155	82.56
508.372	93.56
508.588	99.56
508.805	101.56
509.021	102.56
509.238	89.56
509.454	99.56
509.67	93.56
509.887	103.56
510.103	122.56
510.319	182.56
510.536	552.56
510.752	1745.56
510.968	491.56
511.184	147.56
511.401	105.56
511.617	100.56
511.833	83.56
512.049	89.56
512.265	84.56
512.481	86.56
512.698	87.56
512.914	80.56
513.13	95.56
513.346	76.56
513.562	89.56
513.778	101.56
513.994	83.56
514.21	101.56
514.426	111.56
514.642	124.56
514.858	115.56
515.074	140.56
515.29	331.56
515.506	999.56
515.721	371.56
515.937	127.56
516.153	102.56
516.369	93.56
