Data from Uncirc_1980_H10_HRD10591_00061.txt Node
Date: Wed Jan 03 12:37:07 EST 2024
User: Yrep
Spectrometer: HR+D1059
Trigger mode: 1
Integration Time (sec): 1.000000E-1
Scans to average: 1
Electric dark correction enabled: true
Nonlinearity correction enabled: false
Boxcar width: 0
XAxis mode: Wavelengths
Number of Pixels in Spectrum: 2048
>>>>>Begin Spectral Data<<<<<
223.165	-9
223.4	-9
223.635	-9
223.869	-26
224.104	-24
224.338	-13
224.573	-12
224.808	-11
225.042	-3
225.277	-2
225.511	-2
225.746	-6
225.98	6
226.215	6
226.449	15
226.683	22
226.918	26
227.152	33
227.387	28
227.621	36
227.856	55
228.09	40
228.324	52
228.559	51
228.793	72
229.027	63
229.262	68
229.496	64
229.73	80
229.964	88
230.199	75
230.433	71
230.667	76
230.901	82
231.136	84
231.37	78
231.604	79
231.838	71
232.072	67
232.306	89
232.541	74
232.775	66
233.009	88
233.243	70
233.477	90
233.711	81
233.945	77
234.179	77
234.413	70
234.647	84
234.881	82
235.115	91
235.349	87
235.583	71
235.817	73
236.051	69
236.285	88
236.519	72
236.753	70
236.987	65
237.221	80
237.455	80
237.689	86
237.922	82
238.156	72
238.39	67
238.624	68
238.858	77
239.091	66
239.325	72
239.559	91
239.793	90
240.027	84
240.26	86
240.494	94
240.728	80
240.961	75
241.195	76
241.429	71
241.662	72
241.896	74
242.13	73
242.363	73
242.597	72
242.83	70
243.064	94
243.298	59
243.531	68
243.765	73
243.998	83
244.232	79
244.465	76
244.699	85
244.932	83
245.166	86
245.399	88
245.633	68
245.866	82
246.099	77
246.333	75
246.566	75
246.8	78
247.033	85
247.266	88
247.5	80
247.733	77
247.966	85
248.2	70
248.433	68
248.666	67
248.899	79
249.133	79
249.366	93
249.599	92
249.832	86
250.066	94
250.299	94
250.532	83
250.765	69
250.998	94
251.231	68
251.465	88
251.698	76
251.931	68
252.164	79
252.397	83
252.63	70
252.863	82
253.096	87
253.329	65
253.562	75
253.795	69
254.028	90
254.261	84
254.494	84
254.727	75
254.96	75
255.193	84
255.426	82
255.659	85
255.892	78
256.124	79
256.357	87
256.59	72
256.823	54
257.056	74
257.289	75
257.521	85
257.754	78
257.987	76
258.22	76
258.452	83
258.685	74
258.918	87
259.151	91
259.383	87
259.616	73
259.849	76
260.081	72
260.314	76
260.547	87
260.779	88
261.012	99
261.244	75
261.477	79
261.71	88
261.942	95
262.175	88
262.407	95
262.64	91
262.872	82
263.105	75
263.337	82
263.57	77
263.802	79
264.035	82
264.267	71
264.499	84
264.732	91
264.964	76
265.197	65
265.429	78
265.661	83
265.894	82
266.126	78
266.358	82
266.591	83
266.823	72
267.055	91
267.287	98
267.52	89
267.752	97
267.984	85
268.216	88
268.448	92
268.681	91
268.913	98
269.145	92
269.377	89
269.609	69
269.841	82
270.073	73
270.306	91
270.538	82
270.77	75
271.002	77
271.234	88
271.466	87
271.698	93
271.93	95
272.162	71
272.394	93
272.626	92
272.858	90
273.09	93
273.322	105
273.553	94
273.785	90
274.017	86
274.249	78
274.481	74
274.713	81
274.945	85
275.176	86
275.408	89
275.64	85
275.872	87
276.104	89
276.335	87
276.567	78
276.799	95
277.031	83
277.262	88
277.494	89
277.726	92
277.957	74
278.189	86
278.421	93
278.652	87
278.884	88
279.115	94
279.347	97
279.579	89
279.81	87
280.042	78
280.273	82
280.505	90
280.736	84
280.968	82
281.199	90
281.431	106
281.662	66
281.894	91
282.125	88
282.356	103
282.588	114
282.819	106
283.051	103
283.282	89
283.513	86
283.745	94
283.976	94
284.207	83
284.439	72
284.67	75
284.901	77
285.132	74
285.364	91
285.595	88
285.826	86
286.057	94
286.288	91
286.52	88
286.751	84
286.982	80
287.213	91
287.444	86
287.675	95
287.906	90
288.138	92
288.369	93
288.6	92
288.831	88
289.062	90
289.293	88
289.524	86
289.755	92
289.986	79
290.217	98
290.448	92
290.679	84
290.91	98
291.141	82
291.371	92
291.602	77
291.833	78
292.064	91
292.295	82
292.526	82
292.757	107
292.987	79
293.218	90
293.449	80
293.68	73
293.91	83
294.141	88
294.372	97
294.603	80
294.833	94
295.064	91
295.295	93
295.525	88
295.756	100
295.987	109
296.217	128
296.448	114
296.679	98
296.909	92
297.14	91
297.37	98
297.601	90
297.831	92
298.062	88
298.292	92
298.523	93
298.753	91
298.984	85
299.214	91
299.445	89
299.675	94
299.905	102
300.136	90
300.366	82
300.597	86
300.827	95
301.057	84
301.288	112
301.518	94
301.748	89
301.979	112
302.209	94
302.439	78
302.669	70
302.9	98
303.13	104
303.36	99
303.59	102
303.82	101
304.051	88
304.281	88
304.511	90
304.741	98
304.971	77
305.201	88
305.431	92
305.661	90
305.891	78
306.121	103
306.352	95
306.582	98
306.812	85
307.042	86
307.272	89
307.502	95
307.731	110
307.961	90
308.191	79
308.421	98
308.651	78
308.881	86
309.111	92
309.341	86
309.571	94
309.8	98
310.03	93
310.26	103
310.49	96
310.72	85
310.949	85
311.179	98
311.409	97
311.639	100
311.868	99
312.098	83
312.328	106
312.557	102
312.787	101
313.017	104
313.246	91
313.476	84
313.706	92
313.935	101
314.165	106
314.394	75
314.624	104
314.853	92
315.083	96
315.312	103
315.542	80
315.771	90
316.001	98
316.23	112
316.46	89
316.689	88
316.919	74
317.148	99
317.377	88
317.607	89
317.836	96
318.065	96
318.295	89
318.524	98
318.753	83
318.983	88
319.212	88
319.441	107
319.67	86
319.9	86
320.129	91
320.358	91
320.587	95
320.816	98
321.046	100
321.275	105
321.504	103
321.733	92
321.962	93
322.191	78
322.42	99
322.649	102
322.878	94
323.108	117
323.337	110
323.566	117
323.795	131
324.024	180
324.253	304
324.482	628
324.71	1252
324.939	1660
325.168	625
325.397	214
325.626	142
325.855	98
326.084	103
326.313	101
326.542	127
326.77	175
326.999	359
327.228	693
327.457	1285
327.686	1012
327.914	313
328.143	154
328.372	133
328.6	118
328.829	108
329.058	119
329.287	109
329.515	90
329.744	100
329.972	100
330.201	122
330.43	118
330.658	118
330.887	103
331.115	122
331.344	104
331.572	84
331.801	98
332.03	108
332.258	100
332.486	75
332.715	96
332.943	91
333.172	95
333.4	96
333.629	110
333.857	97
334.085	101
334.314	106
334.542	123
334.771	131
334.999	108
335.227	103
335.455	91
335.684	91
335.912	104
336.14	87
336.369	96
336.597	90
336.825	94
337.053	105
337.281	88
337.51	95
337.738	94
337.966	101
338.194	106
338.422	84
338.65	85
338.878	78
339.106	90
339.334	98
339.562	87
339.79	95
340.018	93
340.246	96
340.474	84
340.702	74
340.93	84
341.158	94
341.386	97
341.614	94
341.842	97
342.07	91
342.298	103
342.526	96
342.754	92
342.981	87
343.209	102
343.437	99
343.665	83
343.893	93
344.12	102
344.348	101
344.576	97
344.804	90
345.031	85
345.259	89
345.487	98
345.714	91
345.942	96
346.17	98
346.397	83
346.625	87
346.853	102
347.08	98
347.308	94
347.535	90
347.763	103
347.99	100
348.218	102
348.445	111
348.673	106
348.9	97
349.128	90
349.355	94
349.583	96
349.81	98
350.037	92
350.265	85
350.492	101
350.72	108
350.947	93
351.174	106
351.402	108
351.629	94
351.856	119
352.083	104
352.311	103
352.538	102
352.765	102
352.992	107
353.22	99
353.447	91
353.674	99
353.901	101
354.128	117
354.355	94
354.583	88
354.81	109
355.037	98
355.264	97
355.491	92
355.718	78
355.945	90
356.172	95
356.399	115
356.626	114
356.853	93
357.08	84
357.307	98
357.534	95
357.761	84
357.988	104
358.215	102
358.441	103
358.668	99
358.895	86
359.122	96
359.349	85
359.576	86
359.802	79
360.029	107
360.256	108
360.483	95
360.709	94
360.936	101
361.163	74
361.39	98
361.616	94
361.843	92
362.07	85
362.296	98
362.523	86
362.749	106
362.976	101
363.203	82
363.429	77
363.656	86
363.882	102
364.109	84
364.335	91
364.562	94
364.788	85
365.015	97
365.241	86
365.468	90
365.694	109
365.92	110
366.147	88
366.373	85
366.599	84
366.826	100
367.052	94
367.278	79
367.505	94
367.731	104
367.957	98
368.184	102
368.41	99
368.636	109
368.862	100
369.089	104
369.315	98
369.541	92
369.767	91
369.993	90
370.219	99
370.445	96
370.672	97
370.898	79
371.124	84
371.35	87
371.576	84
371.802	77
372.028	84
372.254	88
372.48	98
372.706	88
372.932	100
373.158	95
373.384	86
373.61	102
373.835	97
374.061	99
374.287	80
374.513	86
374.739	88
374.965	68
375.191	84
375.416	83
375.642	92
375.868	98
376.094	85
376.319	105
376.545	95
376.771	89
376.997	84
377.222	99
377.448	92
377.674	91
377.899	105
378.125	110
378.35	86
378.576	99
378.802	97
379.027	91
379.253	107
379.478	101
379.704	94
379.929	102
380.155	96
380.38	100
380.606	84
380.831	86
381.057	101
381.282	95
381.507	95
381.733	92
381.958	93
382.184	104
382.409	107
382.634	99
382.86	95
383.085	88
383.31	117
383.535	96
383.761	102
383.986	112
384.211	94
384.436	101
384.662	112
384.887	111
385.112	101
385.337	112
385.562	119
385.787	87
386.013	100
386.238	115
386.463	112
386.688	119
386.913	108
387.138	94
387.363	108
387.588	96
387.813	103
388.038	116
388.263	108
388.488	102
388.713	91
388.938	91
389.163	81
389.387	92
389.612	103
389.837	88
390.062	93
390.287	93
390.512	100
390.736	87
390.961	88
391.186	101
391.411	91
391.636	89
391.86	90
392.085	94
392.31	90
392.534	94
392.759	90
392.984	86
393.208	76
393.433	92
393.658	87
393.882	80
394.107	80
394.331	76
394.556	85
394.78	95
395.005	92
395.229	83
395.454	94
395.678	95
395.903	94
396.127	75
396.352	89
396.576	88
396.801	87
397.025	101
397.249	96
397.474	102
397.698	93
397.922	93
398.147	72
398.371	85
398.595	80
398.82	102
399.044	93
399.268	92
399.492	87
399.717	82
399.941	102
400.165	103
400.389	89
400.613	97
400.837	94
401.062	81
401.286	87
401.51	85
401.734	99
401.958	105
402.182	112
402.406	143
402.63	107
402.854	87
403.078	90
403.302	87
403.526	84
403.75	87
403.974	84
404.198	83
404.422	87
404.645	99
404.869	75
405.093	93
405.317	94
405.541	91
405.765	95
405.988	112
406.212	132
406.436	186
406.66	124
406.883	98
407.107	114
407.331	105
407.555	95
407.778	91
408.002	103
408.226	96
408.449	88
408.673	80
408.896	93
409.12	99
409.344	99
409.567	100
409.791	90
410.014	96
410.238	101
410.461	88
410.685	102
410.908	81
411.132	96
411.355	95
411.578	98
411.802	90
412.025	83
412.249	104
412.472	93
412.695	86
412.919	101
413.142	84
413.365	84
413.589	67
413.812	98
414.035	102
414.258	98
414.482	85
414.705	86
414.928	93
415.151	96
415.374	86
415.597	87
415.821	86
416.044	102
416.267	78
416.49	86
416.713	105
416.936	78
417.159	98
417.382	87
417.605	97
417.828	103
418.051	90
418.274	72
418.497	90
418.72	104
418.943	76
419.166	84
419.389	88
419.611	104
419.834	105
420.057	103
420.28	83
420.503	90
420.726	95
420.948	87
421.171	109
421.394	92
421.617	90
421.839	80
422.062	88
422.285	90
422.507	97
422.73	92
422.953	92
423.175	101
423.398	96
423.621	99
423.843	99
424.066	96
424.288	87
424.511	98
424.733	101
424.956	93
425.178	95
425.401	104
425.623	102
425.846	106
426.068	95
426.291	92
426.513	73
426.735	104
426.958	90
427.18	100
427.402	116
427.625	152
427.847	112
428.069	120
428.292	96
428.514	87
428.736	84
428.958	95
429.181	88
429.403	84
429.625	91
429.847	86
430.069	100
430.292	108
430.514	68
430.736	96
430.958	79
431.18	80
431.402	90
431.624	83
431.846	91
432.068	96
432.29	93
432.512	94
432.734	86
432.956	88
433.178	96
433.4	79
433.622	109
433.844	88
434.066	99
434.287	85
434.509	96
434.731	82
434.953	94
435.175	101
435.397	95
435.618	82
435.84	90
436.062	116
436.284	108
436.505	101
436.727	94
436.949	95
437.17	101
437.392	95
437.614	102
437.835	109
438.057	103
438.278	105
438.5	106
438.721	116
438.943	80
439.165	90
439.386	94
439.608	92
439.829	92
440.05	115
440.272	126
440.493	95
440.715	87
440.936	86
441.158	84
441.379	87
441.6	85
441.822	99
442.043	82
442.264	88
442.486	87
442.707	92
442.928	102
443.149	112
443.371	107
443.592	103
443.813	103
444.034	74
444.255	88
444.476	88
444.698	79
444.919	77
445.14	130
445.361	119
445.582	118
445.803	131
446.024	115
446.245	124
446.466	96
446.687	90
446.908	78
447.129	92
447.35	86
447.571	80
447.792	82
448.013	90
448.234	100
448.455	98
448.675	98
448.896	113
449.117	98
449.338	86
449.559	110
449.779	104
450	84
450.221	88
450.442	95
450.662	100
450.883	109
451.104	97
451.324	109
451.545	90
451.766	92
451.986	88
452.207	93
452.428	97
452.648	96
452.869	104
453.089	96
453.31	108
453.53	85
453.751	95
453.971	82
454.192	100
454.412	85
454.633	82
454.853	88
455.073	84
455.294	84
455.514	97
455.734	91
455.955	71
456.175	95
456.395	87
456.616	79
456.836	87
457.056	82
457.276	69
457.497	80
457.717	76
457.937	95
458.157	96
458.377	90
458.598	113
458.818	111
459.038	142
459.258	108
459.478	98
459.698	75
459.918	91
460.138	101
460.358	98
460.578	95
460.798	93
461.018	87
461.238	80
461.458	94
461.678	77
461.898	86
462.118	84
462.338	93
462.558	82
462.777	88
462.997	82
463.217	91
463.437	90
463.657	84
463.876	91
464.096	90
464.316	103
464.536	105
464.755	95
464.975	104
465.195	143
465.414	130
465.634	95
465.854	82
466.073	86
466.293	93
466.512	85
466.732	77
466.951	77
467.171	85
467.391	93
467.61	97
467.829	101
468.049	91
468.268	106
468.488	102
468.707	102
468.927	92
469.146	78
469.365	86
469.585	91
469.804	90
470.023	98
470.243	85
470.462	98
470.681	105
470.901	103
471.12	96
471.339	87
471.558	84
471.777	74
471.997	105
472.216	118
472.435	126
472.654	105
472.873	102
473.092	90
473.311	90
473.53	88
473.749	90
473.968	100
474.187	101
474.406	100
474.625	87
474.844	91
475.063	78
475.282	92
475.501	103
475.72	105
475.939	86
476.158	88
476.377	105
476.596	101
476.814	84
477.033	87
477.252	79
477.471	96
477.69	95
477.908	89
478.127	98
478.346	84
478.564	95
478.783	99
479.002	86
479.22	96
479.439	93
479.658	95
479.876	115
480.095	79
480.313	93
480.532	101
480.751	102
480.969	102
481.188	174
481.406	140
481.624	98
481.843	100
482.061	96
482.28	96
482.498	85
482.717	78
482.935	88
483.153	91
483.372	94
483.59	108
483.808	87
484.027	95
484.245	96
484.463	90
484.681	93
484.9	91
485.118	107
485.336	88
485.554	93
485.772	102
485.99	110
486.209	94
486.427	102
486.645	95
486.863	103
487.081	103
487.299	95
487.517	104
487.735	92
487.953	90
488.171	92
488.389	96
488.607	91
488.825	86
489.043	95
489.261	82
489.479	91
489.696	95
489.914	89
490.132	96
490.35	93
490.568	74
490.786	89
491.003	79
491.221	102
491.439	92
491.657	96
491.874	92
492.092	100
492.31	93
492.527	99
492.745	101
492.963	86
493.18	79
493.398	84
493.615	98
493.833	110
494.05	110
494.268	81
494.485	90
494.703	95
494.92	92
495.138	102
495.355	91
495.573	86
495.79	90
496.008	79
496.225	98
496.442	93
496.66	103
496.877	96
497.094	86
497.312	89
497.529	102
497.746	78
497.963	83
498.181	98
498.398	103
498.615	121
498.832	107
499.049	95
499.267	94
499.484	81
499.701	91
499.918	103
500.135	98
500.352	94
500.569	79
500.786	96
501.003	83
501.22	90
501.437	86
501.654	108
501.871	106
502.088	88
502.305	81
502.522	97
502.739	88
502.956	83
503.172	91
503.389	99
503.606	91
503.823	90
504.04	101
504.256	87
504.473	76
504.69	85
504.907	96
505.123	84
505.34	84
505.557	99
505.773	98
505.99	91
506.207	74
506.423	87
506.64	102
506.856	94
507.073	105
507.289	93
507.506	96
507.722	104
507.939	104
508.155	95
508.372	95
508.588	108
508.805	82
509.021	84
509.238	91
509.454	98
509.67	106
509.887	109
510.103	118
510.319	183
510.536	596
510.752	1958
510.968	552
511.184	130
511.401	104
511.617	86
511.833	96
512.049	86
512.265	106
512.481	94
512.698	90
512.914	95
513.13	104
513.346	101
513.562	92
513.778	101
513.994	107
514.21	105
514.426	114
514.642	121
514.858	118
515.074	157
515.29	360
515.506	1116
515.721	430
515.937	127
516.153	100
516.369	96
516.585	93
516.801	83
517.016	101
517.232	97
517.448	101
517.664	98
517.879	86
518.095	86
518.311	104
518.527	92
518.742	101
518.958	85
519.173	99
519.389	114
519.605	99
519.82	92
520.036	112
520.251	103
520.467	99
520.682	104
520.898	104
521.113	112
521.329	123
521.544	172
521.76	462
521.975	1815
522.19	1108
522.406	259
522.621	108
522.836	110
523.052	98
523.267	93
523.482	99
523.698	95
523.913	105
524.128	108
524.343	92
524.559	98
524.774	85
524.989	100
525.204	112
525.419	94
525.634	87
525.849	87
526.064	88
526.28	92
526.495	102
526.71	91
526.925	88
527.14	92
527.355	89
527.57	97
527.785	96
527.999	82
528.214	85
528.429	88
528.644	91
528.859	106
529.074	99
529.289	106
529.503	152
529.718	93
529.933	86
530.148	86
530.363	105
530.577	91
530.792	98
531.007	85
531.221	86
531.436	86
531.651	100
531.865	80
532.08	107
532.295	96
532.509	82
532.724	84
532.938	90
533.153	84
533.367	90
533.582	103
533.796	96
534.011	102
534.225	89
534.44	102
534.654	90
534.868	96
535.083	91
535.297	93
535.511	96
535.726	100
535.94	93
536.154	103
536.369	90
536.583	94
536.797	95
537.011	83
537.225	85
537.44	98
537.654	84
537.868	104
538.082	89
538.296	86
538.51	91
538.724	86
538.938	91
539.153	77
539.367	94
539.581	101
539.795	86
540.009	88
540.222	84
540.436	95
540.65	95
540.864	96
541.078	93
541.292	98
541.506	82
541.72	101
541.934	89
542.147	90
542.361	82
542.575	90
542.789	89
543.002	96
543.216	86
543.43	100
543.644	100
543.857	85
544.071	88
544.285	95
544.498	88
544.712	101
544.925	113
545.139	92
545.352	93
545.566	77
545.779	72
545.993	103
546.206	100
546.42	86
546.633	83
546.847	110
547.06	108
547.274	88
547.487	75
547.7	80
547.914	66
548.127	82
548.34	92
548.554	84
548.767	86
548.98	94
549.193	90
549.407	102
549.62	76
549.833	92
550.046	94
550.259	89
550.473	90
550.686	89
550.899	82
551.112	101
551.325	95
551.538	95
551.751	67
551.964	93
552.177	80
552.39	92
552.603	93
552.816	99
553.029	82
553.242	77
553.455	112
553.667	102
553.88	102
554.093	89
554.306	85
554.519	92
554.732	93
554.944	93
555.157	99
555.37	102
555.583	74
555.795	86
556.008	78
556.221	93
556.433	80
556.646	84
556.859	99
557.071	94
557.284	93
557.496	89
557.709	90
557.921	88
558.134	84
558.346	80
558.559	96
558.771	92
558.984	94
559.196	98
559.409	68
559.621	86
559.833	86
560.046	103
560.258	98
560.47	94
560.683	92
560.895	79
561.107	94
561.32	88
561.532	70
561.744	90
561.956	101
562.168	85
562.381	86
562.593	98
562.805	101
563.017	91
563.229	96
563.441	90
563.653	76
563.865	76
564.077	72
564.289	81
564.501	93
564.713	85
564.925	93
565.137	92
565.349	98
565.561	91
565.773	114
565.985	105
566.197	105
566.408	94
566.62	87
566.832	89
567.044	84
567.255	84
567.467	96
567.679	98
567.891	92
568.102	84
568.314	93
568.526	82
568.737	82
568.949	82
569.161	83
569.372	100
569.584	85
569.795	79
570.007	105
570.218	218
570.43	120
570.641	83
570.853	91
571.064	88
571.276	77
571.487	91
571.698	88
571.91	92
572.121	82
572.333	82
572.544	96
572.755	102
572.966	75
573.178	90
573.389	87
573.6	93
573.811	100
574.023	84
574.234	83
574.445	87
574.656	80
574.867	86
575.078	88
575.289	97
575.501	74
575.712	90
575.923	76
576.134	85
576.345	86
576.556	96
576.767	92
576.978	100
577.188	107
577.399	94
577.61	99
577.821	92
578.032	118
578.243	229
578.454	660
578.665	188
578.875	111
579.086	102
579.297	90
579.508	77
579.718	88
579.929	84
580.14	84
580.35	92
580.561	93
580.772	98
580.982	100
581.193	83
581.403	90
581.614	80
581.825	84
582.035	79
582.246	106
582.456	86
582.667	93
582.877	96
583.087	103
583.298	97
583.508	94
583.719	95
583.929	86
