Data from Uncirc_1980_H10_HRD10591_00072.txt Node
Date: Wed Jan 03 12:37:09 EST 2024
User: Yrep
Spectrometer: HR+D1059
Trigger mode: 1
Integration Time (sec): 1.000000E-1
Scans to average: 1
Electric dark correction enabled: true
Nonlinearity correction enabled: false
Boxcar width: 0
XAxis mode: Wavelengths
Number of Pixels in Spectrum: 2048
>>>>>Begin Spectral Data<<<<<
223.165	-24.31
223.4	-24.31
223.635	-24.31
223.869	-23.31
224.104	-22.31
224.338	-21.31
224.573	-14.31
224.808	-20.31
225.042	-9.31
225.277	-2.31
225.511	8.69
225.746	-0.31
225.98	16.69
226.215	12.69
226.449	18.69
226.683	20.69
226.918	24.69
227.152	35.69
227.387	33.69
227.621	43.69
227.856	41.69
228.09	32.69
228.324	41.69
228.559	48.69
228.793	49.69
229.027	61.69
229.262	59.69
229.496	55.69
229.73	64.69
229.964	81.69
230.199	75.69
230.433	60.69
230.667	78.69
230.901	85.69
231.136	72.69
231.37	87.69
231.604	73.69
231.838	79.69
232.072	71.69
232.306	68.69
232.541	80.69
232.775	88.69
233.009	84.69
233.243	76.69
233.477	95.69
233.711	97.69
233.945	93.69
234.179	93.69
234.413	82.69
234.647	93.69
234.881	84.69
235.115	76.69
235.349	62.69
235.583	74.69
235.817	80.69
236.051	44.69
236.285	67.69
236.519	73.69
236.753	67.69
236.987	81.69
237.221	64.69
237.455	65.69
237.689	71.69
237.922	78.69
238.156	79.69
238.39	79.69
238.624	88.69
238.858	69.69
239.091	70.69
239.325	69.69
239.559	74.69
239.793	76.69
240.027	83.69
240.26	66.69
240.494	81.69
240.728	74.69
240.961	71.69
241.195	78.69
241.429	81.69
241.662	79.69
241.896	68.69
242.13	76.69
242.363	73.69
242.597	67.69
242.83	76.69
243.064	75.69
243.298	72.69
243.531	87.69
243.765	81.69
243.998	72.69
244.232	67.69
244.465	91.69
244.699	79.69
244.932	73.69
245.166	81.69
245.399	75.69
245.633	89.69
245.866	73.69
246.099	65.69
246.333	69.69
246.566	71.69
246.8	73.69
247.033	88.69
247.266	79.69
247.5	75.69
247.733	93.69
247.966	81.69
248.2	60.69
248.433	79.69
248.666	74.69
248.899	76.69
249.133	83.69
249.366	85.69
249.599	77.69
249.832	75.69
250.066	81.69
250.299	81.69
250.532	93.69
250.765	90.69
250.998	93.69
251.231	79.69
251.465	82.69
251.698	73.69
251.931	71.69
252.164	77.69
252.397	84.69
252.63	83.69
252.863	65.69
253.096	76.69
253.329	76.69
253.562	71.69
253.795	71.69
254.028	82.69
254.261	60.69
254.494	69.69
254.727	82.69
254.96	90.69
255.193	85.69
255.426	73.69
255.659	82.69
255.892	77.69
256.124	80.69
256.357	68.69
256.59	82.69
256.823	84.69
257.056	79.69
257.289	86.69
257.521	79.69
257.754	82.69
257.987	74.69
258.22	59.69
258.452	88.69
258.685	71.69
258.918	81.69
259.151	71.69
259.383	75.69
259.616	71.69
259.849	79.69
260.081	83.69
260.314	86.69
260.547	75.69
260.779	78.69
261.012	82.69
261.244	74.69
261.477	96.69
261.71	86.69
261.942	119.69
262.175	101.69
262.407	99.69
262.64	67.69
262.872	69.69
263.105	89.69
263.337	65.69
263.57	87.69
263.802	72.69
264.035	100.69
264.267	71.69
264.499	81.69
264.732	86.69
264.964	73.69
265.197	87.69
265.429	84.69
265.661	80.69
265.894	69.69
266.126	87.69
266.358	87.69
266.591	84.69
266.823	88.69
267.055	90.69
267.287	80.69
267.52	81.69
267.752	86.69
267.984	85.69
268.216	87.69
268.448	96.69
268.681	79.69
268.913	64.69
269.145	90.69
269.377	83.69
269.609	89.69
269.841	91.69
270.073	77.69
270.306	90.69
270.538	88.69
270.77	91.69
271.002	81.69
271.234	87.69
271.466	76.69
271.698	100.69
271.93	73.69
272.162	90.69
272.394	81.69
272.626	79.69
272.858	76.69
273.09	106.69
273.322	84.69
273.553	80.69
273.785	68.69
274.017	71.69
274.249	84.69
274.481	79.69
274.713	97.69
274.945	92.69
275.176	94.69
275.408	90.69
275.64	86.69
275.872	84.69
276.104	75.69
276.335	75.69
276.567	90.69
276.799	93.69
277.031	81.69
277.262	99.69
277.494	92.69
277.726	96.69
277.957	73.69
278.189	69.69
278.421	89.69
278.652	86.69
278.884	72.69
279.115	82.69
279.347	83.69
279.579	68.69
279.81	67.69
280.042	88.69
280.273	94.69
280.505	90.69
280.736	83.69
280.968	83.69
281.199	88.69
281.431	100.69
281.662	85.69
281.894	84.69
282.125	100.69
282.356	111.69
282.588	120.69
282.819	111.69
283.051	79.69
283.282	85.69
283.513	88.69
283.745	87.69
283.976	70.69
284.207	85.69
284.439	97.69
284.67	87.69
284.901	79.69
285.132	75.69
285.364	74.69
285.595	84.69
285.826	72.69
286.057	90.69
286.288	81.69
286.52	76.69
286.751	79.69
286.982	93.69
287.213	86.69
287.444	95.69
287.675	96.69
287.906	82.69
288.138	87.69
288.369	99.69
288.6	82.69
288.831	80.69
289.062	77.69
289.293	87.69
289.524	75.69
289.755	77.69
289.986	99.69
290.217	86.69
290.448	88.69
290.679	87.69
290.91	83.69
291.141	84.69
291.371	96.69
291.602	88.69
291.833	92.69
292.064	75.69
292.295	81.69
292.526	80.69
292.757	84.69
292.987	93.69
293.218	90.69
293.449	84.69
293.68	87.69
293.91	72.69
294.141	75.69
294.372	84.69
294.603	99.69
294.833	99.69
295.064	68.69
295.295	98.69
295.525	68.69
295.756	84.69
295.987	100.69
296.217	113.69
296.448	105.69
296.679	84.69
296.909	89.69
297.14	89.69
297.37	103.69
297.601	89.69
297.831	80.69
298.062	89.69
298.292	82.69
298.523	84.69
298.753	90.69
298.984	86.69
299.214	74.69
299.445	85.69
299.675	81.69
299.905	88.69
300.136	85.69
300.366	83.69
300.597	87.69
300.827	99.69
301.057	90.69
301.288	84.69
301.518	83.69
301.748	85.69
301.979	101.69
302.209	88.69
302.439	88.69
302.669	84.69
302.9	103.69
303.13	93.69
303.36	80.69
303.59	96.69
303.82	91.69
304.051	86.69
304.281	83.69
304.511	81.69
304.741	81.69
304.971	75.69
305.201	99.69
305.431	89.69
305.661	95.69
305.891	88.69
306.121	106.69
306.352	100.69
306.582	98.69
306.812	97.69
307.042	75.69
307.272	87.69
307.502	88.69
307.731	79.69
307.961	96.69
308.191	93.69
308.421	93.69
308.651	92.69
308.881	86.69
309.111	93.69
309.341	90.69
309.571	87.69
309.8	92.69
310.03	99.69
310.26	88.69
310.49	92.69
310.72	89.69
310.949	82.69
311.179	88.69
311.409	94.69
311.639	111.69
311.868	86.69
312.098	90.69
312.328	99.69
312.557	79.69
312.787	85.69
313.017	100.69
313.246	93.69
313.476	87.69
313.706	84.69
313.935	83.69
314.165	84.69
314.394	97.69
314.624	77.69
314.853	99.69
315.083	97.69
315.312	91.69
315.542	90.69
315.771	90.69
316.001	92.69
316.23	83.69
316.46	75.69
316.689	87.69
316.919	93.69
317.148	97.69
317.377	89.69
317.607	96.69
317.836	81.69
318.065	88.69
318.295	80.69
318.524	95.69
318.753	83.69
318.983	79.69
319.212	92.69
319.441	106.69
319.67	97.69
319.9	85.69
320.129	102.69
320.358	79.69
320.587	87.69
320.816	94.69
321.046	89.69
321.275	95.69
321.504	82.69
321.733	89.69
321.962	93.69
322.191	89.69
322.42	95.69
322.649	109.69
322.878	97.69
323.108	107.69
323.337	106.69
323.566	119.69
323.795	122.69
324.024	180.69
324.253	293.69
324.482	610.69
324.71	1210.69
324.939	1559.69
325.168	599.69
325.397	197.69
325.626	111.69
325.855	100.69
326.084	95.69
326.313	91.69
326.542	133.69
326.77	169.69
326.999	323.69
327.228	693.69
327.457	1214.69
327.686	1004.69
327.914	281.69
328.143	178.69
328.372	134.69
328.6	119.69
328.829	108.69
329.058	115.69
329.287	115.69
329.515	115.69
329.744	99.69
329.972	94.69
330.201	108.69
330.43	105.69
330.658	107.69
330.887	120.69
331.115	113.69
331.344	90.69
331.572	98.69
331.801	93.69
332.03	89.69
332.258	91.69
332.486	85.69
332.715	87.69
332.943	82.69
333.172	81.69
333.4	95.69
333.629	96.69
333.857	117.69
334.085	107.69
334.314	111.69
334.542	113.69
334.771	118.69
334.999	109.69
335.227	98.69
335.455	88.69
335.684	95.69
335.912	99.69
336.14	100.69
336.369	97.69
336.597	97.69
336.825	96.69
337.053	100.69
337.281	93.69
337.51	92.69
337.738	91.69
337.966	87.69
338.194	83.69
338.422	91.69
338.65	87.69
338.878	91.69
339.106	81.69
339.334	98.69
339.562	86.69
339.79	71.69
340.018	89.69
340.246	81.69
340.474	91.69
340.702	94.69
340.93	90.69
341.158	82.69
341.386	97.69
341.614	89.69
341.842	75.69
342.07	96.69
342.298	83.69
342.526	83.69
342.754	99.69
342.981	83.69
343.209	77.69
343.437	95.69
343.665	80.69
343.893	81.69
344.12	77.69
344.348	100.69
344.576	84.69
344.804	98.69
345.031	90.69
345.259	83.69
345.487	96.69
345.714	91.69
345.942	102.69
346.17	99.69
346.397	83.69
346.625	85.69
346.853	87.69
347.08	92.69
347.308	78.69
347.535	91.69
347.763	98.69
347.99	90.69
348.218	94.69
348.445	85.69
348.673	85.69
348.9	87.69
349.128	93.69
349.355	94.69
349.583	89.69
349.81	99.69
350.037	104.69
350.265	92.69
350.492	95.69
350.72	111.69
350.947	92.69
351.174	109.69
351.402	110.69
351.629	106.69
351.856	91.69
352.083	95.69
352.311	102.69
352.538	101.69
352.765	99.69
352.992	97.69
353.22	102.69
353.447	101.69
353.674	107.69
353.901	97.69
354.128	96.69
354.355	94.69
354.583	109.69
354.81	93.69
355.037	95.69
355.264	104.69
355.491	91.69
355.718	88.69
355.945	100.69
356.172	100.69
356.399	91.69
356.626	95.69
356.853	93.69
357.08	101.69
357.307	100.69
357.534	79.69
357.761	81.69
357.988	97.69
358.215	83.69
358.441	101.69
358.668	87.69
358.895	87.69
359.122	86.69
359.349	76.69
359.576	88.69
359.802	90.69
360.029	90.69
360.256	98.69
360.483	98.69
360.709	83.69
360.936	80.69
361.163	79.69
361.39	91.69
361.616	87.69
361.843	83.69
362.07	86.69
362.296	80.69
362.523	99.69
362.749	87.69
362.976	96.69
363.203	89.69
363.429	95.69
363.656	95.69
363.882	89.69
364.109	96.69
364.335	83.69
364.562	98.69
364.788	83.69
365.015	93.69
365.241	98.69
365.468	107.69
365.694	96.69
365.92	96.69
366.147	86.69
366.373	80.69
366.599	84.69
366.826	83.69
367.052	86.69
367.278	86.69
367.505	91.69
367.731	93.69
367.957	95.69
368.184	96.69
368.41	81.69
368.636	99.69
368.862	110.69
369.089	113.69
369.315	99.69
369.541	103.69
369.767	90.69
369.993	91.69
370.219	84.69
370.445	76.69
370.672	93.69
370.898	87.69
371.124	92.69
371.35	79.69
371.576	58.69
371.802	95.69
372.028	90.69
372.254	90.69
372.48	69.69
372.706	85.69
372.932	98.69
373.158	76.69
373.384	90.69
373.61	98.69
373.835	81.69
374.061	85.69
374.287	95.69
374.513	84.69
374.739	89.69
374.965	84.69
375.191	92.69
375.416	69.69
375.642	90.69
375.868	99.69
376.094	81.69
376.319	73.69
376.545	97.69
376.771	107.69
376.997	86.69
377.222	92.69
377.448	98.69
377.674	76.69
377.899	76.69
378.125	77.69
378.35	78.69
378.576	98.69
378.802	96.69
379.027	101.69
379.253	74.69
379.478	82.69
379.704	73.69
379.929	91.69
380.155	86.69
380.38	84.69
380.606	87.69
380.831	95.69
381.057	96.69
381.282	105.69
381.507	104.69
381.733	99.69
381.958	100.69
382.184	87.69
382.409	90.69
382.634	97.69
382.86	95.69
383.085	93.69
383.31	88.69
383.535	89.69
383.761	92.69
383.986	99.69
384.211	91.69
384.436	94.69
384.662	112.69
384.887	101.69
385.112	107.69
385.337	97.69
385.562	103.69
385.787	99.69
386.013	113.69
386.238	99.69
386.463	111.69
386.688	107.69
386.913	98.69
387.138	107.69
387.363	90.69
387.588	93.69
387.813	105.69
388.038	110.69
388.263	105.69
388.488	110.69
388.713	90.69
388.938	81.69
389.163	89.69
389.387	103.69
389.612	109.69
389.837	80.69
390.062	91.69
390.287	83.69
390.512	90.69
390.736	116.69
390.961	96.69
391.186	88.69
391.411	99.69
391.636	87.69
391.86	90.69
392.085	94.69
392.31	77.69
392.534	99.69
392.759	82.69
392.984	77.69
393.208	95.69
393.433	70.69
393.658	81.69
393.882	85.69
394.107	96.69
394.331	75.69
394.556	77.69
394.78	84.69
395.005	82.69
395.229	91.69
395.454	88.69
395.678	80.69
395.903	91.69
396.127	91.69
396.352	89.69
396.576	92.69
396.801	90.69
397.025	89.69
397.249	87.69
397.474	94.69
397.698	91.69
397.922	93.69
398.147	76.69
398.371	76.69
398.595	91.69
398.82	79.69
399.044	84.69
399.268	79.69
399.492	79.69
399.717	89.69
399.941	74.69
400.165	86.69
400.389	92.69
400.613	90.69
400.837	86.69
401.062	91.69
401.286	94.69
401.51	93.69
401.734	89.69
401.958	85.69
402.182	130.69
402.406	143.69
402.63	117.69
402.854	98.69
403.078	85.69
403.302	89.69
403.526	93.69
403.75	94.69
403.974	84.69
404.198	95.69
404.422	103.69
404.645	87.69
404.869	90.69
405.093	103.69
405.317	87.69
405.541	97.69
405.765	90.69
405.988	110.69
406.212	157.69
406.436	179.69
406.66	108.69
406.883	99.69
407.107	97.69
407.331	78.69
407.555	99.69
407.778	83.69
408.002	92.69
408.226	89.69
408.449	87.69
408.673	67.69
408.896	103.69
409.12	79.69
409.344	88.69
409.567	89.69
409.791	90.69
410.014	89.69
410.238	94.69
410.461	81.69
410.685	94.69
410.908	91.69
411.132	91.69
411.355	116.69
411.578	104.69
411.802	80.69
412.025	73.69
412.249	83.69
412.472	99.69
412.695	88.69
412.919	80.69
413.142	83.69
413.365	93.69
413.589	74.69
413.812	83.69
414.035	88.69
414.258	97.69
414.482	81.69
414.705	96.69
414.928	80.69
415.151	90.69
415.374	81.69
415.597	82.69
415.821	80.69
416.044	84.69
416.267	86.69
416.49	83.69
416.713	84.69
416.936	100.69
417.159	88.69
417.382	92.69
417.605	97.69
417.828	79.69
418.051	74.69
418.274	79.69
418.497	101.69
418.72	97.69
418.943	82.69
419.166	88.69
419.389	107.69
419.611	87.69
419.834	97.69
420.057	90.69
420.28	86.69
420.503	87.69
420.726	88.69
420.948	83.69
421.171	105.69
421.394	90.69
421.617	90.69
421.839	89.69
422.062	79.69
422.285	74.69
422.507	101.69
422.73	94.69
422.953	81.69
423.175	90.69
423.398	87.69
423.621	95.69
423.843	84.69
424.066	84.69
424.288	80.69
424.511	89.69
424.733	98.69
424.956	92.69
425.178	91.69
425.401	97.69
425.623	96.69
425.846	84.69
426.068	93.69
426.291	81.69
426.513	87.69
426.735	76.69
426.958	76.69
427.18	98.69
427.402	124.69
427.625	130.69
427.847	118.69
428.069	97.69
428.292	83.69
428.514	84.69
428.736	96.69
428.958	90.69
429.181	88.69
429.403	88.69
429.625	81.69
429.847	101.69
430.069	91.69
430.292	93.69
430.514	75.69
430.736	88.69
430.958	79.69
431.18	91.69
431.402	79.69
431.624	95.69
431.846	95.69
432.068	84.69
432.29	94.69
432.512	105.69
432.734	103.69
432.956	98.69
433.178	101.69
433.4	96.69
433.622	84.69
433.844	89.69
434.066	87.69
434.287	82.69
434.509	76.69
434.731	83.69
434.953	84.69
435.175	92.69
435.397	71.69
435.618	75.69
435.84	97.69
436.062	118.69
436.284	104.69
436.505	102.69
436.727	99.69
436.949	90.69
437.17	87.69
437.392	84.69
437.614	65.69
437.835	81.69
438.057	104.69
438.278	99.69
438.5	103.69
438.721	109.69
438.943	99.69
439.165	91.69
439.386	98.69
439.608	88.69
439.829	91.69
440.05	97.69
440.272	105.69
440.493	84.69
440.715	96.69
440.936	86.69
441.158	83.69
441.379	97.69
441.6	81.69
441.822	78.69
442.043	93.69
442.264	90.69
442.486	92.69
442.707	84.69
442.928	96.69
443.149	111.69
443.371	98.69
443.592	99.69
443.813	107.69
444.034	112.69
444.255	96.69
444.476	83.69
444.698	80.69
444.919	69.69
445.14	124.69
445.361	109.69
445.582	108.69
445.803	122.69
446.024	123.69
446.245	126.69
446.466	96.69
446.687	83.69
446.908	93.69
447.129	75.69
447.35	95.69
447.571	92.69
447.792	83.69
448.013	95.69
448.234	90.69
448.455	87.69
448.675	109.69
448.896	100.69
449.117	91.69
449.338	95.69
449.559	108.69
449.779	115.69
450	97.69
450.221	79.69
450.442	81.69
450.662	92.69
450.883	99.69
451.104	98.69
451.324	77.69
451.545	89.69
451.766	95.69
451.986	78.69
452.207	90.69
452.428	79.69
452.648	97.69
452.869	98.69
453.089	96.69
453.31	94.69
453.53	107.69
453.751	85.69
453.971	93.69
454.192	111.69
454.412	90.69
454.633	86.69
454.853	84.69
455.073	83.69
455.294	81.69
455.514	85.69
455.734	82.69
455.955	87.69
456.175	84.69
456.395	73.69
456.616	84.69
456.836	87.69
457.056	70.69
457.276	64.69
457.497	83.69
457.717	87.69
457.937	90.69
458.157	93.69
458.377	99.69
458.598	92.69
458.818	109.69
459.038	131.69
459.258	104.69
459.478	83.69
459.698	80.69
459.918	101.69
460.138	88.69
460.358	88.69
460.578	96.69
460.798	90.69
461.018	87.69
461.238	81.69
461.458	84.69
461.678	76.69
461.898	82.69
462.118	82.69
462.338	84.69
462.558	89.69
462.777	69.69
462.997	75.69
463.217	87.69
463.437	73.69
463.657	92.69
463.876	87.69
464.096	94.69
464.316	88.69
464.536	80.69
464.755	90.69
464.975	95.69
465.195	138.69
465.414	127.69
465.634	92.69
465.854	85.69
466.073	81.69
466.293	94.69
466.512	88.69
466.732	80.69
466.951	85.69
467.171	89.69
467.391	91.69
467.61	91.69
467.829	88.69
468.049	86.69
468.268	88.69
468.488	94.69
468.707	81.69
468.927	75.69
469.146	82.69
469.365	83.69
469.585	104.69
469.804	95.69
470.023	93.69
470.243	74.69
470.462	96.69
470.681	92.69
470.901	84.69
471.12	76.69
471.339	83.69
471.558	87.69
471.777	88.69
471.997	96.69
472.216	104.69
472.435	136.69
472.654	96.69
472.873	86.69
473.092	82.69
473.311	87.69
473.53	74.69
473.749	83.69
473.968	89.69
474.187	87.69
474.406	88.69
474.625	92.69
474.844	77.69
475.063	81.69
475.282	88.69
475.501	90.69
475.72	100.69
475.939	79.69
476.158	69.69
476.377	79.69
476.596	81.69
476.814	89.69
477.033	81.69
477.252	93.69
477.471	81.69
477.69	85.69
477.908	91.69
478.127	97.69
478.346	85.69
478.564	96.69
478.783	84.69
479.002	93.69
479.22	103.69
479.439	95.69
479.658	101.69
479.876	91.69
480.095	86.69
480.313	83.69
480.532	94.69
480.751	90.69
480.969	103.69
481.188	182.69
481.406	128.69
481.624	97.69
481.843	83.69
482.061	93.69
482.28	87.69
482.498	89.69
482.717	91.69
482.935	84.69
483.153	81.69
483.372	80.69
483.59	77.69
483.808	92.69
484.027	87.69
484.245	81.69
484.463	90.69
484.681	89.69
484.9	86.69
485.118	91.69
485.336	86.69
485.554	88.69
485.772	112.69
485.99	89.69
486.209	97.69
486.427	109.69
486.645	111.69
486.863	97.69
487.081	98.69
487.299	95.69
487.517	104.69
487.735	87.69
487.953	85.69
488.171	92.69
488.389	112.69
488.607	96.69
488.825	88.69
489.043	82.69
489.261	84.69
489.479	82.69
489.696	84.69
489.914	83.69
490.132	92.69
490.35	80.69
490.568	91.69
490.786	95.69
491.003	97.69
491.221	92.69
491.439	87.69
491.657	93.69
491.874	85.69
492.092	91.69
492.31	72.69
492.527	93.69
492.745	92.69
492.963	87.69
493.18	82.69
493.398	95.69
493.615	85.69
493.833	85.69
494.05	89.69
494.268	83.69
494.485	76.69
494.703	81.69
494.92	95.69
495.138	90.69
495.355	86.69
495.573	93.69
495.79	83.69
496.008	77.69
496.225	96.69
496.442	92.69
496.66	91.69
496.877	84.69
497.094	81.69
497.312	87.69
497.529	81.69
497.746	75.69
497.963	86.69
498.181	83.69
498.398	96.69
498.615	108.69
498.832	92.69
499.049	95.69
499.267	95.69
499.484	94.69
499.701	88.69
499.918	96.69
500.135	86.69
500.352	95.69
500.569	106.69
500.786	103.69
501.003	90.69
501.22	91.69
501.437	92.69
501.654	85.69
501.871	98.69
502.088	89.69
502.305	67.69
502.522	78.69
502.739	80.69
502.956	84.69
503.172	93.69
503.389	97.69
503.606	99.69
503.823	88.69
504.04	97.69
504.256	87.69
504.473	84.69
504.69	89.69
504.907	87.69
505.123	86.69
505.34	79.69
505.557	82.69
505.773	74.69
505.99	85.69
506.207	98.69
506.423	89.69
506.64	84.69
506.856	90.69
507.073	98.69
507.289	95.69
507.506	94.69
507.722	103.69
507.939	105.69
508.155	84.69
508.372	102.69
508.588	101.69
508.805	94.69
509.021	92.69
509.238	97.69
509.454	85.69
509.67	80.69
509.887	89.69
510.103	114.69
510.319	179.69
510.536	583.69
510.752	1846.69
510.968	497.69
511.184	132.69
511.401	105.69
511.617	89.69
511.833	91.69
512.049	88.69
512.265	85.69
512.481	99.69
512.698	89.69
512.914	80.69
513.13	79.69
513.346	97.69
513.562	95.69
513.778	89.69
513.994	95.69
514.21	94.69
514.426	112.69
514.642	117.69
514.858	105.69
515.074	141.69
515.29	329.69
515.506	1076.69
515.721	423.69
515.937	137.69
516.153	107.69
516.369	100.69
516.585	85.69
516.801	92.69
517.016	88.69
517.232	95.69
