Data from Uncirc_1980_H10_HRD10591_00045.txt Node
Date: Wed Jan 03 12:37:04 EST 2024
User: Yrep
Spectrometer: HR+D1059
Trigger mode: 1
Integration Time (sec): 1.000000E-1
Scans to average: 1
Electric dark correction enabled: true
Nonlinearity correction enabled: false
Boxcar width: 0
XAxis mode: Wavelengths
Number of Pixels in Spectrum: 2048
>>>>>Begin Spectral Data<<<<<
223.165	-21.75
223.4	-21.75
223.635	-21.75
223.869	-22.75
224.104	-14.75
224.338	-16.75
224.573	-6.75
224.808	-8.75
225.042	-10.75
225.277	-6.75
225.511	-8.75
225.746	-5.75
225.98	3.25
226.215	27.25
226.449	9.25
226.683	18.25
226.918	34.25
227.152	31.25
227.387	37.25
227.621	33.25
227.856	51.25
228.09	51.25
228.324	60.25
228.559	58.25
228.793	46.25
229.027	77.25
229.262	59.25
229.496	60.25
229.73	74.25
229.964	81.25
230.199	79.25
230.433	71.25
230.667	85.25
230.901	90.25
231.136	79.25
231.37	75.25
231.604	76.25
231.838	71.25
232.072	90.25
232.306	79.25
232.541	79.25
232.775	81.25
233.009	90.25
233.243	71.25
233.477	74.25
233.711	79.25
233.945	93.25
234.179	76.25
234.413	67.25
234.647	65.25
234.881	79.25
235.115	74.25
235.349	79.25
235.583	81.25
235.817	87.25
236.051	71.25
236.285	86.25
236.519	65.25
236.753	79.25
236.987	63.25
237.221	74.25
237.455	89.25
237.689	82.25
237.922	52.25
238.156	63.25
238.39	74.25
238.624	73.25
238.858	79.25
239.091	93.25
239.325	86.25
239.559	71.25
239.793	99.25
240.027	85.25
240.26	61.25
240.494	82.25
240.728	75.25
240.961	69.25
241.195	79.25
241.429	81.25
241.662	67.25
241.896	72.25
242.13	65.25
242.363	58.25
242.597	79.25
242.83	73.25
243.064	67.25
243.298	71.25
243.531	70.25
243.765	89.25
243.998	85.25
244.232	85.25
244.465	83.25
244.699	78.25
244.932	88.25
245.166	88.25
245.399	83.25
245.633	77.25
245.866	78.25
246.099	91.25
246.333	68.25
246.566	79.25
246.8	74.25
247.033	81.25
247.266	83.25
247.5	87.25
247.733	76.25
247.966	71.25
248.2	80.25
248.433	68.25
248.666	79.25
248.899	73.25
249.133	74.25
249.366	87.25
249.599	102.25
249.832	87.25
250.066	89.25
250.299	75.25
250.532	82.25
250.765	70.25
250.998	83.25
251.231	83.25
251.465	81.25
251.698	83.25
251.931	77.25
252.164	74.25
252.397	74.25
252.63	91.25
252.863	76.25
253.096	75.25
253.329	86.25
253.562	85.25
253.795	83.25
254.028	81.25
254.261	81.25
254.494	76.25
254.727	85.25
254.96	79.25
255.193	101.25
255.426	74.25
255.659	80.25
255.892	92.25
256.124	71.25
256.357	76.25
256.59	71.25
256.823	81.25
257.056	84.25
257.289	97.25
257.521	75.25
257.754	70.25
257.987	73.25
258.22	73.25
258.452	87.25
258.685	80.25
258.918	83.25
259.151	81.25
259.383	86.25
259.616	84.25
259.849	83.25
260.081	86.25
260.314	79.25
260.547	61.25
260.779	85.25
261.012	82.25
261.244	92.25
261.477	83.25
261.71	89.25
261.942	97.25
262.175	118.25
262.407	85.25
262.64	90.25
262.872	80.25
263.105	75.25
263.337	70.25
263.57	87.25
263.802	79.25
264.035	90.25
264.267	77.25
264.499	83.25
264.732	74.25
264.964	93.25
265.197	100.25
265.429	74.25
265.661	76.25
265.894	98.25
266.126	93.25
266.358	81.25
266.591	74.25
266.823	74.25
267.055	93.25
267.287	81.25
267.52	67.25
267.752	90.25
267.984	82.25
268.216	65.25
268.448	81.25
268.681	79.25
268.913	85.25
269.145	79.25
269.377	89.25
269.609	89.25
269.841	76.25
270.073	83.25
270.306	76.25
270.538	79.25
270.77	80.25
271.002	85.25
271.234	73.25
271.466	95.25
271.698	73.25
271.93	75.25
272.162	84.25
272.394	83.25
272.626	75.25
272.858	76.25
273.09	85.25
273.322	85.25
273.553	75.25
273.785	88.25
274.017	93.25
274.249	93.25
274.481	83.25
274.713	88.25
274.945	91.25
275.176	85.25
275.408	90.25
275.64	75.25
275.872	82.25
276.104	82.25
276.335	72.25
276.567	93.25
276.799	98.25
277.031	91.25
277.262	95.25
277.494	80.25
277.726	89.25
277.957	84.25
278.189	81.25
278.421	85.25
278.652	71.25
278.884	74.25
279.115	94.25
279.347	83.25
279.579	98.25
279.81	106.25
280.042	84.25
280.273	82.25
280.505	81.25
280.736	86.25
280.968	75.25
281.199	91.25
281.431	81.25
281.662	91.25
281.894	91.25
282.125	87.25
282.356	108.25
282.588	135.25
282.819	99.25
283.051	83.25
283.282	96.25
283.513	81.25
283.745	68.25
283.976	91.25
284.207	92.25
284.439	72.25
284.67	83.25
284.901	79.25
285.132	96.25
285.364	71.25
285.595	82.25
285.826	89.25
286.057	79.25
286.288	98.25
286.52	79.25
286.751	84.25
286.982	88.25
287.213	74.25
287.444	96.25
287.675	82.25
287.906	95.25
288.138	93.25
288.369	81.25
288.6	91.25
288.831	89.25
289.062	91.25
289.293	75.25
289.524	87.25
289.755	83.25
289.986	74.25
290.217	82.25
290.448	85.25
290.679	91.25
290.91	84.25
291.141	98.25
291.371	77.25
291.602	81.25
291.833	74.25
292.064	90.25
292.295	83.25
292.526	82.25
292.757	82.25
292.987	89.25
293.218	86.25
293.449	101.25
293.68	78.25
293.91	93.25
294.141	94.25
294.372	92.25
294.603	85.25
294.833	87.25
295.064	100.25
295.295	79.25
295.525	100.25
295.756	96.25
295.987	112.25
296.217	143.25
296.448	131.25
296.679	91.25
296.909	80.25
297.14	86.25
297.37	89.25
297.601	97.25
297.831	85.25
298.062	82.25
298.292	79.25
298.523	91.25
298.753	89.25
298.984	102.25
299.214	93.25
299.445	77.25
299.675	90.25
299.905	93.25
300.136	91.25
300.366	99.25
300.597	87.25
300.827	85.25
301.057	84.25
301.288	98.25
301.518	89.25
301.748	83.25
301.979	98.25
302.209	83.25
302.439	80.25
302.669	104.25
302.9	83.25
303.13	81.25
303.36	96.25
303.59	93.25
303.82	93.25
304.051	84.25
304.281	90.25
304.511	94.25
304.741	88.25
304.971	76.25
305.201	85.25
305.431	84.25
305.661	91.25
305.891	91.25
306.121	102.25
306.352	91.25
306.582	103.25
306.812	97.25
307.042	83.25
307.272	87.25
307.502	102.25
307.731	99.25
307.961	69.25
308.191	87.25
308.421	85.25
308.651	72.25
308.881	97.25
309.111	94.25
309.341	87.25
309.571	88.25
309.8	89.25
310.03	95.25
310.26	96.25
310.49	84.25
310.72	111.25
310.949	98.25
311.179	95.25
311.409	99.25
311.639	88.25
311.868	100.25
312.098	86.25
312.328	92.25
312.557	85.25
312.787	98.25
313.017	104.25
313.246	101.25
313.476	87.25
313.706	87.25
313.935	95.25
314.165	96.25
314.394	98.25
314.624	90.25
314.853	92.25
315.083	102.25
315.312	108.25
315.542	86.25
315.771	81.25
316.001	85.25
316.23	100.25
316.46	84.25
316.689	94.25
316.919	89.25
317.148	98.25
317.377	100.25
317.607	89.25
317.836	82.25
318.065	88.25
318.295	91.25
318.524	90.25
318.753	88.25
318.983	99.25
319.212	101.25
319.441	106.25
319.67	101.25
319.9	89.25
320.129	98.25
320.358	90.25
320.587	97.25
320.816	91.25
321.046	87.25
321.275	99.25
321.504	88.25
321.733	108.25
321.962	91.25
322.191	92.25
322.42	96.25
322.649	107.25
322.878	119.25
323.108	117.25
323.337	115.25
323.566	145.25
323.795	140.25
324.024	180.25
324.253	345.25
324.482	760.25
324.71	1517.25
324.939	2071.25
325.168	764.25
325.397	247.25
325.626	154.25
325.855	121.25
326.084	110.25
326.313	120.25
326.542	150.25
326.77	195.25
326.999	397.25
327.228	859.25
327.457	1571.25
327.686	1273.25
327.914	343.25
328.143	169.25
328.372	149.25
328.6	113.25
328.829	113.25
329.058	114.25
329.287	124.25
329.515	106.25
329.744	92.25
329.972	97.25
330.201	109.25
330.43	124.25
330.658	144.25
330.887	148.25
331.115	119.25
331.344	107.25
331.572	99.25
331.801	102.25
332.03	104.25
332.258	95.25
332.486	97.25
332.715	109.25
332.943	98.25
333.172	91.25
333.4	97.25
333.629	105.25
333.857	119.25
334.085	101.25
334.314	117.25
334.542	124.25
334.771	137.25
334.999	104.25
335.227	91.25
335.455	96.25
335.684	86.25
335.912	84.25
336.14	106.25
336.369	95.25
336.597	108.25
336.825	98.25
337.053	90.25
337.281	88.25
337.51	96.25
337.738	81.25
337.966	81.25
338.194	101.25
338.422	96.25
338.65	96.25
338.878	89.25
339.106	91.25
339.334	98.25
339.562	102.25
339.79	97.25
340.018	81.25
340.246	110.25
340.474	99.25
340.702	80.25
340.93	95.25
341.158	82.25
341.386	96.25
341.614	93.25
341.842	89.25
342.07	85.25
342.298	102.25
342.526	95.25
342.754	84.25
342.981	83.25
343.209	89.25
343.437	109.25
343.665	84.25
343.893	100.25
344.12	91.25
344.348	96.25
344.576	83.25
344.804	105.25
345.031	94.25
345.259	106.25
345.487	101.25
345.714	87.25
345.942	95.25
346.17	97.25
346.397	91.25
346.625	85.25
346.853	91.25
347.08	89.25
347.308	83.25
347.535	78.25
347.763	104.25
347.99	97.25
348.218	99.25
348.445	104.25
348.673	98.25
348.9	95.25
349.128	100.25
349.355	90.25
349.583	88.25
349.81	84.25
350.037	78.25
350.265	83.25
350.492	95.25
350.72	85.25
350.947	100.25
351.174	101.25
351.402	106.25
351.629	112.25
351.856	111.25
352.083	95.25
352.311	97.25
352.538	98.25
352.765	114.25
352.992	112.25
353.22	92.25
353.447	111.25
353.674	81.25
353.901	102.25
354.128	103.25
354.355	89.25
354.583	94.25
354.81	92.25
355.037	101.25
355.264	85.25
355.491	104.25
355.718	97.25
355.945	84.25
356.172	97.25
356.399	99.25
356.626	92.25
356.853	105.25
357.08	82.25
357.307	90.25
357.534	94.25
357.761	82.25
357.988	88.25
358.215	95.25
358.441	92.25
358.668	105.25
358.895	85.25
359.122	93.25
359.349	85.25
359.576	85.25
359.802	98.25
360.029	109.25
360.256	106.25
360.483	87.25
360.709	84.25
360.936	96.25
361.163	88.25
361.39	73.25
361.616	83.25
361.843	95.25
362.07	93.25
362.296	91.25
362.523	83.25
362.749	88.25
362.976	92.25
363.203	96.25
363.429	81.25
363.656	83.25
363.882	83.25
364.109	87.25
364.335	91.25
364.562	91.25
364.788	79.25
365.015	107.25
365.241	97.25
365.468	98.25
365.694	88.25
365.92	85.25
366.147	103.25
366.373	82.25
366.599	106.25
366.826	82.25
367.052	75.25
367.278	79.25
367.505	87.25
367.731	88.25
367.957	87.25
368.184	76.25
368.41	94.25
368.636	111.25
368.862	101.25
369.089	89.25
369.315	100.25
369.541	93.25
369.767	84.25
369.993	87.25
370.219	84.25
370.445	83.25
370.672	99.25
370.898	94.25
371.124	81.25
371.35	95.25
371.576	88.25
371.802	77.25
372.028	85.25
372.254	89.25
372.48	103.25
372.706	91.25
372.932	93.25
373.158	80.25
373.384	99.25
373.61	88.25
373.835	89.25
374.061	92.25
374.287	87.25
374.513	78.25
374.739	92.25
374.965	89.25
375.191	71.25
375.416	97.25
375.642	88.25
375.868	86.25
376.094	83.25
376.319	90.25
376.545	89.25
376.771	92.25
376.997	90.25
377.222	97.25
377.448	91.25
377.674	80.25
377.899	95.25
378.125	88.25
378.35	89.25
378.576	97.25
378.802	98.25
379.027	101.25
379.253	102.25
379.478	90.25
379.704	107.25
379.929	101.25
380.155	88.25
380.38	106.25
380.606	99.25
380.831	92.25
381.057	101.25
381.282	73.25
381.507	92.25
381.733	95.25
381.958	107.25
382.184	90.25
382.409	101.25
382.634	108.25
382.86	99.25
383.085	105.25
383.31	103.25
383.535	94.25
383.761	111.25
383.986	78.25
384.211	96.25
384.436	104.25
384.662	112.25
384.887	99.25
385.112	121.25
385.337	108.25
385.562	106.25
385.787	111.25
386.013	121.25
386.238	100.25
386.463	117.25
386.688	115.25
386.913	93.25
387.138	107.25
387.363	104.25
387.588	109.25
387.813	89.25
388.038	104.25
388.263	118.25
388.488	119.25
388.713	93.25
388.938	100.25
389.163	106.25
389.387	95.25
389.612	88.25
389.837	91.25
390.062	89.25
390.287	93.25
390.512	92.25
390.736	85.25
390.961	84.25
391.186	97.25
391.411	88.25
391.636	91.25
391.86	72.25
392.085	83.25
392.31	87.25
392.534	81.25
392.759	95.25
392.984	89.25
393.208	80.25
393.433	77.25
393.658	101.25
393.882	92.25
394.107	74.25
394.331	75.25
394.556	84.25
394.78	103.25
395.005	96.25
395.229	100.25
395.454	89.25
395.678	68.25
395.903	94.25
396.127	99.25
396.352	87.25
396.576	98.25
396.801	93.25
397.025	94.25
397.249	91.25
397.474	92.25
397.698	84.25
397.922	84.25
398.147	83.25
398.371	87.25
398.595	86.25
398.82	80.25
399.044	89.25
399.268	75.25
399.492	99.25
399.717	88.25
399.941	90.25
400.165	96.25
400.389	88.25
400.613	90.25
400.837	88.25
401.062	70.25
401.286	79.25
401.51	85.25
401.734	106.25
401.958	102.25
402.182	121.25
402.406	155.25
402.63	108.25
402.854	98.25
403.078	83.25
403.302	87.25
403.526	95.25
403.75	82.25
403.974	93.25
404.198	92.25
404.422	92.25
404.645	77.25
404.869	92.25
405.093	95.25
405.317	92.25
405.541	92.25
405.765	113.25
405.988	106.25
406.212	154.25
406.436	214.25
406.66	131.25
406.883	104.25
407.107	86.25
407.331	100.25
407.555	109.25
407.778	105.25
408.002	91.25
408.226	99.25
408.449	87.25
408.673	82.25
408.896	100.25
409.12	92.25
409.344	97.25
409.567	73.25
409.791	77.25
410.014	86.25
410.238	91.25
410.461	87.25
410.685	92.25
410.908	87.25
411.132	113.25
411.355	101.25
411.578	108.25
411.802	83.25
412.025	65.25
412.249	97.25
412.472	80.25
412.695	95.25
412.919	108.25
413.142	83.25
413.365	73.25
413.589	93.25
413.812	86.25
414.035	82.25
414.258	89.25
414.482	79.25
414.705	87.25
414.928	95.25
415.151	82.25
415.374	92.25
415.597	88.25
415.821	86.25
416.044	99.25
416.267	91.25
416.49	82.25
416.713	94.25
416.936	85.25
417.159	81.25
417.382	82.25
417.605	99.25
417.828	85.25
418.051	83.25
418.274	73.25
418.497	72.25
418.72	84.25
418.943	83.25
419.166	91.25
419.389	85.25
419.611	91.25
419.834	87.25
420.057	91.25
420.28	92.25
420.503	82.25
420.726	84.25
420.948	90.25
421.171	91.25
421.394	101.25
421.617	88.25
421.839	92.25
422.062	90.25
422.285	100.25
422.507	113.25
422.73	92.25
422.953	119.25
423.175	83.25
423.398	75.25
423.621	98.25
423.843	93.25
424.066	83.25
424.288	73.25
424.511	79.25
424.733	81.25
424.956	112.25
425.178	89.25
425.401	104.25
425.623	95.25
425.846	87.25
426.068	100.25
426.291	90.25
426.513	97.25
426.735	87.25
426.958	99.25
427.18	100.25
427.402	142.25
427.625	146.25
427.847	125.25
428.069	121.25
428.292	83.25
428.514	83.25
428.736	81.25
428.958	87.25
429.181	101.25
429.403	107.25
429.625	94.25
429.847	101.25
430.069	120.25
430.292	111.25
430.514	99.25
430.736	83.25
430.958	89.25
431.18	73.25
431.402	77.25
431.624	83.25
431.846	83.25
432.068	84.25
432.29	77.25
432.512	90.25
432.734	73.25
432.956	83.25
433.178	97.25
433.4	95.25
433.622	96.25
433.844	90.25
434.066	81.25
434.287	93.25
434.509	85.25
434.731	90.25
434.953	100.25
435.175	87.25
435.397	66.25
435.618	95.25
435.84	108.25
436.062	131.25
436.284	124.25
436.505	103.25
436.727	98.25
436.949	108.25
437.17	81.25
437.392	88.25
437.614	97.25
437.835	102.25
438.057	107.25
438.278	112.25
438.5	110.25
438.721	119.25
438.943	97.25
439.165	79.25
439.386	81.25
439.608	106.25
439.829	81.25
440.05	116.25
440.272	135.25
440.493	95.25
440.715	81.25
440.936	85.25
441.158	85.25
441.379	83.25
441.6	108.25
441.822	92.25
442.043	85.25
442.264	111.25
442.486	107.25
442.707	79.25
442.928	104.25
443.149	134.25
443.371	133.25
443.592	99.25
443.813	105.25
444.034	102.25
444.255	81.25
444.476	75.25
444.698	89.25
444.919	83.25
445.14	132.25
445.361	132.25
445.582	112.25
445.803	138.25
446.024	125.25
446.245	126.25
446.466	112.25
446.687	88.25
446.908	85.25
447.129	95.25
447.35	82.25
447.571	91.25
447.792	102.25
448.013	88.25
448.234	98.25
448.455	87.25
448.675	113.25
448.896	108.25
449.117	99.25
449.338	114.25
449.559	131.25
449.779	112.25
450	88.25
450.221	88.25
450.442	95.25
450.662	91.25
450.883	101.25
451.104	103.25
451.324	89.25
451.545	83.25
451.766	79.25
451.986	84.25
452.207	79.25
452.428	75.25
452.648	85.25
452.869	106.25
453.089	113.25
453.31	107.25
453.53	95.25
453.751	83.25
453.971	108.25
454.192	101.25
454.412	90.25
454.633	87.25
454.853	84.25
455.073	91.25
455.294	98.25
455.514	107.25
455.734	99.25
455.955	80.25
456.175	77.25
456.395	90.25
456.616	79.25
456.836	85.25
457.056	86.25
457.276	81.25
457.497	85.25
457.717	90.25
457.937	83.25
458.157	89.25
458.377	79.25
458.598	92.25
458.818	145.25
459.038	147.25
459.258	105.25
459.478	91.25
459.698	79.25
459.918	83.25
460.138	86.25
460.358	73.25
460.578	87.25
460.798	81.25
461.018	91.25
461.238	97.25
461.458	86.25
461.678	92.25
461.898	73.25
462.118	84.25
462.338	95.25
462.558	97.25
462.777	83.25
462.997	74.25
463.217	75.25
463.437	73.25
463.657	81.25
463.876	93.25
464.096	76.25
464.316	96.25
464.536	92.25
464.755	93.25
464.975	89.25
465.195	152.25
465.414	150.25
465.634	91.25
465.854	85.25
466.073	81.25
466.293	98.25
466.512	92.25
466.732	79.25
466.951	83.25
467.171	92.25
467.391	88.25
467.61	96.25
467.829	108.25
468.049	100.25
468.268	97.25
468.488	78.25
468.707	86.25
468.927	82.25
469.146	78.25
469.365	82.25
469.585	104.25
469.804	95.25
470.023	82.25
470.243	68.25
470.462	92.25
470.681	103.25
470.901	84.25
471.12	92.25
471.339	84.25
471.558	88.25
471.777	97.25
471.997	92.25
472.216	97.25
472.435	133.25
472.654	91.25
472.873	104.25
473.092	95.25
473.311	90.25
473.53	81.25
473.749	84.25
473.968	83.25
474.187	108.25
474.406	91.25
474.625	87.25
474.844	87.25
475.063	99.25
475.282	95.25
475.501	86.25
475.72	87.25
475.939	93.25
476.158	89.25
476.377	88.25
476.596	87.25
476.814	102.25
477.033	106.25
477.252	85.25
477.471	81.25
477.69	93.25
477.908	85.25
478.127	88.25
478.346	84.25
478.564	114.25
478.783	100.25
479.002	81.25
479.22	82.25
479.439	85.25
479.658	94.25
479.876	101.25
480.095	96.25
480.313	98.25
480.532	93.25
480.751	96.25
480.969	123.25
481.188	215.25
481.406	150.25
481.624	104.25
481.843	76.25
482.061	69.25
482.28	100.25
482.498	90.25
482.717	88.25
482.935	96.25
483.153	95.25
483.372	91.25
483.59	92.25
483.808	84.25
484.027	79.25
484.245	98.25
484.463	100.25
484.681	83.25
484.9	99.25
485.118	95.25
485.336	89.25
485.554	94.25
485.772	99.25
485.99	94.25
486.209	104.25
486.427	98.25
486.645	117.25
486.863	130.25
487.081	117.25
487.299	84.25
487.517	96.25
487.735	100.25
487.953	92.25
488.171	101.25
488.389	95.25
488.607	98.25
488.825	73.25
489.043	107.25
489.261	89.25
489.479	91.25
489.696	85.25
489.914	90.25
490.132	91.25
490.35	85.25
490.568	86.25
490.786	93.25
491.003	79.25
491.221	83.25
491.439	98.25
491.657	83.25
491.874	75.25
492.092	80.25
492.31	97.25
492.527	82.25
492.745	90.25
492.963	102.25
493.18	84.25
493.398	87.25
493.615	95.25
493.833	107.25
494.05	81.25
494.268	95.25
494.485	95.25
494.703	112.25
494.92	111.25
495.138	91.25
495.355	102.25
495.573	92.25
495.79	77.25
496.008	88.25
496.225	84.25
496.442	96.25
496.66	90.25
496.877	93.25
497.094	87.25
497.312	88.25
497.529	93.25
497.746	99.25
497.963	94.25
498.181	81.25
498.398	98.25
498.615	108.25
498.832	108.25
499.049	92.25
499.267	92.25
499.484	76.25
499.701	90.25
499.918	95.25
500.135	98.25
500.352	81.25
500.569	72.25
500.786	100.25
501.003	80.25
501.22	85.25
501.437	92.25
501.654	93.25
501.871	98.25
502.088	84.25
502.305	86.25
502.522	101.25
502.739	101.25
502.956	79.25
503.172	86.25
503.389	97.25
503.606	105.25
503.823	101.25
504.04	80.25
504.256	104.25
504.473	90.25
504.69	74.25
504.907	96.25
505.123	80.25
505.34	86.25
505.557	80.25
505.773	86.25
505.99	85.25
506.207	93.25
506.423	82.25
506.64	95.25
506.856	89.25
507.073	76.25
507.289	88.25
507.506	89.25
507.722	103.25
507.939	111.25
508.155	89.25
508.372	95.25
508.588	89.25
508.805	84.25
509.021	88.25
509.238	109.25
509.454	103.25
509.67	105.25
509.887	93.25
510.103	124.25
510.319	197.25
510.536	731.25
510.752	2259.25
510.968	627.25
511.184	153.25
511.401	107.25
511.617	101.25
511.833	88.25
512.049	88.25
512.265	90.25
512.481	84.25
512.698	84.25
512.914	99.25
513.13	103.25
513.346	83.25
513.562	79.25
513.778	108.25
513.994	97.25
514.21	91.25
514.426	111.25
514.642	130.25
514.858	119.25
515.074	152.25
515.29	435.25
515.506	1425.25
515.721	510.25
515.937	156.25
