Data from Uncirc_1980_H10_HRD10591_00032.txt Node
Date: Wed Jan 03 12:37:01 EST 2024
User: Yrep
Spectrometer: HR+D1059
Trigger mode: 1
Integration Time (sec): 1.000000E-1
Scans to average: 1
Electric dark correction enabled: true
Nonlinearity correction enabled: false
Boxcar width: 0
XAxis mode: Wavelengths
Number of Pixels in Spectrum: 2048
>>>>>Begin Spectral Data<<<<<
223.165	-21.62
223.4	-21.62
223.635	-21.62
223.869	-24.62
224.104	-22.62
224.338	-23.62
224.573	-12.62
224.808	-1.62
225.042	-6.62
225.277	-2.62
225.511	-7.62
225.746	18.38
225.98	0.38
226.215	25.38
226.449	8.38
226.683	16.38
226.918	29.38
227.152	25.38
227.387	35.38
227.621	20.38
227.856	44.38
228.09	37.38
228.324	44.38
228.559	57.38
228.793	50.38
229.027	63.38
229.262	50.38
229.496	67.38
229.73	73.38
229.964	68.38
230.199	72.38
230.433	81.38
230.667	76.38
230.901	77.38
231.136	71.38
231.37	82.38
231.604	68.38
231.838	71.38
232.072	84.38
232.306	70.38
232.541	77.38
232.775	67.38
233.009	78.38
233.243	77.38
233.477	68.38
233.711	81.38
233.945	82.38
234.179	88.38
234.413	71.38
234.647	86.38
234.881	88.38
235.115	66.38
235.349	81.38
235.583	80.38
235.817	60.38
236.051	67.38
236.285	68.38
236.519	80.38
236.753	78.38
236.987	85.38
237.221	68.38
237.455	70.38
237.689	73.38
237.922	73.38
238.156	74.38
238.39	78.38
238.624	73.38
238.858	78.38
239.091	76.38
239.325	74.38
239.559	74.38
239.793	76.38
240.027	77.38
240.26	59.38
240.494	73.38
240.728	75.38
240.961	78.38
241.195	81.38
241.429	60.38
241.662	70.38
241.896	66.38
242.13	63.38
242.363	61.38
242.597	80.38
242.83	66.38
243.064	79.38
243.298	69.38
243.531	82.38
243.765	89.38
243.998	87.38
244.232	78.38
244.465	72.38
244.699	75.38
244.932	81.38
245.166	80.38
245.399	82.38
245.633	76.38
245.866	80.38
246.099	66.38
246.333	82.38
246.566	69.38
246.8	94.38
247.033	90.38
247.266	77.38
247.5	72.38
247.733	78.38
247.966	77.38
248.2	77.38
248.433	87.38
248.666	76.38
248.899	76.38
249.133	104.38
249.366	83.38
249.599	104.38
249.832	74.38
250.066	65.38
250.299	79.38
250.532	77.38
250.765	85.38
250.998	83.38
251.231	77.38
251.465	82.38
251.698	86.38
251.931	89.38
252.164	83.38
252.397	85.38
252.63	94.38
252.863	71.38
253.096	70.38
253.329	78.38
253.562	70.38
253.795	82.38
254.028	70.38
254.261	80.38
254.494	73.38
254.727	86.38
254.96	82.38
255.193	88.38
255.426	78.38
255.659	68.38
255.892	86.38
256.124	92.38
256.357	86.38
256.59	80.38
256.823	70.38
257.056	87.38
257.289	83.38
257.521	85.38
257.754	77.38
257.987	77.38
258.22	85.38
258.452	75.38
258.685	64.38
258.918	69.38
259.151	83.38
259.383	92.38
259.616	86.38
259.849	69.38
260.081	78.38
260.314	76.38
260.547	82.38
260.779	70.38
261.012	89.38
261.244	86.38
261.477	84.38
261.71	87.38
261.942	101.38
262.175	106.38
262.407	87.38
262.64	83.38
262.872	73.38
263.105	68.38
263.337	80.38
263.57	82.38
263.802	82.38
264.035	79.38
264.267	88.38
264.499	91.38
264.732	80.38
264.964	73.38
265.197	88.38
265.429	80.38
265.661	81.38
265.894	86.38
266.126	99.38
266.358	74.38
266.591	72.38
266.823	86.38
267.055	72.38
267.287	74.38
267.52	92.38
267.752	81.38
267.984	77.38
268.216	77.38
268.448	90.38
268.681	75.38
268.913	77.38
269.145	73.38
269.377	77.38
269.609	77.38
269.841	93.38
270.073	85.38
270.306	82.38
270.538	93.38
270.77	75.38
271.002	80.38
271.234	84.38
271.466	82.38
271.698	72.38
271.93	86.38
272.162	88.38
272.394	87.38
272.626	90.38
272.858	77.38
273.09	87.38
273.322	78.38
273.553	78.38
273.785	80.38
274.017	75.38
274.249	93.38
274.481	91.38
274.713	73.38
274.945	82.38
275.176	91.38
275.408	90.38
275.64	82.38
275.872	91.38
276.104	94.38
276.335	97.38
276.567	89.38
276.799	113.38
277.031	98.38
277.262	76.38
277.494	79.38
277.726	86.38
277.957	75.38
278.189	88.38
278.421	80.38
278.652	85.38
278.884	57.38
279.115	85.38
279.347	77.38
279.579	77.38
279.81	77.38
280.042	80.38
280.273	93.38
280.505	97.38
280.736	80.38
280.968	95.38
281.199	78.38
281.431	76.38
281.662	82.38
281.894	82.38
282.125	93.38
282.356	98.38
282.588	130.38
282.819	102.38
283.051	85.38
283.282	86.38
283.513	80.38
283.745	92.38
283.976	70.38
284.207	76.38
284.439	93.38
284.67	85.38
284.901	92.38
285.132	88.38
285.364	83.38
285.595	86.38
285.826	88.38
286.057	87.38
286.288	88.38
286.52	82.38
286.751	78.38
286.982	78.38
287.213	78.38
287.444	83.38
287.675	82.38
287.906	89.38
288.138	76.38
288.369	82.38
288.6	97.38
288.831	84.38
289.062	84.38
289.293	91.38
289.524	77.38
289.755	80.38
289.986	80.38
290.217	80.38
290.448	87.38
290.679	80.38
290.91	94.38
291.141	77.38
291.371	86.38
291.602	91.38
291.833	90.38
292.064	80.38
292.295	77.38
292.526	80.38
292.757	86.38
292.987	82.38
293.218	89.38
293.449	78.38
293.68	83.38
293.91	78.38
294.141	87.38
294.372	97.38
294.603	83.38
294.833	80.38
295.064	76.38
295.295	91.38
295.525	88.38
295.756	92.38
295.987	116.38
296.217	120.38
296.448	110.38
296.679	76.38
296.909	89.38
297.14	82.38
297.37	87.38
297.601	84.38
297.831	100.38
298.062	93.38
298.292	101.38
298.523	87.38
298.753	88.38
298.984	99.38
299.214	89.38
299.445	94.38
299.675	82.38
299.905	101.38
300.136	92.38
300.366	97.38
300.597	94.38
300.827	90.38
301.057	98.38
301.288	85.38
301.518	88.38
301.748	78.38
301.979	88.38
302.209	84.38
302.439	90.38
302.669	88.38
302.9	77.38
303.13	89.38
303.36	91.38
303.59	85.38
303.82	104.38
304.051	98.38
304.281	76.38
304.511	100.38
304.741	96.38
304.971	88.38
305.201	94.38
305.431	93.38
305.661	83.38
305.891	84.38
306.121	82.38
306.352	89.38
306.582	85.38
306.812	86.38
307.042	88.38
307.272	95.38
307.502	86.38
307.731	86.38
307.961	76.38
308.191	89.38
308.421	93.38
308.651	87.38
308.881	86.38
309.111	92.38
309.341	100.38
309.571	106.38
309.8	86.38
310.03	98.38
310.26	88.38
310.49	89.38
310.72	107.38
310.949	100.38
311.179	95.38
311.409	88.38
311.639	93.38
311.868	102.38
312.098	94.38
312.328	93.38
312.557	95.38
312.787	99.38
313.017	102.38
313.246	88.38
313.476	89.38
313.706	89.38
313.935	99.38
314.165	96.38
314.394	88.38
314.624	93.38
314.853	85.38
315.083	94.38
315.312	81.38
315.542	89.38
315.771	97.38
316.001	97.38
316.23	93.38
316.46	88.38
316.689	89.38
316.919	93.38
317.148	91.38
317.377	88.38
317.607	91.38
317.836	89.38
318.065	90.38
318.295	81.38
318.524	95.38
318.753	95.38
318.983	93.38
319.212	97.38
319.441	104.38
319.67	94.38
319.9	86.38
320.129	110.38
320.358	96.38
320.587	107.38
320.816	101.38
321.046	90.38
321.275	97.38
321.504	104.38
321.733	85.38
321.962	93.38
322.191	92.38
322.42	86.38
322.649	117.38
322.878	115.38
323.108	117.38
323.337	122.38
323.566	108.38
323.795	143.38
324.024	169.38
324.253	325.38
324.482	639.38
324.71	1308.38
324.939	1712.38
325.168	643.38
325.397	216.38
325.626	121.38
325.855	112.38
326.084	120.38
326.313	122.38
326.542	139.38
326.77	194.38
326.999	375.38
327.228	784.38
327.457	1378.38
327.686	1090.38
327.914	312.38
328.143	186.38
328.372	136.38
328.6	118.38
328.829	94.38
329.058	118.38
329.287	111.38
329.515	110.38
329.744	92.38
329.972	90.38
330.201	116.38
330.43	104.38
330.658	112.38
330.887	130.38
331.115	110.38
331.344	113.38
331.572	88.38
331.801	100.38
332.03	99.38
332.258	95.38
332.486	91.38
332.715	74.38
332.943	90.38
333.172	112.38
333.4	101.38
333.629	88.38
333.857	96.38
334.085	92.38
334.314	102.38
334.542	109.38
334.771	126.38
334.999	96.38
335.227	106.38
335.455	89.38
335.684	109.38
335.912	103.38
336.14	90.38
336.369	103.38
336.597	104.38
336.825	108.38
337.053	99.38
337.281	84.38
337.51	90.38
337.738	96.38
337.966	84.38
338.194	97.38
338.422	91.38
338.65	90.38
338.878	92.38
339.106	91.38
339.334	95.38
339.562	82.38
339.79	77.38
340.018	88.38
340.246	86.38
340.474	92.38
340.702	99.38
340.93	96.38
341.158	85.38
341.386	98.38
341.614	88.38
341.842	91.38
342.07	96.38
342.298	84.38
342.526	82.38
342.754	89.38
342.981	100.38
343.209	87.38
343.437	97.38
343.665	79.38
343.893	93.38
344.12	82.38
344.348	82.38
344.576	98.38
344.804	103.38
345.031	100.38
345.259	111.38
345.487	88.38
345.714	98.38
345.942	102.38
346.17	96.38
346.397	78.38
346.625	94.38
346.853	93.38
347.08	106.38
347.308	106.38
347.535	106.38
347.763	92.38
347.99	100.38
348.218	102.38
348.445	96.38
348.673	101.38
348.9	95.38
349.128	96.38
349.355	84.38
349.583	91.38
349.81	87.38
350.037	91.38
350.265	91.38
350.492	100.38
350.72	85.38
350.947	108.38
351.174	93.38
351.402	106.38
351.629	123.38
351.856	96.38
352.083	86.38
352.311	92.38
352.538	100.38
352.765	99.38
352.992	109.38
353.22	101.38
353.447	96.38
353.674	109.38
353.901	96.38
354.128	90.38
354.355	101.38
354.583	100.38
354.81	97.38
355.037	94.38
355.264	100.38
355.491	84.38
355.718	92.38
355.945	76.38
356.172	73.38
356.399	72.38
356.626	108.38
356.853	91.38
357.08	96.38
357.307	107.38
357.534	93.38
357.761	79.38
357.988	110.38
358.215	110.38
358.441	93.38
358.668	101.38
358.895	100.38
359.122	90.38
359.349	92.38
359.576	100.38
359.802	81.38
360.029	116.38
360.256	94.38
360.483	89.38
360.709	96.38
360.936	94.38
361.163	99.38
361.39	105.38
361.616	80.38
361.843	88.38
362.07	90.38
362.296	102.38
362.523	86.38
362.749	98.38
362.976	82.38
363.203	102.38
363.429	86.38
363.656	89.38
363.882	91.38
364.109	76.38
364.335	103.38
364.562	110.38
364.788	113.38
365.015	99.38
365.241	90.38
365.468	108.38
365.694	92.38
365.92	102.38
366.147	97.38
366.373	86.38
366.599	87.38
366.826	99.38
367.052	74.38
367.278	80.38
367.505	99.38
367.731	89.38
367.957	90.38
368.184	102.38
368.41	92.38
368.636	97.38
368.862	117.38
369.089	95.38
369.315	86.38
369.541	95.38
369.767	84.38
369.993	89.38
370.219	87.38
370.445	84.38
370.672	82.38
370.898	92.38
371.124	92.38
371.35	91.38
371.576	88.38
371.802	92.38
372.028	78.38
372.254	95.38
372.48	80.38
372.706	91.38
372.932	102.38
373.158	91.38
373.384	89.38
373.61	90.38
373.835	88.38
374.061	95.38
374.287	93.38
374.513	91.38
374.739	84.38
374.965	81.38
375.191	89.38
375.416	88.38
375.642	80.38
375.868	100.38
376.094	82.38
376.319	83.38
376.545	96.38
376.771	101.38
376.997	97.38
377.222	83.38
377.448	83.38
377.674	85.38
377.899	98.38
378.125	89.38
378.35	80.38
378.576	92.38
378.802	80.38
379.027	96.38
379.253	82.38
379.478	87.38
379.704	82.38
379.929	102.38
380.155	104.38
380.38	103.38
380.606	106.38
380.831	101.38
381.057	120.38
381.282	104.38
381.507	104.38
381.733	95.38
381.958	91.38
382.184	94.38
382.409	114.38
382.634	117.38
382.86	103.38
383.085	102.38
383.31	103.38
383.535	111.38
383.761	104.38
383.986	107.38
384.211	101.38
384.436	101.38
384.662	119.38
384.887	98.38
385.112	115.38
385.337	122.38
385.562	112.38
385.787	114.38
386.013	106.38
386.238	130.38
386.463	122.38
386.688	101.38
386.913	121.38
387.138	131.38
387.363	118.38
387.588	100.38
387.813	107.38
388.038	123.38
388.263	128.38
388.488	119.38
388.713	112.38
388.938	88.38
389.163	88.38
389.387	94.38
389.612	93.38
389.837	85.38
390.062	97.38
390.287	88.38
390.512	96.38
390.736	97.38
390.961	85.38
391.186	78.38
391.411	108.38
391.636	102.38
391.86	86.38
392.085	90.38
392.31	75.38
392.534	80.38
392.759	80.38
392.984	97.38
393.208	72.38
393.433	97.38
393.658	103.38
393.882	76.38
394.107	89.38
394.331	73.38
394.556	80.38
394.78	88.38
395.005	86.38
395.229	88.38
395.454	100.38
395.678	89.38
395.903	77.38
396.127	92.38
396.352	87.38
396.576	77.38
396.801	77.38
397.025	95.38
397.249	97.38
397.474	91.38
397.698	77.38
397.922	91.38
398.147	76.38
398.371	78.38
398.595	81.38
398.82	93.38
399.044	93.38
399.268	89.38
399.492	78.38
399.717	87.38
399.941	91.38
400.165	98.38
400.389	89.38
400.613	83.38
400.837	82.38
401.062	101.38
401.286	88.38
401.51	90.38
401.734	78.38
401.958	95.38
402.182	121.38
402.406	121.38
402.63	101.38
402.854	85.38
403.078	92.38
403.302	68.38
403.526	97.38
403.75	85.38
403.974	85.38
404.198	96.38
404.422	96.38
404.645	94.38
404.869	83.38
405.093	110.38
405.317	88.38
405.541	90.38
405.765	87.38
405.988	113.38
406.212	141.38
406.436	189.38
406.66	122.38
406.883	98.38
407.107	105.38
407.331	98.38
407.555	80.38
407.778	101.38
408.002	76.38
408.226	94.38
408.449	85.38
408.673	89.38
408.896	96.38
409.12	104.38
409.344	92.38
409.567	93.38
409.791	83.38
410.014	85.38
410.238	95.38
410.461	82.38
410.685	97.38
410.908	98.38
411.132	113.38
411.355	112.38
411.578	78.38
411.802	88.38
412.025	109.38
412.249	94.38
412.472	90.38
412.695	83.38
412.919	77.38
413.142	99.38
413.365	96.38
413.589	86.38
413.812	99.38
414.035	97.38
414.258	83.38
414.482	84.38
414.705	97.38
414.928	86.38
415.151	100.38
415.374	107.38
415.597	76.38
415.821	72.38
416.044	82.38
416.267	82.38
416.49	92.38
416.713	90.38
416.936	93.38
417.159	96.38
417.382	92.38
417.605	92.38
417.828	71.38
418.051	84.38
418.274	96.38
418.497	98.38
418.72	72.38
418.943	76.38
419.166	71.38
419.389	84.38
419.611	100.38
419.834	102.38
420.057	91.38
420.28	86.38
420.503	94.38
420.726	81.38
420.948	86.38
421.171	100.38
421.394	82.38
421.617	75.38
421.839	90.38
422.062	89.38
422.285	87.38
422.507	102.38
422.73	109.38
422.953	103.38
423.175	88.38
423.398	89.38
423.621	94.38
423.843	81.38
424.066	72.38
424.288	92.38
424.511	93.38
424.733	86.38
424.956	100.38
425.178	110.38
425.401	94.38
425.623	75.38
425.846	88.38
426.068	104.38
426.291	100.38
426.513	74.38
426.735	80.38
426.958	80.38
427.18	96.38
427.402	112.38
427.625	136.38
427.847	121.38
428.069	107.38
428.292	87.38
428.514	91.38
428.736	86.38
428.958	93.38
429.181	85.38
429.403	90.38
429.625	76.38
429.847	89.38
430.069	94.38
430.292	84.38
430.514	82.38
430.736	84.38
430.958	81.38
431.18	80.38
431.402	82.38
431.624	91.38
431.846	91.38
432.068	89.38
432.29	75.38
432.512	90.38
432.734	72.38
432.956	98.38
433.178	87.38
433.4	97.38
433.622	72.38
433.844	85.38
434.066	83.38
434.287	79.38
434.509	83.38
434.731	95.38
434.953	84.38
435.175	76.38
435.397	95.38
435.618	86.38
435.84	82.38
436.062	107.38
436.284	89.38
436.505	100.38
436.727	102.38
436.949	81.38
437.17	87.38
437.392	90.38
437.614	85.38
437.835	104.38
438.057	109.38
438.278	106.38
438.5	108.38
438.721	116.38
438.943	100.38
439.165	87.38
439.386	97.38
439.608	86.38
439.829	77.38
440.05	113.38
440.272	120.38
440.493	84.38
440.715	84.38
440.936	97.38
441.158	101.38
441.379	86.38
441.6	88.38
441.822	96.38
442.043	85.38
442.264	101.38
442.486	97.38
442.707	96.38
442.928	104.38
443.149	116.38
443.371	118.38
443.592	105.38
443.813	104.38
444.034	92.38
444.255	75.38
444.476	74.38
444.698	85.38
444.919	81.38
445.14	121.38
445.361	125.38
445.582	103.38
445.803	125.38
446.024	101.38
446.245	123.38
446.466	99.38
446.687	72.38
446.908	94.38
447.129	73.38
447.35	90.38
447.571	103.38
447.792	101.38
448.013	76.38
448.234	88.38
448.455	101.38
448.675	104.38
448.896	100.38
449.117	80.38
449.338	100.38
449.559	119.38
449.779	119.38
450	97.38
450.221	87.38
450.442	88.38
450.662	91.38
450.883	91.38
451.104	85.38
451.324	88.38
451.545	86.38
451.766	83.38
451.986	75.38
452.207	87.38
452.428	92.38
452.648	106.38
452.869	96.38
453.089	94.38
453.31	110.38
453.53	109.38
453.751	99.38
453.971	99.38
454.192	85.38
454.412	94.38
454.633	93.38
454.853	92.38
455.073	84.38
455.294	70.38
455.514	92.38
455.734	93.38
455.955	73.38
456.175	93.38
456.395	76.38
456.616	82.38
456.836	80.38
457.056	81.38
457.276	84.38
457.497	66.38
457.717	71.38
457.937	82.38
458.157	84.38
458.377	76.38
458.598	94.38
458.818	127.38
459.038	104.38
459.258	98.38
459.478	97.38
459.698	91.38
459.918	77.38
460.138	72.38
460.358	67.38
460.578	87.38
460.798	88.38
461.018	100.38
461.238	77.38
461.458	84.38
461.678	92.38
461.898	87.38
462.118	92.38
462.338	90.38
462.558	86.38
462.777	81.38
462.997	73.38
463.217	69.38
463.437	80.38
463.657	96.38
463.876	91.38
464.096	91.38
464.316	94.38
464.536	85.38
464.755	80.38
464.975	96.38
465.195	148.38
465.414	134.38
465.634	94.38
465.854	80.38
466.073	95.38
466.293	92.38
466.512	81.38
466.732	91.38
466.951	82.38
467.171	82.38
467.391	100.38
467.61	85.38
467.829	83.38
468.049	101.38
468.268	84.38
468.488	73.38
468.707	75.38
468.927	82.38
469.146	86.38
469.365	78.38
469.585	82.38
469.804	88.38
470.023	91.38
470.243	60.38
470.462	78.38
470.681	100.38
470.901	89.38
471.12	94.38
471.339	78.38
471.558	77.38
471.777	86.38
471.997	84.38
472.216	95.38
472.435	114.38
472.654	88.38
472.873	82.38
473.092	98.38
473.311	100.38
473.53	95.38
473.749	81.38
473.968	86.38
474.187	94.38
474.406	85.38
474.625	82.38
474.844	91.38
475.063	76.38
475.282	78.38
475.501	83.38
475.72	89.38
475.939	98.38
476.158	80.38
476.377	95.38
476.596	87.38
476.814	79.38
477.033	85.38
477.252	86.38
477.471	81.38
477.69	80.38
477.908	76.38
478.127	83.38
478.346	78.38
478.564	76.38
478.783	89.38
479.002	93.38
479.22	88.38
479.439	110.38
479.658	88.38
479.876	90.38
480.095	90.38
480.313	80.38
480.532	93.38
480.751	89.38
480.969	103.38
481.188	171.38
481.406	132.38
481.624	86.38
481.843	78.38
482.061	104.38
482.28	82.38
482.498	89.38
482.717	87.38
482.935	85.38
483.153	87.38
483.372	83.38
483.59	85.38
483.808	101.38
484.027	86.38
484.245	76.38
484.463	99.38
484.681	95.38
484.9	101.38
485.118	105.38
485.336	94.38
485.554	86.38
485.772	109.38
485.99	91.38
486.209	99.38
486.427	99.38
486.645	108.38
486.863	97.38
487.081	96.38
487.299	106.38
487.517	105.38
487.735	103.38
487.953	101.38
488.171	85.38
488.389	93.38
488.607	99.38
488.825	88.38
489.043	87.38
489.261	85.38
489.479	80.38
489.696	74.38
489.914	84.38
490.132	77.38
490.35	95.38
490.568	94.38
490.786	82.38
491.003	77.38
491.221	89.38
491.439	85.38
491.657	76.38
491.874	76.38
492.092	96.38
492.31	73.38
492.527	99.38
492.745	98.38
492.963	98.38
493.18	84.38
493.398	78.38
493.615	80.38
493.833	90.38
494.05	88.38
494.268	88.38
494.485	83.38
494.703	86.38
494.92	77.38
495.138	88.38
495.355	86.38
495.573	94.38
495.79	75.38
496.008	89.38
496.225	80.38
496.442	96.38
496.66	92.38
496.877	78.38
497.094	97.38
497.312	86.38
497.529	72.38
497.746	97.38
497.963	91.38
498.181	106.38
498.398	98.38
498.615	116.38
498.832	98.38
499.049	94.38
499.267	88.38
499.484	87.38
499.701	92.38
499.918	90.38
500.135	83.38
500.352	94.38
500.569	84.38
500.786	82.38
501.003	106.38
501.22	94.38
501.437	83.38
501.654	96.38
501.871	105.38
502.088	92.38
502.305	93.38
502.522	81.38
502.739	78.38
502.956	94.38
503.172	76.38
503.389	89.38
503.606	100.38
503.823	92.38
504.04	86.38
504.256	93.38
504.473	102.38
504.69	94.38
504.907	88.38
505.123	92.38
505.34	85.38
505.557	93.38
505.773	76.38
505.99	90.38
506.207	92.38
506.423	90.38
506.64	80.38
506.856	92.38
507.073	86.38
507.289	84.38
507.506	94.38
507.722	116.38
507.939	112.38
508.155	91.38
508.372	94.38
508.588	95.38
508.805	100.38
509.021	94.38
509.238	85.38
509.454	89.38
509.67	108.38
509.887	98.38
510.103	122.38
510.319	188.38
510.536	656.38
510.752	2024.38
510.968	552.38
511.184	152.38
511.401	91.38
511.617	113.38
511.833	97.38
512.049	103.38
512.265	98.38
512.481	97.38
512.698	93.38
512.914	94.38
513.13	82.38
513.346	106.38
513.562	95.38
513.778	86.38
513.994	82.38
514.21	92.38
514.426	119.38
514.642	120.38
514.858	102.38
515.074	157.38
515.29	368.38
515.506	1172.38
515.721	429.38
515.937	146.38
516.153	103.38
