Data from Uncirc_1980_H10_HRD10591_00024.txt Node
Date: Wed Jan 03 12:37:00 EST 2024
User: Yrep
Spectrometer: HR+D1059
Trigger mode: 1
Integration Time (sec): 1.000000E-1
Scans to average: 1
Electric dark correction enabled: true
Nonlinearity correction enabled: false
Boxcar width: 0
XAxis mode: Wavelengths
Number of Pixels in Spectrum: 2048
>>>>>Begin Spectral Data<<<<<
223.165	-14.75
223.4	-14.75
223.635	-14.75
223.869	-22.75
224.104	-21.75
224.338	-27.75
224.573	-20.75
224.808	-16.75
225.042	-0.75
225.277	-6.75
225.511	7.25
225.746	22.25
225.98	10.25
226.215	0.25
226.449	10.25
226.683	21.25
226.918	33.25
227.152	27.25
227.387	20.25
227.621	40.25
227.856	37.25
228.09	52.25
228.324	31.25
228.559	60.25
228.793	65.25
229.027	56.25
229.262	60.25
229.496	71.25
229.73	76.25
229.964	76.25
230.199	68.25
230.433	62.25
230.667	82.25
230.901	91.25
231.136	80.25
231.37	83.25
231.604	70.25
231.838	69.25
232.072	90.25
232.306	81.25
232.541	72.25
232.775	88.25
233.009	71.25
233.243	70.25
233.477	84.25
233.711	79.25
233.945	83.25
234.179	82.25
234.413	72.25
234.647	77.25
234.881	71.25
235.115	73.25
235.349	66.25
235.583	84.25
235.817	75.25
236.051	89.25
236.285	84.25
236.519	71.25
236.753	73.25
236.987	77.25
237.221	73.25
237.455	75.25
237.689	75.25
237.922	61.25
238.156	67.25
238.39	66.25
238.624	75.25
238.858	68.25
239.091	73.25
239.325	67.25
239.559	82.25
239.793	71.25
240.027	81.25
240.26	81.25
240.494	76.25
240.728	73.25
240.961	68.25
241.195	72.25
241.429	84.25
241.662	90.25
241.896	79.25
242.13	72.25
242.363	79.25
242.597	64.25
242.83	65.25
243.064	59.25
243.298	88.25
243.531	66.25
243.765	85.25
243.998	79.25
244.232	80.25
244.465	58.25
244.699	84.25
244.932	67.25
245.166	65.25
245.399	67.25
245.633	74.25
245.866	73.25
246.099	70.25
246.333	63.25
246.566	80.25
246.8	64.25
247.033	79.25
247.266	84.25
247.5	74.25
247.733	81.25
247.966	81.25
248.2	80.25
248.433	74.25
248.666	81.25
248.899	85.25
249.133	83.25
249.366	77.25
249.599	95.25
249.832	69.25
250.066	81.25
250.299	72.25
250.532	82.25
250.765	91.25
250.998	83.25
251.231	70.25
251.465	90.25
251.698	59.25
251.931	58.25
252.164	84.25
252.397	75.25
252.63	72.25
252.863	75.25
253.096	80.25
253.329	84.25
253.562	83.25
253.795	72.25
254.028	89.25
254.261	82.25
254.494	81.25
254.727	81.25
254.96	80.25
255.193	70.25
255.426	91.25
255.659	72.25
255.892	75.25
256.124	88.25
256.357	84.25
256.59	86.25
256.823	93.25
257.056	83.25
257.289	93.25
257.521	76.25
257.754	81.25
257.987	77.25
258.22	72.25
258.452	82.25
258.685	86.25
258.918	87.25
259.151	93.25
259.383	79.25
259.616	70.25
259.849	73.25
260.081	95.25
260.314	74.25
260.547	89.25
260.779	88.25
261.012	80.25
261.244	75.25
261.477	99.25
261.71	80.25
261.942	87.25
262.175	101.25
262.407	79.25
262.64	76.25
262.872	91.25
263.105	72.25
263.337	71.25
263.57	81.25
263.802	76.25
264.035	85.25
264.267	83.25
264.499	98.25
264.732	86.25
264.964	94.25
265.197	85.25
265.429	76.25
265.661	87.25
265.894	82.25
266.126	84.25
266.358	89.25
266.591	91.25
266.823	80.25
267.055	79.25
267.287	74.25
267.52	83.25
267.752	80.25
267.984	73.25
268.216	81.25
268.448	83.25
268.681	85.25
268.913	87.25
269.145	73.25
269.377	76.25
269.609	53.25
269.841	81.25
270.073	78.25
270.306	78.25
270.538	92.25
270.77	81.25
271.002	73.25
271.234	86.25
271.466	80.25
271.698	74.25
271.93	87.25
272.162	87.25
272.394	86.25
272.626	81.25
272.858	87.25
273.09	88.25
273.322	76.25
273.553	74.25
273.785	79.25
274.017	88.25
274.249	80.25
274.481	83.25
274.713	90.25
274.945	79.25
275.176	89.25
275.408	77.25
275.64	92.25
275.872	82.25
276.104	94.25
276.335	87.25
276.567	88.25
276.799	88.25
277.031	93.25
277.262	87.25
277.494	72.25
277.726	68.25
277.957	75.25
278.189	74.25
278.421	80.25
278.652	81.25
278.884	91.25
279.115	95.25
279.347	82.25
279.579	65.25
279.81	75.25
280.042	92.25
280.273	67.25
280.505	69.25
280.736	82.25
280.968	73.25
281.199	74.25
281.431	80.25
281.662	92.25
281.894	101.25
282.125	73.25
282.356	89.25
282.588	119.25
282.819	108.25
283.051	96.25
283.282	83.25
283.513	84.25
283.745	100.25
283.976	85.25
284.207	66.25
284.439	89.25
284.67	94.25
284.901	89.25
285.132	87.25
285.364	85.25
285.595	80.25
285.826	91.25
286.057	88.25
286.288	87.25
286.52	88.25
286.751	83.25
286.982	85.25
287.213	85.25
287.444	77.25
287.675	90.25
287.906	91.25
288.138	93.25
288.369	85.25
288.6	91.25
288.831	88.25
289.062	88.25
289.293	81.25
289.524	99.25
289.755	103.25
289.986	83.25
290.217	80.25
290.448	85.25
290.679	83.25
290.91	71.25
291.141	94.25
291.371	81.25
291.602	87.25
291.833	80.25
292.064	71.25
292.295	81.25
292.526	73.25
292.757	85.25
292.987	90.25
293.218	88.25
293.449	89.25
293.68	72.25
293.91	90.25
294.141	86.25
294.372	72.25
294.603	88.25
294.833	73.25
295.064	89.25
295.295	82.25
295.525	99.25
295.756	88.25
295.987	87.25
296.217	115.25
296.448	103.25
296.679	102.25
296.909	82.25
297.14	97.25
297.37	85.25
297.601	80.25
297.831	81.25
298.062	90.25
298.292	77.25
298.523	107.25
298.753	95.25
298.984	94.25
299.214	82.25
299.445	101.25
299.675	97.25
299.905	91.25
300.136	102.25
300.366	76.25
300.597	82.25
300.827	70.25
301.057	79.25
301.288	91.25
301.518	91.25
301.748	87.25
301.979	102.25
302.209	86.25
302.439	90.25
302.669	67.25
302.9	97.25
303.13	86.25
303.36	92.25
303.59	94.25
303.82	102.25
304.051	69.25
304.281	81.25
304.511	74.25
304.741	67.25
304.971	92.25
305.201	92.25
305.431	89.25
305.661	89.25
305.891	83.25
306.121	86.25
306.352	81.25
306.582	96.25
306.812	90.25
307.042	86.25
307.272	87.25
307.502	81.25
307.731	86.25
307.961	108.25
308.191	78.25
308.421	93.25
308.651	92.25
308.881	87.25
309.111	86.25
309.341	96.25
309.571	77.25
309.8	91.25
310.03	85.25
310.26	88.25
310.49	79.25
310.72	89.25
310.949	94.25
311.179	85.25
311.409	86.25
311.639	81.25
311.868	96.25
312.098	87.25
312.328	87.25
312.557	89.25
312.787	95.25
313.017	100.25
313.246	97.25
313.476	88.25
313.706	93.25
313.935	89.25
314.165	95.25
314.394	100.25
314.624	91.25
314.853	103.25
315.083	94.25
315.312	73.25
315.542	83.25
315.771	85.25
316.001	81.25
316.23	101.25
316.46	92.25
316.689	94.25
316.919	95.25
317.148	94.25
317.377	89.25
317.607	93.25
317.836	91.25
318.065	95.25
318.295	84.25
318.524	73.25
318.753	97.25
318.983	84.25
319.212	89.25
319.441	89.25
319.67	82.25
319.9	91.25
320.129	89.25
320.358	84.25
320.587	87.25
320.816	91.25
321.046	100.25
321.275	109.25
321.504	88.25
321.733	97.25
321.962	82.25
322.191	83.25
322.42	91.25
322.649	98.25
322.878	100.25
323.108	107.25
323.337	101.25
323.566	113.25
323.795	122.25
324.024	153.25
324.253	314.25
324.482	607.25
324.71	1222.25
324.939	1644.25
325.168	629.25
325.397	205.25
325.626	135.25
325.855	111.25
326.084	114.25
326.313	104.25
326.542	122.25
326.77	170.25
326.999	357.25
327.228	723.25
327.457	1298.25
327.686	1024.25
327.914	287.25
328.143	152.25
328.372	125.25
328.6	113.25
328.829	101.25
329.058	93.25
329.287	113.25
329.515	109.25
329.744	92.25
329.972	106.25
330.201	103.25
330.43	129.25
330.658	113.25
330.887	130.25
331.115	103.25
331.344	99.25
331.572	85.25
331.801	100.25
332.03	93.25
332.258	94.25
332.486	89.25
332.715	95.25
332.943	83.25
333.172	92.25
333.4	85.25
333.629	97.25
333.857	106.25
334.085	115.25
334.314	105.25
334.542	98.25
334.771	117.25
334.999	76.25
335.227	99.25
335.455	89.25
335.684	72.25
335.912	85.25
336.14	103.25
336.369	87.25
336.597	93.25
336.825	90.25
337.053	85.25
337.281	98.25
337.51	88.25
337.738	93.25
337.966	81.25
338.194	81.25
338.422	91.25
338.65	81.25
338.878	80.25
339.106	88.25
339.334	93.25
339.562	95.25
339.79	82.25
340.018	89.25
340.246	79.25
340.474	83.25
340.702	75.25
340.93	74.25
341.158	85.25
341.386	92.25
341.614	79.25
341.842	91.25
342.07	93.25
342.298	85.25
342.526	95.25
342.754	85.25
342.981	97.25
343.209	78.25
343.437	95.25
343.665	98.25
343.893	74.25
344.12	85.25
344.348	73.25
344.576	89.25
344.804	95.25
345.031	87.25
345.259	83.25
345.487	97.25
345.714	98.25
345.942	103.25
346.17	88.25
346.397	85.25
346.625	103.25
346.853	93.25
347.08	95.25
347.308	86.25
347.535	99.25
347.763	109.25
347.99	91.25
348.218	83.25
348.445	95.25
348.673	78.25
348.9	99.25
349.128	105.25
349.355	90.25
349.583	85.25
349.81	90.25
350.037	93.25
350.265	78.25
350.492	88.25
350.72	74.25
350.947	101.25
351.174	98.25
351.402	108.25
351.629	101.25
351.856	84.25
352.083	112.25
352.311	107.25
352.538	102.25
352.765	100.25
352.992	104.25
353.22	96.25
353.447	103.25
353.674	111.25
353.901	97.25
354.128	99.25
354.355	90.25
354.583	93.25
354.81	90.25
355.037	93.25
355.264	83.25
355.491	98.25
355.718	88.25
355.945	79.25
356.172	90.25
356.399	91.25
356.626	86.25
356.853	92.25
357.08	104.25
357.307	113.25
357.534	81.25
357.761	89.25
357.988	103.25
358.215	109.25
358.441	89.25
358.668	94.25
358.895	88.25
359.122	99.25
359.349	68.25
359.576	85.25
359.802	99.25
360.029	98.25
360.256	95.25
360.483	90.25
360.709	90.25
360.936	90.25
361.163	86.25
361.39	102.25
361.616	104.25
361.843	83.25
362.07	81.25
362.296	107.25
362.523	91.25
362.749	85.25
362.976	91.25
363.203	79.25
363.429	92.25
363.656	75.25
363.882	86.25
364.109	84.25
364.335	90.25
364.562	105.25
364.788	87.25
365.015	93.25
365.241	86.25
365.468	97.25
365.694	109.25
365.92	95.25
366.147	79.25
366.373	80.25
366.599	79.25
366.826	66.25
367.052	80.25
367.278	85.25
367.505	69.25
367.731	88.25
367.957	91.25
368.184	73.25
368.41	90.25
368.636	97.25
368.862	103.25
369.089	105.25
369.315	84.25
369.541	86.25
369.767	91.25
369.993	113.25
370.219	80.25
370.445	85.25
370.672	82.25
370.898	84.25
371.124	88.25
371.35	90.25
371.576	92.25
371.802	91.25
372.028	106.25
372.254	97.25
372.48	100.25
372.706	84.25
372.932	89.25
373.158	89.25
373.384	108.25
373.61	89.25
373.835	92.25
374.061	86.25
374.287	96.25
374.513	85.25
374.739	99.25
374.965	72.25
375.191	76.25
375.416	95.25
375.642	107.25
375.868	98.25
376.094	83.25
376.319	87.25
376.545	83.25
376.771	99.25
376.997	89.25
377.222	89.25
377.448	96.25
377.674	93.25
377.899	85.25
378.125	96.25
378.35	102.25
378.576	92.25
378.802	100.25
379.027	100.25
379.253	94.25
379.478	101.25
379.704	100.25
379.929	103.25
380.155	98.25
380.38	90.25
380.606	88.25
380.831	98.25
381.057	102.25
381.282	93.25
381.507	97.25
381.733	85.25
381.958	80.25
382.184	103.25
382.409	96.25
382.634	119.25
382.86	107.25
383.085	100.25
383.31	105.25
383.535	93.25
383.761	89.25
383.986	107.25
384.211	105.25
384.436	106.25
384.662	102.25
384.887	104.25
385.112	106.25
385.337	117.25
385.562	98.25
385.787	110.25
386.013	111.25
386.238	114.25
386.463	104.25
386.688	110.25
386.913	108.25
387.138	106.25
387.363	101.25
387.588	100.25
387.813	109.25
388.038	110.25
388.263	114.25
388.488	115.25
388.713	96.25
388.938	91.25
389.163	94.25
389.387	89.25
389.612	92.25
389.837	91.25
390.062	74.25
390.287	87.25
390.512	88.25
390.736	89.25
390.961	93.25
391.186	89.25
391.411	83.25
391.636	86.25
391.86	79.25
392.085	84.25
392.31	83.25
392.534	86.25
392.759	83.25
392.984	86.25
393.208	80.25
393.433	77.25
393.658	83.25
393.882	79.25
394.107	83.25
394.331	80.25
394.556	82.25
394.78	91.25
395.005	106.25
395.229	95.25
395.454	88.25
395.678	68.25
395.903	95.25
396.127	85.25
396.352	87.25
396.576	89.25
396.801	75.25
397.025	91.25
397.249	68.25
397.474	101.25
397.698	86.25
397.922	97.25
398.147	79.25
398.371	86.25
398.595	73.25
398.82	71.25
399.044	88.25
399.268	81.25
399.492	74.25
399.717	77.25
399.941	80.25
400.165	78.25
400.389	105.25
400.613	99.25
400.837	84.25
401.062	88.25
401.286	120.25
401.51	89.25
401.734	91.25
401.958	100.25
402.182	110.25
402.406	118.25
402.63	95.25
402.854	92.25
403.078	84.25
403.302	80.25
403.526	68.25
403.75	92.25
403.974	84.25
404.198	86.25
404.422	82.25
404.645	75.25
404.869	85.25
405.093	95.25
405.317	100.25
405.541	92.25
405.765	103.25
405.988	97.25
406.212	134.25
406.436	176.25
406.66	130.25
406.883	95.25
407.107	92.25
407.331	79.25
407.555	84.25
407.778	99.25
408.002	85.25
408.226	85.25
408.449	71.25
408.673	83.25
408.896	79.25
409.12	79.25
409.344	95.25
409.567	97.25
409.791	79.25
410.014	93.25
410.238	81.25
410.461	84.25
410.685	103.25
410.908	91.25
411.132	93.25
411.355	93.25
411.578	86.25
411.802	83.25
412.025	95.25
412.249	86.25
412.472	91.25
412.695	88.25
412.919	91.25
413.142	88.25
413.365	96.25
413.589	88.25
413.812	88.25
414.035	92.25
414.258	89.25
414.482	81.25
414.705	92.25
414.928	90.25
415.151	87.25
415.374	84.25
415.597	97.25
415.821	88.25
416.044	92.25
416.267	97.25
416.49	91.25
416.713	84.25
416.936	97.25
417.159	87.25
417.382	83.25
417.605	95.25
417.828	95.25
418.051	75.25
418.274	89.25
418.497	72.25
418.72	73.25
418.943	88.25
419.166	73.25
419.389	86.25
419.611	88.25
419.834	82.25
420.057	85.25
420.28	86.25
420.503	83.25
420.726	96.25
420.948	83.25
421.171	97.25
421.394	99.25
421.617	91.25
421.839	91.25
422.062	81.25
422.285	98.25
422.507	87.25
422.73	101.25
422.953	86.25
423.175	95.25
423.398	92.25
423.621	79.25
423.843	78.25
424.066	81.25
424.288	74.25
424.511	83.25
424.733	91.25
424.956	100.25
425.178	95.25
425.401	104.25
425.623	101.25
425.846	82.25
426.068	78.25
426.291	85.25
426.513	84.25
426.735	72.25
426.958	83.25
427.18	79.25
427.402	124.25
427.625	133.25
427.847	109.25
428.069	102.25
428.292	80.25
428.514	95.25
428.736	99.25
428.958	75.25
429.181	87.25
429.403	77.25
429.625	84.25
429.847	92.25
430.069	98.25
430.292	78.25
430.514	87.25
430.736	81.25
430.958	91.25
431.18	67.25
431.402	79.25
431.624	79.25
431.846	82.25
432.068	75.25
432.29	82.25
432.512	86.25
432.734	72.25
432.956	85.25
433.178	104.25
433.4	95.25
433.622	86.25
433.844	86.25
434.066	80.25
434.287	83.25
434.509	78.25
434.731	91.25
434.953	93.25
435.175	102.25
435.397	89.25
435.618	88.25
435.84	93.25
436.062	115.25
436.284	91.25
436.505	99.25
436.727	82.25
436.949	101.25
437.17	90.25
437.392	87.25
437.614	87.25
437.835	89.25
438.057	108.25
438.278	86.25
438.5	92.25
438.721	98.25
438.943	84.25
439.165	83.25
439.386	90.25
439.608	89.25
439.829	86.25
440.05	113.25
440.272	114.25
440.493	96.25
440.715	98.25
440.936	88.25
441.158	70.25
441.379	77.25
441.6	79.25
441.822	86.25
442.043	84.25
442.264	89.25
442.486	90.25
442.707	83.25
442.928	95.25
443.149	108.25
443.371	106.25
443.592	93.25
443.813	93.25
444.034	106.25
444.255	93.25
444.476	73.25
444.698	88.25
444.919	89.25
445.14	136.25
445.361	104.25
445.582	97.25
445.803	112.25
446.024	104.25
446.245	120.25
446.466	95.25
446.687	90.25
446.908	87.25
447.129	83.25
447.35	83.25
447.571	73.25
447.792	88.25
448.013	90.25
448.234	95.25
448.455	106.25
448.675	106.25
448.896	99.25
449.117	96.25
449.338	102.25
449.559	125.25
449.779	109.25
450	96.25
450.221	92.25
450.442	93.25
450.662	91.25
450.883	93.25
451.104	116.25
451.324	92.25
451.545	73.25
451.766	93.25
451.986	83.25
452.207	86.25
452.428	79.25
452.648	88.25
452.869	92.25
453.089	105.25
453.31	103.25
453.53	91.25
453.751	82.25
453.971	84.25
454.192	89.25
454.412	81.25
454.633	85.25
454.853	89.25
455.073	92.25
455.294	86.25
455.514	79.25
455.734	90.25
455.955	79.25
456.175	75.25
456.395	87.25
456.616	91.25
456.836	88.25
457.056	88.25
457.276	76.25
457.497	89.25
457.717	81.25
457.937	80.25
458.157	95.25
458.377	77.25
458.598	100.25
458.818	120.25
459.038	125.25
459.258	90.25
459.478	98.25
459.698	94.25
459.918	97.25
460.138	80.25
460.358	94.25
460.578	83.25
460.798	90.25
461.018	87.25
461.238	81.25
461.458	77.25
461.678	87.25
461.898	74.25
462.118	89.25
462.338	82.25
462.558	89.25
462.777	80.25
462.997	88.25
463.217	87.25
463.437	66.25
463.657	83.25
463.876	85.25
464.096	98.25
464.316	85.25
464.536	88.25
464.755	104.25
464.975	88.25
465.195	134.25
465.414	134.25
465.634	96.25
465.854	82.25
466.073	95.25
466.293	100.25
466.512	75.25
466.732	72.25
466.951	83.25
467.171	96.25
467.391	89.25
467.61	106.25
467.829	102.25
468.049	107.25
468.268	83.25
468.488	83.25
468.707	88.25
468.927	81.25
469.146	79.25
469.365	84.25
469.585	89.25
469.804	87.25
470.023	94.25
470.243	99.25
470.462	96.25
470.681	93.25
470.901	82.25
471.12	88.25
471.339	77.25
471.558	67.25
471.777	93.25
471.997	89.25
472.216	103.25
472.435	118.25
472.654	94.25
472.873	92.25
473.092	74.25
473.311	90.25
473.53	70.25
473.749	96.25
473.968	76.25
474.187	103.25
474.406	92.25
474.625	91.25
474.844	85.25
475.063	91.25
475.282	91.25
475.501	87.25
475.72	92.25
475.939	88.25
476.158	79.25
476.377	93.25
476.596	84.25
476.814	81.25
477.033	84.25
477.252	80.25
477.471	71.25
477.69	78.25
477.908	83.25
478.127	79.25
478.346	79.25
478.564	84.25
478.783	88.25
479.002	81.25
479.22	82.25
479.439	90.25
479.658	89.25
479.876	80.25
480.095	62.25
480.313	86.25
480.532	94.25
480.751	89.25
480.969	94.25
481.188	171.25
481.406	118.25
481.624	99.25
481.843	91.25
482.061	89.25
482.28	93.25
482.498	90.25
482.717	75.25
482.935	87.25
483.153	97.25
483.372	88.25
483.59	75.25
483.808	72.25
484.027	88.25
484.245	74.25
484.463	90.25
484.681	75.25
484.9	79.25
485.118	101.25
485.336	88.25
485.554	103.25
485.772	84.25
485.99	106.25
486.209	97.25
486.427	93.25
486.645	94.25
486.863	110.25
487.081	92.25
487.299	99.25
487.517	86.25
487.735	84.25
487.953	92.25
488.171	99.25
488.389	92.25
488.607	95.25
488.825	87.25
489.043	84.25
489.261	92.25
489.479	88.25
489.696	105.25
489.914	76.25
490.132	101.25
490.35	71.25
490.568	68.25
490.786	88.25
491.003	79.25
491.221	93.25
491.439	85.25
491.657	94.25
491.874	85.25
492.092	90.25
492.31	89.25
492.527	87.25
492.745	84.25
492.963	100.25
493.18	96.25
493.398	74.25
493.615	90.25
493.833	92.25
494.05	103.25
494.268	79.25
494.485	83.25
494.703	73.25
494.92	83.25
495.138	79.25
495.355	90.25
495.573	95.25
495.79	95.25
496.008	75.25
496.225	95.25
496.442	76.25
496.66	87.25
496.877	89.25
497.094	96.25
497.312	92.25
497.529	103.25
497.746	95.25
497.963	88.25
498.181	96.25
498.398	75.25
498.615	109.25
498.832	103.25
499.049	82.25
499.267	93.25
499.484	87.25
499.701	89.25
499.918	80.25
500.135	79.25
500.352	87.25
500.569	97.25
500.786	99.25
501.003	74.25
501.22	73.25
501.437	98.25
501.654	87.25
501.871	75.25
502.088	74.25
502.305	80.25
502.522	83.25
502.739	87.25
502.956	89.25
503.172	86.25
503.389	101.25
503.606	93.25
503.823	89.25
504.04	84.25
504.256	88.25
504.473	71.25
504.69	95.25
504.907	85.25
505.123	91.25
505.34	67.25
505.557	88.25
505.773	89.25
505.99	98.25
506.207	86.25
506.423	73.25
506.64	87.25
506.856	80.25
507.073	97.25
507.289	103.25
507.506	96.25
507.722	92.25
507.939	100.25
508.155	98.25
508.372	70.25
508.588	96.25
508.805	91.25
509.021	75.25
509.238	96.25
509.454	85.25
509.67	108.25
509.887	117.25
510.103	115.25
510.319	184.25
510.536	606.25
510.752	1781.25
510.968	498.25
511.184	128.25
511.401	115.25
511.617	93.25
511.833	94.25
512.049	87.25
512.265	95.25
512.481	89.25
512.698	83.25
512.914	95.25
513.13	100.25
513.346	78.25
513.562	88.25
513.778	89.25
513.994	84.25
514.21	85.25
514.426	101.25
514.642	113.25
514.858	108.25
515.074	147.25
515.29	332.25
515.506	1030.25
515.721	377.25
515.937	139.25
516.153	94.25
516.369	104.25
516.585	96.25
516.801	95.25
517.016	76.25
