Data from Uncirc_1980_H10_HRD10591_00046.txt Node
Date: Wed Jan 03 12:37:04 EST 2024
User: Yrep
Spectrometer: HR+D1059
Trigger mode: 1
Integration Time (sec): 1.000000E-1
Scans to average: 1
Electric dark correction enabled: true
Nonlinearity correction enabled: false
Boxcar width: 0
XAxis mode: Wavelengths
Number of Pixels in Spectrum: 2048
>>>>>Begin Spectral Data<<<<<
223.165	-18.69
223.4	-18.69
223.635	-18.69
223.869	-20.69
224.104	-23.69
224.338	-9.69
224.573	-16.69
224.808	-3.69
225.042	-14.69
225.277	-11.69
225.511	-5.69
225.746	-3.69
225.98	8.31
226.215	21.31
226.449	17.31
226.683	14.31
226.918	39.31
227.152	28.31
227.387	27.31
227.621	30.31
227.856	45.31
228.09	32.31
228.324	64.31
228.559	60.31
228.793	44.31
229.027	62.31
229.262	79.31
229.496	60.31
229.73	74.31
229.964	67.31
230.199	80.31
230.433	76.31
230.667	72.31
230.901	64.31
231.136	63.31
231.37	65.31
231.604	56.31
231.838	86.31
232.072	81.31
232.306	80.31
232.541	65.31
232.775	84.31
233.009	81.31
233.243	65.31
233.477	71.31
233.711	84.31
233.945	67.31
234.179	76.31
234.413	88.31
234.647	77.31
234.881	72.31
235.115	75.31
235.349	80.31
235.583	89.31
235.817	72.31
236.051	67.31
236.285	82.31
236.519	71.31
236.753	74.31
236.987	83.31
237.221	83.31
237.455	74.31
237.689	68.31
237.922	74.31
238.156	91.31
238.39	72.31
238.624	81.31
238.858	87.31
239.091	82.31
239.325	61.31
239.559	81.31
239.793	83.31
240.027	66.31
240.26	84.31
240.494	73.31
240.728	69.31
240.961	79.31
241.195	91.31
241.429	79.31
241.662	70.31
241.896	92.31
242.13	79.31
242.363	66.31
242.597	83.31
242.83	73.31
243.064	79.31
243.298	71.31
243.531	69.31
243.765	62.31
243.998	83.31
244.232	77.31
244.465	84.31
244.699	66.31
244.932	84.31
245.166	83.31
245.399	75.31
245.633	75.31
245.866	81.31
246.099	77.31
246.333	73.31
246.566	76.31
246.8	81.31
247.033	75.31
247.266	74.31
247.5	85.31
247.733	73.31
247.966	75.31
248.2	76.31
248.433	86.31
248.666	71.31
248.899	91.31
249.133	90.31
249.366	88.31
249.599	91.31
249.832	88.31
250.066	92.31
250.299	69.31
250.532	83.31
250.765	74.31
250.998	81.31
251.231	81.31
251.465	76.31
251.698	69.31
251.931	94.31
252.164	62.31
252.397	84.31
252.63	93.31
252.863	79.31
253.096	85.31
253.329	81.31
253.562	80.31
253.795	69.31
254.028	76.31
254.261	82.31
254.494	90.31
254.727	88.31
254.96	76.31
255.193	85.31
255.426	80.31
255.659	89.31
255.892	98.31
256.124	86.31
256.357	71.31
256.59	74.31
256.823	71.31
257.056	72.31
257.289	94.31
257.521	85.31
257.754	74.31
257.987	86.31
258.22	82.31
258.452	94.31
258.685	72.31
258.918	71.31
259.151	70.31
259.383	80.31
259.616	72.31
259.849	96.31
260.081	66.31
260.314	84.31
260.547	73.31
260.779	83.31
261.012	81.31
261.244	95.31
261.477	96.31
261.71	91.31
261.942	116.31
262.175	99.31
262.407	88.31
262.64	81.31
262.872	75.31
263.105	79.31
263.337	79.31
263.57	89.31
263.802	90.31
264.035	94.31
264.267	81.31
264.499	93.31
264.732	87.31
264.964	85.31
265.197	81.31
265.429	77.31
265.661	76.31
265.894	80.31
266.126	83.31
266.358	82.31
266.591	73.31
266.823	83.31
267.055	76.31
267.287	99.31
267.52	72.31
267.752	80.31
267.984	86.31
268.216	85.31
268.448	75.31
268.681	74.31
268.913	81.31
269.145	83.31
269.377	91.31
269.609	73.31
269.841	92.31
270.073	91.31
270.306	66.31
270.538	75.31
270.77	82.31
271.002	82.31
271.234	75.31
271.466	81.31
271.698	79.31
271.93	75.31
272.162	87.31
272.394	75.31
272.626	83.31
272.858	86.31
273.09	74.31
273.322	72.31
273.553	88.31
273.785	79.31
274.017	83.31
274.249	88.31
274.481	91.31
274.713	82.31
274.945	72.31
275.176	81.31
275.408	89.31
275.64	82.31
275.872	88.31
276.104	91.31
276.335	94.31
276.567	92.31
276.799	99.31
277.031	91.31
277.262	98.31
277.494	82.31
277.726	92.31
277.957	90.31
278.189	85.31
278.421	84.31
278.652	90.31
278.884	83.31
279.115	96.31
279.347	65.31
279.579	75.31
279.81	91.31
280.042	116.31
280.273	83.31
280.505	81.31
280.736	73.31
280.968	90.31
281.199	84.31
281.431	73.31
281.662	86.31
281.894	88.31
282.125	92.31
282.356	106.31
282.588	125.31
282.819	108.31
283.051	90.31
283.282	87.31
283.513	87.31
283.745	73.31
283.976	89.31
284.207	73.31
284.439	90.31
284.67	79.31
284.901	93.31
285.132	91.31
285.364	92.31
285.595	96.31
285.826	90.31
286.057	95.31
286.288	87.31
286.52	95.31
286.751	82.31
286.982	90.31
287.213	95.31
287.444	79.31
287.675	80.31
287.906	80.31
288.138	93.31
288.369	81.31
288.6	97.31
288.831	75.31
289.062	89.31
289.293	85.31
289.524	82.31
289.755	83.31
289.986	98.31
290.217	99.31
290.448	103.31
290.679	77.31
290.91	81.31
291.141	98.31
291.371	90.31
291.602	76.31
291.833	85.31
292.064	95.31
292.295	92.31
292.526	92.31
292.757	87.31
292.987	98.31
293.218	87.31
293.449	85.31
293.68	93.31
293.91	89.31
294.141	86.31
294.372	63.31
294.603	101.31
294.833	81.31
295.064	82.31
295.295	89.31
295.525	84.31
295.756	94.31
295.987	116.31
296.217	122.31
296.448	121.31
296.679	89.31
296.909	84.31
297.14	91.31
297.37	91.31
297.601	84.31
297.831	103.31
298.062	89.31
298.292	73.31
298.523	71.31
298.753	80.31
298.984	94.31
299.214	95.31
299.445	99.31
299.675	97.31
299.905	91.31
300.136	99.31
300.366	100.31
300.597	92.31
300.827	111.31
301.057	95.31
301.288	95.31
301.518	96.31
301.748	74.31
301.979	99.31
302.209	91.31
302.439	80.31
302.669	81.31
302.9	89.31
303.13	107.31
303.36	93.31
303.59	93.31
303.82	104.31
304.051	101.31
304.281	98.31
304.511	95.31
304.741	83.31
304.971	83.31
305.201	101.31
305.431	76.31
305.661	92.31
305.891	76.31
306.121	90.31
306.352	86.31
306.582	89.31
306.812	96.31
307.042	87.31
307.272	102.31
307.502	87.31
307.731	95.31
307.961	92.31
308.191	81.31
308.421	92.31
308.651	84.31
308.881	84.31
309.111	100.31
309.341	91.31
309.571	89.31
309.8	91.31
310.03	85.31
310.26	90.31
310.49	105.31
310.72	104.31
310.949	88.31
311.179	91.31
311.409	95.31
311.639	100.31
311.868	102.31
312.098	100.31
312.328	92.31
312.557	100.31
312.787	90.31
313.017	93.31
313.246	98.31
313.476	97.31
313.706	93.31
313.935	98.31
314.165	84.31
314.394	90.31
314.624	100.31
314.853	102.31
315.083	102.31
315.312	97.31
315.542	97.31
315.771	88.31
316.001	91.31
316.23	89.31
316.46	92.31
316.689	83.31
316.919	88.31
317.148	109.31
317.377	91.31
317.607	108.31
317.836	92.31
318.065	100.31
318.295	81.31
318.524	81.31
318.753	82.31
318.983	96.31
319.212	105.31
319.441	91.31
319.67	97.31
319.9	92.31
320.129	99.31
320.358	82.31
320.587	97.31
320.816	74.31
321.046	95.31
321.275	89.31
321.504	91.31
321.733	93.31
321.962	94.31
322.191	94.31
322.42	104.31
322.649	113.31
322.878	101.31
323.108	106.31
323.337	118.31
323.566	110.31
323.795	136.31
324.024	166.31
324.253	340.31
324.482	719.31
324.71	1429.31
324.939	1924.31
325.168	717.31
325.397	217.31
325.626	149.31
325.855	131.31
326.084	122.31
326.313	128.31
326.542	135.31
326.77	211.31
326.999	391.31
327.228	795.31
327.457	1475.31
327.686	1183.31
327.914	315.31
328.143	165.31
328.372	133.31
328.6	129.31
328.829	116.31
329.058	123.31
329.287	125.31
329.515	98.31
329.744	99.31
329.972	104.31
330.201	112.31
330.43	134.31
330.658	119.31
330.887	125.31
331.115	110.31
331.344	101.31
331.572	94.31
331.801	88.31
332.03	97.31
332.258	87.31
332.486	94.31
332.715	85.31
332.943	85.31
333.172	105.31
333.4	83.31
333.629	96.31
333.857	108.31
334.085	111.31
334.314	109.31
334.542	134.31
334.771	113.31
334.999	112.31
335.227	99.31
335.455	106.31
335.684	96.31
335.912	87.31
336.14	90.31
336.369	95.31
336.597	105.31
336.825	92.31
337.053	81.31
337.281	79.31
337.51	92.31
337.738	96.31
337.966	83.31
338.194	67.31
338.422	95.31
338.65	85.31
338.878	75.31
339.106	100.31
339.334	96.31
339.562	103.31
339.79	104.31
340.018	91.31
340.246	92.31
340.474	79.31
340.702	91.31
340.93	89.31
341.158	92.31
341.386	105.31
341.614	107.31
341.842	90.31
342.07	100.31
342.298	85.31
342.526	97.31
342.754	76.31
342.981	85.31
343.209	88.31
343.437	91.31
343.665	79.31
343.893	88.31
344.12	99.31
344.348	94.31
344.576	105.31
344.804	88.31
345.031	81.31
345.259	104.31
345.487	90.31
345.714	91.31
345.942	107.31
346.17	100.31
346.397	80.31
346.625	84.31
346.853	87.31
347.08	86.31
347.308	95.31
347.535	96.31
347.763	93.31
347.99	92.31
348.218	107.31
348.445	96.31
348.673	99.31
348.9	110.31
349.128	87.31
349.355	99.31
349.583	86.31
349.81	84.31
350.037	100.31
350.265	92.31
350.492	101.31
350.72	87.31
350.947	100.31
351.174	108.31
351.402	114.31
351.629	109.31
351.856	84.31
352.083	93.31
352.311	95.31
352.538	103.31
352.765	96.31
352.992	106.31
353.22	103.31
353.447	100.31
353.674	92.31
353.901	85.31
354.128	85.31
354.355	92.31
354.583	100.31
354.81	101.31
355.037	91.31
355.264	77.31
355.491	83.31
355.718	89.31
355.945	102.31
356.172	96.31
356.399	98.31
356.626	92.31
356.853	92.31
357.08	95.31
357.307	95.31
357.534	107.31
357.761	100.31
357.988	89.31
358.215	103.31
358.441	106.31
358.668	95.31
358.895	88.31
359.122	88.31
359.349	97.31
359.576	90.31
359.802	77.31
360.029	97.31
360.256	102.31
360.483	91.31
360.709	90.31
360.936	86.31
361.163	94.31
361.39	93.31
361.616	97.31
361.843	89.31
362.07	98.31
362.296	89.31
362.523	104.31
362.749	90.31
362.976	103.31
363.203	87.31
363.429	93.31
363.656	106.31
363.882	91.31
364.109	84.31
364.335	89.31
364.562	90.31
364.788	99.31
365.015	106.31
365.241	101.31
365.468	96.31
365.694	99.31
365.92	81.31
366.147	87.31
366.373	97.31
366.599	67.31
366.826	88.31
367.052	83.31
367.278	90.31
367.505	86.31
367.731	79.31
367.957	84.31
368.184	93.31
368.41	92.31
368.636	121.31
368.862	114.31
369.089	105.31
369.315	91.31
369.541	103.31
369.767	76.31
369.993	93.31
370.219	76.31
370.445	95.31
370.672	99.31
370.898	74.31
371.124	88.31
371.35	90.31
371.576	72.31
371.802	76.31
372.028	90.31
372.254	91.31
372.48	88.31
372.706	97.31
372.932	85.31
373.158	95.31
373.384	103.31
373.61	77.31
373.835	97.31
374.061	76.31
374.287	79.31
374.513	95.31
374.739	86.31
374.965	83.31
375.191	101.31
375.416	104.31
375.642	87.31
375.868	79.31
376.094	103.31
376.319	86.31
376.545	83.31
376.771	91.31
376.997	91.31
377.222	69.31
377.448	83.31
377.674	77.31
377.899	97.31
378.125	100.31
378.35	99.31
378.576	86.31
378.802	92.31
379.027	100.31
379.253	88.31
379.478	95.31
379.704	93.31
379.929	100.31
380.155	86.31
380.38	84.31
380.606	87.31
380.831	87.31
381.057	108.31
381.282	91.31
381.507	72.31
381.733	95.31
381.958	96.31
382.184	98.31
382.409	101.31
382.634	111.31
382.86	93.31
383.085	103.31
383.31	103.31
383.535	109.31
383.761	100.31
383.986	97.31
384.211	93.31
384.436	98.31
384.662	102.31
384.887	109.31
385.112	118.31
385.337	102.31
385.562	103.31
385.787	106.31
386.013	109.31
386.238	123.31
386.463	103.31
386.688	113.31
386.913	107.31
387.138	115.31
387.363	110.31
387.588	93.31
387.813	119.31
388.038	112.31
388.263	115.31
388.488	121.31
388.713	106.31
388.938	103.31
389.163	95.31
389.387	98.31
389.612	98.31
389.837	87.31
390.062	98.31
390.287	77.31
390.512	91.31
390.736	75.31
390.961	95.31
391.186	87.31
391.411	91.31
391.636	80.31
391.86	85.31
392.085	84.31
392.31	80.31
392.534	92.31
392.759	89.31
392.984	93.31
393.208	84.31
393.433	104.31
393.658	91.31
393.882	75.31
394.107	89.31
394.331	81.31
394.556	70.31
394.78	82.31
395.005	86.31
395.229	90.31
395.454	84.31
395.678	68.31
395.903	100.31
396.127	97.31
396.352	80.31
396.576	98.31
396.801	92.31
397.025	76.31
397.249	78.31
397.474	69.31
397.698	93.31
397.922	91.31
398.147	84.31
398.371	96.31
398.595	84.31
398.82	86.31
399.044	86.31
399.268	88.31
399.492	86.31
399.717	91.31
399.941	92.31
400.165	92.31
400.389	80.31
400.613	70.31
400.837	89.31
401.062	95.31
401.286	82.31
401.51	100.31
401.734	82.31
401.958	108.31
402.182	129.31
402.406	158.31
402.63	119.31
402.854	92.31
403.078	92.31
403.302	84.31
403.526	76.31
403.75	87.31
403.974	79.31
404.198	95.31
404.422	95.31
404.645	99.31
404.869	84.31
405.093	91.31
405.317	100.31
405.541	102.31
405.765	102.31
405.988	100.31
406.212	163.31
406.436	200.31
406.66	134.31
406.883	109.31
407.107	92.31
407.331	83.31
407.555	94.31
407.778	92.31
408.002	91.31
408.226	83.31
408.449	86.31
408.673	83.31
408.896	107.31
409.12	93.31
409.344	88.31
409.567	98.31
409.791	85.31
410.014	81.31
410.238	95.31
410.461	89.31
410.685	83.31
410.908	93.31
411.132	98.31
411.355	94.31
411.578	81.31
411.802	85.31
412.025	85.31
412.249	93.31
412.472	98.31
412.695	99.31
412.919	88.31
413.142	91.31
413.365	89.31
413.589	92.31
413.812	82.31
414.035	94.31
414.258	83.31
414.482	101.31
414.705	93.31
414.928	86.31
415.151	71.31
415.374	87.31
415.597	96.31
415.821	75.31
416.044	90.31
416.267	93.31
416.49	90.31
416.713	95.31
416.936	85.31
417.159	89.31
417.382	88.31
417.605	94.31
417.828	93.31
418.051	83.31
418.274	91.31
418.497	92.31
418.72	88.31
418.943	99.31
419.166	79.31
419.389	97.31
419.611	78.31
419.834	82.31
420.057	84.31
420.28	98.31
420.503	86.31
420.726	85.31
420.948	92.31
421.171	100.31
421.394	76.31
421.617	92.31
421.839	67.31
422.062	89.31
422.285	93.31
422.507	99.31
422.73	107.31
422.953	86.31
423.175	83.31
423.398	91.31
423.621	84.31
423.843	91.31
424.066	90.31
424.288	87.31
424.511	84.31
424.733	98.31
424.956	107.31
425.178	102.31
425.401	98.31
425.623	94.31
425.846	97.31
426.068	97.31
426.291	89.31
426.513	97.31
426.735	93.31
426.958	99.31
427.18	109.31
427.402	113.31
427.625	150.31
427.847	124.31
428.069	115.31
428.292	73.31
428.514	89.31
428.736	91.31
428.958	87.31
429.181	81.31
429.403	88.31
429.625	90.31
429.847	90.31
430.069	96.31
430.292	87.31
430.514	103.31
430.736	94.31
430.958	76.31
431.18	89.31
431.402	91.31
431.624	87.31
431.846	92.31
432.068	65.31
432.29	74.31
432.512	106.31
432.734	75.31
432.956	85.31
433.178	86.31
433.4	86.31
433.622	80.31
433.844	103.31
434.066	89.31
434.287	82.31
434.509	96.31
434.731	90.31
434.953	89.31
435.175	81.31
435.397	92.31
435.618	88.31
435.84	90.31
436.062	125.31
436.284	103.31
436.505	113.31
436.727	99.31
436.949	92.31
437.17	88.31
437.392	79.31
437.614	84.31
437.835	117.31
438.057	117.31
438.278	102.31
438.5	103.31
438.721	108.31
438.943	100.31
439.165	84.31
439.386	87.31
439.608	85.31
439.829	108.31
440.05	124.31
440.272	135.31
440.493	89.31
440.715	75.31
440.936	75.31
441.158	88.31
441.379	88.31
441.6	81.31
441.822	90.31
442.043	101.31
442.264	95.31
442.486	89.31
442.707	82.31
442.928	107.31
443.149	123.31
443.371	105.31
443.592	96.31
443.813	109.31
444.034	109.31
444.255	94.31
444.476	91.31
444.698	67.31
444.919	68.31
445.14	139.31
445.361	109.31
445.582	105.31
445.803	130.31
446.024	115.31
446.245	125.31
446.466	95.31
446.687	93.31
446.908	92.31
447.129	79.31
447.35	78.31
447.571	95.31
447.792	77.31
448.013	95.31
448.234	105.31
448.455	77.31
448.675	107.31
448.896	100.31
449.117	99.31
449.338	100.31
449.559	131.31
449.779	120.31
450	107.31
450.221	93.31
450.442	92.31
450.662	98.31
450.883	92.31
451.104	109.31
451.324	102.31
451.545	67.31
451.766	72.31
451.986	95.31
452.207	85.31
452.428	82.31
452.648	91.31
452.869	96.31
453.089	107.31
453.31	102.31
453.53	94.31
453.751	91.31
453.971	85.31
454.192	115.31
454.412	89.31
454.633	95.31
454.853	76.31
455.073	83.31
455.294	90.31
455.514	96.31
455.734	93.31
455.955	87.31
456.175	68.31
456.395	80.31
456.616	79.31
456.836	94.31
457.056	73.31
457.276	82.31
457.497	81.31
457.717	88.31
457.937	76.31
458.157	61.31
458.377	84.31
458.598	92.31
458.818	140.31
459.038	147.31
459.258	111.31
459.478	83.31
459.698	93.31
459.918	86.31
460.138	98.31
460.358	90.31
460.578	89.31
460.798	81.31
461.018	99.31
461.238	97.31
461.458	71.31
461.678	85.31
461.898	85.31
462.118	87.31
462.338	70.31
462.558	85.31
462.777	88.31
462.997	83.31
463.217	81.31
463.437	76.31
463.657	73.31
463.876	84.31
464.096	96.31
464.316	103.31
464.536	93.31
464.755	88.31
464.975	103.31
465.195	154.31
465.414	139.31
465.634	87.31
465.854	66.31
466.073	79.31
466.293	94.31
466.512	94.31
466.732	68.31
466.951	73.31
467.171	103.31
467.391	97.31
467.61	97.31
467.829	106.31
468.049	90.31
468.268	98.31
468.488	90.31
468.707	73.31
468.927	85.31
469.146	83.31
469.365	81.31
469.585	87.31
469.804	106.31
470.023	101.31
470.243	78.31
470.462	89.31
470.681	96.31
470.901	94.31
471.12	89.31
471.339	95.31
471.558	81.31
471.777	72.31
471.997	91.31
472.216	114.31
472.435	138.31
472.654	94.31
472.873	79.31
473.092	88.31
473.311	76.31
473.53	96.31
473.749	86.31
473.968	82.31
474.187	84.31
474.406	95.31
474.625	98.31
474.844	87.31
475.063	86.31
475.282	87.31
475.501	76.31
475.72	72.31
475.939	94.31
476.158	86.31
476.377	85.31
476.596	81.31
476.814	76.31
477.033	91.31
477.252	84.31
477.471	86.31
477.69	79.31
477.908	80.31
478.127	95.31
478.346	87.31
478.564	84.31
478.783	97.31
479.002	87.31
479.22	78.31
479.439	86.31
479.658	91.31
479.876	94.31
480.095	85.31
480.313	83.31
480.532	88.31
480.751	100.31
480.969	114.31
481.188	194.31
481.406	153.31
481.624	93.31
481.843	114.31
482.061	93.31
482.28	90.31
482.498	90.31
482.717	81.31
482.935	95.31
483.153	77.31
483.372	93.31
483.59	69.31
483.808	74.31
484.027	91.31
484.245	81.31
484.463	87.31
484.681	102.31
484.9	85.31
485.118	90.31
485.336	98.31
485.554	87.31
485.772	102.31
485.99	76.31
486.209	90.31
486.427	93.31
486.645	113.31
486.863	119.31
487.081	108.31
487.299	91.31
487.517	90.31
487.735	97.31
487.953	93.31
488.171	80.31
488.389	94.31
488.607	103.31
488.825	91.31
489.043	81.31
489.261	93.31
489.479	86.31
489.696	84.31
489.914	90.31
490.132	86.31
490.35	87.31
490.568	92.31
490.786	80.31
491.003	91.31
491.221	98.31
491.439	87.31
491.657	93.31
491.874	86.31
492.092	74.31
492.31	76.31
492.527	93.31
492.745	91.31
492.963	90.31
493.18	101.31
493.398	87.31
493.615	102.31
493.833	86.31
494.05	96.31
494.268	88.31
494.485	99.31
494.703	101.31
494.92	87.31
495.138	91.31
495.355	81.31
495.573	91.31
495.79	109.31
496.008	79.31
496.225	99.31
496.442	85.31
496.66	80.31
496.877	83.31
497.094	101.31
497.312	90.31
497.529	85.31
497.746	113.31
497.963	97.31
498.181	90.31
498.398	95.31
498.615	102.31
498.832	100.31
499.049	91.31
499.267	82.31
499.484	94.31
499.701	77.31
499.918	84.31
500.135	72.31
500.352	85.31
500.569	84.31
500.786	94.31
501.003	86.31
501.22	94.31
501.437	75.31
501.654	91.31
501.871	97.31
502.088	86.31
502.305	90.31
502.522	79.31
502.739	93.31
502.956	85.31
503.172	89.31
503.389	84.31
503.606	102.31
503.823	109.31
504.04	96.31
504.256	88.31
504.473	94.31
504.69	81.31
504.907	84.31
505.123	94.31
505.34	90.31
505.557	83.31
505.773	84.31
505.99	100.31
506.207	73.31
506.423	101.31
506.64	98.31
506.856	113.31
507.073	90.31
507.289	102.31
507.506	103.31
507.722	101.31
507.939	118.31
508.155	91.31
508.372	84.31
508.588	77.31
508.805	92.31
509.021	92.31
509.238	89.31
509.454	99.31
509.67	104.31
509.887	115.31
510.103	132.31
510.319	195.31
510.536	691.31
510.752	2113.31
510.968	570.31
511.184	140.31
511.401	113.31
511.617	107.31
511.833	103.31
512.049	90.31
512.265	93.31
512.481	88.31
512.698	95.31
512.914	76.31
513.13	81.31
513.346	106.31
513.562	95.31
513.778	103.31
513.994	88.31
514.21	104.31
514.426	114.31
514.642	128.31
514.858	123.31
515.074	155.31
515.29	399.31
515.506	1335.31
515.721	511.31
515.937	136.31
516.153	109.31
