Data from Dirtheat1_HRD10591_00018.txt Node
Date: Fri Dec 27 15:13:41 EST 2024
User: Yrep
Spectrometer: HR+D1059
Trigger mode: 1
Integration Time (sec): 1.000000E-1
Scans to average: 1
Electric dark correction enabled: true
Nonlinearity correction enabled: false
Boxcar width: 0
XAxis mode: Wavelengths
Number of Pixels in Spectrum: 2048
>>>>>Begin Spectral Data<<<<<
223.165	-21.5
223.4	-21.5
223.635	-21.5
223.869	-26.5
224.104	-23.5
224.338	-9.5
224.573	-34.5
224.808	-16.5
225.042	3.5
225.277	4.5
225.511	12.5
225.746	-0.5
225.98	-4.5
226.215	11.5
226.449	16.5
226.683	17.5
226.918	42.5
227.152	28.5
227.387	36.5
227.621	40.5
227.856	53.5
228.09	56.5
228.324	43.5
228.559	48.5
228.793	45.5
229.027	72.5
229.262	74.5
229.496	63.5
229.73	67.5
229.964	61.5
230.199	66.5
230.433	75.5
230.667	77.5
230.901	75.5
231.136	79.5
231.37	64.5
231.604	84.5
231.838	85.5
232.072	86.5
232.306	75.5
232.541	79.5
232.775	93.5
233.009	81.5
233.243	101.5
233.477	89.5
233.711	88.5
233.945	73.5
234.179	73.5
234.413	88.5
234.647	81.5
234.881	81.5
235.115	86.5
235.349	87.5
235.583	77.5
235.817	80.5
236.051	72.5
236.285	89.5
236.519	58.5
236.753	71.5
236.987	76.5
237.221	62.5
237.455	76.5
237.689	77.5
237.922	61.5
238.156	83.5
238.39	70.5
238.624	77.5
238.858	87.5
239.091	84.5
239.325	81.5
239.559	70.5
239.793	94.5
240.027	91.5
240.26	83.5
240.494	81.5
240.728	59.5
240.961	80.5
241.195	85.5
241.429	60.5
241.662	67.5
241.896	77.5
242.13	81.5
242.363	74.5
242.597	89.5
242.83	96.5
243.064	76.5
243.298	84.5
243.531	74.5
243.765	77.5
243.998	59.5
244.232	77.5
244.465	77.5
244.699	64.5
244.932	66.5
245.166	80.5
245.399	72.5
245.633	91.5
245.866	91.5
246.099	77.5
246.333	76.5
246.566	73.5
246.8	71.5
247.033	82.5
247.266	74.5
247.5	70.5
247.733	59.5
247.966	74.5
248.2	77.5
248.433	72.5
248.666	80.5
248.899	73.5
249.133	78.5
249.366	83.5
249.599	81.5
249.832	83.5
250.066	88.5
250.299	73.5
250.532	80.5
250.765	83.5
250.998	74.5
251.231	88.5
251.465	78.5
251.698	77.5
251.931	82.5
252.164	73.5
252.397	83.5
252.63	86.5
252.863	79.5
253.096	75.5
253.329	81.5
253.562	81.5
253.795	71.5
254.028	70.5
254.261	72.5
254.494	82.5
254.727	87.5
254.96	88.5
255.193	81.5
255.426	95.5
255.659	77.5
255.892	79.5
256.124	101.5
256.357	88.5
256.59	87.5
256.823	77.5
257.056	73.5
257.289	79.5
257.521	85.5
257.754	79.5
257.987	76.5
258.22	73.5
258.452	80.5
258.685	75.5
258.918	75.5
259.151	86.5
259.383	89.5
259.616	74.5
259.849	85.5
260.081	90.5
260.314	93.5
260.547	83.5
260.779	94.5
261.012	73.5
261.244	76.5
261.477	82.5
261.71	70.5
261.942	79.5
262.175	76.5
262.407	71.5
262.64	76.5
262.872	83.5
263.105	78.5
263.337	85.5
263.57	72.5
263.802	82.5
264.035	71.5
264.267	79.5
264.499	84.5
264.732	94.5
264.964	77.5
265.197	69.5
265.429	68.5
265.661	79.5
265.894	90.5
266.126	80.5
266.358	77.5
266.591	79.5
266.823	92.5
267.055	77.5
267.287	78.5
267.52	81.5
267.752	84.5
267.984	72.5
268.216	73.5
268.448	96.5
268.681	75.5
268.913	83.5
269.145	63.5
269.377	74.5
269.609	76.5
269.841	81.5
270.073	88.5
270.306	71.5
270.538	80.5
270.77	75.5
271.002	70.5
271.234	72.5
271.466	83.5
271.698	83.5
271.93	89.5
272.162	78.5
272.394	81.5
272.626	79.5
272.858	72.5
273.09	95.5
273.322	78.5
273.553	70.5
273.785	89.5
274.017	79.5
274.249	90.5
274.481	94.5
274.713	87.5
274.945	80.5
275.176	69.5
275.408	88.5
275.64	62.5
275.872	87.5
276.104	81.5
276.335	90.5
276.567	79.5
276.799	81.5
277.031	79.5
277.262	78.5
277.494	85.5
277.726	80.5
277.957	90.5
278.189	86.5
278.421	65.5
278.652	81.5
278.884	76.5
279.115	78.5
279.347	77.5
279.579	87.5
279.81	82.5
280.042	78.5
280.273	87.5
280.505	78.5
280.736	76.5
280.968	95.5
281.199	91.5
281.431	86.5
281.662	87.5
281.894	93.5
282.125	86.5
282.356	81.5
282.588	88.5
282.819	79.5
283.051	89.5
283.282	82.5
283.513	82.5
283.745	79.5
283.976	86.5
284.207	94.5
284.439	91.5
284.67	89.5
284.901	75.5
285.132	88.5
285.364	79.5
285.595	91.5
285.826	83.5
286.057	90.5
286.288	105.5
286.52	102.5
286.751	83.5
286.982	82.5
287.213	76.5
287.444	81.5
287.675	95.5
287.906	86.5
288.138	79.5
288.369	90.5
288.6	96.5
288.831	82.5
289.062	85.5
289.293	78.5
289.524	80.5
289.755	80.5
289.986	73.5
290.217	81.5
290.448	87.5
290.679	73.5
290.91	92.5
291.141	86.5
291.371	82.5
291.602	81.5
291.833	94.5
292.064	87.5
292.295	71.5
292.526	87.5
292.757	91.5
292.987	88.5
293.218	75.5
293.449	92.5
293.68	70.5
293.91	90.5
294.141	86.5
294.372	91.5
294.603	76.5
294.833	86.5
295.064	72.5
295.295	77.5
295.525	91.5
295.756	89.5
295.987	84.5
296.217	87.5
296.448	82.5
296.679	97.5
296.909	78.5
297.14	89.5
297.37	93.5
297.601	70.5
297.831	85.5
298.062	86.5
298.292	78.5
298.523	85.5
298.753	66.5
298.984	75.5
299.214	85.5
299.445	74.5
299.675	72.5
299.905	82.5
300.136	86.5
300.366	79.5
300.597	76.5
300.827	88.5
301.057	76.5
301.288	85.5
301.518	89.5
301.748	89.5
301.979	97.5
302.209	78.5
302.439	75.5
302.669	85.5
302.9	93.5
303.13	78.5
303.36	90.5
303.59	82.5
303.82	87.5
304.051	92.5
304.281	87.5
304.511	90.5
304.741	94.5
304.971	86.5
305.201	91.5
305.431	84.5
305.661	88.5
305.891	77.5
306.121	79.5
306.352	88.5
306.582	81.5
306.812	81.5
307.042	78.5
307.272	80.5
307.502	101.5
307.731	94.5
307.961	87.5
308.191	85.5
308.421	76.5
308.651	90.5
308.881	89.5
309.111	76.5
309.341	72.5
309.571	80.5
309.8	84.5
310.03	83.5
310.26	81.5
310.49	93.5
310.72	75.5
310.949	84.5
311.179	77.5
311.409	71.5
311.639	76.5
311.868	82.5
312.098	87.5
312.328	85.5
312.557	90.5
312.787	79.5
313.017	90.5
313.246	79.5
313.476	83.5
313.706	82.5
313.935	89.5
314.165	73.5
314.394	76.5
314.624	82.5
314.853	93.5
315.083	64.5
315.312	81.5
315.542	76.5
315.771	85.5
316.001	75.5
316.23	89.5
316.46	74.5
316.689	72.5
316.919	89.5
317.148	88.5
317.377	76.5
317.607	71.5
317.836	91.5
318.065	98.5
318.295	86.5
318.524	89.5
318.753	81.5
318.983	81.5
319.212	87.5
319.441	80.5
319.67	87.5
319.9	89.5
320.129	77.5
320.358	88.5
320.587	84.5
320.816	82.5
321.046	87.5
321.275	89.5
321.504	85.5
321.733	80.5
321.962	89.5
322.191	77.5
322.42	73.5
322.649	78.5
322.878	91.5
323.108	78.5
323.337	82.5
323.566	86.5
323.795	87.5
324.024	75.5
324.253	88.5
324.482	72.5
324.71	77.5
324.939	91.5
325.168	89.5
325.397	79.5
325.626	69.5
325.855	75.5
326.084	94.5
326.313	92.5
326.542	78.5
326.77	90.5
326.999	84.5
327.228	75.5
327.457	72.5
327.686	85.5
327.914	89.5
328.143	95.5
328.372	80.5
328.6	76.5
328.829	93.5
329.058	86.5
329.287	69.5
329.515	77.5
329.744	78.5
329.972	72.5
330.201	80.5
330.43	93.5
330.658	77.5
330.887	84.5
331.115	77.5
331.344	77.5
331.572	90.5
331.801	85.5
332.03	90.5
332.258	87.5
332.486	73.5
332.715	81.5
332.943	84.5
333.172	77.5
333.4	80.5
333.629	95.5
333.857	95.5
334.085	99.5
334.314	88.5
334.542	75.5
334.771	96.5
334.999	87.5
335.227	81.5
335.455	84.5
335.684	93.5
335.912	76.5
336.14	80.5
336.369	90.5
336.597	96.5
336.825	85.5
337.053	93.5
337.281	69.5
337.51	88.5
337.738	78.5
337.966	71.5
338.194	87.5
338.422	96.5
338.65	105.5
338.878	80.5
339.106	89.5
339.334	93.5
339.562	80.5
339.79	78.5
340.018	73.5
340.246	86.5
340.474	77.5
340.702	90.5
340.93	84.5
341.158	84.5
341.386	86.5
341.614	79.5
341.842	77.5
342.07	78.5
342.298	87.5
342.526	71.5
342.754	76.5
342.981	87.5
343.209	88.5
343.437	92.5
343.665	101.5
343.893	72.5
344.12	88.5
344.348	87.5
344.576	82.5
344.804	89.5
345.031	84.5
345.259	93.5
345.487	80.5
345.714	86.5
345.942	92.5
346.17	81.5
346.397	81.5
346.625	84.5
346.853	82.5
347.08	86.5
347.308	81.5
347.535	80.5
347.763	66.5
347.99	87.5
348.218	71.5
348.445	58.5
348.673	72.5
348.9	79.5
349.128	94.5
349.355	88.5
349.583	89.5
349.81	82.5
350.037	72.5
350.265	81.5
350.492	78.5
350.72	89.5
350.947	88.5
351.174	70.5
351.402	69.5
351.629	82.5
351.856	78.5
352.083	80.5
352.311	81.5
352.538	76.5
352.765	72.5
352.992	86.5
353.22	93.5
353.447	87.5
353.674	90.5
353.901	82.5
354.128	85.5
354.355	90.5
354.583	83.5
354.81	87.5
355.037	92.5
355.264	79.5
355.491	83.5
355.718	76.5
355.945	71.5
356.172	84.5
356.399	81.5
356.626	69.5
356.853	81.5
357.08	87.5
357.307	78.5
357.534	89.5
357.761	86.5
357.988	94.5
358.215	84.5
358.441	75.5
358.668	100.5
358.895	76.5
359.122	78.5
359.349	83.5
359.576	80.5
359.802	66.5
360.029	77.5
360.256	72.5
360.483	79.5
360.709	84.5
360.936	96.5
361.163	89.5
361.39	95.5
361.616	94.5
361.843	85.5
362.07	76.5
362.296	78.5
362.523	76.5
362.749	81.5
362.976	79.5
363.203	84.5
363.429	81.5
363.656	85.5
363.882	79.5
364.109	82.5
364.335	93.5
364.562	90.5
364.788	86.5
365.015	76.5
365.241	69.5
365.468	102.5
365.694	67.5
365.92	76.5
366.147	86.5
366.373	88.5
366.599	94.5
366.826	87.5
367.052	84.5
367.278	96.5
367.505	73.5
367.731	74.5
367.957	80.5
368.184	77.5
368.41	73.5
368.636	69.5
368.862	79.5
369.089	70.5
369.315	84.5
369.541	73.5
369.767	81.5
369.993	90.5
370.219	82.5
370.445	88.5
370.672	81.5
370.898	78.5
371.124	105.5
371.35	84.5
371.576	89.5
371.802	81.5
372.028	90.5
372.254	69.5
372.48	93.5
372.706	69.5
372.932	69.5
373.158	85.5
373.384	85.5
373.61	84.5
373.835	69.5
374.061	74.5
374.287	82.5
374.513	76.5
374.739	85.5
374.965	80.5
375.191	73.5
375.416	71.5
375.642	88.5
375.868	87.5
376.094	84.5
376.319	77.5
376.545	77.5
376.771	81.5
376.997	86.5
377.222	88.5
377.448	85.5
377.674	73.5
377.899	82.5
378.125	78.5
378.35	89.5
378.576	83.5
378.802	58.5
379.027	81.5
379.253	74.5
379.478	72.5
379.704	86.5
379.929	81.5
380.155	76.5
380.38	111.5
380.606	86.5
380.831	70.5
381.057	81.5
381.282	81.5
381.507	79.5
381.733	88.5
381.958	74.5
382.184	84.5
382.409	75.5
382.634	76.5
382.86	73.5
383.085	68.5
383.31	70.5
383.535	83.5
383.761	72.5
383.986	83.5
384.211	78.5
384.436	86.5
384.662	78.5
384.887	88.5
385.112	85.5
385.337	79.5
385.562	73.5
385.787	85.5
386.013	89.5
386.238	72.5
386.463	69.5
386.688	90.5
386.913	71.5
387.138	73.5
387.363	76.5
387.588	83.5
387.813	86.5
388.038	78.5
388.263	86.5
388.488	96.5
388.713	88.5
388.938	89.5
389.163	86.5
389.387	78.5
389.612	82.5
389.837	79.5
390.062	76.5
390.287	80.5
390.512	80.5
390.736	74.5
390.961	81.5
391.186	94.5
391.411	68.5
391.636	82.5
391.86	80.5
392.085	81.5
392.31	68.5
392.534	82.5
392.759	89.5
392.984	92.5
393.208	85.5
393.433	85.5
393.658	83.5
393.882	72.5
394.107	80.5
394.331	86.5
394.556	85.5
394.78	91.5
395.005	66.5
395.229	79.5
395.454	99.5
395.678	78.5
395.903	87.5
396.127	90.5
396.352	85.5
396.576	81.5
396.801	85.5
397.025	81.5
397.249	77.5
397.474	93.5
397.698	82.5
397.922	85.5
398.147	81.5
398.371	72.5
398.595	84.5
398.82	84.5
399.044	88.5
399.268	74.5
399.492	70.5
399.717	91.5
399.941	87.5
400.165	65.5
400.389	80.5
400.613	77.5
400.837	73.5
401.062	74.5
401.286	66.5
401.51	85.5
401.734	87.5
401.958	78.5
402.182	70.5
402.406	64.5
402.63	69.5
402.854	91.5
403.078	82.5
403.302	90.5
403.526	96.5
403.75	79.5
403.974	84.5
404.198	70.5
404.422	74.5
404.645	77.5
404.869	84.5
405.093	87.5
405.317	81.5
405.541	85.5
405.765	84.5
405.988	80.5
406.212	80.5
406.436	64.5
406.66	85.5
406.883	72.5
407.107	73.5
407.331	74.5
407.555	77.5
407.778	65.5
408.002	82.5
408.226	78.5
408.449	84.5
408.673	88.5
408.896	72.5
409.12	73.5
409.344	93.5
409.567	69.5
409.791	80.5
410.014	88.5
410.238	75.5
410.461	69.5
410.685	76.5
410.908	66.5
411.132	88.5
411.355	88.5
411.578	80.5
411.802	108.5
412.025	80.5
412.249	80.5
412.472	80.5
412.695	72.5
412.919	81.5
413.142	88.5
413.365	77.5
413.589	77.5
413.812	81.5
414.035	86.5
414.258	88.5
414.482	79.5
414.705	79.5
414.928	72.5
415.151	72.5
415.374	79.5
415.597	88.5
415.821	86.5
416.044	92.5
416.267	91.5
416.49	78.5
416.713	81.5
416.936	86.5
417.159	86.5
417.382	65.5
417.605	79.5
417.828	78.5
418.051	92.5
418.274	88.5
418.497	85.5
418.72	89.5
418.943	92.5
419.166	75.5
419.389	75.5
419.611	82.5
419.834	70.5
420.057	70.5
420.28	75.5
420.503	70.5
420.726	92.5
420.948	82.5
421.171	81.5
421.394	79.5
421.617	89.5
421.839	82.5
422.062	94.5
422.285	81.5
422.507	86.5
422.73	94.5
422.953	88.5
423.175	85.5
423.398	79.5
423.621	77.5
423.843	72.5
424.066	82.5
424.288	92.5
424.511	89.5
424.733	84.5
424.956	93.5
425.178	77.5
425.401	78.5
425.623	75.5
425.846	73.5
426.068	76.5
426.291	82.5
426.513	85.5
426.735	79.5
426.958	84.5
427.18	83.5
427.402	86.5
427.625	81.5
427.847	76.5
428.069	72.5
428.292	82.5
428.514	71.5
428.736	95.5
428.958	89.5
429.181	82.5
429.403	93.5
429.625	80.5
429.847	88.5
430.069	84.5
430.292	94.5
430.514	78.5
430.736	85.5
430.958	82.5
431.18	79.5
431.402	61.5
431.624	78.5
431.846	77.5
432.068	70.5
432.29	72.5
432.512	80.5
432.734	77.5
432.956	80.5
433.178	83.5
433.4	81.5
433.622	78.5
433.844	81.5
434.066	90.5
434.287	75.5
434.509	68.5
434.731	80.5
434.953	89.5
435.175	78.5
435.397	79.5
435.618	75.5
435.84	72.5
436.062	91.5
436.284	73.5
436.505	71.5
436.727	73.5
436.949	78.5
437.17	75.5
437.392	73.5
437.614	74.5
437.835	70.5
438.057	97.5
438.278	66.5
438.5	78.5
438.721	72.5
438.943	68.5
439.165	79.5
439.386	84.5
439.608	76.5
439.829	70.5
440.05	74.5
440.272	73.5
440.493	81.5
440.715	82.5
440.936	85.5
441.158	91.5
441.379	78.5
441.6	85.5
441.822	102.5
442.043	74.5
442.264	93.5
442.486	94.5
442.707	81.5
442.928	95.5
443.149	80.5
443.371	84.5
443.592	75.5
443.813	86.5
444.034	79.5
444.255	88.5
444.476	88.5
444.698	92.5
444.919	71.5
445.14	125.5
445.361	108.5
445.582	80.5
445.803	83.5
446.024	74.5
446.245	85.5
446.466	87.5
446.687	85.5
446.908	97.5
447.129	88.5
447.35	107.5
447.571	75.5
447.792	66.5
448.013	86.5
448.234	69.5
448.455	79.5
448.675	82.5
448.896	93.5
449.117	85.5
449.338	89.5
449.559	89.5
449.779	73.5
450	83.5
450.221	80.5
450.442	82.5
450.662	75.5
450.883	64.5
451.104	86.5
451.324	81.5
451.545	81.5
451.766	70.5
451.986	80.5
452.207	93.5
452.428	87.5
452.648	87.5
452.869	82.5
453.089	77.5
453.31	95.5
453.53	75.5
453.751	73.5
453.971	77.5
454.192	86.5
454.412	76.5
454.633	82.5
454.853	84.5
455.073	87.5
455.294	82.5
455.514	75.5
455.734	77.5
455.955	84.5
456.175	84.5
456.395	72.5
456.616	79.5
456.836	80.5
457.056	80.5
457.276	78.5
457.497	89.5
457.717	81.5
457.937	88.5
458.157	80.5
458.377	86.5
458.598	84.5
458.818	86.5
459.038	81.5
459.258	66.5
459.478	80.5
459.698	68.5
459.918	88.5
460.138	86.5
460.358	79.5
460.578	81.5
460.798	83.5
461.018	70.5
461.238	78.5
461.458	72.5
461.678	78.5
461.898	68.5
462.118	75.5
462.338	66.5
462.558	81.5
462.777	84.5
462.997	89.5
463.217	73.5
463.437	66.5
463.657	76.5
463.876	80.5
464.096	80.5
464.316	81.5
464.536	77.5
464.755	83.5
464.975	74.5
465.195	88.5
465.414	79.5
465.634	79.5
465.854	71.5
466.073	74.5
466.293	69.5
466.512	62.5
466.732	62.5
466.951	76.5
467.171	72.5
467.391	85.5
467.61	74.5
467.829	77.5
468.049	71.5
468.268	64.5
468.488	82.5
468.707	85.5
468.927	92.5
469.146	82.5
469.365	89.5
469.585	95.5
469.804	81.5
470.023	76.5
470.243	82.5
470.462	80.5
470.681	89.5
470.901	61.5
471.12	81.5
471.339	83.5
471.558	84.5
471.777	74.5
471.997	94.5
472.216	93.5
472.435	84.5
472.654	73.5
472.873	84.5
473.092	75.5
473.311	77.5
473.53	71.5
473.749	88.5
473.968	82.5
474.187	75.5
474.406	78.5
474.625	85.5
474.844	83.5
475.063	88.5
475.282	92.5
475.501	91.5
475.72	95.5
475.939	89.5
476.158	77.5
476.377	82.5
476.596	80.5
476.814	79.5
477.033	89.5
477.252	78.5
477.471	84.5
477.69	82.5
477.908	94.5
478.127	84.5
478.346	77.5
478.564	81.5
478.783	73.5
479.002	86.5
479.22	79.5
479.439	78.5
479.658	77.5
479.876	72.5
480.095	82.5
480.313	77.5
480.532	75.5
480.751	77.5
480.969	87.5
481.188	82.5
481.406	80.5
481.624	88.5
481.843	87.5
482.061	88.5
482.28	82.5
482.498	92.5
482.717	76.5
482.935	87.5
483.153	70.5
483.372	80.5
483.59	80.5
483.808	72.5
484.027	76.5
484.245	78.5
484.463	67.5
484.681	107.5
484.9	85.5
485.118	91.5
485.336	78.5
485.554	72.5
485.772	91.5
485.99	71.5
486.209	76.5
486.427	79.5
486.645	80.5
486.863	73.5
487.081	59.5
487.299	87.5
487.517	85.5
487.735	82.5
487.953	84.5
488.171	79.5
488.389	70.5
488.607	78.5
488.825	68.5
489.043	76.5
489.261	81.5
489.479	95.5
489.696	85.5
489.914	95.5
490.132	87.5
490.35	75.5
490.568	82.5
490.786	92.5
491.003	84.5
491.221	82.5
491.439	75.5
491.657	78.5
491.874	90.5
492.092	88.5
492.31	95.5
492.527	90.5
492.745	86.5
492.963	93.5
493.18	84.5
493.398	85.5
493.615	96.5
493.833	88.5
494.05	91.5
494.268	87.5
494.485	79.5
494.703	97.5
494.92	79.5
495.138	93.5
495.355	79.5
495.573	77.5
495.79	76.5
496.008	81.5
496.225	69.5
496.442	83.5
496.66	93.5
496.877	77.5
497.094	83.5
497.312	82.5
497.529	79.5
497.746	88.5
497.963	86.5
498.181	84.5
498.398	97.5
498.615	88.5
498.832	84.5
499.049	83.5
499.267	98.5
499.484	76.5
499.701	86.5
499.918	85.5
500.135	93.5
500.352	71.5
500.569	72.5
500.786	85.5
501.003	79.5
501.22	82.5
501.437	77.5
501.654	78.5
501.871	81.5
502.088	101.5
502.305	71.5
502.522	85.5
502.739	93.5
502.956	84.5
503.172	81.5
503.389	85.5
503.606	78.5
503.823	87.5
504.04	98.5
504.256	84.5
504.473	98.5
504.69	94.5
504.907	89.5
505.123	79.5
505.34	83.5
505.557	95.5
505.773	93.5
505.99	68.5
506.207	92.5
506.423	78.5
506.64	78.5
506.856	83.5
507.073	89.5
507.289	81.5
507.506	86.5
507.722	89.5
507.939	77.5
508.155	77.5
508.372	86.5
508.588	88.5
508.805	95.5
509.021	86.5
509.238	84.5
509.454	77.5
509.67	76.5
509.887	80.5
510.103	88.5
510.319	67.5
510.536	84.5
510.752	79.5
510.968	79.5
511.184	61.5
511.401	75.5
511.617	72.5
511.833	91.5
512.049	82.5
512.265	86.5
512.481	73.5
512.698	93.5
512.914	80.5
513.13	82.5
513.346	89.5
513.562	79.5
513.778	88.5
513.994	95.5
514.21	71.5
514.426	94.5
514.642	74.5
514.858	84.5
515.074	82.5
515.29	77.5
515.506	71.5
515.721	74.5
515.937	79.5
516.153	74.5
516.369	93.5
516.585	91.5
516.801	82.5
517.016	80.5
517.232	70.5
517.448	87.5
517.664	86.5
517.879	86.5
518.095	84.5
518.311	71.5
518.527	84.5
518.742	79.5
518.958	93.5
519.173	88.5
519.389	80.5
519.605	94.5
519.82	80.5
520.036	80.5
520.251	94.5
520.467	72.5
520.682	79.5
520.898	84.5
521.113	77.5
521.329	81.5
521.544	83.5
521.76	81.5
521.975	81.5
522.19	77.5
522.406	87.5
522.621	107.5
522.836	93.5
523.052	86.5
523.267	88.5
523.482	73.5
523.698	90.5
523.913	80.5
524.128	80.5
524.343	78.5
524.559	94.5
524.774	83.5
524.989	87.5
525.204	90.5
525.419	80.5
525.634	88.5
525.849	86.5
526.064	72.5
526.28	95.5
526.495	89.5
526.71	93.5
526.925	91.5
527.14	78.5
527.355	83.5
527.57	93.5
527.785	79.5
527.999	81.5
528.214	80.5
528.429	76.5
528.644	84.5
528.859	81.5
529.074	79.5
529.289	75.5
529.503	83.5
529.718	93.5
529.933	81.5
530.148	82.5
530.363	74.5
530.577	90.5
530.792	91.5
531.007	94.5
531.221	80.5
531.436	81.5
531.651	77.5
531.865	95.5
532.08	84.5
532.295	91.5
532.509	85.5
532.724	96.5
532.938	74.5
533.153	81.5
533.367	90.5
533.582	106.5
533.796	94.5
534.011	83.5
534.225	79.5
534.44	73.5
534.654	93.5
534.868	97.5
535.083	80.5
535.297	86.5
535.511	77.5
535.726	74.5
535.94	84.5
536.154	90.5
536.369	91.5
536.583	92.5
536.797	95.5
537.011	81.5
537.225	89.5
537.44	78.5
537.654	91.5
537.868	88.5
538.082	79.5
538.296	88.5
538.51	81.5
538.724	74.5
538.938	92.5
539.153	84.5
539.367	94.5
539.581	81.5
539.795	76.5
540.009	88.5
540.222	93.5
540.436	83.5
