Data from Dirtheat1_HRD10591_00015.txt Node
Date: Fri Dec 27 15:13:38 EST 2024
User: Yrep
Spectrometer: HR+D1059
Trigger mode: 1
Integration Time (sec): 1.000000E-1
Scans to average: 1
Electric dark correction enabled: true
Nonlinearity correction enabled: false
Boxcar width: 0
XAxis mode: Wavelengths
Number of Pixels in Spectrum: 2048
>>>>>Begin Spectral Data<<<<<
223.165	-11.44
223.4	-11.44
223.635	-11.44
223.869	-16.44
224.104	-14.44
224.338	-10.44
224.573	-16.44
224.808	-17.44
225.042	0.56
225.277	-8.44
225.511	2.56
225.746	10.56
225.98	4.56
226.215	6.56
226.449	20.56
226.683	10.56
226.918	18.56
227.152	20.56
227.387	46.56
227.621	42.56
227.856	38.56
228.09	55.56
228.324	56.56
228.559	56.56
228.793	56.56
229.027	60.56
229.262	74.56
229.496	70.56
229.73	69.56
229.964	60.56
230.199	72.56
230.433	70.56
230.667	68.56
230.901	79.56
231.136	59.56
231.37	78.56
231.604	74.56
231.838	90.56
232.072	84.56
232.306	80.56
232.541	78.56
232.775	77.56
233.009	78.56
233.243	70.56
233.477	74.56
233.711	85.56
233.945	83.56
234.179	82.56
234.413	98.56
234.647	76.56
234.881	79.56
235.115	73.56
235.349	72.56
235.583	87.56
235.817	56.56
236.051	70.56
236.285	74.56
236.519	67.56
236.753	54.56
236.987	79.56
237.221	63.56
237.455	77.56
237.689	65.56
237.922	60.56
238.156	73.56
238.39	76.56
238.624	73.56
238.858	83.56
239.091	75.56
239.325	78.56
239.559	72.56
239.793	86.56
240.027	70.56
240.26	77.56
240.494	69.56
240.728	61.56
240.961	90.56
241.195	81.56
241.429	65.56
241.662	78.56
241.896	69.56
242.13	82.56
242.363	84.56
242.597	77.56
242.83	78.56
243.064	90.56
243.298	69.56
243.531	62.56
243.765	76.56
243.998	77.56
244.232	89.56
244.465	77.56
244.699	71.56
244.932	65.56
245.166	86.56
245.399	71.56
245.633	75.56
245.866	86.56
246.099	85.56
246.333	77.56
246.566	64.56
246.8	80.56
247.033	69.56
247.266	68.56
247.5	58.56
247.733	60.56
247.966	78.56
248.2	82.56
248.433	75.56
248.666	63.56
248.899	71.56
249.133	77.56
249.366	75.56
249.599	72.56
249.832	70.56
250.066	78.56
250.299	70.56
250.532	76.56
250.765	76.56
250.998	78.56
251.231	68.56
251.465	73.56
251.698	77.56
251.931	81.56
252.164	74.56
252.397	80.56
252.63	78.56
252.863	67.56
253.096	74.56
253.329	70.56
253.562	72.56
253.795	83.56
254.028	83.56
254.261	75.56
254.494	68.56
254.727	72.56
254.96	79.56
255.193	85.56
255.426	75.56
255.659	63.56
255.892	81.56
256.124	67.56
256.357	73.56
256.59	72.56
256.823	68.56
257.056	72.56
257.289	68.56
257.521	72.56
257.754	83.56
257.987	80.56
258.22	84.56
258.452	67.56
258.685	72.56
258.918	102.56
259.151	79.56
259.383	97.56
259.616	76.56
259.849	77.56
260.081	86.56
260.314	82.56
260.547	73.56
260.779	77.56
261.012	74.56
261.244	85.56
261.477	85.56
261.71	65.56
261.942	70.56
262.175	76.56
262.407	78.56
262.64	70.56
262.872	79.56
263.105	80.56
263.337	84.56
263.57	79.56
263.802	66.56
264.035	93.56
264.267	80.56
264.499	86.56
264.732	71.56
264.964	74.56
265.197	63.56
265.429	92.56
265.661	67.56
265.894	69.56
266.126	100.56
266.358	67.56
266.591	84.56
266.823	85.56
267.055	77.56
267.287	77.56
267.52	92.56
267.752	77.56
267.984	81.56
268.216	92.56
268.448	86.56
268.681	83.56
268.913	83.56
269.145	77.56
269.377	73.56
269.609	78.56
269.841	79.56
270.073	80.56
270.306	83.56
270.538	85.56
270.77	65.56
271.002	90.56
271.234	83.56
271.466	78.56
271.698	94.56
271.93	79.56
272.162	72.56
272.394	81.56
272.626	75.56
272.858	78.56
273.09	77.56
273.322	73.56
273.553	78.56
273.785	78.56
274.017	87.56
274.249	80.56
274.481	74.56
274.713	77.56
274.945	93.56
275.176	96.56
275.408	67.56
275.64	86.56
275.872	96.56
276.104	83.56
276.335	83.56
276.567	85.56
276.799	88.56
277.031	78.56
277.262	95.56
277.494	82.56
277.726	87.56
277.957	79.56
278.189	70.56
278.421	78.56
278.652	82.56
278.884	89.56
279.115	88.56
279.347	74.56
279.579	70.56
279.81	72.56
280.042	66.56
280.273	85.56
280.505	76.56
280.736	86.56
280.968	63.56
281.199	86.56
281.431	102.56
281.662	81.56
281.894	91.56
282.125	78.56
282.356	92.56
282.588	85.56
282.819	72.56
283.051	91.56
283.282	94.56
283.513	85.56
283.745	76.56
283.976	70.56
284.207	81.56
284.439	84.56
284.67	87.56
284.901	76.56
285.132	76.56
285.364	71.56
285.595	84.56
285.826	90.56
286.057	88.56
286.288	83.56
286.52	79.56
286.751	89.56
286.982	85.56
287.213	83.56
287.444	86.56
287.675	92.56
287.906	71.56
288.138	86.56
288.369	79.56
288.6	95.56
288.831	84.56
289.062	63.56
289.293	86.56
289.524	82.56
289.755	84.56
289.986	94.56
290.217	85.56
290.448	80.56
290.679	81.56
290.91	85.56
291.141	90.56
291.371	87.56
291.602	76.56
291.833	84.56
292.064	79.56
292.295	74.56
292.526	83.56
292.757	75.56
292.987	85.56
293.218	74.56
293.449	90.56
293.68	93.56
293.91	89.56
294.141	96.56
294.372	78.56
294.603	74.56
294.833	79.56
295.064	76.56
295.295	85.56
295.525	78.56
295.756	69.56
295.987	82.56
296.217	80.56
296.448	85.56
296.679	78.56
296.909	92.56
297.14	92.56
297.37	91.56
297.601	80.56
297.831	89.56
298.062	97.56
298.292	77.56
298.523	84.56
298.753	79.56
298.984	101.56
299.214	78.56
299.445	82.56
299.675	87.56
299.905	78.56
300.136	82.56
300.366	74.56
300.597	75.56
300.827	86.56
301.057	84.56
301.288	85.56
301.518	71.56
301.748	74.56
301.979	97.56
302.209	90.56
302.439	72.56
302.669	90.56
302.9	80.56
303.13	75.56
303.36	70.56
303.59	69.56
303.82	73.56
304.051	79.56
304.281	78.56
304.511	77.56
304.741	87.56
304.971	79.56
305.201	94.56
305.431	81.56
305.661	89.56
305.891	84.56
306.121	75.56
306.352	92.56
306.582	85.56
306.812	83.56
307.042	91.56
307.272	80.56
307.502	73.56
307.731	76.56
307.961	85.56
308.191	85.56
308.421	77.56
308.651	83.56
308.881	76.56
309.111	68.56
309.341	74.56
309.571	92.56
309.8	66.56
310.03	88.56
310.26	102.56
310.49	85.56
310.72	90.56
310.949	74.56
311.179	89.56
311.409	92.56
311.639	85.56
311.868	95.56
312.098	83.56
312.328	92.56
312.557	89.56
312.787	78.56
313.017	80.56
313.246	85.56
313.476	89.56
313.706	81.56
313.935	92.56
314.165	82.56
314.394	85.56
314.624	71.56
314.853	100.56
315.083	91.56
315.312	97.56
315.542	84.56
315.771	84.56
316.001	94.56
316.23	73.56
316.46	83.56
316.689	84.56
316.919	94.56
317.148	72.56
317.377	78.56
317.607	83.56
317.836	83.56
318.065	81.56
318.295	79.56
318.524	85.56
318.753	91.56
318.983	73.56
319.212	95.56
319.441	85.56
319.67	90.56
319.9	74.56
320.129	75.56
320.358	91.56
320.587	91.56
320.816	81.56
321.046	84.56
321.275	91.56
321.504	72.56
321.733	81.56
321.962	86.56
322.191	84.56
322.42	99.56
322.649	85.56
322.878	81.56
323.108	83.56
323.337	100.56
323.566	92.56
323.795	78.56
324.024	86.56
324.253	88.56
324.482	87.56
324.71	86.56
324.939	88.56
325.168	77.56
325.397	74.56
325.626	72.56
325.855	79.56
326.084	94.56
326.313	87.56
326.542	90.56
326.77	98.56
326.999	80.56
327.228	66.56
327.457	91.56
327.686	92.56
327.914	75.56
328.143	87.56
328.372	61.56
328.6	79.56
328.829	91.56
329.058	83.56
329.287	69.56
329.515	91.56
329.744	80.56
329.972	94.56
330.201	90.56
330.43	92.56
330.658	99.56
330.887	78.56
331.115	80.56
331.344	81.56
331.572	84.56
331.801	73.56
332.03	83.56
332.258	80.56
332.486	86.56
332.715	89.56
332.943	68.56
333.172	97.56
333.4	74.56
333.629	98.56
333.857	83.56
334.085	91.56
334.314	71.56
334.542	86.56
334.771	94.56
334.999	77.56
335.227	83.56
335.455	94.56
335.684	96.56
335.912	87.56
336.14	93.56
336.369	75.56
336.597	81.56
336.825	78.56
337.053	80.56
337.281	91.56
337.51	80.56
337.738	80.56
337.966	96.56
338.194	74.56
338.422	78.56
338.65	96.56
338.878	90.56
339.106	84.56
339.334	97.56
339.562	88.56
339.79	86.56
340.018	85.56
340.246	82.56
340.474	72.56
340.702	86.56
340.93	81.56
341.158	92.56
341.386	71.56
341.614	73.56
341.842	73.56
342.07	91.56
342.298	77.56
342.526	88.56
342.754	68.56
342.981	77.56
343.209	70.56
343.437	96.56
343.665	90.56
343.893	90.56
344.12	86.56
344.348	77.56
344.576	86.56
344.804	90.56
345.031	93.56
345.259	66.56
345.487	74.56
345.714	84.56
345.942	89.56
346.17	82.56
346.397	82.56
346.625	87.56
346.853	74.56
347.08	92.56
347.308	80.56
347.535	94.56
347.763	82.56
347.99	72.56
348.218	82.56
348.445	83.56
348.673	84.56
348.9	79.56
349.128	90.56
349.355	79.56
349.583	79.56
349.81	85.56
350.037	86.56
350.265	79.56
350.492	92.56
350.72	86.56
350.947	77.56
351.174	75.56
351.402	93.56
351.629	85.56
351.856	72.56
352.083	93.56
352.311	79.56
352.538	99.56
352.765	89.56
352.992	90.56
353.22	73.56
353.447	94.56
353.674	83.56
353.901	70.56
354.128	85.56
354.355	81.56
354.583	83.56
354.81	77.56
355.037	82.56
355.264	77.56
355.491	79.56
355.718	72.56
355.945	80.56
356.172	91.56
356.399	80.56
356.626	90.56
356.853	82.56
357.08	90.56
357.307	82.56
357.534	80.56
357.761	79.56
357.988	71.56
358.215	90.56
358.441	70.56
358.668	83.56
358.895	80.56
359.122	76.56
359.349	76.56
359.576	83.56
359.802	79.56
360.029	82.56
360.256	69.56
360.483	103.56
360.709	89.56
360.936	80.56
361.163	80.56
361.39	89.56
361.616	88.56
361.843	62.56
362.07	82.56
362.296	93.56
362.523	85.56
362.749	71.56
362.976	78.56
363.203	89.56
363.429	96.56
363.656	83.56
363.882	83.56
364.109	98.56
364.335	72.56
364.562	94.56
364.788	75.56
365.015	84.56
365.241	86.56
365.468	79.56
365.694	62.56
365.92	88.56
366.147	84.56
366.373	78.56
366.599	90.56
366.826	86.56
367.052	91.56
367.278	94.56
367.505	80.56
367.731	88.56
367.957	74.56
368.184	84.56
368.41	79.56
368.636	87.56
368.862	103.56
369.089	90.56
369.315	78.56
369.541	77.56
369.767	68.56
369.993	86.56
370.219	94.56
370.445	83.56
370.672	82.56
370.898	83.56
371.124	87.56
371.35	82.56
371.576	74.56
371.802	77.56
372.028	79.56
372.254	75.56
372.48	86.56
372.706	77.56
372.932	87.56
373.158	79.56
373.384	95.56
373.61	96.56
373.835	88.56
374.061	76.56
374.287	84.56
374.513	75.56
374.739	70.56
374.965	74.56
375.191	74.56
375.416	88.56
375.642	85.56
375.868	76.56
376.094	80.56
376.319	82.56
376.545	78.56
376.771	72.56
376.997	91.56
377.222	83.56
377.448	72.56
377.674	80.56
377.899	92.56
378.125	86.56
378.35	96.56
378.576	79.56
378.802	76.56
379.027	82.56
379.253	84.56
379.478	78.56
379.704	69.56
379.929	70.56
380.155	92.56
380.38	86.56
380.606	84.56
380.831	76.56
381.057	82.56
381.282	88.56
381.507	72.56
381.733	77.56
381.958	87.56
382.184	91.56
382.409	79.56
382.634	71.56
382.86	83.56
383.085	83.56
383.31	79.56
383.535	93.56
383.761	88.56
383.986	78.56
384.211	80.56
384.436	77.56
384.662	85.56
384.887	84.56
385.112	80.56
385.337	80.56
385.562	83.56
385.787	78.56
386.013	74.56
386.238	86.56
386.463	68.56
386.688	98.56
386.913	73.56
387.138	80.56
387.363	87.56
387.588	95.56
387.813	93.56
388.038	86.56
388.263	90.56
388.488	89.56
388.713	76.56
388.938	87.56
389.163	85.56
389.387	67.56
389.612	78.56
389.837	85.56
390.062	84.56
390.287	75.56
390.512	70.56
390.736	83.56
390.961	76.56
391.186	83.56
391.411	78.56
391.636	82.56
391.86	73.56
392.085	88.56
392.31	92.56
392.534	86.56
392.759	76.56
392.984	88.56
393.208	81.56
393.433	74.56
393.658	83.56
393.882	75.56
394.107	103.56
394.331	83.56
394.556	68.56
394.78	83.56
395.005	82.56
395.229	85.56
395.454	97.56
395.678	81.56
395.903	90.56
396.127	95.56
396.352	89.56
396.576	75.56
396.801	73.56
397.025	71.56
397.249	95.56
397.474	92.56
397.698	87.56
397.922	70.56
398.147	84.56
398.371	76.56
398.595	75.56
398.82	75.56
399.044	79.56
399.268	87.56
399.492	84.56
399.717	88.56
399.941	81.56
400.165	87.56
400.389	84.56
400.613	79.56
400.837	86.56
401.062	83.56
401.286	91.56
401.51	85.56
401.734	85.56
401.958	61.56
402.182	87.56
402.406	84.56
402.63	86.56
402.854	84.56
403.078	86.56
403.302	91.56
403.526	71.56
403.75	80.56
403.974	72.56
404.198	88.56
404.422	78.56
404.645	78.56
404.869	80.56
405.093	84.56
405.317	100.56
405.541	85.56
405.765	78.56
405.988	88.56
406.212	62.56
406.436	78.56
406.66	83.56
406.883	73.56
407.107	80.56
407.331	89.56
407.555	86.56
407.778	80.56
408.002	84.56
408.226	74.56
408.449	84.56
408.673	80.56
408.896	94.56
409.12	83.56
409.344	79.56
409.567	73.56
409.791	67.56
410.014	86.56
410.238	82.56
410.461	76.56
410.685	69.56
410.908	74.56
411.132	81.56
411.355	73.56
411.578	85.56
411.802	83.56
412.025	67.56
412.249	77.56
412.472	82.56
412.695	71.56
412.919	84.56
413.142	70.56
413.365	84.56
413.589	84.56
413.812	77.56
414.035	80.56
414.258	79.56
414.482	77.56
414.705	78.56
414.928	90.56
415.151	72.56
415.374	74.56
415.597	83.56
415.821	78.56
416.044	79.56
416.267	88.56
416.49	73.56
416.713	85.56
416.936	82.56
417.159	69.56
417.382	85.56
417.605	75.56
417.828	79.56
418.051	70.56
418.274	86.56
418.497	74.56
418.72	74.56
418.943	72.56
419.166	76.56
419.389	87.56
419.611	80.56
419.834	76.56
420.057	96.56
420.28	82.56
420.503	79.56
420.726	75.56
420.948	87.56
421.171	78.56
421.394	84.56
421.617	79.56
421.839	76.56
422.062	71.56
422.285	88.56
422.507	71.56
422.73	90.56
422.953	94.56
423.175	86.56
423.398	79.56
423.621	83.56
423.843	79.56
424.066	82.56
424.288	88.56
424.511	86.56
424.733	95.56
424.956	87.56
425.178	65.56
425.401	84.56
425.623	78.56
425.846	80.56
426.068	76.56
426.291	82.56
426.513	73.56
426.735	86.56
426.958	87.56
427.18	84.56
427.402	85.56
427.625	73.56
427.847	100.56
428.069	93.56
428.292	88.56
428.514	70.56
428.736	74.56
428.958	84.56
429.181	86.56
429.403	79.56
429.625	72.56
429.847	89.56
430.069	79.56
430.292	92.56
430.514	86.56
430.736	70.56
430.958	73.56
431.18	69.56
431.402	83.56
431.624	91.56
431.846	81.56
432.068	74.56
432.29	76.56
432.512	84.56
432.734	84.56
432.956	83.56
433.178	79.56
433.4	70.56
433.622	83.56
433.844	80.56
434.066	88.56
434.287	79.56
434.509	82.56
434.731	78.56
434.953	82.56
435.175	81.56
435.397	82.56
435.618	85.56
435.84	76.56
436.062	68.56
436.284	78.56
436.505	94.56
436.727	87.56
436.949	71.56
437.17	76.56
437.392	81.56
437.614	96.56
437.835	86.56
438.057	78.56
438.278	87.56
438.5	78.56
438.721	82.56
438.943	81.56
439.165	95.56
439.386	86.56
439.608	88.56
439.829	72.56
440.05	74.56
440.272	78.56
440.493	63.56
440.715	75.56
440.936	88.56
441.158	76.56
441.379	85.56
441.6	98.56
441.822	85.56
442.043	70.56
442.264	72.56
442.486	83.56
442.707	86.56
442.928	69.56
443.149	94.56
443.371	93.56
443.592	82.56
443.813	93.56
444.034	85.56
444.255	83.56
444.476	79.56
444.698	76.56
444.919	83.56
445.14	154.56
445.361	111.56
445.582	78.56
445.803	85.56
446.024	72.56
446.245	85.56
446.466	80.56
446.687	81.56
446.908	76.56
447.129	88.56
447.35	78.56
447.571	80.56
447.792	82.56
448.013	90.56
448.234	90.56
448.455	91.56
448.675	93.56
448.896	90.56
449.117	74.56
449.338	77.56
449.559	83.56
449.779	95.56
450	95.56
450.221	75.56
450.442	84.56
450.662	86.56
450.883	68.56
451.104	73.56
451.324	84.56
451.545	62.56
451.766	72.56
451.986	71.56
452.207	82.56
452.428	84.56
452.648	81.56
452.869	74.56
453.089	77.56
453.31	92.56
453.53	81.56
453.751	74.56
453.971	87.56
454.192	93.56
454.412	79.56
454.633	80.56
454.853	80.56
455.073	80.56
455.294	79.56
455.514	75.56
455.734	82.56
455.955	79.56
456.175	85.56
456.395	87.56
456.616	84.56
456.836	83.56
457.056	82.56
457.276	58.56
457.497	78.56
457.717	77.56
457.937	69.56
458.157	70.56
458.377	83.56
458.598	82.56
458.818	81.56
459.038	85.56
459.258	75.56
459.478	74.56
459.698	69.56
459.918	69.56
460.138	73.56
460.358	78.56
460.578	71.56
460.798	79.56
461.018	87.56
461.238	82.56
461.458	77.56
461.678	78.56
461.898	73.56
462.118	99.56
462.338	83.56
462.558	86.56
462.777	86.56
462.997	71.56
463.217	78.56
463.437	80.56
463.657	77.56
463.876	77.56
464.096	85.56
464.316	89.56
464.536	84.56
464.755	91.56
464.975	86.56
465.195	79.56
465.414	86.56
465.634	76.56
465.854	80.56
466.073	76.56
466.293	83.56
466.512	70.56
466.732	60.56
466.951	80.56
467.171	68.56
467.391	71.56
467.61	81.56
467.829	89.56
468.049	77.56
468.268	86.56
468.488	64.56
468.707	79.56
468.927	76.56
469.146	83.56
469.365	95.56
469.585	79.56
469.804	69.56
470.023	73.56
470.243	77.56
470.462	70.56
470.681	81.56
470.901	75.56
471.12	72.56
471.339	94.56
471.558	79.56
471.777	74.56
471.997	87.56
472.216	87.56
472.435	87.56
472.654	84.56
472.873	70.56
473.092	86.56
473.311	82.56
473.53	69.56
473.749	87.56
473.968	81.56
474.187	82.56
474.406	96.56
474.625	82.56
474.844	61.56
475.063	75.56
475.282	73.56
475.501	77.56
475.72	88.56
475.939	73.56
476.158	79.56
476.377	69.56
476.596	72.56
476.814	74.56
477.033	87.56
477.252	78.56
477.471	89.56
477.69	92.56
477.908	90.56
478.127	85.56
478.346	73.56
478.564	88.56
478.783	75.56
479.002	91.56
479.22	75.56
479.439	89.56
479.658	76.56
479.876	76.56
480.095	76.56
480.313	83.56
480.532	93.56
480.751	72.56
480.969	86.56
481.188	80.56
481.406	101.56
481.624	76.56
481.843	88.56
482.061	71.56
482.28	71.56
482.498	77.56
482.717	90.56
482.935	84.56
483.153	74.56
483.372	76.56
483.59	72.56
483.808	74.56
484.027	93.56
484.245	84.56
484.463	77.56
484.681	93.56
484.9	86.56
485.118	103.56
485.336	86.56
485.554	84.56
485.772	80.56
485.99	84.56
486.209	75.56
486.427	81.56
486.645	89.56
486.863	87.56
487.081	84.56
487.299	84.56
487.517	74.56
487.735	92.56
487.953	93.56
488.171	84.56
488.389	79.56
488.607	72.56
488.825	67.56
489.043	84.56
489.261	92.56
489.479	88.56
489.696	84.56
489.914	79.56
490.132	88.56
490.35	89.56
490.568	81.56
490.786	74.56
491.003	83.56
491.221	76.56
491.439	85.56
491.657	76.56
491.874	78.56
492.092	96.56
492.31	92.56
492.527	76.56
492.745	82.56
492.963	73.56
493.18	67.56
493.398	73.56
493.615	63.56
493.833	80.56
494.05	84.56
494.268	86.56
494.485	82.56
494.703	76.56
494.92	81.56
495.138	82.56
495.355	88.56
495.573	83.56
495.79	88.56
496.008	86.56
496.225	92.56
496.442	74.56
496.66	87.56
496.877	82.56
497.094	90.56
497.312	79.56
497.529	75.56
497.746	75.56
497.963	73.56
498.181	79.56
498.398	71.56
498.615	74.56
498.832	74.56
499.049	87.56
499.267	91.56
499.484	85.56
499.701	82.56
499.918	87.56
500.135	79.56
500.352	81.56
500.569	89.56
500.786	75.56
501.003	95.56
501.22	79.56
501.437	85.56
501.654	67.56
501.871	75.56
502.088	78.56
502.305	78.56
502.522	79.56
502.739	87.56
502.956	78.56
503.172	69.56
503.389	86.56
503.606	72.56
503.823	70.56
504.04	86.56
504.256	96.56
504.473	75.56
504.69	77.56
504.907	78.56
505.123	70.56
505.34	72.56
505.557	82.56
505.773	72.56
505.99	74.56
506.207	74.56
506.423	70.56
506.64	79.56
506.856	76.56
507.073	76.56
507.289	87.56
507.506	80.56
507.722	79.56
507.939	99.56
508.155	80.56
508.372	76.56
508.588	89.56
508.805	86.56
509.021	83.56
509.238	87.56
509.454	73.56
509.67	89.56
509.887	84.56
510.103	88.56
510.319	69.56
510.536	87.56
510.752	85.56
510.968	90.56
511.184	85.56
511.401	77.56
511.617	70.56
511.833	68.56
512.049	99.56
512.265	74.56
512.481	98.56
512.698	78.56
512.914	74.56
513.13	77.56
513.346	71.56
513.562	73.56
513.778	76.56
513.994	62.56
514.21	84.56
514.426	87.56
514.642	90.56
514.858	70.56
515.074	73.56
515.29	87.56
515.506	70.56
515.721	86.56
515.937	85.56
516.153	75.56
516.369	77.56
516.585	79.56
516.801	78.56
517.016	72.56
517.232	90.56
517.448	94.56
517.664	89.56
517.879	68.56
518.095	78.56
518.311	82.56
518.527	90.56
518.742	81.56
518.958	84.56
519.173	83.56
519.389	81.56
519.605	78.56
519.82	86.56
520.036	77.56
