Data from Dirtheat1_HRD10591_00006.txt Node
Date: Fri Dec 27 15:13:29 EST 2024
User: Yrep
Spectrometer: HR+D1059
Trigger mode: 1
Integration Time (sec): 1.000000E-1
Scans to average: 1
Electric dark correction enabled: true
Nonlinearity correction enabled: false
Boxcar width: 0
XAxis mode: Wavelengths
Number of Pixels in Spectrum: 2048
>>>>>Begin Spectral Data<<<<<
223.165	0.44
223.4	0.44
223.635	0.44
223.869	-9.56
224.104	-26.56
224.338	-15.56
224.573	-15.56
224.808	-20.56
225.042	-0.56
225.277	-2.56
225.511	6.44
225.746	5.44
225.98	4.44
226.215	4.44
226.449	-0.56
226.683	25.44
226.918	20.44
227.152	24.44
227.387	39.44
227.621	52.44
227.856	42.44
228.09	45.44
228.324	49.44
228.559	35.44
228.793	51.44
229.027	59.44
229.262	71.44
229.496	55.44
229.73	61.44
229.964	60.44
230.199	66.44
230.433	74.44
230.667	75.44
230.901	81.44
231.136	82.44
231.37	83.44
231.604	89.44
231.838	89.44
232.072	73.44
232.306	78.44
232.541	94.44
232.775	84.44
233.009	83.44
233.243	73.44
233.477	83.44
233.711	87.44
233.945	79.44
234.179	91.44
234.413	80.44
234.647	84.44
234.881	74.44
235.115	103.44
235.349	78.44
235.583	86.44
235.817	80.44
236.051	79.44
236.285	72.44
236.519	86.44
236.753	83.44
236.987	81.44
237.221	76.44
237.455	81.44
237.689	79.44
237.922	75.44
238.156	69.44
238.39	49.44
238.624	85.44
238.858	88.44
239.091	74.44
239.325	69.44
239.559	64.44
239.793	81.44
240.027	73.44
240.26	78.44
240.494	90.44
240.728	83.44
240.961	76.44
241.195	80.44
241.429	84.44
241.662	79.44
241.896	80.44
242.13	66.44
242.363	73.44
242.597	79.44
242.83	84.44
243.064	86.44
243.298	87.44
243.531	73.44
243.765	84.44
243.998	90.44
244.232	76.44
244.465	67.44
244.699	76.44
244.932	82.44
245.166	87.44
245.399	81.44
245.633	70.44
245.866	80.44
246.099	91.44
246.333	82.44
246.566	82.44
246.8	86.44
247.033	81.44
247.266	87.44
247.5	72.44
247.733	68.44
247.966	100.44
248.2	80.44
248.433	70.44
248.666	78.44
248.899	84.44
249.133	61.44
249.366	81.44
249.599	73.44
249.832	72.44
250.066	91.44
250.299	78.44
250.532	90.44
250.765	83.44
250.998	68.44
251.231	89.44
251.465	87.44
251.698	75.44
251.931	85.44
252.164	70.44
252.397	77.44
252.63	73.44
252.863	82.44
253.096	79.44
253.329	80.44
253.562	76.44
253.795	76.44
254.028	87.44
254.261	94.44
254.494	85.44
254.727	76.44
254.96	78.44
255.193	77.44
255.426	85.44
255.659	67.44
255.892	90.44
256.124	76.44
256.357	85.44
256.59	86.44
256.823	92.44
257.056	83.44
257.289	81.44
257.521	76.44
257.754	88.44
257.987	89.44
258.22	75.44
258.452	80.44
258.685	74.44
258.918	87.44
259.151	83.44
259.383	90.44
259.616	81.44
259.849	80.44
260.081	78.44
260.314	84.44
260.547	73.44
260.779	79.44
261.012	96.44
261.244	82.44
261.477	85.44
261.71	76.44
261.942	83.44
262.175	85.44
262.407	79.44
262.64	70.44
262.872	72.44
263.105	79.44
263.337	83.44
263.57	92.44
263.802	88.44
264.035	81.44
264.267	87.44
264.499	78.44
264.732	93.44
264.964	87.44
265.197	90.44
265.429	87.44
265.661	82.44
265.894	81.44
266.126	104.44
266.358	72.44
266.591	77.44
266.823	83.44
267.055	97.44
267.287	77.44
267.52	79.44
267.752	98.44
267.984	81.44
268.216	75.44
268.448	87.44
268.681	87.44
268.913	73.44
269.145	89.44
269.377	81.44
269.609	79.44
269.841	84.44
270.073	82.44
270.306	72.44
270.538	93.44
270.77	94.44
271.002	93.44
271.234	75.44
271.466	87.44
271.698	83.44
271.93	75.44
272.162	81.44
272.394	82.44
272.626	90.44
272.858	81.44
273.09	81.44
273.322	89.44
273.553	99.44
273.785	80.44
274.017	70.44
274.249	96.44
274.481	104.44
274.713	81.44
274.945	85.44
275.176	77.44
275.408	87.44
275.64	87.44
275.872	78.44
276.104	77.44
276.335	72.44
276.567	83.44
276.799	84.44
277.031	88.44
277.262	81.44
277.494	89.44
277.726	86.44
277.957	88.44
278.189	75.44
278.421	82.44
278.652	84.44
278.884	95.44
279.115	79.44
279.347	89.44
279.579	79.44
279.81	78.44
280.042	82.44
280.273	74.44
280.505	80.44
280.736	88.44
280.968	85.44
281.199	75.44
281.431	85.44
281.662	90.44
281.894	94.44
282.125	86.44
282.356	77.44
282.588	83.44
282.819	76.44
283.051	91.44
283.282	79.44
283.513	78.44
283.745	81.44
283.976	88.44
284.207	90.44
284.439	88.44
284.67	89.44
284.901	89.44
285.132	82.44
285.364	80.44
285.595	89.44
285.826	80.44
286.057	87.44
286.288	78.44
286.52	89.44
286.751	85.44
286.982	81.44
287.213	80.44
287.444	83.44
287.675	76.44
287.906	93.44
288.138	91.44
288.369	92.44
288.6	86.44
288.831	89.44
289.062	80.44
289.293	86.44
289.524	88.44
289.755	88.44
289.986	83.44
290.217	82.44
290.448	79.44
290.679	80.44
290.91	101.44
291.141	87.44
291.371	92.44
291.602	91.44
291.833	89.44
292.064	86.44
292.295	90.44
292.526	87.44
292.757	82.44
292.987	87.44
293.218	89.44
293.449	84.44
293.68	84.44
293.91	74.44
294.141	95.44
294.372	84.44
294.603	84.44
294.833	82.44
295.064	86.44
295.295	73.44
295.525	81.44
295.756	85.44
295.987	88.44
296.217	95.44
296.448	81.44
296.679	89.44
296.909	93.44
297.14	79.44
297.37	80.44
297.601	85.44
297.831	79.44
298.062	89.44
298.292	86.44
298.523	83.44
298.753	85.44
298.984	90.44
299.214	87.44
299.445	93.44
299.675	82.44
299.905	83.44
300.136	88.44
300.366	77.44
300.597	77.44
300.827	89.44
301.057	79.44
301.288	76.44
301.518	91.44
301.748	85.44
301.979	105.44
302.209	86.44
302.439	99.44
302.669	81.44
302.9	92.44
303.13	75.44
303.36	94.44
303.59	85.44
303.82	82.44
304.051	98.44
304.281	91.44
304.511	83.44
304.741	83.44
304.971	87.44
305.201	98.44
305.431	90.44
305.661	75.44
305.891	94.44
306.121	79.44
306.352	84.44
306.582	75.44
306.812	90.44
307.042	79.44
307.272	84.44
307.502	80.44
307.731	80.44
307.961	78.44
308.191	91.44
308.421	82.44
308.651	91.44
308.881	89.44
309.111	99.44
309.341	88.44
309.571	87.44
309.8	89.44
310.03	94.44
310.26	89.44
310.49	88.44
310.72	88.44
310.949	82.44
311.179	83.44
311.409	82.44
311.639	102.44
311.868	86.44
312.098	94.44
312.328	86.44
312.557	85.44
312.787	93.44
313.017	100.44
313.246	83.44
313.476	86.44
313.706	83.44
313.935	85.44
314.165	94.44
314.394	87.44
314.624	87.44
314.853	82.44
315.083	77.44
315.312	92.44
315.542	80.44
315.771	76.44
316.001	89.44
316.23	90.44
316.46	85.44
316.689	84.44
316.919	105.44
317.148	88.44
317.377	82.44
317.607	99.44
317.836	87.44
318.065	86.44
318.295	80.44
318.524	91.44
318.753	89.44
318.983	102.44
319.212	73.44
319.441	89.44
319.67	92.44
319.9	98.44
320.129	85.44
320.358	84.44
320.587	79.44
320.816	75.44
321.046	79.44
321.275	88.44
321.504	83.44
321.733	86.44
321.962	76.44
322.191	83.44
322.42	90.44
322.649	95.44
322.878	92.44
323.108	94.44
323.337	90.44
323.566	98.44
323.795	91.44
324.024	87.44
324.253	87.44
324.482	70.44
324.71	79.44
324.939	89.44
325.168	93.44
325.397	94.44
325.626	86.44
325.855	83.44
326.084	80.44
326.313	86.44
326.542	78.44
326.77	103.44
326.999	82.44
327.228	87.44
327.457	79.44
327.686	86.44
327.914	86.44
328.143	110.44
328.372	94.44
328.6	78.44
328.829	86.44
329.058	76.44
329.287	87.44
329.515	79.44
329.744	94.44
329.972	91.44
330.201	98.44
330.43	82.44
330.658	75.44
330.887	80.44
331.115	91.44
331.344	86.44
331.572	82.44
331.801	92.44
332.03	77.44
332.258	81.44
332.486	78.44
332.715	91.44
332.943	81.44
333.172	81.44
333.4	86.44
333.629	84.44
333.857	81.44
334.085	97.44
334.314	71.44
334.542	95.44
334.771	79.44
334.999	91.44
335.227	76.44
335.455	82.44
335.684	95.44
335.912	84.44
336.14	93.44
336.369	79.44
336.597	87.44
336.825	78.44
337.053	102.44
337.281	80.44
337.51	75.44
337.738	87.44
337.966	93.44
338.194	86.44
338.422	87.44
338.65	102.44
338.878	95.44
339.106	82.44
339.334	97.44
339.562	89.44
339.79	89.44
340.018	88.44
340.246	92.44
340.474	91.44
340.702	87.44
340.93	80.44
341.158	90.44
341.386	77.44
341.614	90.44
341.842	73.44
342.07	81.44
342.298	77.44
342.526	78.44
342.754	85.44
342.981	96.44
343.209	86.44
343.437	114.44
343.665	89.44
343.893	84.44
344.12	81.44
344.348	88.44
344.576	90.44
344.804	96.44
345.031	93.44
345.259	88.44
345.487	86.44
345.714	82.44
345.942	95.44
346.17	87.44
346.397	79.44
346.625	81.44
346.853	83.44
347.08	78.44
347.308	82.44
347.535	78.44
347.763	89.44
347.99	79.44
348.218	89.44
348.445	93.44
348.673	76.44
348.9	76.44
349.128	84.44
349.355	96.44
349.583	93.44
349.81	72.44
350.037	83.44
350.265	97.44
350.492	88.44
350.72	87.44
350.947	72.44
351.174	87.44
351.402	76.44
351.629	95.44
351.856	89.44
352.083	83.44
352.311	96.44
352.538	62.44
352.765	80.44
352.992	90.44
353.22	88.44
353.447	99.44
353.674	84.44
353.901	84.44
354.128	82.44
354.355	71.44
354.583	88.44
354.81	88.44
355.037	87.44
355.264	87.44
355.491	75.44
355.718	81.44
355.945	75.44
356.172	91.44
356.399	83.44
356.626	80.44
356.853	81.44
357.08	86.44
357.307	92.44
357.534	77.44
357.761	88.44
357.988	70.44
358.215	79.44
358.441	75.44
358.668	75.44
358.895	68.44
359.122	88.44
359.349	84.44
359.576	70.44
359.802	85.44
360.029	80.44
360.256	91.44
360.483	80.44
360.709	97.44
360.936	99.44
361.163	74.44
361.39	96.44
361.616	83.44
361.843	88.44
362.07	90.44
362.296	103.44
362.523	92.44
362.749	91.44
362.976	83.44
363.203	86.44
363.429	84.44
363.656	97.44
363.882	97.44
364.109	93.44
364.335	94.44
364.562	80.44
364.788	80.44
365.015	87.44
365.241	94.44
365.468	97.44
365.694	68.44
365.92	92.44
366.147	85.44
366.373	80.44
366.599	81.44
366.826	82.44
367.052	94.44
367.278	96.44
367.505	90.44
367.731	100.44
367.957	94.44
368.184	83.44
368.41	74.44
368.636	79.44
368.862	81.44
369.089	86.44
369.315	84.44
369.541	96.44
369.767	81.44
369.993	87.44
370.219	90.44
370.445	83.44
370.672	81.44
370.898	90.44
371.124	83.44
371.35	77.44
371.576	84.44
371.802	91.44
372.028	86.44
372.254	74.44
372.48	92.44
372.706	90.44
372.932	90.44
373.158	99.44
373.384	82.44
373.61	98.44
373.835	92.44
374.061	97.44
374.287	79.44
374.513	82.44
374.739	85.44
374.965	87.44
375.191	94.44
375.416	83.44
375.642	84.44
375.868	104.44
376.094	80.44
376.319	74.44
376.545	67.44
376.771	83.44
376.997	77.44
377.222	85.44
377.448	89.44
377.674	77.44
377.899	84.44
378.125	82.44
378.35	79.44
378.576	73.44
378.802	86.44
379.027	81.44
379.253	83.44
379.478	78.44
379.704	87.44
379.929	89.44
380.155	76.44
380.38	86.44
380.606	88.44
380.831	84.44
381.057	92.44
381.282	74.44
381.507	92.44
381.733	79.44
381.958	84.44
382.184	81.44
382.409	85.44
382.634	92.44
382.86	81.44
383.085	78.44
383.31	68.44
383.535	86.44
383.761	84.44
383.986	74.44
384.211	91.44
384.436	76.44
384.662	81.44
384.887	86.44
385.112	80.44
385.337	78.44
385.562	81.44
385.787	91.44
386.013	83.44
386.238	86.44
386.463	75.44
386.688	77.44
386.913	73.44
387.138	75.44
387.363	71.44
387.588	98.44
387.813	89.44
388.038	96.44
388.263	81.44
388.488	89.44
388.713	83.44
388.938	85.44
389.163	81.44
389.387	75.44
389.612	82.44
389.837	84.44
390.062	84.44
390.287	93.44
390.512	77.44
390.736	80.44
390.961	89.44
391.186	81.44
391.411	86.44
391.636	94.44
391.86	75.44
392.085	74.44
392.31	82.44
392.534	87.44
392.759	81.44
392.984	80.44
393.208	75.44
393.433	82.44
393.658	80.44
393.882	80.44
394.107	87.44
394.331	92.44
394.556	97.44
394.78	95.44
395.005	91.44
395.229	92.44
395.454	93.44
395.678	94.44
395.903	76.44
396.127	74.44
396.352	91.44
396.576	88.44
396.801	96.44
397.025	89.44
397.249	87.44
397.474	94.44
397.698	83.44
397.922	91.44
398.147	89.44
398.371	89.44
398.595	84.44
398.82	80.44
399.044	78.44
399.268	87.44
399.492	82.44
399.717	92.44
399.941	78.44
400.165	78.44
400.389	73.44
400.613	76.44
400.837	89.44
401.062	81.44
401.286	65.44
401.51	93.44
401.734	78.44
401.958	82.44
402.182	97.44
402.406	65.44
402.63	79.44
402.854	83.44
403.078	78.44
403.302	77.44
403.526	80.44
403.75	71.44
403.974	82.44
404.198	79.44
404.422	83.44
404.645	95.44
404.869	95.44
405.093	80.44
405.317	78.44
405.541	93.44
405.765	68.44
405.988	79.44
406.212	80.44
406.436	91.44
406.66	83.44
406.883	86.44
407.107	82.44
407.331	80.44
407.555	81.44
407.778	83.44
408.002	85.44
408.226	81.44
408.449	89.44
408.673	74.44
408.896	93.44
409.12	75.44
409.344	87.44
409.567	83.44
409.791	77.44
410.014	87.44
410.238	69.44
410.461	80.44
410.685	87.44
410.908	75.44
411.132	98.44
411.355	86.44
411.578	90.44
411.802	73.44
412.025	85.44
412.249	71.44
412.472	85.44
412.695	81.44
412.919	72.44
413.142	87.44
413.365	88.44
413.589	79.44
413.812	82.44
414.035	91.44
414.258	92.44
414.482	89.44
414.705	75.44
414.928	84.44
415.151	87.44
415.374	79.44
415.597	73.44
415.821	81.44
416.044	81.44
416.267	92.44
416.49	78.44
416.713	88.44
416.936	87.44
417.159	91.44
417.382	82.44
417.605	72.44
417.828	95.44
418.051	83.44
418.274	73.44
418.497	81.44
418.72	79.44
418.943	88.44
419.166	85.44
419.389	87.44
419.611	83.44
419.834	91.44
420.057	93.44
420.28	82.44
420.503	81.44
420.726	90.44
420.948	71.44
421.171	79.44
421.394	74.44
421.617	91.44
421.839	75.44
422.062	94.44
422.285	94.44
422.507	93.44
422.73	105.44
422.953	104.44
423.175	89.44
423.398	78.44
423.621	93.44
423.843	80.44
424.066	81.44
424.288	76.44
424.511	86.44
424.733	83.44
424.956	80.44
425.178	86.44
425.401	88.44
425.623	90.44
425.846	80.44
426.068	75.44
426.291	73.44
426.513	82.44
426.735	89.44
426.958	78.44
427.18	86.44
427.402	83.44
427.625	71.44
427.847	89.44
428.069	80.44
428.292	86.44
428.514	88.44
428.736	79.44
428.958	82.44
429.181	95.44
429.403	63.44
429.625	75.44
429.847	78.44
430.069	89.44
430.292	89.44
430.514	79.44
430.736	86.44
430.958	78.44
431.18	92.44
431.402	91.44
431.624	77.44
431.846	90.44
432.068	92.44
432.29	75.44
432.512	84.44
432.734	61.44
432.956	77.44
433.178	75.44
433.4	97.44
433.622	78.44
433.844	91.44
434.066	85.44
434.287	83.44
434.509	85.44
434.731	82.44
434.953	67.44
435.175	73.44
435.397	90.44
435.618	87.44
435.84	95.44
436.062	83.44
436.284	82.44
436.505	82.44
436.727	91.44
436.949	93.44
437.17	92.44
437.392	89.44
437.614	92.44
437.835	91.44
438.057	79.44
438.278	78.44
438.5	97.44
438.721	83.44
438.943	73.44
439.165	86.44
439.386	81.44
439.608	83.44
439.829	70.44
440.05	78.44
440.272	87.44
440.493	78.44
440.715	83.44
440.936	93.44
441.158	89.44
441.379	75.44
441.6	84.44
441.822	81.44
442.043	82.44
442.264	80.44
442.486	77.44
442.707	90.44
442.928	75.44
443.149	67.44
443.371	91.44
443.592	90.44
443.813	96.44
444.034	78.44
444.255	92.44
444.476	83.44
444.698	86.44
444.919	74.44
445.14	137.44
445.361	115.44
445.582	92.44
445.803	93.44
446.024	86.44
446.245	77.44
446.466	86.44
446.687	75.44
446.908	75.44
447.129	78.44
447.35	86.44
447.571	82.44
447.792	92.44
448.013	92.44
448.234	95.44
448.455	74.44
448.675	72.44
448.896	82.44
449.117	77.44
449.338	90.44
449.559	94.44
449.779	92.44
450	95.44
450.221	70.44
450.442	74.44
450.662	66.44
450.883	86.44
451.104	78.44
451.324	79.44
451.545	74.44
451.766	79.44
451.986	82.44
452.207	80.44
452.428	90.44
452.648	91.44
452.869	85.44
453.089	73.44
453.31	86.44
453.53	88.44
453.751	78.44
453.971	61.44
454.192	80.44
454.412	93.44
454.633	88.44
454.853	86.44
455.073	65.44
455.294	77.44
455.514	91.44
455.734	96.44
455.955	86.44
456.175	86.44
456.395	75.44
456.616	76.44
456.836	88.44
457.056	83.44
457.276	91.44
457.497	84.44
457.717	71.44
457.937	74.44
458.157	78.44
458.377	85.44
458.598	87.44
458.818	76.44
459.038	73.44
459.258	81.44
459.478	73.44
459.698	72.44
459.918	72.44
460.138	82.44
460.358	81.44
460.578	88.44
460.798	88.44
461.018	82.44
461.238	83.44
461.458	76.44
461.678	82.44
461.898	85.44
462.118	93.44
462.338	79.44
462.558	93.44
462.777	90.44
462.997	72.44
463.217	87.44
463.437	92.44
463.657	75.44
463.876	80.44
464.096	105.44
464.316	96.44
464.536	87.44
464.755	85.44
464.975	86.44
465.195	84.44
465.414	83.44
465.634	91.44
465.854	73.44
466.073	70.44
466.293	80.44
466.512	73.44
466.732	76.44
466.951	79.44
467.171	81.44
467.391	74.44
467.61	94.44
467.829	87.44
468.049	76.44
468.268	91.44
468.488	80.44
468.707	86.44
468.927	83.44
469.146	72.44
469.365	75.44
469.585	94.44
469.804	80.44
470.023	78.44
470.243	95.44
470.462	84.44
470.681	88.44
470.901	66.44
471.12	68.44
471.339	86.44
471.558	78.44
471.777	77.44
471.997	81.44
472.216	78.44
472.435	82.44
472.654	90.44
472.873	86.44
473.092	82.44
473.311	93.44
473.53	79.44
473.749	90.44
473.968	88.44
474.187	86.44
474.406	66.44
474.625	74.44
474.844	88.44
475.063	80.44
475.282	78.44
475.501	87.44
475.72	97.44
475.939	86.44
476.158	68.44
476.377	79.44
476.596	90.44
476.814	96.44
477.033	87.44
477.252	88.44
477.471	84.44
477.69	74.44
477.908	88.44
478.127	79.44
478.346	86.44
478.564	83.44
478.783	86.44
479.002	88.44
479.22	88.44
479.439	93.44
479.658	86.44
479.876	85.44
480.095	87.44
480.313	90.44
480.532	80.44
480.751	84.44
480.969	84.44
481.188	81.44
481.406	94.44
481.624	75.44
481.843	69.44
482.061	81.44
482.28	79.44
482.498	93.44
482.717	81.44
482.935	75.44
483.153	80.44
483.372	90.44
483.59	92.44
483.808	87.44
484.027	103.44
484.245	83.44
484.463	87.44
484.681	84.44
484.9	81.44
485.118	75.44
485.336	77.44
485.554	73.44
485.772	90.44
485.99	93.44
486.209	81.44
486.427	88.44
486.645	88.44
486.863	73.44
487.081	86.44
487.299	83.44
487.517	91.44
487.735	86.44
487.953	88.44
488.171	88.44
488.389	87.44
488.607	81.44
488.825	71.44
489.043	76.44
489.261	75.44
489.479	79.44
489.696	95.44
489.914	79.44
490.132	73.44
490.35	85.44
490.568	79.44
490.786	89.44
491.003	76.44
491.221	92.44
491.439	90.44
491.657	99.44
491.874	88.44
492.092	88.44
492.31	99.44
492.527	87.44
492.745	82.44
492.963	90.44
493.18	84.44
493.398	91.44
493.615	84.44
493.833	78.44
494.05	77.44
494.268	74.44
494.485	92.44
494.703	96.44
494.92	78.44
495.138	80.44
495.355	98.44
495.573	80.44
495.79	72.44
496.008	85.44
496.225	87.44
496.442	85.44
496.66	77.44
496.877	84.44
497.094	93.44
497.312	82.44
497.529	75.44
497.746	75.44
497.963	86.44
498.181	87.44
498.398	91.44
498.615	82.44
498.832	81.44
499.049	90.44
499.267	84.44
499.484	82.44
499.701	82.44
499.918	86.44
500.135	74.44
500.352	75.44
500.569	77.44
500.786	86.44
501.003	86.44
501.22	81.44
501.437	88.44
501.654	90.44
501.871	79.44
502.088	90.44
502.305	97.44
502.522	80.44
502.739	94.44
502.956	73.44
503.172	80.44
503.389	95.44
503.606	91.44
503.823	76.44
504.04	78.44
504.256	92.44
504.473	104.44
504.69	82.44
504.907	99.44
505.123	86.44
505.34	67.44
505.557	76.44
505.773	84.44
505.99	90.44
506.207	85.44
506.423	81.44
506.64	75.44
506.856	81.44
507.073	84.44
507.289	93.44
507.506	86.44
507.722	80.44
507.939	89.44
508.155	99.44
508.372	90.44
508.588	92.44
508.805	88.44
509.021	92.44
509.238	88.44
509.454	78.44
509.67	86.44
509.887	85.44
510.103	71.44
510.319	76.44
510.536	87.44
510.752	88.44
510.968	91.44
511.184	91.44
511.401	84.44
511.617	69.44
511.833	80.44
512.049	78.44
512.265	76.44
512.481	95.44
512.698	78.44
512.914	89.44
513.13	90.44
513.346	75.44
513.562	94.44
513.778	96.44
513.994	79.44
514.21	92.44
514.426	87.44
514.642	91.44
514.858	91.44
515.074	105.44
515.29	98.44
515.506	93.44
515.721	72.44
515.937	90.44
516.153	92.44
516.369	91.44
516.585	79.44
516.801	80.44
517.016	91.44
517.232	89.44
517.448	107.44
517.664	98.44
517.879	86.44
518.095	91.44
518.311	78.44
518.527	94.44
518.742	83.44
518.958	79.44
519.173	91.44
519.389	79.44
519.605	84.44
519.82	97.44
520.036	87.44
