Data from Dirtheat1_HRD10591_00002.txt Node
Date: Fri Dec 27 15:13:26 EST 2024
User: Yrep
Spectrometer: HR+D1059
Trigger mode: 1
Integration Time (sec): 1.000000E-1
Scans to average: 1
Electric dark correction enabled: true
Nonlinearity correction enabled: false
Boxcar width: 0
XAxis mode: Wavelengths
Number of Pixels in Spectrum: 2048
>>>>>Begin Spectral Data<<<<<
223.165	0.69
223.4	0.69
223.635	0.69
223.869	-20.31
224.104	-27.31
224.338	-20.31
224.573	-11.31
224.808	-5.31
225.042	-7.31
225.277	5.69
225.511	-8.31
225.746	-7.31
225.98	8.69
226.215	15.69
226.449	19.69
226.683	9.69
226.918	11.69
227.152	35.69
227.387	43.69
227.621	35.69
227.856	41.69
228.09	39.69
228.324	48.69
228.559	46.69
228.793	63.69
229.027	75.69
229.262	59.69
229.496	73.69
229.73	76.69
229.964	66.69
230.199	76.69
230.433	66.69
230.667	78.69
230.901	87.69
231.136	85.69
231.37	68.69
231.604	78.69
231.838	84.69
232.072	80.69
232.306	81.69
232.541	82.69
232.775	80.69
233.009	92.69
233.243	79.69
233.477	100.69
233.711	84.69
233.945	77.69
234.179	77.69
234.413	83.69
234.647	86.69
234.881	84.69
235.115	71.69
235.349	88.69
235.583	83.69
235.817	90.69
236.051	80.69
236.285	75.69
236.519	68.69
236.753	80.69
236.987	83.69
237.221	76.69
237.455	77.69
237.689	75.69
237.922	72.69
238.156	77.69
238.39	83.69
238.624	82.69
238.858	80.69
239.091	76.69
239.325	81.69
239.559	74.69
239.793	76.69
240.027	83.69
240.26	87.69
240.494	79.69
240.728	75.69
240.961	80.69
241.195	77.69
241.429	73.69
241.662	81.69
241.896	77.69
242.13	78.69
242.363	79.69
242.597	65.69
242.83	86.69
243.064	87.69
243.298	82.69
243.531	80.69
243.765	67.69
243.998	72.69
244.232	82.69
244.465	80.69
244.699	80.69
244.932	69.69
245.166	82.69
245.399	87.69
245.633	79.69
245.866	66.69
246.099	77.69
246.333	60.69
246.566	72.69
246.8	89.69
247.033	86.69
247.266	80.69
247.5	81.69
247.733	74.69
247.966	71.69
248.2	87.69
248.433	76.69
248.666	70.69
248.899	83.69
249.133	84.69
249.366	83.69
249.599	79.69
249.832	76.69
250.066	87.69
250.299	93.69
250.532	68.69
250.765	75.69
250.998	89.69
251.231	77.69
251.465	91.69
251.698	91.69
251.931	81.69
252.164	76.69
252.397	69.69
252.63	78.69
252.863	76.69
253.096	85.69
253.329	91.69
253.562	72.69
253.795	85.69
254.028	87.69
254.261	84.69
254.494	77.69
254.727	81.69
254.96	78.69
255.193	97.69
255.426	79.69
255.659	61.69
255.892	88.69
256.124	71.69
256.357	75.69
256.59	79.69
256.823	73.69
257.056	92.69
257.289	80.69
257.521	84.69
257.754	72.69
257.987	80.69
258.22	73.69
258.452	70.69
258.685	60.69
258.918	80.69
259.151	88.69
259.383	94.69
259.616	74.69
259.849	85.69
260.081	87.69
260.314	70.69
260.547	92.69
260.779	83.69
261.012	97.69
261.244	84.69
261.477	87.69
261.71	82.69
261.942	90.69
262.175	83.69
262.407	83.69
262.64	76.69
262.872	74.69
263.105	95.69
263.337	87.69
263.57	76.69
263.802	76.69
264.035	84.69
264.267	86.69
264.499	79.69
264.732	90.69
264.964	69.69
265.197	83.69
265.429	88.69
265.661	77.69
265.894	89.69
266.126	100.69
266.358	82.69
266.591	81.69
266.823	74.69
267.055	76.69
267.287	78.69
267.52	77.69
267.752	82.69
267.984	84.69
268.216	68.69
268.448	90.69
268.681	91.69
268.913	103.69
269.145	85.69
269.377	85.69
269.609	80.69
269.841	88.69
270.073	97.69
270.306	80.69
270.538	68.69
270.77	84.69
271.002	91.69
271.234	97.69
271.466	94.69
271.698	81.69
271.93	78.69
272.162	86.69
272.394	86.69
272.626	75.69
272.858	93.69
273.09	90.69
273.322	89.69
273.553	83.69
273.785	86.69
274.017	73.69
274.249	86.69
274.481	84.69
274.713	89.69
274.945	94.69
275.176	81.69
275.408	96.69
275.64	69.69
275.872	83.69
276.104	85.69
276.335	78.69
276.567	80.69
276.799	81.69
277.031	100.69
277.262	91.69
277.494	97.69
277.726	70.69
277.957	79.69
278.189	77.69
278.421	85.69
278.652	84.69
278.884	64.69
279.115	81.69
279.347	83.69
279.579	92.69
279.81	90.69
280.042	73.69
280.273	86.69
280.505	83.69
280.736	92.69
280.968	97.69
281.199	91.69
281.431	76.69
281.662	91.69
281.894	71.69
282.125	92.69
282.356	81.69
282.588	71.69
282.819	84.69
283.051	73.69
283.282	88.69
283.513	76.69
283.745	87.69
283.976	86.69
284.207	92.69
284.439	80.69
284.67	78.69
284.901	96.69
285.132	79.69
285.364	77.69
285.595	85.69
285.826	81.69
286.057	79.69
286.288	75.69
286.52	81.69
286.751	81.69
286.982	76.69
287.213	69.69
287.444	73.69
287.675	78.69
287.906	79.69
288.138	82.69
288.369	85.69
288.6	81.69
288.831	90.69
289.062	78.69
289.293	77.69
289.524	96.69
289.755	88.69
289.986	85.69
290.217	82.69
290.448	74.69
290.679	100.69
290.91	82.69
291.141	80.69
291.371	87.69
291.602	81.69
291.833	66.69
292.064	75.69
292.295	85.69
292.526	72.69
292.757	88.69
292.987	105.69
293.218	91.69
293.449	87.69
293.68	72.69
293.91	99.69
294.141	82.69
294.372	83.69
294.603	98.69
294.833	66.69
295.064	79.69
295.295	80.69
295.525	82.69
295.756	84.69
295.987	82.69
296.217	94.69
296.448	87.69
296.679	84.69
296.909	92.69
297.14	91.69
297.37	79.69
297.601	75.69
297.831	87.69
298.062	84.69
298.292	80.69
298.523	94.69
298.753	83.69
298.984	85.69
299.214	97.69
299.445	104.69
299.675	91.69
299.905	82.69
300.136	74.69
300.366	86.69
300.597	87.69
300.827	86.69
301.057	95.69
301.288	68.69
301.518	96.69
301.748	92.69
301.979	98.69
302.209	85.69
302.439	81.69
302.669	81.69
302.9	72.69
303.13	82.69
303.36	88.69
303.59	89.69
303.82	78.69
304.051	81.69
304.281	87.69
304.511	90.69
304.741	90.69
304.971	93.69
305.201	101.69
305.431	88.69
305.661	81.69
305.891	103.69
306.121	85.69
306.352	94.69
306.582	82.69
306.812	80.69
307.042	82.69
307.272	77.69
307.502	87.69
307.731	64.69
307.961	90.69
308.191	69.69
308.421	86.69
308.651	78.69
308.881	85.69
309.111	80.69
309.341	98.69
309.571	92.69
309.8	77.69
310.03	91.69
310.26	83.69
310.49	94.69
310.72	83.69
310.949	92.69
311.179	66.69
311.409	77.69
311.639	68.69
311.868	94.69
312.098	84.69
312.328	90.69
312.557	89.69
312.787	92.69
313.017	98.69
313.246	88.69
313.476	95.69
313.706	82.69
313.935	92.69
314.165	87.69
314.394	81.69
314.624	91.69
314.853	90.69
315.083	94.69
315.312	89.69
315.542	83.69
315.771	73.69
316.001	76.69
316.23	78.69
316.46	77.69
316.689	96.69
316.919	91.69
317.148	65.69
317.377	92.69
317.607	88.69
317.836	73.69
318.065	92.69
318.295	82.69
318.524	94.69
318.753	87.69
318.983	84.69
319.212	91.69
319.441	75.69
319.67	81.69
319.9	76.69
320.129	83.69
320.358	86.69
320.587	81.69
320.816	94.69
321.046	88.69
321.275	87.69
321.504	83.69
321.733	77.69
321.962	88.69
322.191	81.69
322.42	94.69
322.649	88.69
322.878	90.69
323.108	75.69
323.337	86.69
323.566	92.69
323.795	100.69
324.024	93.69
324.253	81.69
324.482	68.69
324.71	93.69
324.939	97.69
325.168	99.69
325.397	93.69
325.626	73.69
325.855	90.69
326.084	76.69
326.313	90.69
326.542	68.69
326.77	91.69
326.999	96.69
327.228	99.69
327.457	88.69
327.686	76.69
327.914	96.69
328.143	77.69
328.372	83.69
328.6	89.69
328.829	85.69
329.058	84.69
329.287	80.69
329.515	72.69
329.744	84.69
329.972	80.69
330.201	97.69
330.43	97.69
330.658	90.69
330.887	73.69
331.115	92.69
331.344	86.69
331.572	101.69
331.801	98.69
332.03	81.69
332.258	90.69
332.486	89.69
332.715	80.69
332.943	98.69
333.172	95.69
333.4	87.69
333.629	92.69
333.857	95.69
334.085	90.69
334.314	88.69
334.542	90.69
334.771	71.69
334.999	89.69
335.227	89.69
335.455	77.69
335.684	88.69
335.912	98.69
336.14	85.69
336.369	91.69
336.597	78.69
336.825	86.69
337.053	81.69
337.281	82.69
337.51	87.69
337.738	84.69
337.966	99.69
338.194	90.69
338.422	87.69
338.65	83.69
338.878	79.69
339.106	91.69
339.334	97.69
339.562	81.69
339.79	89.69
340.018	82.69
340.246	81.69
340.474	87.69
340.702	90.69
340.93	89.69
341.158	87.69
341.386	77.69
341.614	74.69
341.842	78.69
342.07	75.69
342.298	76.69
342.526	79.69
342.754	87.69
342.981	89.69
343.209	83.69
343.437	99.69
343.665	80.69
343.893	83.69
344.12	85.69
344.348	100.69
344.576	81.69
344.804	87.69
345.031	85.69
345.259	91.69
345.487	83.69
345.714	86.69
345.942	93.69
346.17	102.69
346.397	89.69
346.625	89.69
346.853	79.69
347.08	96.69
347.308	91.69
347.535	76.69
347.763	99.69
347.99	82.69
348.218	86.69
348.445	90.69
348.673	85.69
348.9	98.69
349.128	99.69
349.355	79.69
349.583	90.69
349.81	87.69
350.037	84.69
350.265	87.69
350.492	74.69
350.72	89.69
350.947	74.69
351.174	80.69
351.402	78.69
351.629	84.69
351.856	78.69
352.083	95.69
352.311	79.69
352.538	81.69
352.765	77.69
352.992	99.69
353.22	84.69
353.447	84.69
353.674	99.69
353.901	85.69
354.128	87.69
354.355	69.69
354.583	87.69
354.81	75.69
355.037	80.69
355.264	93.69
355.491	99.69
355.718	90.69
355.945	85.69
356.172	80.69
356.399	75.69
356.626	88.69
356.853	93.69
357.08	93.69
357.307	90.69
357.534	86.69
357.761	98.69
357.988	89.69
358.215	91.69
358.441	97.69
358.668	84.69
358.895	94.69
359.122	82.69
359.349	80.69
359.576	96.69
359.802	87.69
360.029	88.69
360.256	79.69
360.483	92.69
360.709	84.69
360.936	94.69
361.163	76.69
361.39	73.69
361.616	80.69
361.843	61.69
362.07	90.69
362.296	71.69
362.523	77.69
362.749	88.69
362.976	72.69
363.203	97.69
363.429	78.69
363.656	93.69
363.882	85.69
364.109	85.69
364.335	87.69
364.562	88.69
364.788	93.69
365.015	99.69
365.241	87.69
365.468	90.69
365.694	75.69
365.92	72.69
366.147	89.69
366.373	75.69
366.599	91.69
366.826	83.69
367.052	80.69
367.278	79.69
367.505	91.69
367.731	98.69
367.957	70.69
368.184	79.69
368.41	84.69
368.636	87.69
368.862	86.69
369.089	88.69
369.315	86.69
369.541	87.69
369.767	87.69
369.993	79.69
370.219	90.69
370.445	81.69
370.672	79.69
370.898	85.69
371.124	93.69
371.35	94.69
371.576	78.69
371.802	82.69
372.028	72.69
372.254	90.69
372.48	83.69
372.706	82.69
372.932	88.69
373.158	91.69
373.384	98.69
373.61	98.69
373.835	89.69
374.061	74.69
374.287	81.69
374.513	90.69
374.739	78.69
374.965	80.69
375.191	98.69
375.416	95.69
375.642	88.69
375.868	84.69
376.094	76.69
376.319	89.69
376.545	86.69
376.771	87.69
376.997	85.69
377.222	77.69
377.448	93.69
377.674	87.69
377.899	92.69
378.125	91.69
378.35	87.69
378.576	75.69
378.802	86.69
379.027	73.69
379.253	80.69
379.478	72.69
379.704	75.69
379.929	77.69
380.155	96.69
380.38	96.69
380.606	82.69
380.831	81.69
381.057	99.69
381.282	90.69
381.507	81.69
381.733	88.69
381.958	96.69
382.184	85.69
382.409	92.69
382.634	72.69
382.86	73.69
383.085	92.69
383.31	85.69
383.535	88.69
383.761	83.69
383.986	79.69
384.211	74.69
384.436	93.69
384.662	87.69
384.887	89.69
385.112	79.69
385.337	77.69
385.562	85.69
385.787	76.69
386.013	78.69
386.238	73.69
386.463	83.69
386.688	91.69
386.913	83.69
387.138	93.69
387.363	76.69
387.588	73.69
387.813	90.69
388.038	87.69
388.263	82.69
388.488	91.69
388.713	100.69
388.938	92.69
389.163	69.69
389.387	90.69
389.612	93.69
389.837	87.69
390.062	90.69
390.287	76.69
390.512	86.69
390.736	76.69
390.961	79.69
391.186	93.69
391.411	104.69
391.636	68.69
391.86	84.69
392.085	91.69
392.31	77.69
392.534	103.69
392.759	89.69
392.984	90.69
393.208	100.69
393.433	86.69
393.658	75.69
393.882	94.69
394.107	79.69
394.331	79.69
394.556	89.69
394.78	85.69
395.005	75.69
395.229	85.69
395.454	79.69
395.678	77.69
395.903	84.69
396.127	68.69
396.352	87.69
396.576	88.69
396.801	85.69
397.025	91.69
397.249	89.69
397.474	93.69
397.698	86.69
397.922	83.69
398.147	81.69
398.371	72.69
398.595	76.69
398.82	83.69
399.044	88.69
399.268	83.69
399.492	97.69
399.717	88.69
399.941	85.69
400.165	87.69
400.389	86.69
400.613	83.69
400.837	85.69
401.062	80.69
401.286	84.69
401.51	96.69
401.734	81.69
401.958	80.69
402.182	90.69
402.406	75.69
402.63	84.69
402.854	81.69
403.078	84.69
403.302	78.69
403.526	85.69
403.75	80.69
403.974	85.69
404.198	78.69
404.422	86.69
404.645	85.69
404.869	76.69
405.093	90.69
405.317	74.69
405.541	87.69
405.765	92.69
405.988	76.69
406.212	83.69
406.436	85.69
406.66	82.69
406.883	71.69
407.107	91.69
407.331	65.69
407.555	75.69
407.778	79.69
408.002	92.69
408.226	83.69
408.449	92.69
408.673	82.69
408.896	68.69
409.12	84.69
409.344	86.69
409.567	77.69
409.791	103.69
410.014	101.69
410.238	93.69
410.461	77.69
410.685	82.69
410.908	73.69
411.132	100.69
411.355	91.69
411.578	84.69
411.802	89.69
412.025	88.69
412.249	83.69
412.472	88.69
412.695	86.69
412.919	71.69
413.142	85.69
413.365	80.69
413.589	89.69
413.812	75.69
414.035	79.69
414.258	77.69
414.482	81.69
414.705	76.69
414.928	87.69
415.151	97.69
415.374	85.69
415.597	83.69
415.821	85.69
416.044	92.69
416.267	89.69
416.49	82.69
416.713	76.69
416.936	69.69
417.159	78.69
417.382	74.69
417.605	87.69
417.828	78.69
418.051	97.69
418.274	74.69
418.497	68.69
418.72	89.69
418.943	95.69
419.166	85.69
419.389	67.69
419.611	84.69
419.834	79.69
420.057	93.69
420.28	87.69
420.503	73.69
420.726	107.69
420.948	95.69
421.171	77.69
421.394	73.69
421.617	74.69
421.839	83.69
422.062	90.69
422.285	86.69
422.507	84.69
422.73	98.69
422.953	109.69
423.175	79.69
423.398	88.69
423.621	76.69
423.843	90.69
424.066	101.69
424.288	98.69
424.511	80.69
424.733	88.69
424.956	81.69
425.178	77.69
425.401	82.69
425.623	86.69
425.846	86.69
426.068	66.69
426.291	77.69
426.513	87.69
426.735	85.69
426.958	76.69
427.18	75.69
427.402	79.69
427.625	78.69
427.847	80.69
428.069	80.69
428.292	80.69
428.514	78.69
428.736	76.69
428.958	78.69
429.181	89.69
429.403	83.69
429.625	82.69
429.847	83.69
430.069	92.69
430.292	73.69
430.514	85.69
430.736	81.69
430.958	100.69
431.18	85.69
431.402	84.69
431.624	74.69
431.846	82.69
432.068	88.69
432.29	83.69
432.512	88.69
432.734	96.69
432.956	79.69
433.178	78.69
433.4	87.69
433.622	87.69
433.844	95.69
434.066	83.69
434.287	76.69
434.509	74.69
434.731	87.69
434.953	82.69
435.175	89.69
435.397	99.69
435.618	92.69
435.84	88.69
436.062	80.69
436.284	90.69
436.505	86.69
436.727	81.69
436.949	90.69
437.17	81.69
437.392	75.69
437.614	84.69
437.835	91.69
438.057	82.69
438.278	79.69
438.5	75.69
438.721	91.69
438.943	71.69
439.165	70.69
439.386	77.69
439.608	80.69
439.829	86.69
440.05	69.69
440.272	91.69
440.493	69.69
440.715	86.69
440.936	107.69
441.158	85.69
441.379	96.69
441.6	75.69
441.822	88.69
442.043	79.69
442.264	79.69
442.486	96.69
442.707	79.69
442.928	95.69
443.149	98.69
443.371	87.69
443.592	100.69
443.813	80.69
444.034	90.69
444.255	89.69
444.476	79.69
444.698	96.69
444.919	85.69
445.14	145.69
445.361	109.69
445.582	81.69
445.803	81.69
446.024	95.69
446.245	92.69
446.466	100.69
446.687	75.69
446.908	96.69
447.129	83.69
447.35	83.69
447.571	80.69
447.792	91.69
448.013	80.69
448.234	100.69
448.455	93.69
448.675	97.69
448.896	71.69
449.117	88.69
449.338	84.69
449.559	87.69
449.779	85.69
450	82.69
450.221	88.69
450.442	82.69
450.662	81.69
450.883	74.69
451.104	91.69
451.324	86.69
451.545	73.69
451.766	84.69
451.986	99.69
452.207	81.69
452.428	81.69
452.648	88.69
452.869	74.69
453.089	56.69
453.31	90.69
453.53	82.69
453.751	101.69
453.971	89.69
454.192	74.69
454.412	85.69
454.633	83.69
454.853	93.69
455.073	74.69
455.294	82.69
455.514	83.69
455.734	87.69
455.955	63.69
456.175	88.69
456.395	90.69
456.616	93.69
456.836	80.69
457.056	81.69
457.276	81.69
457.497	79.69
457.717	92.69
457.937	75.69
458.157	70.69
458.377	93.69
458.598	82.69
458.818	92.69
459.038	79.69
459.258	90.69
459.478	79.69
459.698	81.69
459.918	83.69
460.138	90.69
460.358	76.69
460.578	83.69
460.798	96.69
461.018	89.69
461.238	80.69
461.458	83.69
461.678	65.69
461.898	89.69
462.118	99.69
462.338	97.69
462.558	72.69
462.777	90.69
462.997	93.69
463.217	88.69
463.437	82.69
463.657	84.69
463.876	85.69
464.096	88.69
464.316	77.69
464.536	88.69
464.755	73.69
464.975	91.69
465.195	84.69
465.414	92.69
465.634	79.69
465.854	83.69
466.073	76.69
466.293	84.69
466.512	77.69
466.732	69.69
466.951	80.69
467.171	86.69
467.391	82.69
467.61	83.69
467.829	92.69
468.049	93.69
468.268	77.69
468.488	77.69
468.707	73.69
468.927	82.69
469.146	82.69
469.365	77.69
469.585	84.69
469.804	99.69
470.023	88.69
470.243	87.69
470.462	103.69
470.681	81.69
470.901	89.69
471.12	84.69
471.339	73.69
471.558	80.69
471.777	83.69
471.997	77.69
472.216	78.69
472.435	85.69
472.654	78.69
472.873	88.69
473.092	90.69
473.311	74.69
473.53	87.69
473.749	80.69
473.968	86.69
474.187	86.69
474.406	75.69
474.625	81.69
474.844	88.69
475.063	80.69
475.282	83.69
475.501	92.69
475.72	92.69
475.939	89.69
476.158	95.69
476.377	82.69
476.596	82.69
476.814	84.69
477.033	87.69
477.252	101.69
477.471	96.69
477.69	88.69
477.908	91.69
478.127	86.69
478.346	70.69
478.564	83.69
478.783	82.69
479.002	82.69
479.22	83.69
479.439	86.69
479.658	88.69
479.876	88.69
480.095	87.69
480.313	86.69
480.532	93.69
480.751	79.69
480.969	87.69
481.188	89.69
481.406	87.69
481.624	95.69
481.843	76.69
482.061	87.69
482.28	90.69
482.498	78.69
482.717	79.69
482.935	88.69
483.153	91.69
483.372	79.69
483.59	85.69
483.808	75.69
484.027	79.69
484.245	90.69
484.463	85.69
484.681	73.69
484.9	92.69
485.118	77.69
485.336	86.69
485.554	90.69
485.772	82.69
485.99	77.69
486.209	83.69
486.427	90.69
486.645	88.69
486.863	91.69
487.081	92.69
487.299	91.69
487.517	105.69
487.735	88.69
487.953	93.69
488.171	95.69
488.389	89.69
488.607	85.69
488.825	83.69
489.043	88.69
489.261	82.69
489.479	86.69
489.696	77.69
489.914	80.69
490.132	90.69
490.35	97.69
490.568	71.69
490.786	80.69
491.003	82.69
491.221	92.69
491.439	92.69
491.657	80.69
491.874	97.69
492.092	87.69
492.31	94.69
492.527	76.69
492.745	95.69
492.963	94.69
493.18	82.69
493.398	81.69
493.615	95.69
493.833	86.69
494.05	95.69
494.268	90.69
494.485	87.69
494.703	81.69
494.92	85.69
495.138	88.69
495.355	92.69
495.573	82.69
495.79	94.69
496.008	84.69
496.225	76.69
496.442	107.69
496.66	92.69
496.877	87.69
497.094	83.69
497.312	91.69
497.529	89.69
497.746	96.69
497.963	101.69
498.181	90.69
498.398	90.69
498.615	91.69
498.832	68.69
499.049	99.69
499.267	96.69
499.484	93.69
499.701	85.69
499.918	82.69
500.135	80.69
500.352	96.69
500.569	81.69
500.786	86.69
501.003	88.69
501.22	81.69
501.437	91.69
501.654	90.69
501.871	87.69
502.088	84.69
502.305	82.69
502.522	77.69
502.739	82.69
502.956	79.69
503.172	99.69
503.389	95.69
503.606	83.69
503.823	84.69
504.04	81.69
504.256	92.69
504.473	91.69
504.69	89.69
504.907	100.69
505.123	81.69
505.34	84.69
505.557	81.69
505.773	95.69
505.99	100.69
506.207	94.69
506.423	76.69
506.64	90.69
506.856	87.69
507.073	91.69
507.289	78.69
507.506	77.69
507.722	82.69
507.939	99.69
508.155	90.69
508.372	79.69
508.588	90.69
508.805	85.69
509.021	86.69
509.238	97.69
509.454	80.69
509.67	79.69
509.887	95.69
510.103	80.69
510.319	75.69
510.536	93.69
510.752	92.69
510.968	92.69
511.184	84.69
511.401	75.69
511.617	80.69
511.833	88.69
512.049	88.69
512.265	103.69
512.481	85.69
512.698	83.69
512.914	91.69
513.13	76.69
513.346	85.69
513.562	84.69
513.778	77.69
513.994	93.69
514.21	90.69
514.426	82.69
514.642	97.69
514.858	97.69
515.074	92.69
515.29	98.69
515.506	92.69
515.721	62.69
515.937	79.69
516.153	81.69
516.369	80.69
516.585	95.69
516.801	92.69
517.016	83.69
517.232	94.69
517.448	93.69
517.664	86.69
517.879	93.69
518.095	84.69
518.311	93.69
518.527	80.69
518.742	82.69
518.958	83.69
519.173	73.69
519.389	105.69
519.605	100.69
519.82	84.69
