Data from Dirtheat1_HRD10591_00019.txt Node
Date: Fri Dec 27 15:13:42 EST 2024
User: Yrep
Spectrometer: HR+D1059
Trigger mode: 1
Integration Time (sec): 1.000000E-1
Scans to average: 1
Electric dark correction enabled: true
Nonlinearity correction enabled: false
Boxcar width: 0
XAxis mode: Wavelengths
Number of Pixels in Spectrum: 2048
>>>>>Begin Spectral Data<<<<<
223.165	-18.94
223.4	-18.94
223.635	-18.94
223.869	-26.94
224.104	-20.94
224.338	-19.94
224.573	-5.94
224.808	-4.94
225.042	-6.94
225.277	2.06
225.511	-7.94
225.746	4.06
225.98	1.06
226.215	15.06
226.449	17.06
226.683	14.06
226.918	21.06
227.152	38.06
227.387	29.06
227.621	45.06
227.856	40.06
228.09	47.06
228.324	45.06
228.559	58.06
228.793	60.06
229.027	75.06
229.262	82.06
229.496	80.06
229.73	86.06
229.964	74.06
230.199	77.06
230.433	72.06
230.667	71.06
230.901	66.06
231.136	70.06
231.37	82.06
231.604	86.06
231.838	64.06
232.072	82.06
232.306	96.06
232.541	83.06
232.775	81.06
233.009	82.06
233.243	81.06
233.477	89.06
233.711	79.06
233.945	78.06
234.179	99.06
234.413	93.06
234.647	84.06
234.881	78.06
235.115	81.06
235.349	63.06
235.583	93.06
235.817	85.06
236.051	85.06
236.285	72.06
236.519	90.06
236.753	73.06
236.987	87.06
237.221	97.06
237.455	79.06
237.689	69.06
237.922	81.06
238.156	73.06
238.39	89.06
238.624	89.06
238.858	91.06
239.091	90.06
239.325	75.06
239.559	77.06
239.793	71.06
240.027	73.06
240.26	77.06
240.494	64.06
240.728	67.06
240.961	78.06
241.195	75.06
241.429	77.06
241.662	58.06
241.896	65.06
242.13	82.06
242.363	73.06
242.597	73.06
242.83	85.06
243.064	71.06
243.298	77.06
243.531	65.06
243.765	83.06
243.998	85.06
244.232	67.06
244.465	72.06
244.699	79.06
244.932	84.06
245.166	87.06
245.399	82.06
245.633	65.06
245.866	97.06
246.099	86.06
246.333	81.06
246.566	86.06
246.8	67.06
247.033	80.06
247.266	77.06
247.5	75.06
247.733	88.06
247.966	93.06
248.2	79.06
248.433	90.06
248.666	85.06
248.899	88.06
249.133	73.06
249.366	86.06
249.599	75.06
249.832	79.06
250.066	88.06
250.299	83.06
250.532	90.06
250.765	87.06
250.998	75.06
251.231	83.06
251.465	76.06
251.698	79.06
251.931	79.06
252.164	81.06
252.397	71.06
252.63	73.06
252.863	83.06
253.096	66.06
253.329	81.06
253.562	77.06
253.795	86.06
254.028	96.06
254.261	78.06
254.494	77.06
254.727	80.06
254.96	99.06
255.193	70.06
255.426	85.06
255.659	86.06
255.892	75.06
256.124	82.06
256.357	86.06
256.59	81.06
256.823	70.06
257.056	85.06
257.289	78.06
257.521	82.06
257.754	85.06
257.987	85.06
258.22	77.06
258.452	80.06
258.685	78.06
258.918	76.06
259.151	95.06
259.383	73.06
259.616	63.06
259.849	73.06
260.081	81.06
260.314	88.06
260.547	80.06
260.779	81.06
261.012	81.06
261.244	88.06
261.477	82.06
261.71	86.06
261.942	74.06
262.175	82.06
262.407	79.06
262.64	84.06
262.872	89.06
263.105	89.06
263.337	84.06
263.57	84.06
263.802	90.06
264.035	74.06
264.267	86.06
264.499	79.06
264.732	63.06
264.964	67.06
265.197	79.06
265.429	94.06
265.661	85.06
265.894	87.06
266.126	75.06
266.358	76.06
266.591	63.06
266.823	88.06
267.055	95.06
267.287	80.06
267.52	68.06
267.752	75.06
267.984	85.06
268.216	87.06
268.448	96.06
268.681	82.06
268.913	72.06
269.145	83.06
269.377	77.06
269.609	77.06
269.841	86.06
270.073	83.06
270.306	89.06
270.538	73.06
270.77	72.06
271.002	89.06
271.234	86.06
271.466	89.06
271.698	86.06
271.93	85.06
272.162	82.06
272.394	98.06
272.626	83.06
272.858	87.06
273.09	87.06
273.322	85.06
273.553	91.06
273.785	79.06
274.017	88.06
274.249	86.06
274.481	103.06
274.713	91.06
274.945	84.06
275.176	76.06
275.408	86.06
275.64	82.06
275.872	86.06
276.104	85.06
276.335	83.06
276.567	92.06
276.799	83.06
277.031	78.06
277.262	78.06
277.494	98.06
277.726	67.06
277.957	77.06
278.189	100.06
278.421	89.06
278.652	84.06
278.884	85.06
279.115	78.06
279.347	74.06
279.579	74.06
279.81	85.06
280.042	95.06
280.273	83.06
280.505	70.06
280.736	77.06
280.968	82.06
281.199	78.06
281.431	83.06
281.662	87.06
281.894	78.06
282.125	78.06
282.356	91.06
282.588	89.06
282.819	96.06
283.051	87.06
283.282	88.06
283.513	90.06
283.745	93.06
283.976	87.06
284.207	75.06
284.439	83.06
284.67	79.06
284.901	83.06
285.132	101.06
285.364	78.06
285.595	85.06
285.826	71.06
286.057	81.06
286.288	74.06
286.52	79.06
286.751	89.06
286.982	92.06
287.213	83.06
287.444	91.06
287.675	93.06
287.906	82.06
288.138	92.06
288.369	82.06
288.6	81.06
288.831	87.06
289.062	90.06
289.293	85.06
289.524	88.06
289.755	85.06
289.986	79.06
290.217	85.06
290.448	72.06
290.679	97.06
290.91	77.06
291.141	76.06
291.371	95.06
291.602	95.06
291.833	72.06
292.064	65.06
292.295	83.06
292.526	83.06
292.757	97.06
292.987	89.06
293.218	78.06
293.449	86.06
293.68	85.06
293.91	81.06
294.141	95.06
294.372	78.06
294.603	82.06
294.833	88.06
295.064	71.06
295.295	96.06
295.525	88.06
295.756	95.06
295.987	82.06
296.217	67.06
296.448	87.06
296.679	98.06
296.909	108.06
297.14	89.06
297.37	73.06
297.601	88.06
297.831	82.06
298.062	78.06
298.292	90.06
298.523	93.06
298.753	87.06
298.984	78.06
299.214	85.06
299.445	91.06
299.675	82.06
299.905	80.06
300.136	91.06
300.366	72.06
300.597	85.06
300.827	86.06
301.057	88.06
301.288	93.06
301.518	88.06
301.748	98.06
301.979	114.06
302.209	86.06
302.439	91.06
302.669	91.06
302.9	79.06
303.13	73.06
303.36	77.06
303.59	92.06
303.82	85.06
304.051	96.06
304.281	94.06
304.511	83.06
304.741	86.06
304.971	95.06
305.201	86.06
305.431	74.06
305.661	82.06
305.891	89.06
306.121	97.06
306.352	87.06
306.582	82.06
306.812	86.06
307.042	87.06
307.272	80.06
307.502	92.06
307.731	92.06
307.961	77.06
308.191	94.06
308.421	90.06
308.651	86.06
308.881	76.06
309.111	80.06
309.341	82.06
309.571	91.06
309.8	104.06
310.03	71.06
310.26	88.06
310.49	83.06
310.72	77.06
310.949	84.06
311.179	85.06
311.409	86.06
311.639	89.06
311.868	75.06
312.098	87.06
312.328	89.06
312.557	71.06
312.787	81.06
313.017	80.06
313.246	80.06
313.476	86.06
313.706	72.06
313.935	88.06
314.165	85.06
314.394	93.06
314.624	70.06
314.853	81.06
315.083	86.06
315.312	90.06
315.542	83.06
315.771	87.06
316.001	90.06
316.23	95.06
316.46	87.06
316.689	97.06
316.919	84.06
317.148	85.06
317.377	99.06
317.607	87.06
317.836	94.06
318.065	82.06
318.295	99.06
318.524	87.06
318.753	80.06
318.983	73.06
319.212	88.06
319.441	91.06
319.67	97.06
319.9	79.06
320.129	84.06
320.358	95.06
320.587	96.06
320.816	83.06
321.046	91.06
321.275	89.06
321.504	91.06
321.733	83.06
321.962	91.06
322.191	80.06
322.42	91.06
322.649	91.06
322.878	89.06
323.108	79.06
323.337	90.06
323.566	81.06
323.795	89.06
324.024	69.06
324.253	73.06
324.482	81.06
324.71	78.06
324.939	74.06
325.168	92.06
325.397	83.06
325.626	90.06
325.855	83.06
326.084	89.06
326.313	77.06
326.542	83.06
326.77	86.06
326.999	89.06
327.228	75.06
327.457	74.06
327.686	82.06
327.914	74.06
328.143	91.06
328.372	88.06
328.6	83.06
328.829	99.06
329.058	89.06
329.287	73.06
329.515	86.06
329.744	94.06
329.972	77.06
330.201	89.06
330.43	76.06
330.658	75.06
330.887	78.06
331.115	81.06
331.344	80.06
331.572	81.06
331.801	86.06
332.03	85.06
332.258	108.06
332.486	88.06
332.715	79.06
332.943	78.06
333.172	77.06
333.4	62.06
333.629	92.06
333.857	85.06
334.085	75.06
334.314	93.06
334.542	69.06
334.771	88.06
334.999	81.06
335.227	84.06
335.455	85.06
335.684	93.06
335.912	99.06
336.14	89.06
336.369	88.06
336.597	83.06
336.825	90.06
337.053	82.06
337.281	91.06
337.51	92.06
337.738	87.06
337.966	91.06
338.194	88.06
338.422	83.06
338.65	64.06
338.878	85.06
339.106	70.06
339.334	96.06
339.562	86.06
339.79	97.06
340.018	88.06
340.246	68.06
340.474	71.06
340.702	81.06
340.93	63.06
341.158	76.06
341.386	71.06
341.614	78.06
341.842	91.06
342.07	80.06
342.298	107.06
342.526	86.06
342.754	75.06
342.981	89.06
343.209	77.06
343.437	104.06
343.665	76.06
343.893	80.06
344.12	84.06
344.348	86.06
344.576	82.06
344.804	70.06
345.031	75.06
345.259	77.06
345.487	81.06
345.714	75.06
345.942	79.06
346.17	79.06
346.397	77.06
346.625	82.06
346.853	82.06
347.08	85.06
347.308	75.06
347.535	76.06
347.763	78.06
347.99	76.06
348.218	112.06
348.445	78.06
348.673	81.06
348.9	79.06
349.128	80.06
349.355	105.06
349.583	103.06
349.81	84.06
350.037	87.06
350.265	89.06
350.492	81.06
350.72	80.06
350.947	78.06
351.174	79.06
351.402	75.06
351.629	81.06
351.856	79.06
352.083	77.06
352.311	70.06
352.538	71.06
352.765	80.06
352.992	89.06
353.22	90.06
353.447	84.06
353.674	82.06
353.901	80.06
354.128	78.06
354.355	82.06
354.583	87.06
354.81	82.06
355.037	98.06
355.264	91.06
355.491	84.06
355.718	68.06
355.945	91.06
356.172	76.06
356.399	81.06
356.626	81.06
356.853	79.06
357.08	83.06
357.307	91.06
357.534	97.06
357.761	96.06
357.988	88.06
358.215	78.06
358.441	74.06
358.668	77.06
358.895	81.06
359.122	83.06
359.349	80.06
359.576	97.06
359.802	77.06
360.029	82.06
360.256	79.06
360.483	79.06
360.709	72.06
360.936	92.06
361.163	94.06
361.39	80.06
361.616	99.06
361.843	101.06
362.07	85.06
362.296	77.06
362.523	67.06
362.749	82.06
362.976	85.06
363.203	65.06
363.429	84.06
363.656	76.06
363.882	85.06
364.109	96.06
364.335	100.06
364.562	89.06
364.788	76.06
365.015	89.06
365.241	95.06
365.468	92.06
365.694	74.06
365.92	82.06
366.147	85.06
366.373	79.06
366.599	79.06
366.826	95.06
367.052	87.06
367.278	66.06
367.505	93.06
367.731	85.06
367.957	70.06
368.184	92.06
368.41	74.06
368.636	78.06
368.862	86.06
369.089	62.06
369.315	73.06
369.541	80.06
369.767	75.06
369.993	82.06
370.219	78.06
370.445	88.06
370.672	76.06
370.898	83.06
371.124	88.06
371.35	76.06
371.576	78.06
371.802	86.06
372.028	93.06
372.254	73.06
372.48	77.06
372.706	75.06
372.932	72.06
373.158	95.06
373.384	81.06
373.61	85.06
373.835	87.06
374.061	85.06
374.287	87.06
374.513	93.06
374.739	78.06
374.965	86.06
375.191	81.06
375.416	67.06
375.642	76.06
375.868	89.06
376.094	80.06
376.319	74.06
376.545	93.06
376.771	93.06
376.997	75.06
377.222	67.06
377.448	82.06
377.674	73.06
377.899	67.06
378.125	81.06
378.35	84.06
378.576	71.06
378.802	81.06
379.027	88.06
379.253	77.06
379.478	79.06
379.704	77.06
379.929	72.06
380.155	78.06
380.38	81.06
380.606	75.06
380.831	87.06
381.057	76.06
381.282	83.06
381.507	81.06
381.733	82.06
381.958	81.06
382.184	80.06
382.409	72.06
382.634	76.06
382.86	88.06
383.085	82.06
383.31	70.06
383.535	85.06
383.761	82.06
383.986	81.06
384.211	75.06
384.436	72.06
384.662	77.06
384.887	72.06
385.112	71.06
385.337	83.06
385.562	72.06
385.787	79.06
386.013	82.06
386.238	98.06
386.463	88.06
386.688	82.06
386.913	80.06
387.138	79.06
387.363	75.06
387.588	82.06
387.813	78.06
388.038	84.06
388.263	88.06
388.488	69.06
388.713	75.06
388.938	90.06
389.163	85.06
389.387	87.06
389.612	85.06
389.837	76.06
390.062	86.06
390.287	85.06
390.512	77.06
390.736	73.06
390.961	79.06
391.186	89.06
391.411	94.06
391.636	78.06
391.86	70.06
392.085	81.06
392.31	78.06
392.534	78.06
392.759	63.06
392.984	85.06
393.208	74.06
393.433	81.06
393.658	80.06
393.882	75.06
394.107	76.06
394.331	102.06
394.556	81.06
394.78	81.06
395.005	82.06
395.229	88.06
395.454	85.06
395.678	86.06
395.903	75.06
396.127	82.06
396.352	86.06
396.576	83.06
396.801	83.06
397.025	83.06
397.249	76.06
397.474	71.06
397.698	76.06
397.922	108.06
398.147	79.06
398.371	79.06
398.595	80.06
398.82	80.06
399.044	81.06
399.268	82.06
399.492	82.06
399.717	87.06
399.941	85.06
400.165	86.06
400.389	94.06
400.613	73.06
400.837	83.06
401.062	77.06
401.286	76.06
401.51	85.06
401.734	81.06
401.958	101.06
402.182	92.06
402.406	83.06
402.63	75.06
402.854	78.06
403.078	74.06
403.302	92.06
403.526	81.06
403.75	63.06
403.974	78.06
404.198	93.06
404.422	86.06
404.645	73.06
404.869	87.06
405.093	93.06
405.317	66.06
405.541	80.06
405.765	82.06
405.988	94.06
406.212	93.06
406.436	76.06
406.66	72.06
406.883	83.06
407.107	86.06
407.331	65.06
407.555	75.06
407.778	81.06
408.002	86.06
408.226	86.06
408.449	70.06
408.673	84.06
408.896	80.06
409.12	90.06
409.344	90.06
409.567	80.06
409.791	76.06
410.014	97.06
410.238	82.06
410.461	77.06
410.685	86.06
410.908	85.06
411.132	86.06
411.355	82.06
411.578	85.06
411.802	91.06
412.025	80.06
412.249	79.06
412.472	80.06
412.695	91.06
412.919	85.06
413.142	82.06
413.365	78.06
413.589	87.06
413.812	78.06
414.035	93.06
414.258	70.06
414.482	63.06
414.705	72.06
414.928	79.06
415.151	89.06
415.374	89.06
415.597	61.06
415.821	91.06
416.044	79.06
416.267	80.06
416.49	77.06
416.713	81.06
416.936	89.06
417.159	82.06
417.382	88.06
417.605	74.06
417.828	87.06
418.051	78.06
418.274	75.06
418.497	78.06
418.72	73.06
418.943	81.06
419.166	68.06
419.389	77.06
419.611	68.06
419.834	89.06
420.057	79.06
420.28	83.06
420.503	89.06
420.726	93.06
420.948	74.06
421.171	77.06
421.394	71.06
421.617	67.06
421.839	89.06
422.062	85.06
422.285	77.06
422.507	94.06
422.73	73.06
422.953	92.06
423.175	73.06
423.398	71.06
423.621	82.06
423.843	91.06
424.066	73.06
424.288	81.06
424.511	95.06
424.733	84.06
424.956	85.06
425.178	81.06
425.401	85.06
425.623	75.06
425.846	85.06
426.068	73.06
426.291	87.06
426.513	87.06
426.735	83.06
426.958	75.06
427.18	88.06
427.402	91.06
427.625	84.06
427.847	85.06
428.069	79.06
428.292	75.06
428.514	81.06
428.736	81.06
428.958	71.06
429.181	90.06
429.403	77.06
429.625	80.06
429.847	81.06
430.069	82.06
430.292	98.06
430.514	81.06
430.736	88.06
430.958	83.06
431.18	85.06
431.402	83.06
431.624	88.06
431.846	86.06
432.068	85.06
432.29	80.06
432.512	75.06
432.734	93.06
432.956	85.06
433.178	89.06
433.4	83.06
433.622	78.06
433.844	83.06
434.066	80.06
434.287	87.06
434.509	86.06
434.731	86.06
434.953	79.06
435.175	84.06
435.397	84.06
435.618	89.06
435.84	80.06
436.062	84.06
436.284	88.06
436.505	90.06
436.727	87.06
436.949	81.06
437.17	74.06
437.392	83.06
437.614	80.06
437.835	88.06
438.057	86.06
438.278	77.06
438.5	87.06
438.721	75.06
438.943	76.06
439.165	85.06
439.386	93.06
439.608	72.06
439.829	82.06
440.05	76.06
440.272	97.06
440.493	92.06
440.715	86.06
440.936	83.06
441.158	77.06
441.379	82.06
441.6	85.06
441.822	89.06
442.043	89.06
442.264	79.06
442.486	93.06
442.707	80.06
442.928	90.06
443.149	90.06
443.371	86.06
443.592	89.06
443.813	90.06
444.034	65.06
444.255	94.06
444.476	86.06
444.698	89.06
444.919	74.06
445.14	137.06
445.361	110.06
445.582	87.06
445.803	82.06
446.024	83.06
446.245	107.06
446.466	87.06
446.687	75.06
446.908	81.06
447.129	88.06
447.35	77.06
447.571	80.06
447.792	94.06
448.013	78.06
448.234	90.06
448.455	87.06
448.675	70.06
448.896	74.06
449.117	80.06
449.338	84.06
449.559	85.06
449.779	99.06
450	94.06
450.221	83.06
450.442	73.06
450.662	83.06
450.883	82.06
451.104	83.06
451.324	71.06
451.545	96.06
451.766	79.06
451.986	73.06
452.207	82.06
452.428	78.06
452.648	88.06
452.869	77.06
453.089	80.06
453.31	97.06
453.53	77.06
453.751	83.06
453.971	103.06
454.192	69.06
454.412	73.06
454.633	79.06
454.853	105.06
455.073	82.06
455.294	89.06
455.514	83.06
455.734	83.06
455.955	88.06
456.175	78.06
456.395	89.06
456.616	74.06
456.836	85.06
457.056	78.06
457.276	90.06
457.497	82.06
457.717	70.06
457.937	77.06
458.157	76.06
458.377	82.06
458.598	90.06
458.818	75.06
459.038	73.06
459.258	86.06
459.478	82.06
459.698	86.06
459.918	91.06
460.138	80.06
460.358	92.06
460.578	81.06
460.798	87.06
461.018	80.06
461.238	81.06
461.458	90.06
461.678	71.06
461.898	86.06
462.118	86.06
462.338	88.06
462.558	91.06
462.777	92.06
462.997	82.06
463.217	77.06
463.437	61.06
463.657	79.06
463.876	76.06
464.096	70.06
464.316	78.06
464.536	97.06
464.755	86.06
464.975	84.06
465.195	82.06
465.414	93.06
465.634	80.06
465.854	94.06
466.073	79.06
466.293	78.06
466.512	78.06
466.732	72.06
466.951	79.06
467.171	85.06
467.391	79.06
467.61	81.06
467.829	69.06
468.049	73.06
468.268	80.06
468.488	77.06
468.707	72.06
468.927	89.06
469.146	72.06
469.365	84.06
469.585	74.06
469.804	96.06
470.023	90.06
470.243	72.06
470.462	76.06
470.681	70.06
470.901	71.06
471.12	85.06
471.339	83.06
471.558	80.06
471.777	77.06
471.997	82.06
472.216	72.06
472.435	82.06
472.654	93.06
472.873	87.06
473.092	92.06
473.311	76.06
473.53	72.06
473.749	86.06
473.968	93.06
474.187	82.06
474.406	80.06
474.625	90.06
474.844	84.06
475.063	79.06
475.282	88.06
475.501	76.06
475.72	84.06
475.939	77.06
476.158	77.06
476.377	76.06
476.596	85.06
476.814	81.06
477.033	97.06
477.252	76.06
477.471	90.06
477.69	67.06
477.908	84.06
478.127	89.06
478.346	95.06
478.564	91.06
478.783	86.06
479.002	83.06
479.22	82.06
479.439	73.06
479.658	82.06
479.876	79.06
480.095	81.06
480.313	83.06
480.532	85.06
480.751	83.06
480.969	90.06
481.188	92.06
481.406	89.06
481.624	81.06
481.843	81.06
482.061	74.06
482.28	83.06
482.498	100.06
482.717	101.06
482.935	85.06
483.153	73.06
483.372	90.06
483.59	89.06
483.808	93.06
484.027	79.06
484.245	90.06
484.463	86.06
484.681	97.06
484.9	78.06
485.118	96.06
485.336	85.06
485.554	67.06
485.772	104.06
485.99	74.06
486.209	89.06
486.427	68.06
486.645	86.06
486.863	79.06
487.081	80.06
487.299	59.06
487.517	89.06
487.735	74.06
487.953	95.06
488.171	76.06
488.389	83.06
488.607	78.06
488.825	88.06
489.043	88.06
489.261	88.06
489.479	99.06
489.696	92.06
489.914	81.06
490.132	71.06
490.35	85.06
490.568	96.06
490.786	67.06
491.003	92.06
491.221	89.06
491.439	95.06
491.657	79.06
491.874	90.06
492.092	72.06
492.31	92.06
492.527	78.06
492.745	98.06
492.963	86.06
493.18	82.06
493.398	85.06
493.615	93.06
493.833	80.06
494.05	100.06
494.268	103.06
494.485	97.06
494.703	77.06
494.92	84.06
495.138	85.06
495.355	95.06
495.573	80.06
495.79	76.06
496.008	82.06
496.225	80.06
496.442	72.06
496.66	89.06
496.877	75.06
497.094	85.06
497.312	82.06
497.529	87.06
497.746	85.06
497.963	78.06
498.181	83.06
498.398	91.06
498.615	93.06
498.832	91.06
499.049	90.06
499.267	92.06
499.484	88.06
499.701	87.06
499.918	92.06
500.135	71.06
500.352	96.06
500.569	75.06
500.786	76.06
501.003	106.06
501.22	76.06
501.437	79.06
501.654	88.06
501.871	85.06
502.088	89.06
502.305	75.06
502.522	83.06
502.739	79.06
502.956	90.06
503.172	91.06
503.389	89.06
503.606	78.06
503.823	98.06
504.04	83.06
504.256	92.06
504.473	85.06
504.69	81.06
504.907	94.06
505.123	85.06
505.34	92.06
505.557	92.06
505.773	88.06
505.99	75.06
506.207	80.06
506.423	78.06
506.64	85.06
506.856	79.06
507.073	79.06
507.289	87.06
507.506	102.06
507.722	82.06
507.939	77.06
508.155	102.06
508.372	88.06
508.588	75.06
508.805	88.06
509.021	85.06
509.238	86.06
509.454	87.06
509.67	79.06
509.887	85.06
510.103	79.06
510.319	86.06
510.536	82.06
510.752	87.06
510.968	76.06
511.184	80.06
511.401	91.06
511.617	96.06
511.833	79.06
512.049	83.06
512.265	93.06
512.481	83.06
512.698	90.06
512.914	89.06
513.13	72.06
513.346	82.06
513.562	89.06
513.778	87.06
513.994	76.06
514.21	88.06
514.426	105.06
514.642	90.06
514.858	83.06
515.074	82.06
515.29	89.06
515.506	91.06
515.721	79.06
515.937	90.06
516.153	91.06
516.369	83.06
516.585	74.06
516.801	89.06
517.016	86.06
517.232	75.06
517.448	86.06
517.664	77.06
517.879	77.06
518.095	85.06
518.311	76.06
518.527	79.06
518.742	97.06
518.958	88.06
519.173	105.06
519.389	79.06
519.605	92.06
519.82	86.06
