Data from Dirtheat1_HRD10591_00005.txt Node
Date: Fri Dec 27 15:13:28 EST 2024
User: Yrep
Spectrometer: HR+D1059
Trigger mode: 1
Integration Time (sec): 1.000000E-1
Scans to average: 1
Electric dark correction enabled: true
Nonlinearity correction enabled: false
Boxcar width: 0
XAxis mode: Wavelengths
Number of Pixels in Spectrum: 2048
>>>>>Begin Spectral Data<<<<<
223.165	-11.5
223.4	-11.5
223.635	-11.5
223.869	-20.5
224.104	-31.5
224.338	-23.5
224.573	-17.5
224.808	-0.5
225.042	-1.5
225.277	-9.5
225.511	-2.5
225.746	5.5
225.98	2.5
226.215	11.5
226.449	14.5
226.683	22.5
226.918	27.5
227.152	34.5
227.387	47.5
227.621	50.5
227.856	44.5
228.09	57.5
228.324	42.5
228.559	61.5
228.793	55.5
229.027	57.5
229.262	60.5
229.496	66.5
229.73	84.5
229.964	72.5
230.199	57.5
230.433	73.5
230.667	77.5
230.901	69.5
231.136	67.5
231.37	88.5
231.604	75.5
231.838	77.5
232.072	91.5
232.306	90.5
232.541	87.5
232.775	76.5
233.009	80.5
233.243	86.5
233.477	72.5
233.711	71.5
233.945	83.5
234.179	86.5
234.413	81.5
234.647	83.5
234.881	72.5
235.115	74.5
235.349	69.5
235.583	74.5
235.817	82.5
236.051	74.5
236.285	69.5
236.519	76.5
236.753	85.5
236.987	76.5
237.221	72.5
237.455	57.5
237.689	71.5
237.922	78.5
238.156	76.5
238.39	81.5
238.624	73.5
238.858	85.5
239.091	69.5
239.325	75.5
239.559	69.5
239.793	72.5
240.027	82.5
240.26	71.5
240.494	72.5
240.728	82.5
240.961	95.5
241.195	72.5
241.429	65.5
241.662	81.5
241.896	75.5
242.13	80.5
242.363	73.5
242.597	66.5
242.83	74.5
243.064	66.5
243.298	77.5
243.531	78.5
243.765	75.5
243.998	71.5
244.232	74.5
244.465	84.5
244.699	80.5
244.932	91.5
245.166	81.5
245.399	68.5
245.633	82.5
245.866	77.5
246.099	82.5
246.333	80.5
246.566	75.5
246.8	78.5
247.033	63.5
247.266	75.5
247.5	62.5
247.733	74.5
247.966	67.5
248.2	70.5
248.433	87.5
248.666	63.5
248.899	89.5
249.133	80.5
249.366	69.5
249.599	67.5
249.832	73.5
250.066	72.5
250.299	78.5
250.532	96.5
250.765	95.5
250.998	76.5
251.231	72.5
251.465	79.5
251.698	68.5
251.931	76.5
252.164	78.5
252.397	77.5
252.63	87.5
252.863	82.5
253.096	75.5
253.329	75.5
253.562	73.5
253.795	60.5
254.028	87.5
254.261	64.5
254.494	75.5
254.727	79.5
254.96	75.5
255.193	69.5
255.426	75.5
255.659	82.5
255.892	89.5
256.124	77.5
256.357	93.5
256.59	85.5
256.823	72.5
257.056	91.5
257.289	84.5
257.521	88.5
257.754	73.5
257.987	82.5
258.22	100.5
258.452	73.5
258.685	82.5
258.918	80.5
259.151	86.5
259.383	75.5
259.616	79.5
259.849	77.5
260.081	87.5
260.314	80.5
260.547	81.5
260.779	86.5
261.012	86.5
261.244	69.5
261.477	89.5
261.71	72.5
261.942	78.5
262.175	68.5
262.407	75.5
262.64	82.5
262.872	83.5
263.105	62.5
263.337	72.5
263.57	82.5
263.802	77.5
264.035	90.5
264.267	89.5
264.499	69.5
264.732	89.5
264.964	90.5
265.197	81.5
265.429	84.5
265.661	73.5
265.894	85.5
266.126	88.5
266.358	66.5
266.591	80.5
266.823	81.5
267.055	86.5
267.287	88.5
267.52	92.5
267.752	72.5
267.984	90.5
268.216	77.5
268.448	84.5
268.681	96.5
268.913	88.5
269.145	86.5
269.377	92.5
269.609	82.5
269.841	80.5
270.073	83.5
270.306	77.5
270.538	78.5
270.77	79.5
271.002	66.5
271.234	72.5
271.466	88.5
271.698	97.5
271.93	78.5
272.162	96.5
272.394	83.5
272.626	79.5
272.858	87.5
273.09	90.5
273.322	75.5
273.553	82.5
273.785	87.5
274.017	81.5
274.249	80.5
274.481	86.5
274.713	72.5
274.945	86.5
275.176	74.5
275.408	80.5
275.64	86.5
275.872	79.5
276.104	86.5
276.335	93.5
276.567	77.5
276.799	70.5
277.031	73.5
277.262	79.5
277.494	80.5
277.726	89.5
277.957	81.5
278.189	78.5
278.421	88.5
278.652	88.5
278.884	84.5
279.115	86.5
279.347	92.5
279.579	87.5
279.81	82.5
280.042	82.5
280.273	82.5
280.505	82.5
280.736	80.5
280.968	93.5
281.199	69.5
281.431	92.5
281.662	85.5
281.894	82.5
282.125	88.5
282.356	85.5
282.588	95.5
282.819	88.5
283.051	79.5
283.282	66.5
283.513	96.5
283.745	79.5
283.976	82.5
284.207	82.5
284.439	82.5
284.67	84.5
284.901	74.5
285.132	90.5
285.364	74.5
285.595	85.5
285.826	84.5
286.057	81.5
286.288	85.5
286.52	91.5
286.751	91.5
286.982	93.5
287.213	78.5
287.444	80.5
287.675	92.5
287.906	82.5
288.138	87.5
288.369	71.5
288.6	88.5
288.831	76.5
289.062	88.5
289.293	93.5
289.524	86.5
289.755	75.5
289.986	78.5
290.217	78.5
290.448	85.5
290.679	86.5
290.91	76.5
291.141	81.5
291.371	101.5
291.602	96.5
291.833	93.5
292.064	91.5
292.295	87.5
292.526	82.5
292.757	93.5
292.987	80.5
293.218	101.5
293.449	86.5
293.68	86.5
293.91	88.5
294.141	72.5
294.372	85.5
294.603	92.5
294.833	75.5
295.064	87.5
295.295	75.5
295.525	77.5
295.756	84.5
295.987	82.5
296.217	94.5
296.448	88.5
296.679	76.5
296.909	93.5
297.14	94.5
297.37	95.5
297.601	79.5
297.831	80.5
298.062	89.5
298.292	82.5
298.523	94.5
298.753	93.5
298.984	85.5
299.214	90.5
299.445	93.5
299.675	90.5
299.905	76.5
300.136	83.5
300.366	84.5
300.597	83.5
300.827	81.5
301.057	96.5
301.288	90.5
301.518	83.5
301.748	84.5
301.979	82.5
302.209	77.5
302.439	72.5
302.669	83.5
302.9	84.5
303.13	93.5
303.36	86.5
303.59	83.5
303.82	84.5
304.051	82.5
304.281	87.5
304.511	79.5
304.741	64.5
304.971	93.5
305.201	98.5
305.431	82.5
305.661	78.5
305.891	87.5
306.121	90.5
306.352	76.5
306.582	80.5
306.812	87.5
307.042	84.5
307.272	76.5
307.502	90.5
307.731	74.5
307.961	85.5
308.191	81.5
308.421	93.5
308.651	93.5
308.881	73.5
309.111	76.5
309.341	86.5
309.571	90.5
309.8	85.5
310.03	74.5
310.26	84.5
310.49	89.5
310.72	81.5
310.949	87.5
311.179	92.5
311.409	87.5
311.639	71.5
311.868	99.5
312.098	88.5
312.328	97.5
312.557	88.5
312.787	80.5
313.017	95.5
313.246	74.5
313.476	77.5
313.706	83.5
313.935	93.5
314.165	94.5
314.394	69.5
314.624	101.5
314.853	88.5
315.083	89.5
315.312	87.5
315.542	92.5
315.771	90.5
316.001	94.5
316.23	88.5
316.46	88.5
316.689	78.5
316.919	80.5
317.148	93.5
317.377	95.5
317.607	80.5
317.836	85.5
318.065	78.5
318.295	90.5
318.524	87.5
318.753	94.5
318.983	89.5
319.212	97.5
319.441	61.5
319.67	72.5
319.9	88.5
320.129	70.5
320.358	90.5
320.587	82.5
320.816	73.5
321.046	78.5
321.275	95.5
321.504	79.5
321.733	78.5
321.962	74.5
322.191	76.5
322.42	70.5
322.649	87.5
322.878	90.5
323.108	94.5
323.337	85.5
323.566	76.5
323.795	93.5
324.024	84.5
324.253	96.5
324.482	89.5
324.71	72.5
324.939	89.5
325.168	75.5
325.397	80.5
325.626	87.5
325.855	91.5
326.084	80.5
326.313	74.5
326.542	82.5
326.77	86.5
326.999	86.5
327.228	84.5
327.457	82.5
327.686	89.5
327.914	86.5
328.143	91.5
328.372	82.5
328.6	84.5
328.829	73.5
329.058	93.5
329.287	93.5
329.515	95.5
329.744	94.5
329.972	80.5
330.201	92.5
330.43	91.5
330.658	88.5
330.887	81.5
331.115	88.5
331.344	87.5
331.572	89.5
331.801	80.5
332.03	75.5
332.258	76.5
332.486	84.5
332.715	84.5
332.943	93.5
333.172	87.5
333.4	91.5
333.629	78.5
333.857	86.5
334.085	81.5
334.314	88.5
334.542	80.5
334.771	90.5
334.999	83.5
335.227	73.5
335.455	86.5
335.684	92.5
335.912	75.5
336.14	85.5
336.369	103.5
336.597	84.5
336.825	86.5
337.053	79.5
337.281	91.5
337.51	97.5
337.738	76.5
337.966	88.5
338.194	95.5
338.422	92.5
338.65	95.5
338.878	68.5
339.106	102.5
339.334	102.5
339.562	89.5
339.79	81.5
340.018	81.5
340.246	101.5
340.474	77.5
340.702	78.5
340.93	73.5
341.158	78.5
341.386	95.5
341.614	84.5
341.842	83.5
342.07	93.5
342.298	81.5
342.526	84.5
342.754	75.5
342.981	87.5
343.209	87.5
343.437	84.5
343.665	70.5
343.893	83.5
344.12	96.5
344.348	92.5
344.576	93.5
344.804	85.5
345.031	91.5
345.259	85.5
345.487	73.5
345.714	88.5
345.942	92.5
346.17	97.5
346.397	84.5
346.625	95.5
346.853	96.5
347.08	86.5
347.308	95.5
347.535	92.5
347.763	77.5
347.99	73.5
348.218	88.5
348.445	84.5
348.673	90.5
348.9	88.5
349.128	93.5
349.355	81.5
349.583	82.5
349.81	90.5
350.037	72.5
350.265	87.5
350.492	94.5
350.72	81.5
350.947	91.5
351.174	98.5
351.402	100.5
351.629	97.5
351.856	74.5
352.083	75.5
352.311	76.5
352.538	70.5
352.765	97.5
352.992	89.5
353.22	94.5
353.447	92.5
353.674	93.5
353.901	91.5
354.128	84.5
354.355	83.5
354.583	86.5
354.81	93.5
355.037	76.5
355.264	82.5
355.491	92.5
355.718	93.5
355.945	76.5
356.172	78.5
356.399	94.5
356.626	75.5
356.853	79.5
357.08	87.5
357.307	76.5
357.534	78.5
357.761	78.5
357.988	84.5
358.215	97.5
358.441	93.5
358.668	87.5
358.895	88.5
359.122	75.5
359.349	86.5
359.576	85.5
359.802	64.5
360.029	92.5
360.256	88.5
360.483	89.5
360.709	90.5
360.936	75.5
361.163	89.5
361.39	95.5
361.616	88.5
361.843	91.5
362.07	98.5
362.296	96.5
362.523	82.5
362.749	68.5
362.976	89.5
363.203	98.5
363.429	99.5
363.656	85.5
363.882	90.5
364.109	91.5
364.335	90.5
364.562	85.5
364.788	88.5
365.015	92.5
365.241	79.5
365.468	101.5
365.694	73.5
365.92	72.5
366.147	94.5
366.373	93.5
366.599	92.5
366.826	92.5
367.052	89.5
367.278	89.5
367.505	82.5
367.731	97.5
367.957	84.5
368.184	77.5
368.41	88.5
368.636	89.5
368.862	99.5
369.089	92.5
369.315	100.5
369.541	82.5
369.767	75.5
369.993	87.5
370.219	90.5
370.445	92.5
370.672	81.5
370.898	84.5
371.124	87.5
371.35	84.5
371.576	77.5
371.802	89.5
372.028	82.5
372.254	96.5
372.48	71.5
372.706	81.5
372.932	76.5
373.158	92.5
373.384	90.5
373.61	98.5
373.835	83.5
374.061	89.5
374.287	77.5
374.513	95.5
374.739	76.5
374.965	75.5
375.191	102.5
375.416	88.5
375.642	84.5
375.868	84.5
376.094	84.5
376.319	79.5
376.545	90.5
376.771	99.5
376.997	89.5
377.222	81.5
377.448	73.5
377.674	82.5
377.899	86.5
378.125	70.5
378.35	83.5
378.576	87.5
378.802	84.5
379.027	92.5
379.253	81.5
379.478	76.5
379.704	77.5
379.929	80.5
380.155	77.5
380.38	85.5
380.606	69.5
380.831	74.5
381.057	78.5
381.282	94.5
381.507	105.5
381.733	87.5
381.958	105.5
382.184	94.5
382.409	93.5
382.634	81.5
382.86	84.5
383.085	96.5
383.31	82.5
383.535	72.5
383.761	88.5
383.986	97.5
384.211	71.5
384.436	72.5
384.662	81.5
384.887	89.5
385.112	75.5
385.337	87.5
385.562	93.5
385.787	66.5
386.013	90.5
386.238	80.5
386.463	98.5
386.688	98.5
386.913	77.5
387.138	84.5
387.363	81.5
387.588	86.5
387.813	87.5
388.038	81.5
388.263	85.5
388.488	88.5
388.713	80.5
388.938	78.5
389.163	75.5
389.387	91.5
389.612	90.5
389.837	84.5
390.062	83.5
390.287	78.5
390.512	93.5
390.736	79.5
390.961	73.5
391.186	94.5
391.411	81.5
391.636	95.5
391.86	81.5
392.085	88.5
392.31	73.5
392.534	88.5
392.759	86.5
392.984	82.5
393.208	81.5
393.433	91.5
393.658	82.5
393.882	79.5
394.107	95.5
394.331	83.5
394.556	88.5
394.78	82.5
395.005	84.5
395.229	97.5
395.454	83.5
395.678	91.5
395.903	99.5
396.127	97.5
396.352	85.5
396.576	85.5
396.801	100.5
397.025	95.5
397.249	81.5
397.474	81.5
397.698	89.5
397.922	76.5
398.147	68.5
398.371	88.5
398.595	86.5
398.82	78.5
399.044	87.5
399.268	82.5
399.492	76.5
399.717	89.5
399.941	84.5
400.165	76.5
400.389	83.5
400.613	85.5
400.837	87.5
401.062	89.5
401.286	69.5
401.51	71.5
401.734	89.5
401.958	88.5
402.182	72.5
402.406	83.5
402.63	84.5
402.854	84.5
403.078	91.5
403.302	80.5
403.526	79.5
403.75	92.5
403.974	86.5
404.198	73.5
404.422	78.5
404.645	83.5
404.869	86.5
405.093	84.5
405.317	80.5
405.541	84.5
405.765	75.5
405.988	92.5
406.212	89.5
406.436	86.5
406.66	89.5
406.883	102.5
407.107	82.5
407.331	92.5
407.555	82.5
407.778	80.5
408.002	88.5
408.226	87.5
408.449	89.5
408.673	80.5
408.896	84.5
409.12	85.5
409.344	80.5
409.567	90.5
409.791	81.5
410.014	90.5
410.238	75.5
410.461	89.5
410.685	79.5
410.908	73.5
411.132	88.5
411.355	73.5
411.578	88.5
411.802	94.5
412.025	74.5
412.249	87.5
412.472	70.5
412.695	70.5
412.919	80.5
413.142	85.5
413.365	76.5
413.589	90.5
413.812	90.5
414.035	93.5
414.258	74.5
414.482	79.5
414.705	79.5
414.928	78.5
415.151	80.5
415.374	85.5
415.597	91.5
415.821	75.5
416.044	86.5
416.267	92.5
416.49	78.5
416.713	75.5
416.936	82.5
417.159	81.5
417.382	91.5
417.605	86.5
417.828	91.5
418.051	93.5
418.274	94.5
418.497	80.5
418.72	80.5
418.943	85.5
419.166	73.5
419.389	94.5
419.611	86.5
419.834	84.5
420.057	89.5
420.28	92.5
420.503	89.5
420.726	84.5
420.948	58.5
421.171	95.5
421.394	71.5
421.617	87.5
421.839	87.5
422.062	87.5
422.285	88.5
422.507	100.5
422.73	102.5
422.953	99.5
423.175	94.5
423.398	89.5
423.621	95.5
423.843	87.5
424.066	78.5
424.288	84.5
424.511	89.5
424.733	76.5
424.956	88.5
425.178	79.5
425.401	67.5
425.623	83.5
425.846	91.5
426.068	87.5
426.291	90.5
426.513	88.5
426.735	79.5
426.958	84.5
427.18	73.5
427.402	90.5
427.625	83.5
427.847	88.5
428.069	76.5
428.292	101.5
428.514	72.5
428.736	74.5
428.958	87.5
429.181	86.5
429.403	71.5
429.625	93.5
429.847	91.5
430.069	77.5
430.292	94.5
430.514	87.5
430.736	78.5
430.958	87.5
431.18	86.5
431.402	78.5
431.624	78.5
431.846	88.5
432.068	93.5
432.29	88.5
432.512	80.5
432.734	87.5
432.956	87.5
433.178	96.5
433.4	87.5
433.622	88.5
433.844	78.5
434.066	83.5
434.287	79.5
434.509	86.5
434.731	79.5
434.953	81.5
435.175	80.5
435.397	79.5
435.618	76.5
435.84	81.5
436.062	74.5
436.284	91.5
436.505	92.5
436.727	84.5
436.949	77.5
437.17	90.5
437.392	85.5
437.614	84.5
437.835	76.5
438.057	96.5
438.278	77.5
438.5	86.5
438.721	82.5
438.943	95.5
439.165	81.5
439.386	85.5
439.608	84.5
439.829	71.5
440.05	88.5
440.272	84.5
440.493	88.5
440.715	74.5
440.936	89.5
441.158	84.5
441.379	84.5
441.6	91.5
441.822	81.5
442.043	74.5
442.264	75.5
442.486	94.5
442.707	88.5
442.928	96.5
443.149	82.5
443.371	93.5
443.592	88.5
443.813	76.5
444.034	74.5
444.255	91.5
444.476	71.5
444.698	86.5
444.919	77.5
445.14	145.5
445.361	116.5
445.582	84.5
445.803	73.5
446.024	85.5
446.245	81.5
446.466	96.5
446.687	74.5
446.908	74.5
447.129	82.5
447.35	75.5
447.571	70.5
447.792	89.5
448.013	82.5
448.234	80.5
448.455	76.5
448.675	71.5
448.896	79.5
449.117	77.5
449.338	92.5
449.559	84.5
449.779	82.5
450	98.5
450.221	92.5
450.442	98.5
450.662	84.5
450.883	77.5
451.104	73.5
451.324	86.5
451.545	78.5
451.766	84.5
451.986	84.5
452.207	88.5
452.428	79.5
452.648	68.5
452.869	72.5
453.089	83.5
453.31	81.5
453.53	83.5
453.751	81.5
453.971	87.5
454.192	83.5
454.412	87.5
454.633	87.5
454.853	89.5
455.073	83.5
455.294	84.5
455.514	90.5
455.734	90.5
455.955	82.5
456.175	76.5
456.395	76.5
456.616	78.5
456.836	84.5
457.056	79.5
457.276	82.5
457.497	83.5
457.717	71.5
457.937	80.5
458.157	78.5
458.377	66.5
458.598	94.5
458.818	85.5
459.038	86.5
459.258	74.5
459.478	82.5
459.698	79.5
459.918	91.5
460.138	71.5
460.358	74.5
460.578	91.5
460.798	84.5
461.018	73.5
461.238	82.5
461.458	74.5
461.678	82.5
461.898	90.5
462.118	67.5
462.338	74.5
462.558	80.5
462.777	85.5
462.997	82.5
463.217	79.5
463.437	88.5
463.657	86.5
463.876	84.5
464.096	84.5
464.316	80.5
464.536	80.5
464.755	67.5
464.975	76.5
465.195	83.5
465.414	92.5
465.634	72.5
465.854	88.5
466.073	85.5
466.293	73.5
466.512	90.5
466.732	82.5
466.951	85.5
467.171	80.5
467.391	71.5
467.61	80.5
467.829	90.5
468.049	74.5
468.268	80.5
468.488	77.5
468.707	74.5
468.927	92.5
469.146	79.5
469.365	78.5
469.585	89.5
469.804	84.5
470.023	92.5
470.243	87.5
470.462	80.5
470.681	77.5
470.901	66.5
471.12	89.5
471.339	89.5
471.558	88.5
471.777	74.5
471.997	76.5
472.216	79.5
472.435	80.5
472.654	86.5
472.873	78.5
473.092	96.5
473.311	93.5
473.53	77.5
473.749	79.5
473.968	77.5
474.187	108.5
474.406	72.5
474.625	80.5
474.844	71.5
475.063	77.5
475.282	84.5
475.501	72.5
475.72	90.5
475.939	86.5
476.158	71.5
476.377	70.5
476.596	78.5
476.814	73.5
477.033	83.5
477.252	85.5
477.471	87.5
477.69	77.5
477.908	80.5
478.127	92.5
478.346	79.5
478.564	80.5
478.783	84.5
479.002	66.5
479.22	88.5
479.439	94.5
479.658	86.5
479.876	74.5
480.095	68.5
480.313	90.5
480.532	85.5
480.751	81.5
480.969	92.5
481.188	97.5
481.406	95.5
481.624	87.5
481.843	88.5
482.061	81.5
482.28	78.5
482.498	90.5
482.717	95.5
482.935	97.5
483.153	76.5
483.372	72.5
483.59	92.5
483.808	79.5
484.027	90.5
484.245	77.5
484.463	82.5
484.681	105.5
484.9	70.5
485.118	88.5
485.336	80.5
485.554	87.5
485.772	93.5
485.99	94.5
486.209	78.5
486.427	85.5
486.645	85.5
486.863	88.5
487.081	76.5
487.299	82.5
487.517	97.5
487.735	72.5
487.953	90.5
488.171	79.5
488.389	90.5
488.607	55.5
488.825	88.5
489.043	80.5
489.261	81.5
489.479	83.5
489.696	85.5
489.914	90.5
490.132	104.5
490.35	94.5
490.568	94.5
490.786	87.5
491.003	82.5
491.221	72.5
491.439	74.5
491.657	82.5
491.874	76.5
492.092	87.5
492.31	82.5
492.527	87.5
492.745	78.5
492.963	91.5
493.18	95.5
493.398	87.5
493.615	92.5
493.833	89.5
494.05	74.5
494.268	83.5
494.485	84.5
494.703	87.5
494.92	95.5
495.138	92.5
495.355	98.5
495.573	90.5
495.79	67.5
496.008	77.5
496.225	86.5
496.442	94.5
496.66	84.5
496.877	80.5
497.094	82.5
497.312	92.5
497.529	84.5
497.746	86.5
497.963	89.5
498.181	93.5
498.398	96.5
498.615	86.5
498.832	85.5
499.049	74.5
499.267	79.5
499.484	98.5
499.701	89.5
499.918	94.5
500.135	86.5
500.352	94.5
500.569	93.5
500.786	88.5
501.003	95.5
501.22	85.5
501.437	89.5
501.654	79.5
501.871	82.5
502.088	82.5
502.305	81.5
502.522	86.5
502.739	84.5
502.956	76.5
503.172	89.5
503.389	82.5
503.606	85.5
503.823	85.5
504.04	90.5
504.256	87.5
504.473	84.5
504.69	77.5
504.907	88.5
505.123	66.5
505.34	96.5
505.557	81.5
505.773	85.5
505.99	85.5
506.207	92.5
506.423	81.5
506.64	88.5
506.856	81.5
507.073	81.5
507.289	81.5
507.506	81.5
507.722	74.5
507.939	79.5
508.155	87.5
508.372	86.5
508.588	88.5
508.805	91.5
509.021	88.5
509.238	70.5
509.454	80.5
509.67	86.5
509.887	79.5
510.103	73.5
510.319	88.5
510.536	82.5
510.752	88.5
510.968	81.5
511.184	84.5
511.401	85.5
511.617	97.5
511.833	89.5
512.049	89.5
512.265	78.5
512.481	76.5
512.698	90.5
512.914	82.5
513.13	93.5
513.346	96.5
513.562	90.5
513.778	95.5
513.994	87.5
514.21	89.5
514.426	85.5
514.642	92.5
514.858	80.5
515.074	79.5
515.29	95.5
515.506	97.5
515.721	86.5
515.937	96.5
516.153	86.5
516.369	78.5
516.585	86.5
516.801	79.5
517.016	80.5
517.232	80.5
517.448	92.5
517.664	95.5
517.879	65.5
518.095	82.5
518.311	73.5
518.527	92.5
518.742	102.5
518.958	95.5
519.173	90.5
519.389	77.5
519.605	92.5
519.82	73.5
520.036	69.5
520.251	78.5
520.467	75.5
520.682	69.5
520.898	94.5
521.113	75.5
521.329	89.5
521.544	85.5
521.76	92.5
521.975	74.5
522.19	92.5
522.406	74.5
522.621	82.5
522.836	82.5
523.052	72.5
523.267	76.5
523.482	93.5
523.698	85.5
523.913	86.5
524.128	86.5
524.343	86.5
524.559	77.5
524.774	86.5
524.989	82.5
525.204	78.5
525.419	80.5
525.634	77.5
525.849	77.5
526.064	78.5
526.28	95.5
526.495	113.5
526.71	96.5
526.925	88.5
527.14	92.5
527.355	95.5
527.57	77.5
527.785	86.5
527.999	76.5
528.214	84.5
528.429	82.5
528.644	87.5
528.859	85.5
529.074	82.5
529.289	88.5
529.503	84.5
529.718	82.5
529.933	75.5
530.148	91.5
530.363	97.5
530.577	85.5
530.792	88.5
531.007	91.5
531.221	76.5
531.436	92.5
531.651	95.5
531.865	81.5
532.08	85.5
532.295	99.5
532.509	96.5
532.724	84.5
532.938	90.5
533.153	82.5
533.367	78.5
533.582	76.5
533.796	78.5
534.011	84.5
534.225	81.5
534.44	92.5
534.654	92.5
534.868	91.5
535.083	84.5
535.297	88.5
535.511	85.5
535.726	89.5
535.94	90.5
536.154	85.5
536.369	89.5
536.583	76.5
536.797	87.5
537.011	86.5
537.225	98.5
537.44	82.5
537.654	96.5
537.868	94.5
538.082	89.5
538.296	89.5
538.51	99.5
538.724	86.5
538.938	83.5
539.153	95.5
539.367	83.5
539.581	93.5
539.795	84.5
540.009	70.5
540.222	76.5
