Data from Dirtheat1_HRD10591_00007.txt Node
Date: Fri Dec 27 15:13:30 EST 2024
User: Yrep
Spectrometer: HR+D1059
Trigger mode: 1
Integration Time (sec): 1.000000E-1
Scans to average: 1
Electric dark correction enabled: true
Nonlinearity correction enabled: false
Boxcar width: 0
XAxis mode: Wavelengths
Number of Pixels in Spectrum: 2048
>>>>>Begin Spectral Data<<<<<
223.165	-23.62
223.4	-23.62
223.635	-23.62
223.869	-17.62
224.104	-17.62
224.338	-4.62
224.573	-30.62
224.808	-14.62
225.042	-4.62
225.277	-5.62
225.511	-10.62
225.746	7.38
225.98	10.38
226.215	2.38
226.449	23.38
226.683	8.38
226.918	37.38
227.152	40.38
227.387	20.38
227.621	49.38
227.856	40.38
228.09	40.38
228.324	46.38
228.559	50.38
228.793	47.38
229.027	60.38
229.262	67.38
229.496	59.38
229.73	73.38
229.964	76.38
230.199	68.38
230.433	61.38
230.667	67.38
230.901	76.38
231.136	77.38
231.37	48.38
231.604	67.38
231.838	68.38
232.072	73.38
232.306	73.38
232.541	74.38
232.775	68.38
233.009	68.38
233.243	81.38
233.477	82.38
233.711	78.38
233.945	90.38
234.179	74.38
234.413	77.38
234.647	73.38
234.881	82.38
235.115	68.38
235.349	81.38
235.583	59.38
235.817	63.38
236.051	70.38
236.285	76.38
236.519	72.38
236.753	78.38
236.987	74.38
237.221	74.38
237.455	71.38
237.689	72.38
237.922	63.38
238.156	73.38
238.39	70.38
238.624	78.38
238.858	84.38
239.091	72.38
239.325	68.38
239.559	68.38
239.793	80.38
240.027	80.38
240.26	68.38
240.494	72.38
240.728	70.38
240.961	75.38
241.195	76.38
241.429	86.38
241.662	72.38
241.896	68.38
242.13	73.38
242.363	73.38
242.597	58.38
242.83	89.38
243.064	72.38
243.298	72.38
243.531	75.38
243.765	82.38
243.998	67.38
244.232	81.38
244.465	82.38
244.699	70.38
244.932	76.38
245.166	73.38
245.399	88.38
245.633	77.38
245.866	73.38
246.099	76.38
246.333	78.38
246.566	75.38
246.8	78.38
247.033	63.38
247.266	77.38
247.5	75.38
247.733	77.38
247.966	73.38
248.2	79.38
248.433	70.38
248.666	70.38
248.899	85.38
249.133	77.38
249.366	85.38
249.599	92.38
249.832	85.38
250.066	89.38
250.299	84.38
250.532	73.38
250.765	71.38
250.998	70.38
251.231	68.38
251.465	68.38
251.698	77.38
251.931	75.38
252.164	83.38
252.397	61.38
252.63	59.38
252.863	52.38
253.096	55.38
253.329	75.38
253.562	68.38
253.795	82.38
254.028	93.38
254.261	99.38
254.494	74.38
254.727	67.38
254.96	78.38
255.193	79.38
255.426	88.38
255.659	80.38
255.892	68.38
256.124	70.38
256.357	76.38
256.59	79.38
256.823	71.38
257.056	87.38
257.289	68.38
257.521	70.38
257.754	81.38
257.987	84.38
258.22	77.38
258.452	77.38
258.685	72.38
258.918	83.38
259.151	87.38
259.383	80.38
259.616	85.38
259.849	61.38
260.081	81.38
260.314	61.38
260.547	84.38
260.779	75.38
261.012	86.38
261.244	82.38
261.477	80.38
261.71	69.38
261.942	82.38
262.175	73.38
262.407	70.38
262.64	85.38
262.872	80.38
263.105	94.38
263.337	75.38
263.57	88.38
263.802	76.38
264.035	85.38
264.267	77.38
264.499	90.38
264.732	73.38
264.964	82.38
265.197	71.38
265.429	82.38
265.661	79.38
265.894	72.38
266.126	73.38
266.358	82.38
266.591	92.38
266.823	67.38
267.055	76.38
267.287	76.38
267.52	75.38
267.752	96.38
267.984	78.38
268.216	68.38
268.448	91.38
268.681	88.38
268.913	77.38
269.145	74.38
269.377	68.38
269.609	78.38
269.841	90.38
270.073	81.38
270.306	85.38
270.538	80.38
270.77	70.38
271.002	85.38
271.234	73.38
271.466	88.38
271.698	80.38
271.93	84.38
272.162	88.38
272.394	79.38
272.626	72.38
272.858	68.38
273.09	63.38
273.322	91.38
273.553	96.38
273.785	74.38
274.017	69.38
274.249	73.38
274.481	93.38
274.713	76.38
274.945	75.38
275.176	100.38
275.408	86.38
275.64	72.38
275.872	85.38
276.104	79.38
276.335	78.38
276.567	80.38
276.799	72.38
277.031	86.38
277.262	81.38
277.494	80.38
277.726	92.38
277.957	82.38
278.189	86.38
278.421	80.38
278.652	59.38
278.884	83.38
279.115	90.38
279.347	80.38
279.579	86.38
279.81	73.38
280.042	67.38
280.273	85.38
280.505	83.38
280.736	70.38
280.968	74.38
281.199	81.38
281.431	81.38
281.662	86.38
281.894	79.38
282.125	86.38
282.356	74.38
282.588	63.38
282.819	72.38
283.051	99.38
283.282	76.38
283.513	83.38
283.745	81.38
283.976	69.38
284.207	90.38
284.439	86.38
284.67	86.38
284.901	81.38
285.132	79.38
285.364	75.38
285.595	84.38
285.826	84.38
286.057	74.38
286.288	69.38
286.52	78.38
286.751	83.38
286.982	84.38
287.213	85.38
287.444	91.38
287.675	82.38
287.906	67.38
288.138	80.38
288.369	89.38
288.6	83.38
288.831	86.38
289.062	84.38
289.293	88.38
289.524	82.38
289.755	85.38
289.986	74.38
290.217	85.38
290.448	87.38
290.679	90.38
290.91	80.38
291.141	72.38
291.371	84.38
291.602	72.38
291.833	82.38
292.064	84.38
292.295	85.38
292.526	71.38
292.757	84.38
292.987	83.38
293.218	78.38
293.449	93.38
293.68	96.38
293.91	79.38
294.141	86.38
294.372	75.38
294.603	70.38
294.833	63.38
295.064	82.38
295.295	75.38
295.525	90.38
295.756	74.38
295.987	92.38
296.217	85.38
296.448	85.38
296.679	94.38
296.909	77.38
297.14	88.38
297.37	79.38
297.601	86.38
297.831	84.38
298.062	74.38
298.292	81.38
298.523	81.38
298.753	74.38
298.984	100.38
299.214	84.38
299.445	62.38
299.675	81.38
299.905	87.38
300.136	76.38
300.366	93.38
300.597	82.38
300.827	84.38
301.057	76.38
301.288	83.38
301.518	104.38
301.748	76.38
301.979	108.38
302.209	78.38
302.439	77.38
302.669	87.38
302.9	83.38
303.13	98.38
303.36	73.38
303.59	74.38
303.82	75.38
304.051	90.38
304.281	74.38
304.511	75.38
304.741	73.38
304.971	83.38
305.201	81.38
305.431	68.38
305.661	69.38
305.891	78.38
306.121	81.38
306.352	85.38
306.582	90.38
306.812	79.38
307.042	92.38
307.272	96.38
307.502	101.38
307.731	79.38
307.961	88.38
308.191	71.38
308.421	84.38
308.651	89.38
308.881	88.38
309.111	91.38
309.341	91.38
309.571	84.38
309.8	89.38
310.03	87.38
310.26	82.38
310.49	87.38
310.72	81.38
310.949	74.38
311.179	78.38
311.409	89.38
311.639	71.38
311.868	81.38
312.098	82.38
312.328	82.38
312.557	76.38
312.787	77.38
313.017	87.38
313.246	74.38
313.476	88.38
313.706	84.38
313.935	85.38
314.165	79.38
314.394	85.38
314.624	76.38
314.853	80.38
315.083	84.38
315.312	87.38
315.542	92.38
315.771	94.38
316.001	86.38
316.23	84.38
316.46	89.38
316.689	89.38
316.919	89.38
317.148	84.38
317.377	78.38
317.607	85.38
317.836	66.38
318.065	75.38
318.295	76.38
318.524	75.38
318.753	80.38
318.983	73.38
319.212	81.38
319.441	75.38
319.67	81.38
319.9	90.38
320.129	103.38
320.358	89.38
320.587	81.38
320.816	77.38
321.046	74.38
321.275	81.38
321.504	83.38
321.733	74.38
321.962	96.38
322.191	51.38
322.42	68.38
322.649	85.38
322.878	68.38
323.108	87.38
323.337	86.38
323.566	77.38
323.795	71.38
324.024	80.38
324.253	97.38
324.482	81.38
324.71	73.38
324.939	89.38
325.168	84.38
325.397	77.38
325.626	79.38
325.855	82.38
326.084	85.38
326.313	92.38
326.542	80.38
326.77	88.38
326.999	83.38
327.228	86.38
327.457	68.38
327.686	72.38
327.914	89.38
328.143	77.38
328.372	77.38
328.6	73.38
328.829	68.38
329.058	74.38
329.287	91.38
329.515	85.38
329.744	87.38
329.972	76.38
330.201	77.38
330.43	80.38
330.658	88.38
330.887	86.38
331.115	86.38
331.344	87.38
331.572	86.38
331.801	88.38
332.03	65.38
332.258	90.38
332.486	92.38
332.715	70.38
332.943	83.38
333.172	86.38
333.4	86.38
333.629	67.38
333.857	78.38
334.085	73.38
334.314	83.38
334.542	77.38
334.771	80.38
334.999	75.38
335.227	84.38
335.455	83.38
335.684	85.38
335.912	75.38
336.14	79.38
336.369	89.38
336.597	69.38
336.825	72.38
337.053	87.38
337.281	81.38
337.51	86.38
337.738	89.38
337.966	76.38
338.194	86.38
338.422	84.38
338.65	81.38
338.878	73.38
339.106	84.38
339.334	84.38
339.562	64.38
339.79	98.38
340.018	74.38
340.246	77.38
340.474	81.38
340.702	77.38
340.93	63.38
341.158	65.38
341.386	81.38
341.614	81.38
341.842	89.38
342.07	91.38
342.298	86.38
342.526	85.38
342.754	92.38
342.981	82.38
343.209	72.38
343.437	96.38
343.665	83.38
343.893	98.38
344.12	81.38
344.348	85.38
344.576	84.38
344.804	72.38
345.031	93.38
345.259	84.38
345.487	82.38
345.714	80.38
345.942	77.38
346.17	80.38
346.397	88.38
346.625	80.38
346.853	72.38
347.08	76.38
347.308	80.38
347.535	89.38
347.763	71.38
347.99	101.38
348.218	77.38
348.445	86.38
348.673	79.38
348.9	89.38
349.128	85.38
349.355	79.38
349.583	78.38
349.81	85.38
350.037	71.38
350.265	93.38
350.492	97.38
350.72	82.38
350.947	82.38
351.174	73.38
351.402	83.38
351.629	82.38
351.856	71.38
352.083	74.38
352.311	84.38
352.538	85.38
352.765	72.38
352.992	95.38
353.22	88.38
353.447	82.38
353.674	84.38
353.901	86.38
354.128	74.38
354.355	78.38
354.583	80.38
354.81	89.38
355.037	69.38
355.264	93.38
355.491	74.38
355.718	77.38
355.945	62.38
356.172	91.38
356.399	87.38
356.626	88.38
356.853	81.38
357.08	83.38
357.307	89.38
357.534	82.38
357.761	82.38
357.988	87.38
358.215	88.38
358.441	87.38
358.668	78.38
358.895	74.38
359.122	77.38
359.349	83.38
359.576	91.38
359.802	81.38
360.029	83.38
360.256	84.38
360.483	95.38
360.709	72.38
360.936	106.38
361.163	92.38
361.39	82.38
361.616	89.38
361.843	77.38
362.07	74.38
362.296	85.38
362.523	86.38
362.749	86.38
362.976	72.38
363.203	85.38
363.429	71.38
363.656	87.38
363.882	90.38
364.109	92.38
364.335	73.38
364.562	83.38
364.788	80.38
365.015	85.38
365.241	70.38
365.468	88.38
365.694	82.38
365.92	82.38
366.147	77.38
366.373	68.38
366.599	81.38
366.826	80.38
367.052	79.38
367.278	69.38
367.505	87.38
367.731	95.38
367.957	72.38
368.184	72.38
368.41	78.38
368.636	72.38
368.862	99.38
369.089	73.38
369.315	74.38
369.541	89.38
369.767	80.38
369.993	75.38
370.219	85.38
370.445	86.38
370.672	92.38
370.898	69.38
371.124	64.38
371.35	89.38
371.576	77.38
371.802	83.38
372.028	84.38
372.254	77.38
372.48	77.38
372.706	84.38
372.932	97.38
373.158	68.38
373.384	85.38
373.61	83.38
373.835	88.38
374.061	84.38
374.287	87.38
374.513	76.38
374.739	73.38
374.965	80.38
375.191	69.38
375.416	89.38
375.642	69.38
375.868	75.38
376.094	90.38
376.319	84.38
376.545	77.38
376.771	79.38
376.997	77.38
377.222	80.38
377.448	79.38
377.674	80.38
377.899	71.38
378.125	61.38
378.35	99.38
378.576	91.38
378.802	88.38
379.027	86.38
379.253	98.38
379.478	86.38
379.704	72.38
379.929	74.38
380.155	85.38
380.38	69.38
380.606	83.38
380.831	81.38
381.057	92.38
381.282	80.38
381.507	83.38
381.733	78.38
381.958	86.38
382.184	75.38
382.409	79.38
382.634	82.38
382.86	93.38
383.085	80.38
383.31	77.38
383.535	74.38
383.761	83.38
383.986	89.38
384.211	72.38
384.436	75.38
384.662	80.38
384.887	85.38
385.112	90.38
385.337	80.38
385.562	84.38
385.787	71.38
386.013	83.38
386.238	86.38
386.463	80.38
386.688	88.38
386.913	75.38
387.138	76.38
387.363	80.38
387.588	92.38
387.813	90.38
388.038	78.38
388.263	72.38
388.488	77.38
388.713	70.38
388.938	77.38
389.163	89.38
389.387	86.38
389.612	86.38
389.837	70.38
390.062	81.38
390.287	74.38
390.512	64.38
390.736	76.38
390.961	88.38
391.186	78.38
391.411	65.38
391.636	75.38
391.86	70.38
392.085	84.38
392.31	74.38
392.534	85.38
392.759	80.38
392.984	93.38
393.208	68.38
393.433	96.38
393.658	82.38
393.882	74.38
394.107	68.38
394.331	85.38
394.556	79.38
394.78	76.38
395.005	84.38
395.229	74.38
395.454	79.38
395.678	66.38
395.903	78.38
396.127	91.38
396.352	84.38
396.576	91.38
396.801	74.38
397.025	93.38
397.249	79.38
397.474	87.38
397.698	68.38
397.922	74.38
398.147	79.38
398.371	76.38
398.595	86.38
398.82	69.38
399.044	66.38
399.268	82.38
399.492	66.38
399.717	80.38
399.941	86.38
400.165	73.38
400.389	77.38
400.613	77.38
400.837	72.38
401.062	70.38
401.286	77.38
401.51	81.38
401.734	62.38
401.958	62.38
402.182	79.38
402.406	73.38
402.63	80.38
402.854	74.38
403.078	79.38
403.302	80.38
403.526	82.38
403.75	75.38
403.974	80.38
404.198	95.38
404.422	96.38
404.645	86.38
404.869	81.38
405.093	84.38
405.317	85.38
405.541	87.38
405.765	83.38
405.988	80.38
406.212	78.38
406.436	66.38
406.66	92.38
406.883	75.38
407.107	73.38
407.331	84.38
407.555	77.38
407.778	64.38
408.002	86.38
408.226	73.38
408.449	82.38
408.673	91.38
408.896	89.38
409.12	66.38
409.344	66.38
409.567	67.38
409.791	69.38
410.014	72.38
410.238	67.38
410.461	77.38
410.685	74.38
410.908	88.38
411.132	73.38
411.355	76.38
411.578	81.38
411.802	66.38
412.025	78.38
412.249	90.38
412.472	82.38
412.695	89.38
412.919	65.38
413.142	72.38
413.365	69.38
413.589	79.38
413.812	70.38
414.035	81.38
414.258	82.38
414.482	72.38
414.705	80.38
414.928	80.38
415.151	84.38
415.374	85.38
415.597	80.38
415.821	78.38
416.044	76.38
416.267	67.38
416.49	80.38
416.713	82.38
416.936	76.38
417.159	71.38
417.382	80.38
417.605	84.38
417.828	83.38
418.051	88.38
418.274	75.38
418.497	67.38
418.72	78.38
418.943	73.38
419.166	86.38
419.389	68.38
419.611	77.38
419.834	71.38
420.057	88.38
420.28	75.38
420.503	72.38
420.726	70.38
420.948	71.38
421.171	81.38
421.394	84.38
421.617	80.38
421.839	70.38
422.062	69.38
422.285	65.38
422.507	85.38
422.73	101.38
422.953	90.38
423.175	93.38
423.398	76.38
423.621	88.38
423.843	86.38
424.066	83.38
424.288	72.38
424.511	97.38
424.733	76.38
424.956	88.38
425.178	85.38
425.401	74.38
425.623	69.38
425.846	64.38
426.068	92.38
426.291	76.38
426.513	94.38
426.735	75.38
426.958	77.38
427.18	77.38
427.402	81.38
427.625	82.38
427.847	71.38
428.069	62.38
428.292	85.38
428.514	100.38
428.736	89.38
428.958	83.38
429.181	69.38
429.403	71.38
429.625	86.38
429.847	92.38
430.069	83.38
430.292	99.38
430.514	70.38
430.736	73.38
430.958	89.38
431.18	77.38
431.402	82.38
431.624	68.38
431.846	75.38
432.068	75.38
432.29	71.38
432.512	72.38
432.734	83.38
432.956	90.38
433.178	75.38
433.4	77.38
433.622	67.38
433.844	86.38
434.066	80.38
434.287	79.38
434.509	78.38
434.731	71.38
434.953	74.38
435.175	71.38
435.397	77.38
435.618	79.38
435.84	85.38
436.062	97.38
436.284	91.38
436.505	74.38
436.727	76.38
436.949	72.38
437.17	78.38
437.392	78.38
437.614	81.38
437.835	74.38
438.057	72.38
438.278	82.38
438.5	77.38
438.721	77.38
438.943	80.38
439.165	92.38
439.386	74.38
439.608	72.38
439.829	76.38
440.05	75.38
440.272	83.38
440.493	72.38
440.715	77.38
440.936	86.38
441.158	68.38
441.379	86.38
441.6	83.38
441.822	71.38
442.043	77.38
442.264	80.38
442.486	79.38
442.707	81.38
442.928	85.38
443.149	88.38
443.371	92.38
443.592	77.38
443.813	72.38
444.034	77.38
444.255	82.38
444.476	86.38
444.698	79.38
444.919	75.38
445.14	155.38
445.361	103.38
445.582	94.38
445.803	90.38
446.024	76.38
446.245	88.38
446.466	91.38
446.687	75.38
446.908	81.38
447.129	72.38
447.35	85.38
447.571	85.38
447.792	64.38
448.013	74.38
448.234	88.38
448.455	65.38
448.675	72.38
448.896	68.38
449.117	74.38
449.338	84.38
449.559	97.38
449.779	83.38
450	85.38
450.221	97.38
450.442	84.38
450.662	78.38
450.883	80.38
451.104	77.38
451.324	63.38
451.545	79.38
451.766	72.38
451.986	65.38
452.207	83.38
452.428	80.38
452.648	77.38
452.869	76.38
453.089	75.38
453.31	68.38
453.53	85.38
453.751	80.38
453.971	74.38
454.192	73.38
454.412	83.38
454.633	74.38
454.853	77.38
455.073	89.38
455.294	91.38
455.514	85.38
455.734	82.38
455.955	81.38
456.175	76.38
456.395	93.38
456.616	88.38
456.836	85.38
457.056	78.38
457.276	71.38
457.497	73.38
457.717	83.38
457.937	76.38
458.157	79.38
458.377	59.38
458.598	73.38
458.818	93.38
459.038	78.38
459.258	82.38
459.478	83.38
459.698	66.38
459.918	67.38
460.138	77.38
460.358	69.38
460.578	83.38
460.798	88.38
461.018	93.38
461.238	84.38
461.458	88.38
461.678	96.38
461.898	76.38
462.118	88.38
462.338	84.38
462.558	73.38
462.777	74.38
462.997	76.38
463.217	84.38
463.437	80.38
463.657	82.38
463.876	87.38
464.096	76.38
464.316	82.38
464.536	77.38
464.755	78.38
464.975	73.38
465.195	85.38
465.414	84.38
465.634	77.38
465.854	77.38
466.073	77.38
466.293	83.38
466.512	84.38
466.732	67.38
466.951	79.38
467.171	71.38
467.391	92.38
467.61	78.38
467.829	83.38
468.049	92.38
468.268	85.38
468.488	73.38
468.707	76.38
468.927	77.38
469.146	79.38
469.365	74.38
469.585	88.38
469.804	79.38
470.023	76.38
470.243	78.38
470.462	87.38
470.681	72.38
470.901	82.38
471.12	90.38
471.339	90.38
471.558	70.38
471.777	77.38
471.997	85.38
472.216	93.38
472.435	80.38
472.654	70.38
472.873	76.38
473.092	71.38
473.311	75.38
473.53	72.38
473.749	93.38
473.968	86.38
474.187	85.38
474.406	82.38
474.625	74.38
474.844	72.38
475.063	78.38
475.282	86.38
475.501	80.38
475.72	64.38
475.939	83.38
476.158	80.38
476.377	66.38
476.596	81.38
476.814	85.38
477.033	82.38
477.252	84.38
477.471	87.38
477.69	80.38
477.908	75.38
478.127	84.38
478.346	72.38
478.564	84.38
478.783	66.38
479.002	73.38
479.22	88.38
479.439	83.38
479.658	66.38
479.876	78.38
480.095	82.38
480.313	78.38
480.532	98.38
480.751	88.38
480.969	77.38
481.188	79.38
481.406	75.38
481.624	86.38
481.843	70.38
482.061	83.38
482.28	77.38
482.498	75.38
482.717	92.38
482.935	65.38
483.153	81.38
483.372	62.38
483.59	81.38
483.808	80.38
484.027	85.38
484.245	85.38
484.463	82.38
484.681	80.38
484.9	73.38
485.118	79.38
485.336	94.38
485.554	88.38
485.772	78.38
485.99	75.38
486.209	84.38
486.427	83.38
486.645	86.38
486.863	76.38
487.081	83.38
487.299	69.38
487.517	78.38
487.735	77.38
487.953	78.38
488.171	83.38
488.389	79.38
488.607	92.38
488.825	80.38
489.043	77.38
489.261	80.38
489.479	70.38
489.696	70.38
489.914	79.38
490.132	89.38
490.35	84.38
490.568	100.38
490.786	82.38
491.003	92.38
491.221	80.38
491.439	66.38
491.657	74.38
491.874	88.38
492.092	88.38
492.31	70.38
492.527	90.38
492.745	79.38
492.963	70.38
493.18	82.38
493.398	74.38
493.615	85.38
493.833	85.38
494.05	65.38
494.268	83.38
494.485	80.38
494.703	92.38
494.92	87.38
495.138	77.38
495.355	73.38
495.573	70.38
495.79	85.38
496.008	78.38
496.225	90.38
496.442	79.38
496.66	77.38
496.877	87.38
497.094	72.38
497.312	78.38
497.529	79.38
497.746	84.38
497.963	77.38
498.181	83.38
498.398	77.38
498.615	90.38
498.832	73.38
499.049	82.38
499.267	81.38
499.484	62.38
499.701	81.38
499.918	90.38
500.135	87.38
500.352	73.38
500.569	88.38
500.786	82.38
501.003	71.38
501.22	78.38
501.437	79.38
501.654	80.38
501.871	87.38
502.088	78.38
502.305	80.38
502.522	85.38
502.739	74.38
502.956	79.38
503.172	77.38
503.389	83.38
503.606	90.38
503.823	84.38
504.04	71.38
504.256	89.38
504.473	87.38
504.69	78.38
504.907	82.38
505.123	74.38
505.34	72.38
505.557	87.38
505.773	76.38
505.99	93.38
506.207	68.38
506.423	88.38
506.64	78.38
506.856	69.38
507.073	82.38
507.289	86.38
507.506	71.38
507.722	81.38
507.939	83.38
508.155	86.38
508.372	82.38
508.588	71.38
508.805	60.38
509.021	85.38
509.238	83.38
509.454	78.38
509.67	75.38
509.887	75.38
510.103	89.38
510.319	76.38
510.536	78.38
510.752	90.38
510.968	85.38
511.184	79.38
511.401	91.38
511.617	80.38
511.833	88.38
512.049	63.38
512.265	83.38
512.481	71.38
512.698	82.38
512.914	94.38
513.13	73.38
513.346	85.38
513.562	76.38
513.778	72.38
513.994	96.38
514.21	62.38
514.426	77.38
514.642	88.38
514.858	68.38
515.074	88.38
515.29	84.38
515.506	78.38
515.721	81.38
515.937	81.38
516.153	74.38
516.369	85.38
516.585	72.38
516.801	68.38
517.016	78.38
517.232	71.38
517.448	86.38
517.664	93.38
517.879	86.38
518.095	77.38
518.311	82.38
518.527	99.38
518.742	86.38
518.958	85.38
519.173	93.38
519.389	80.38
519.605	96.38
519.82	93.38
520.036	88.38
