Data from Dirtheat1_HRD10591_00003.txt Node
Date: Fri Dec 27 15:13:26 EST 2024
User: Yrep
Spectrometer: HR+D1059
Trigger mode: 1
Integration Time (sec): 1.000000E-1
Scans to average: 1
Electric dark correction enabled: true
Nonlinearity correction enabled: false
Boxcar width: 0
XAxis mode: Wavelengths
Number of Pixels in Spectrum: 2048
>>>>>Begin Spectral Data<<<<<
223.165	-21.38
223.4	-21.38
223.635	-21.38
223.869	-8.38
224.104	-21.38
224.338	-8.38
224.573	-26.38
224.808	-1.38
225.042	-6.38
225.277	-9.38
225.511	2.62
225.746	2.62
225.98	6.62
226.215	11.62
226.449	21.62
226.683	14.62
226.918	22.62
227.152	20.62
227.387	34.62
227.621	47.62
227.856	49.62
228.09	50.62
228.324	56.62
228.559	58.62
228.793	59.62
229.027	62.62
229.262	69.62
229.496	60.62
229.73	72.62
229.964	63.62
230.199	62.62
230.433	73.62
230.667	63.62
230.901	68.62
231.136	60.62
231.37	67.62
231.604	92.62
231.838	83.62
232.072	71.62
232.306	59.62
232.541	90.62
232.775	85.62
233.009	73.62
233.243	65.62
233.477	98.62
233.711	75.62
233.945	91.62
234.179	86.62
234.413	78.62
234.647	76.62
234.881	86.62
235.115	87.62
235.349	70.62
235.583	90.62
235.817	89.62
236.051	78.62
236.285	91.62
236.519	90.62
236.753	85.62
236.987	79.62
237.221	77.62
237.455	69.62
237.689	88.62
237.922	70.62
238.156	78.62
238.39	70.62
238.624	82.62
238.858	65.62
239.091	70.62
239.325	73.62
239.559	67.62
239.793	79.62
240.027	86.62
240.26	68.62
240.494	72.62
240.728	72.62
240.961	64.62
241.195	88.62
241.429	87.62
241.662	62.62
241.896	66.62
242.13	65.62
242.363	89.62
242.597	89.62
242.83	62.62
243.064	65.62
243.298	81.62
243.531	74.62
243.765	73.62
243.998	78.62
244.232	90.62
244.465	70.62
244.699	76.62
244.932	86.62
245.166	77.62
245.399	80.62
245.633	83.62
245.866	68.62
246.099	68.62
246.333	73.62
246.566	81.62
246.8	74.62
247.033	83.62
247.266	84.62
247.5	73.62
247.733	79.62
247.966	77.62
248.2	71.62
248.433	72.62
248.666	68.62
248.899	84.62
249.133	70.62
249.366	85.62
249.599	85.62
249.832	71.62
250.066	80.62
250.299	78.62
250.532	70.62
250.765	82.62
250.998	92.62
251.231	75.62
251.465	85.62
251.698	61.62
251.931	76.62
252.164	78.62
252.397	74.62
252.63	79.62
252.863	85.62
253.096	85.62
253.329	72.62
253.562	83.62
253.795	75.62
254.028	61.62
254.261	80.62
254.494	68.62
254.727	80.62
254.96	86.62
255.193	90.62
255.426	85.62
255.659	76.62
255.892	71.62
256.124	80.62
256.357	87.62
256.59	78.62
256.823	82.62
257.056	80.62
257.289	88.62
257.521	85.62
257.754	73.62
257.987	64.62
258.22	75.62
258.452	87.62
258.685	91.62
258.918	76.62
259.151	76.62
259.383	77.62
259.616	84.62
259.849	70.62
260.081	82.62
260.314	83.62
260.547	82.62
260.779	80.62
261.012	86.62
261.244	89.62
261.477	79.62
261.71	78.62
261.942	79.62
262.175	83.62
262.407	83.62
262.64	85.62
262.872	88.62
263.105	85.62
263.337	68.62
263.57	70.62
263.802	78.62
264.035	77.62
264.267	74.62
264.499	78.62
264.732	92.62
264.964	82.62
265.197	79.62
265.429	91.62
265.661	83.62
265.894	77.62
266.126	84.62
266.358	68.62
266.591	76.62
266.823	69.62
267.055	82.62
267.287	94.62
267.52	75.62
267.752	87.62
267.984	66.62
268.216	86.62
268.448	92.62
268.681	79.62
268.913	72.62
269.145	86.62
269.377	66.62
269.609	76.62
269.841	88.62
270.073	89.62
270.306	68.62
270.538	87.62
270.77	76.62
271.002	73.62
271.234	95.62
271.466	86.62
271.698	69.62
271.93	76.62
272.162	85.62
272.394	90.62
272.626	86.62
272.858	75.62
273.09	77.62
273.322	72.62
273.553	84.62
273.785	79.62
274.017	83.62
274.249	82.62
274.481	82.62
274.713	76.62
274.945	74.62
275.176	94.62
275.408	75.62
275.64	75.62
275.872	83.62
276.104	89.62
276.335	69.62
276.567	83.62
276.799	82.62
277.031	85.62
277.262	72.62
277.494	83.62
277.726	79.62
277.957	94.62
278.189	82.62
278.421	67.62
278.652	79.62
278.884	77.62
279.115	90.62
279.347	77.62
279.579	78.62
279.81	92.62
280.042	91.62
280.273	76.62
280.505	92.62
280.736	78.62
280.968	82.62
281.199	84.62
281.431	77.62
281.662	69.62
281.894	73.62
282.125	72.62
282.356	76.62
282.588	90.62
282.819	77.62
283.051	75.62
283.282	64.62
283.513	93.62
283.745	88.62
283.976	78.62
284.207	90.62
284.439	75.62
284.67	89.62
284.901	77.62
285.132	79.62
285.364	69.62
285.595	79.62
285.826	80.62
286.057	88.62
286.288	91.62
286.52	88.62
286.751	87.62
286.982	93.62
287.213	87.62
287.444	95.62
287.675	95.62
287.906	88.62
288.138	84.62
288.369	83.62
288.6	84.62
288.831	88.62
289.062	74.62
289.293	76.62
289.524	84.62
289.755	76.62
289.986	77.62
290.217	84.62
290.448	72.62
290.679	82.62
290.91	84.62
291.141	90.62
291.371	89.62
291.602	79.62
291.833	90.62
292.064	97.62
292.295	74.62
292.526	92.62
292.757	79.62
292.987	87.62
293.218	68.62
293.449	80.62
293.68	79.62
293.91	85.62
294.141	90.62
294.372	85.62
294.603	70.62
294.833	89.62
295.064	72.62
295.295	85.62
295.525	78.62
295.756	88.62
295.987	83.62
296.217	93.62
296.448	91.62
296.679	97.62
296.909	86.62
297.14	64.62
297.37	86.62
297.601	82.62
297.831	85.62
298.062	75.62
298.292	80.62
298.523	88.62
298.753	86.62
298.984	73.62
299.214	79.62
299.445	82.62
299.675	86.62
299.905	82.62
300.136	85.62
300.366	78.62
300.597	80.62
300.827	82.62
301.057	85.62
301.288	79.62
301.518	78.62
301.748	83.62
301.979	102.62
302.209	86.62
302.439	90.62
302.669	82.62
302.9	76.62
303.13	85.62
303.36	90.62
303.59	72.62
303.82	82.62
304.051	91.62
304.281	81.62
304.511	92.62
304.741	82.62
304.971	90.62
305.201	82.62
305.431	76.62
305.661	84.62
305.891	77.62
306.121	87.62
306.352	86.62
306.582	75.62
306.812	89.62
307.042	79.62
307.272	78.62
307.502	75.62
307.731	71.62
307.961	75.62
308.191	67.62
308.421	89.62
308.651	87.62
308.881	86.62
309.111	84.62
309.341	76.62
309.571	99.62
309.8	86.62
310.03	71.62
310.26	79.62
310.49	67.62
310.72	92.62
310.949	84.62
311.179	79.62
311.409	91.62
311.639	84.62
311.868	83.62
312.098	85.62
312.328	97.62
312.557	78.62
312.787	74.62
313.017	89.62
313.246	84.62
313.476	75.62
313.706	84.62
313.935	88.62
314.165	84.62
314.394	87.62
314.624	88.62
314.853	83.62
315.083	86.62
315.312	77.62
315.542	83.62
315.771	84.62
316.001	90.62
316.23	87.62
316.46	70.62
316.689	85.62
316.919	63.62
317.148	65.62
317.377	77.62
317.607	87.62
317.836	84.62
318.065	77.62
318.295	84.62
318.524	84.62
318.753	80.62
318.983	87.62
319.212	80.62
319.441	79.62
319.67	88.62
319.9	92.62
320.129	92.62
320.358	86.62
320.587	78.62
320.816	77.62
321.046	86.62
321.275	83.62
321.504	85.62
321.733	77.62
321.962	85.62
322.191	93.62
322.42	90.62
322.649	91.62
322.878	86.62
323.108	100.62
323.337	86.62
323.566	68.62
323.795	95.62
324.024	82.62
324.253	79.62
324.482	90.62
324.71	87.62
324.939	83.62
325.168	81.62
325.397	73.62
325.626	79.62
325.855	76.62
326.084	80.62
326.313	93.62
326.542	71.62
326.77	74.62
326.999	80.62
327.228	81.62
327.457	84.62
327.686	88.62
327.914	91.62
328.143	78.62
328.372	82.62
328.6	87.62
328.829	95.62
329.058	71.62
329.287	77.62
329.515	71.62
329.744	85.62
329.972	87.62
330.201	86.62
330.43	88.62
330.658	74.62
330.887	69.62
331.115	71.62
331.344	80.62
331.572	81.62
331.801	87.62
332.03	91.62
332.258	85.62
332.486	84.62
332.715	83.62
332.943	83.62
333.172	88.62
333.4	82.62
333.629	63.62
333.857	83.62
334.085	76.62
334.314	79.62
334.542	93.62
334.771	75.62
334.999	89.62
335.227	87.62
335.455	85.62
335.684	94.62
335.912	79.62
336.14	91.62
336.369	92.62
336.597	93.62
336.825	85.62
337.053	70.62
337.281	81.62
337.51	64.62
337.738	90.62
337.966	79.62
338.194	77.62
338.422	79.62
338.65	88.62
338.878	85.62
339.106	82.62
339.334	81.62
339.562	89.62
339.79	87.62
340.018	86.62
340.246	81.62
340.474	87.62
340.702	89.62
340.93	79.62
341.158	89.62
341.386	83.62
341.614	85.62
341.842	80.62
342.07	89.62
342.298	82.62
342.526	86.62
342.754	70.62
342.981	90.62
343.209	91.62
343.437	93.62
343.665	74.62
343.893	75.62
344.12	82.62
344.348	87.62
344.576	91.62
344.804	80.62
345.031	93.62
345.259	83.62
345.487	94.62
345.714	88.62
345.942	82.62
346.17	88.62
346.397	76.62
346.625	72.62
346.853	92.62
347.08	89.62
347.308	88.62
347.535	88.62
347.763	84.62
347.99	84.62
348.218	86.62
348.445	75.62
348.673	62.62
348.9	89.62
349.128	81.62
349.355	83.62
349.583	77.62
349.81	74.62
350.037	81.62
350.265	89.62
350.492	82.62
350.72	81.62
350.947	83.62
351.174	80.62
351.402	84.62
351.629	70.62
351.856	90.62
352.083	89.62
352.311	88.62
352.538	79.62
352.765	86.62
352.992	81.62
353.22	80.62
353.447	89.62
353.674	74.62
353.901	82.62
354.128	93.62
354.355	74.62
354.583	78.62
354.81	67.62
355.037	92.62
355.264	75.62
355.491	85.62
355.718	75.62
355.945	68.62
356.172	80.62
356.399	74.62
356.626	62.62
356.853	77.62
357.08	83.62
357.307	85.62
357.534	88.62
357.761	91.62
357.988	86.62
358.215	87.62
358.441	97.62
358.668	90.62
358.895	80.62
359.122	92.62
359.349	86.62
359.576	88.62
359.802	84.62
360.029	73.62
360.256	88.62
360.483	82.62
360.709	75.62
360.936	100.62
361.163	100.62
361.39	84.62
361.616	78.62
361.843	80.62
362.07	74.62
362.296	83.62
362.523	102.62
362.749	78.62
362.976	87.62
363.203	85.62
363.429	74.62
363.656	82.62
363.882	90.62
364.109	86.62
364.335	90.62
364.562	86.62
364.788	82.62
365.015	93.62
365.241	75.62
365.468	83.62
365.694	85.62
365.92	74.62
366.147	84.62
366.373	59.62
366.599	80.62
366.826	76.62
367.052	79.62
367.278	91.62
367.505	83.62
367.731	77.62
367.957	81.62
368.184	85.62
368.41	83.62
368.636	95.62
368.862	80.62
369.089	80.62
369.315	77.62
369.541	77.62
369.767	73.62
369.993	81.62
370.219	89.62
370.445	86.62
370.672	75.62
370.898	85.62
371.124	72.62
371.35	72.62
371.576	83.62
371.802	75.62
372.028	59.62
372.254	88.62
372.48	77.62
372.706	77.62
372.932	76.62
373.158	73.62
373.384	95.62
373.61	77.62
373.835	95.62
374.061	92.62
374.287	84.62
374.513	86.62
374.739	84.62
374.965	98.62
375.191	82.62
375.416	87.62
375.642	93.62
375.868	79.62
376.094	93.62
376.319	84.62
376.545	77.62
376.771	89.62
376.997	88.62
377.222	89.62
377.448	77.62
377.674	55.62
377.899	82.62
378.125	82.62
378.35	79.62
378.576	82.62
378.802	96.62
379.027	91.62
379.253	83.62
379.478	87.62
379.704	79.62
379.929	79.62
380.155	75.62
380.38	94.62
380.606	82.62
380.831	77.62
381.057	78.62
381.282	78.62
381.507	72.62
381.733	77.62
381.958	86.62
382.184	85.62
382.409	80.62
382.634	93.62
382.86	82.62
383.085	85.62
383.31	78.62
383.535	78.62
383.761	78.62
383.986	75.62
384.211	75.62
384.436	90.62
384.662	86.62
384.887	80.62
385.112	81.62
385.337	83.62
385.562	87.62
385.787	71.62
386.013	64.62
386.238	84.62
386.463	84.62
386.688	87.62
386.913	79.62
387.138	67.62
387.363	79.62
387.588	84.62
387.813	69.62
388.038	87.62
388.263	78.62
388.488	82.62
388.713	81.62
388.938	71.62
389.163	74.62
389.387	68.62
389.612	70.62
389.837	86.62
390.062	78.62
390.287	76.62
390.512	77.62
390.736	86.62
390.961	83.62
391.186	76.62
391.411	76.62
391.636	73.62
391.86	73.62
392.085	74.62
392.31	67.62
392.534	89.62
392.759	78.62
392.984	86.62
393.208	87.62
393.433	85.62
393.658	91.62
393.882	68.62
394.107	77.62
394.331	68.62
394.556	75.62
394.78	79.62
395.005	72.62
395.229	69.62
395.454	72.62
395.678	66.62
395.903	75.62
396.127	83.62
396.352	104.62
396.576	69.62
396.801	98.62
397.025	74.62
397.249	85.62
397.474	81.62
397.698	82.62
397.922	74.62
398.147	83.62
398.371	79.62
398.595	91.62
398.82	83.62
399.044	68.62
399.268	72.62
399.492	84.62
399.717	86.62
399.941	79.62
400.165	85.62
400.389	79.62
400.613	87.62
400.837	72.62
401.062	83.62
401.286	73.62
401.51	89.62
401.734	71.62
401.958	76.62
402.182	68.62
402.406	96.62
402.63	69.62
402.854	82.62
403.078	74.62
403.302	88.62
403.526	87.62
403.75	64.62
403.974	84.62
404.198	89.62
404.422	86.62
404.645	76.62
404.869	87.62
405.093	62.62
405.317	90.62
405.541	84.62
405.765	79.62
405.988	73.62
406.212	86.62
406.436	75.62
406.66	80.62
406.883	89.62
407.107	77.62
407.331	82.62
407.555	82.62
407.778	79.62
408.002	73.62
408.226	76.62
408.449	78.62
408.673	82.62
408.896	71.62
409.12	70.62
409.344	82.62
409.567	79.62
409.791	80.62
410.014	76.62
410.238	82.62
410.461	95.62
410.685	83.62
410.908	89.62
411.132	76.62
411.355	83.62
411.578	79.62
411.802	76.62
412.025	86.62
412.249	87.62
412.472	95.62
412.695	67.62
412.919	77.62
413.142	74.62
413.365	82.62
413.589	70.62
413.812	80.62
414.035	81.62
414.258	66.62
414.482	83.62
414.705	70.62
414.928	79.62
415.151	83.62
415.374	68.62
415.597	77.62
415.821	68.62
416.044	88.62
416.267	87.62
416.49	77.62
416.713	73.62
416.936	83.62
417.159	86.62
417.382	74.62
417.605	81.62
417.828	82.62
418.051	86.62
418.274	76.62
418.497	77.62
418.72	89.62
418.943	87.62
419.166	80.62
419.389	81.62
419.611	76.62
419.834	79.62
420.057	87.62
420.28	69.62
420.503	75.62
420.726	69.62
420.948	79.62
421.171	76.62
421.394	77.62
421.617	78.62
421.839	86.62
422.062	83.62
422.285	68.62
422.507	73.62
422.73	81.62
422.953	75.62
423.175	81.62
423.398	75.62
423.621	90.62
423.843	87.62
424.066	80.62
424.288	89.62
424.511	75.62
424.733	81.62
424.956	78.62
425.178	92.62
425.401	89.62
425.623	78.62
425.846	84.62
426.068	94.62
426.291	77.62
426.513	84.62
426.735	82.62
426.958	81.62
427.18	76.62
427.402	74.62
427.625	53.62
427.847	79.62
428.069	72.62
428.292	72.62
428.514	78.62
428.736	75.62
428.958	85.62
429.181	72.62
429.403	86.62
429.625	86.62
429.847	81.62
430.069	75.62
430.292	82.62
430.514	87.62
430.736	73.62
430.958	66.62
431.18	65.62
431.402	78.62
431.624	75.62
431.846	65.62
432.068	81.62
432.29	79.62
432.512	84.62
432.734	75.62
432.956	84.62
433.178	102.62
433.4	89.62
433.622	88.62
433.844	87.62
434.066	88.62
434.287	71.62
434.509	69.62
434.731	70.62
434.953	92.62
435.175	81.62
435.397	82.62
435.618	87.62
435.84	69.62
436.062	88.62
436.284	74.62
436.505	81.62
436.727	81.62
436.949	67.62
437.17	75.62
437.392	75.62
437.614	77.62
437.835	62.62
438.057	77.62
438.278	70.62
438.5	65.62
438.721	83.62
438.943	89.62
439.165	107.62
439.386	70.62
439.608	89.62
439.829	70.62
440.05	84.62
440.272	68.62
440.493	79.62
440.715	83.62
440.936	69.62
441.158	60.62
441.379	76.62
441.6	67.62
441.822	74.62
442.043	87.62
442.264	90.62
442.486	77.62
442.707	81.62
442.928	80.62
443.149	90.62
443.371	78.62
443.592	60.62
443.813	84.62
444.034	76.62
444.255	92.62
444.476	79.62
444.698	71.62
444.919	86.62
445.14	132.62
445.361	109.62
445.582	85.62
445.803	80.62
446.024	78.62
446.245	70.62
446.466	85.62
446.687	86.62
446.908	74.62
447.129	73.62
447.35	72.62
447.571	75.62
447.792	76.62
448.013	79.62
448.234	88.62
448.455	85.62
448.675	72.62
448.896	71.62
449.117	65.62
449.338	79.62
449.559	83.62
449.779	78.62
450	75.62
450.221	77.62
450.442	72.62
450.662	81.62
450.883	64.62
451.104	85.62
451.324	82.62
451.545	79.62
451.766	75.62
451.986	74.62
452.207	71.62
452.428	70.62
452.648	76.62
452.869	96.62
453.089	74.62
453.31	80.62
453.53	70.62
453.751	86.62
453.971	72.62
454.192	86.62
454.412	73.62
454.633	83.62
454.853	77.62
455.073	66.62
455.294	71.62
455.514	84.62
455.734	79.62
455.955	87.62
456.175	79.62
456.395	74.62
456.616	63.62
456.836	78.62
457.056	86.62
457.276	96.62
457.497	70.62
457.717	76.62
457.937	79.62
458.157	80.62
458.377	77.62
458.598	65.62
458.818	90.62
459.038	79.62
459.258	74.62
459.478	71.62
459.698	83.62
459.918	83.62
460.138	85.62
460.358	72.62
460.578	71.62
460.798	90.62
461.018	81.62
461.238	99.62
461.458	74.62
461.678	63.62
461.898	68.62
462.118	66.62
462.338	85.62
462.558	80.62
462.777	64.62
462.997	87.62
463.217	80.62
463.437	79.62
463.657	80.62
463.876	84.62
464.096	87.62
464.316	78.62
464.536	78.62
464.755	72.62
464.975	80.62
465.195	87.62
465.414	85.62
465.634	74.62
465.854	68.62
466.073	79.62
466.293	69.62
466.512	77.62
466.732	74.62
466.951	79.62
467.171	74.62
467.391	74.62
467.61	81.62
467.829	75.62
468.049	80.62
468.268	71.62
468.488	88.62
468.707	70.62
468.927	96.62
469.146	72.62
469.365	77.62
469.585	77.62
469.804	80.62
470.023	84.62
470.243	94.62
470.462	83.62
470.681	85.62
470.901	72.62
471.12	75.62
471.339	73.62
471.558	83.62
471.777	66.62
471.997	78.62
472.216	79.62
472.435	85.62
472.654	85.62
472.873	94.62
473.092	77.62
473.311	96.62
473.53	66.62
473.749	83.62
473.968	76.62
474.187	72.62
474.406	81.62
474.625	90.62
474.844	83.62
475.063	75.62
475.282	79.62
475.501	71.62
475.72	84.62
475.939	93.62
476.158	88.62
476.377	80.62
476.596	84.62
476.814	86.62
477.033	68.62
477.252	75.62
477.471	86.62
477.69	82.62
477.908	81.62
478.127	95.62
478.346	83.62
478.564	73.62
478.783	78.62
479.002	87.62
479.22	80.62
479.439	82.62
479.658	80.62
479.876	94.62
480.095	77.62
480.313	87.62
480.532	83.62
480.751	93.62
480.969	80.62
481.188	78.62
481.406	82.62
481.624	88.62
481.843	86.62
482.061	90.62
482.28	83.62
482.498	84.62
482.717	89.62
482.935	77.62
483.153	84.62
483.372	68.62
483.59	80.62
483.808	74.62
484.027	83.62
484.245	79.62
484.463	78.62
484.681	88.62
484.9	86.62
485.118	83.62
485.336	82.62
485.554	77.62
485.772	75.62
485.99	70.62
486.209	79.62
486.427	71.62
486.645	92.62
486.863	76.62
487.081	70.62
487.299	83.62
487.517	82.62
487.735	78.62
487.953	82.62
488.171	80.62
488.389	78.62
488.607	87.62
488.825	71.62
489.043	82.62
489.261	94.62
489.479	77.62
489.696	73.62
489.914	78.62
490.132	85.62
490.35	82.62
490.568	79.62
490.786	87.62
491.003	74.62
491.221	75.62
491.439	69.62
491.657	85.62
491.874	95.62
492.092	93.62
492.31	71.62
492.527	76.62
492.745	67.62
492.963	83.62
493.18	84.62
493.398	94.62
493.615	93.62
493.833	85.62
494.05	85.62
494.268	84.62
494.485	79.62
494.703	80.62
494.92	93.62
495.138	77.62
495.355	69.62
495.573	79.62
495.79	58.62
496.008	62.62
496.225	88.62
496.442	93.62
496.66	87.62
496.877	63.62
497.094	83.62
497.312	77.62
497.529	82.62
497.746	84.62
497.963	77.62
498.181	81.62
498.398	77.62
498.615	78.62
498.832	80.62
499.049	89.62
499.267	92.62
499.484	81.62
499.701	72.62
499.918	89.62
500.135	91.62
500.352	74.62
500.569	74.62
500.786	76.62
501.003	85.62
501.22	74.62
501.437	96.62
501.654	92.62
501.871	75.62
502.088	74.62
502.305	77.62
502.522	81.62
502.739	85.62
502.956	88.62
503.172	73.62
503.389	86.62
503.606	85.62
503.823	86.62
504.04	76.62
504.256	83.62
504.473	74.62
504.69	89.62
504.907	77.62
505.123	83.62
505.34	82.62
505.557	84.62
505.773	87.62
505.99	77.62
506.207	88.62
506.423	78.62
506.64	81.62
506.856	86.62
507.073	80.62
507.289	81.62
507.506	75.62
507.722	81.62
507.939	86.62
508.155	75.62
508.372	71.62
508.588	86.62
508.805	86.62
509.021	75.62
509.238	76.62
509.454	74.62
509.67	82.62
509.887	77.62
510.103	88.62
510.319	92.62
510.536	85.62
510.752	86.62
510.968	95.62
511.184	82.62
511.401	88.62
511.617	88.62
511.833	70.62
512.049	79.62
512.265	79.62
512.481	78.62
512.698	87.62
512.914	85.62
513.13	78.62
513.346	80.62
513.562	80.62
513.778	86.62
513.994	88.62
514.21	87.62
514.426	83.62
514.642	92.62
514.858	71.62
515.074	85.62
515.29	85.62
515.506	93.62
515.721	81.62
515.937	92.62
516.153	88.62
516.369	92.62
516.585	76.62
516.801	77.62
517.016	75.62
517.232	77.62
517.448	84.62
517.664	73.62
517.879	78.62
518.095	85.62
518.311	82.62
518.527	91.62
518.742	76.62
518.958	73.62
519.173	80.62
519.389	75.62
519.605	94.62
519.82	89.62
520.036	80.62
520.251	79.62
