Data from Dirtheat1_HRD10591_00009.txt Node
Date: Fri Dec 27 15:13:32 EST 2024
User: Yrep
Spectrometer: HR+D1059
Trigger mode: 1
Integration Time (sec): 1.000000E-1
Scans to average: 1
Electric dark correction enabled: true
Nonlinearity correction enabled: false
Boxcar width: 0
XAxis mode: Wavelengths
Number of Pixels in Spectrum: 2048
>>>>>Begin Spectral Data<<<<<
223.165	-29.12
223.4	-29.12
223.635	-29.12
223.869	-4.12
224.104	-24.12
224.338	-13.12
224.573	-19.12
224.808	-3.12
225.042	-16.12
225.277	-12.12
225.511	-2.12
225.746	-2.12
225.98	10.88
226.215	7.88
226.449	14.88
226.683	17.88
226.918	31.88
227.152	41.88
227.387	48.88
227.621	33.88
227.856	30.88
228.09	55.88
228.324	55.88
228.559	62.88
228.793	66.88
229.027	70.88
229.262	58.88
229.496	59.88
229.73	81.88
229.964	68.88
230.199	82.88
230.433	87.88
230.667	81.88
230.901	71.88
231.136	92.88
231.37	70.88
231.604	89.88
231.838	80.88
232.072	87.88
232.306	81.88
232.541	87.88
232.775	74.88
233.009	72.88
233.243	83.88
233.477	86.88
233.711	82.88
233.945	77.88
234.179	81.88
234.413	86.88
234.647	76.88
234.881	64.88
235.115	96.88
235.349	92.88
235.583	79.88
235.817	82.88
236.051	68.88
236.285	79.88
236.519	83.88
236.753	72.88
236.987	75.88
237.221	80.88
237.455	67.88
237.689	78.88
237.922	77.88
238.156	83.88
238.39	83.88
238.624	79.88
238.858	81.88
239.091	74.88
239.325	72.88
239.559	67.88
239.793	81.88
240.027	86.88
240.26	86.88
240.494	68.88
240.728	75.88
240.961	74.88
241.195	62.88
241.429	65.88
241.662	78.88
241.896	75.88
242.13	77.88
242.363	77.88
242.597	81.88
242.83	61.88
243.064	87.88
243.298	81.88
243.531	84.88
243.765	91.88
243.998	76.88
244.232	75.88
244.465	88.88
244.699	85.88
244.932	74.88
245.166	82.88
245.399	91.88
245.633	85.88
245.866	79.88
246.099	73.88
246.333	76.88
246.566	87.88
246.8	85.88
247.033	74.88
247.266	79.88
247.5	85.88
247.733	83.88
247.966	87.88
248.2	79.88
248.433	77.88
248.666	68.88
248.899	82.88
249.133	70.88
249.366	75.88
249.599	75.88
249.832	79.88
250.066	94.88
250.299	67.88
250.532	87.88
250.765	95.88
250.998	84.88
251.231	83.88
251.465	73.88
251.698	67.88
251.931	69.88
252.164	71.88
252.397	78.88
252.63	71.88
252.863	90.88
253.096	77.88
253.329	85.88
253.562	94.88
253.795	84.88
254.028	92.88
254.261	72.88
254.494	75.88
254.727	90.88
254.96	83.88
255.193	66.88
255.426	84.88
255.659	74.88
255.892	70.88
256.124	64.88
256.357	80.88
256.59	87.88
256.823	67.88
257.056	86.88
257.289	86.88
257.521	80.88
257.754	76.88
257.987	71.88
258.22	81.88
258.452	83.88
258.685	79.88
258.918	78.88
259.151	63.88
259.383	75.88
259.616	76.88
259.849	70.88
260.081	88.88
260.314	93.88
260.547	79.88
260.779	78.88
261.012	72.88
261.244	73.88
261.477	85.88
261.71	74.88
261.942	87.88
262.175	90.88
262.407	66.88
262.64	68.88
262.872	82.88
263.105	78.88
263.337	88.88
263.57	85.88
263.802	98.88
264.035	87.88
264.267	81.88
264.499	87.88
264.732	92.88
264.964	85.88
265.197	84.88
265.429	71.88
265.661	66.88
265.894	86.88
266.126	77.88
266.358	85.88
266.591	75.88
266.823	72.88
267.055	70.88
267.287	83.88
267.52	64.88
267.752	82.88
267.984	78.88
268.216	72.88
268.448	89.88
268.681	86.88
268.913	86.88
269.145	91.88
269.377	83.88
269.609	76.88
269.841	67.88
270.073	78.88
270.306	87.88
270.538	87.88
270.77	78.88
271.002	83.88
271.234	89.88
271.466	78.88
271.698	75.88
271.93	88.88
272.162	88.88
272.394	81.88
272.626	78.88
272.858	78.88
273.09	81.88
273.322	96.88
273.553	79.88
273.785	85.88
274.017	95.88
274.249	83.88
274.481	77.88
274.713	81.88
274.945	79.88
275.176	85.88
275.408	94.88
275.64	81.88
275.872	92.88
276.104	86.88
276.335	75.88
276.567	92.88
276.799	75.88
277.031	84.88
277.262	78.88
277.494	78.88
277.726	92.88
277.957	83.88
278.189	71.88
278.421	77.88
278.652	82.88
278.884	66.88
279.115	84.88
279.347	94.88
279.579	75.88
279.81	78.88
280.042	72.88
280.273	78.88
280.505	69.88
280.736	88.88
280.968	78.88
281.199	91.88
281.431	81.88
281.662	78.88
281.894	74.88
282.125	89.88
282.356	83.88
282.588	74.88
282.819	90.88
283.051	88.88
283.282	83.88
283.513	94.88
283.745	86.88
283.976	84.88
284.207	88.88
284.439	70.88
284.67	76.88
284.901	86.88
285.132	83.88
285.364	92.88
285.595	68.88
285.826	80.88
286.057	97.88
286.288	89.88
286.52	87.88
286.751	83.88
286.982	87.88
287.213	77.88
287.444	85.88
287.675	75.88
287.906	81.88
288.138	77.88
288.369	78.88
288.6	98.88
288.831	79.88
289.062	86.88
289.293	75.88
289.524	80.88
289.755	80.88
289.986	69.88
290.217	83.88
290.448	84.88
290.679	82.88
290.91	82.88
291.141	71.88
291.371	77.88
291.602	85.88
291.833	81.88
292.064	80.88
292.295	83.88
292.526	79.88
292.757	82.88
292.987	80.88
293.218	78.88
293.449	102.88
293.68	88.88
293.91	82.88
294.141	98.88
294.372	70.88
294.603	69.88
294.833	88.88
295.064	75.88
295.295	92.88
295.525	74.88
295.756	83.88
295.987	90.88
296.217	90.88
296.448	88.88
296.679	69.88
296.909	77.88
297.14	89.88
297.37	91.88
297.601	79.88
297.831	84.88
298.062	88.88
298.292	89.88
298.523	85.88
298.753	93.88
298.984	82.88
299.214	67.88
299.445	76.88
299.675	78.88
299.905	84.88
300.136	107.88
300.366	95.88
300.597	85.88
300.827	67.88
301.057	80.88
301.288	81.88
301.518	73.88
301.748	85.88
301.979	108.88
302.209	87.88
302.439	75.88
302.669	87.88
302.9	69.88
303.13	82.88
303.36	106.88
303.59	101.88
303.82	83.88
304.051	81.88
304.281	87.88
304.511	85.88
304.741	90.88
304.971	88.88
305.201	82.88
305.431	92.88
305.661	92.88
305.891	80.88
306.121	72.88
306.352	90.88
306.582	97.88
306.812	82.88
307.042	85.88
307.272	77.88
307.502	86.88
307.731	84.88
307.961	88.88
308.191	95.88
308.421	78.88
308.651	84.88
308.881	85.88
309.111	93.88
309.341	90.88
309.571	84.88
309.8	88.88
310.03	95.88
310.26	82.88
310.49	71.88
310.72	83.88
310.949	84.88
311.179	89.88
311.409	81.88
311.639	74.88
311.868	80.88
312.098	89.88
312.328	85.88
312.557	85.88
312.787	76.88
313.017	86.88
313.246	96.88
313.476	86.88
313.706	78.88
313.935	82.88
314.165	83.88
314.394	78.88
314.624	85.88
314.853	89.88
315.083	89.88
315.312	83.88
315.542	87.88
315.771	86.88
316.001	90.88
316.23	76.88
316.46	71.88
316.689	82.88
316.919	90.88
317.148	83.88
317.377	80.88
317.607	106.88
317.836	82.88
318.065	86.88
318.295	89.88
318.524	95.88
318.753	105.88
318.983	80.88
319.212	93.88
319.441	95.88
319.67	81.88
319.9	85.88
320.129	85.88
320.358	78.88
320.587	79.88
320.816	86.88
321.046	85.88
321.275	80.88
321.504	84.88
321.733	75.88
321.962	76.88
322.191	78.88
322.42	95.88
322.649	91.88
322.878	87.88
323.108	77.88
323.337	79.88
323.566	93.88
323.795	70.88
324.024	90.88
324.253	81.88
324.482	81.88
324.71	91.88
324.939	92.88
325.168	77.88
325.397	77.88
325.626	90.88
325.855	104.88
326.084	97.88
326.313	81.88
326.542	88.88
326.77	81.88
326.999	79.88
327.228	94.88
327.457	89.88
327.686	77.88
327.914	91.88
328.143	87.88
328.372	85.88
328.6	78.88
328.829	80.88
329.058	91.88
329.287	78.88
329.515	71.88
329.744	74.88
329.972	87.88
330.201	94.88
330.43	89.88
330.658	83.88
330.887	89.88
331.115	76.88
331.344	74.88
331.572	97.88
331.801	81.88
332.03	84.88
332.258	76.88
332.486	95.88
332.715	86.88
332.943	83.88
333.172	82.88
333.4	76.88
333.629	79.88
333.857	90.88
334.085	86.88
334.314	75.88
334.542	68.88
334.771	73.88
334.999	74.88
335.227	90.88
335.455	90.88
335.684	92.88
335.912	83.88
336.14	91.88
336.369	95.88
336.597	85.88
336.825	89.88
337.053	81.88
337.281	91.88
337.51	92.88
337.738	77.88
337.966	74.88
338.194	81.88
338.422	81.88
338.65	77.88
338.878	90.88
339.106	73.88
339.334	89.88
339.562	80.88
339.79	91.88
340.018	86.88
340.246	85.88
340.474	82.88
340.702	77.88
340.93	87.88
341.158	92.88
341.386	92.88
341.614	78.88
341.842	84.88
342.07	87.88
342.298	78.88
342.526	87.88
342.754	70.88
342.981	72.88
343.209	79.88
343.437	114.88
343.665	96.88
343.893	89.88
344.12	78.88
344.348	82.88
344.576	86.88
344.804	86.88
345.031	92.88
345.259	79.88
345.487	91.88
345.714	79.88
345.942	89.88
346.17	87.88
346.397	78.88
346.625	90.88
346.853	88.88
347.08	88.88
347.308	83.88
347.535	81.88
347.763	89.88
347.99	95.88
348.218	85.88
348.445	74.88
348.673	87.88
348.9	102.88
349.128	86.88
349.355	73.88
349.583	81.88
349.81	83.88
350.037	90.88
350.265	81.88
350.492	78.88
350.72	83.88
350.947	87.88
351.174	69.88
351.402	88.88
351.629	81.88
351.856	101.88
352.083	82.88
352.311	94.88
352.538	73.88
352.765	78.88
352.992	96.88
353.22	83.88
353.447	85.88
353.674	89.88
353.901	94.88
354.128	82.88
354.355	96.88
354.583	73.88
354.81	84.88
355.037	77.88
355.264	74.88
355.491	84.88
355.718	88.88
355.945	88.88
356.172	68.88
356.399	87.88
356.626	82.88
356.853	79.88
357.08	83.88
357.307	78.88
357.534	76.88
357.761	66.88
357.988	75.88
358.215	83.88
358.441	73.88
358.668	92.88
358.895	85.88
359.122	79.88
359.349	70.88
359.576	83.88
359.802	90.88
360.029	79.88
360.256	90.88
360.483	77.88
360.709	77.88
360.936	86.88
361.163	88.88
361.39	87.88
361.616	89.88
361.843	74.88
362.07	92.88
362.296	86.88
362.523	85.88
362.749	83.88
362.976	78.88
363.203	70.88
363.429	88.88
363.656	72.88
363.882	84.88
364.109	91.88
364.335	72.88
364.562	84.88
364.788	91.88
365.015	83.88
365.241	86.88
365.468	80.88
365.694	85.88
365.92	83.88
366.147	82.88
366.373	76.88
366.599	79.88
366.826	93.88
367.052	80.88
367.278	79.88
367.505	83.88
367.731	90.88
367.957	92.88
368.184	88.88
368.41	91.88
368.636	85.88
368.862	82.88
369.089	83.88
369.315	88.88
369.541	71.88
369.767	85.88
369.993	86.88
370.219	79.88
370.445	82.88
370.672	78.88
370.898	73.88
371.124	88.88
371.35	92.88
371.576	80.88
371.802	90.88
372.028	85.88
372.254	95.88
372.48	87.88
372.706	86.88
372.932	83.88
373.158	79.88
373.384	87.88
373.61	91.88
373.835	85.88
374.061	82.88
374.287	74.88
374.513	88.88
374.739	90.88
374.965	85.88
375.191	72.88
375.416	88.88
375.642	77.88
375.868	92.88
376.094	91.88
376.319	80.88
376.545	88.88
376.771	74.88
376.997	82.88
377.222	81.88
377.448	87.88
377.674	79.88
377.899	64.88
378.125	68.88
378.35	79.88
378.576	96.88
378.802	68.88
379.027	89.88
379.253	93.88
379.478	78.88
379.704	78.88
379.929	79.88
380.155	86.88
380.38	77.88
380.606	85.88
380.831	67.88
381.057	96.88
381.282	85.88
381.507	87.88
381.733	73.88
381.958	79.88
382.184	80.88
382.409	91.88
382.634	85.88
382.86	70.88
383.085	94.88
383.31	75.88
383.535	86.88
383.761	92.88
383.986	92.88
384.211	79.88
384.436	74.88
384.662	85.88
384.887	78.88
385.112	80.88
385.337	76.88
385.562	88.88
385.787	66.88
386.013	74.88
386.238	79.88
386.463	82.88
386.688	106.88
386.913	82.88
387.138	90.88
387.363	82.88
387.588	79.88
387.813	84.88
388.038	70.88
388.263	86.88
388.488	85.88
388.713	93.88
388.938	84.88
389.163	85.88
389.387	89.88
389.612	80.88
389.837	85.88
390.062	94.88
390.287	76.88
390.512	78.88
390.736	88.88
390.961	80.88
391.186	76.88
391.411	88.88
391.636	93.88
391.86	86.88
392.085	77.88
392.31	86.88
392.534	90.88
392.759	91.88
392.984	95.88
393.208	90.88
393.433	81.88
393.658	78.88
393.882	75.88
394.107	82.88
394.331	83.88
394.556	82.88
394.78	82.88
395.005	87.88
395.229	83.88
395.454	95.88
395.678	81.88
395.903	81.88
396.127	72.88
396.352	84.88
396.576	82.88
396.801	81.88
397.025	81.88
397.249	88.88
397.474	105.88
397.698	70.88
397.922	71.88
398.147	83.88
398.371	83.88
398.595	75.88
398.82	94.88
399.044	78.88
399.268	79.88
399.492	87.88
399.717	85.88
399.941	102.88
400.165	91.88
400.389	81.88
400.613	65.88
400.837	76.88
401.062	66.88
401.286	72.88
401.51	75.88
401.734	71.88
401.958	68.88
402.182	82.88
402.406	85.88
402.63	94.88
402.854	81.88
403.078	73.88
403.302	67.88
403.526	85.88
403.75	86.88
403.974	86.88
404.198	89.88
404.422	81.88
404.645	82.88
404.869	86.88
405.093	81.88
405.317	73.88
405.541	83.88
405.765	74.88
405.988	82.88
406.212	82.88
406.436	91.88
406.66	98.88
406.883	98.88
407.107	77.88
407.331	71.88
407.555	88.88
407.778	94.88
408.002	85.88
408.226	78.88
408.449	79.88
408.673	89.88
408.896	74.88
409.12	85.88
409.344	67.88
409.567	80.88
409.791	79.88
410.014	80.88
410.238	66.88
410.461	77.88
410.685	80.88
410.908	85.88
411.132	98.88
411.355	85.88
411.578	76.88
411.802	80.88
412.025	85.88
412.249	80.88
412.472	80.88
412.695	77.88
412.919	88.88
413.142	78.88
413.365	85.88
413.589	81.88
413.812	71.88
414.035	85.88
414.258	79.88
414.482	69.88
414.705	89.88
414.928	82.88
415.151	94.88
415.374	86.88
415.597	72.88
415.821	66.88
416.044	69.88
416.267	79.88
416.49	88.88
416.713	74.88
416.936	87.88
417.159	85.88
417.382	76.88
417.605	67.88
417.828	83.88
418.051	83.88
418.274	84.88
418.497	77.88
418.72	78.88
418.943	67.88
419.166	84.88
419.389	81.88
419.611	73.88
419.834	80.88
420.057	68.88
420.28	89.88
420.503	73.88
420.726	88.88
420.948	87.88
421.171	90.88
421.394	85.88
421.617	90.88
421.839	79.88
422.062	85.88
422.285	86.88
422.507	88.88
422.73	95.88
422.953	94.88
423.175	97.88
423.398	78.88
423.621	89.88
423.843	88.88
424.066	72.88
424.288	73.88
424.511	74.88
424.733	82.88
424.956	73.88
425.178	88.88
425.401	82.88
425.623	82.88
425.846	65.88
426.068	87.88
426.291	81.88
426.513	76.88
426.735	94.88
426.958	84.88
427.18	87.88
427.402	88.88
427.625	69.88
427.847	75.88
428.069	94.88
428.292	76.88
428.514	78.88
428.736	78.88
428.958	82.88
429.181	90.88
429.403	92.88
429.625	79.88
429.847	55.88
430.069	91.88
430.292	90.88
430.514	93.88
430.736	86.88
430.958	78.88
431.18	73.88
431.402	77.88
431.624	74.88
431.846	79.88
432.068	78.88
432.29	81.88
432.512	101.88
432.734	91.88
432.956	74.88
433.178	80.88
433.4	83.88
433.622	81.88
433.844	81.88
434.066	64.88
434.287	85.88
434.509	70.88
434.731	100.88
434.953	77.88
435.175	80.88
435.397	72.88
435.618	78.88
435.84	82.88
436.062	78.88
436.284	66.88
436.505	94.88
436.727	95.88
436.949	76.88
437.17	83.88
437.392	80.88
437.614	89.88
437.835	78.88
438.057	73.88
438.278	84.88
438.5	83.88
438.721	91.88
438.943	85.88
439.165	78.88
439.386	79.88
439.608	102.88
439.829	81.88
440.05	83.88
440.272	78.88
440.493	75.88
440.715	92.88
440.936	87.88
441.158	82.88
441.379	79.88
441.6	80.88
441.822	84.88
442.043	74.88
442.264	90.88
442.486	79.88
442.707	73.88
442.928	82.88
443.149	89.88
443.371	71.88
443.592	71.88
443.813	76.88
444.034	82.88
444.255	85.88
444.476	76.88
444.698	80.88
444.919	91.88
445.14	146.88
445.361	101.88
445.582	86.88
445.803	86.88
446.024	91.88
446.245	85.88
446.466	78.88
446.687	72.88
446.908	95.88
447.129	75.88
447.35	85.88
447.571	80.88
447.792	88.88
448.013	82.88
448.234	83.88
448.455	91.88
448.675	88.88
448.896	75.88
449.117	75.88
449.338	74.88
449.559	86.88
449.779	88.88
450	82.88
450.221	84.88
450.442	96.88
450.662	79.88
450.883	75.88
451.104	85.88
451.324	74.88
451.545	88.88
451.766	95.88
451.986	77.88
452.207	80.88
452.428	71.88
452.648	87.88
452.869	83.88
453.089	74.88
453.31	76.88
453.53	80.88
453.751	96.88
453.971	84.88
454.192	74.88
454.412	73.88
454.633	84.88
454.853	79.88
455.073	71.88
455.294	64.88
455.514	71.88
455.734	76.88
455.955	85.88
456.175	74.88
456.395	91.88
456.616	103.88
456.836	88.88
457.056	87.88
457.276	77.88
457.497	92.88
457.717	85.88
457.937	76.88
458.157	76.88
458.377	89.88
458.598	88.88
458.818	80.88
459.038	82.88
459.258	84.88
459.478	71.88
459.698	80.88
459.918	82.88
460.138	66.88
460.358	82.88
460.578	80.88
460.798	86.88
461.018	76.88
461.238	83.88
461.458	83.88
461.678	67.88
461.898	77.88
462.118	82.88
462.338	77.88
462.558	90.88
462.777	87.88
462.997	89.88
463.217	77.88
463.437	85.88
463.657	82.88
463.876	83.88
464.096	83.88
464.316	89.88
464.536	93.88
464.755	78.88
464.975	83.88
465.195	73.88
465.414	70.88
465.634	66.88
465.854	70.88
466.073	69.88
466.293	70.88
466.512	81.88
466.732	78.88
466.951	84.88
467.171	86.88
467.391	85.88
467.61	72.88
467.829	81.88
468.049	88.88
468.268	77.88
468.488	81.88
468.707	75.88
468.927	92.88
469.146	85.88
469.365	81.88
469.585	71.88
469.804	84.88
470.023	88.88
470.243	69.88
470.462	79.88
470.681	76.88
470.901	81.88
471.12	79.88
471.339	81.88
471.558	91.88
471.777	81.88
471.997	82.88
472.216	89.88
472.435	85.88
472.654	92.88
472.873	88.88
473.092	74.88
473.311	82.88
473.53	78.88
473.749	84.88
473.968	81.88
474.187	83.88
474.406	83.88
474.625	80.88
474.844	69.88
475.063	85.88
475.282	95.88
475.501	84.88
475.72	98.88
475.939	79.88
476.158	83.88
476.377	88.88
476.596	94.88
476.814	84.88
477.033	102.88
477.252	61.88
477.471	79.88
477.69	87.88
477.908	83.88
478.127	93.88
478.346	74.88
478.564	78.88
478.783	84.88
479.002	86.88
479.22	68.88
479.439	89.88
479.658	80.88
479.876	83.88
480.095	82.88
480.313	92.88
480.532	85.88
480.751	80.88
480.969	76.88
481.188	86.88
481.406	105.88
481.624	92.88
481.843	71.88
482.061	82.88
482.28	78.88
482.498	80.88
482.717	77.88
482.935	81.88
483.153	89.88
483.372	79.88
483.59	87.88
483.808	71.88
484.027	91.88
484.245	89.88
484.463	72.88
484.681	97.88
484.9	75.88
485.118	98.88
485.336	86.88
485.554	78.88
485.772	89.88
485.99	86.88
486.209	72.88
486.427	80.88
486.645	76.88
486.863	82.88
487.081	88.88
487.299	94.88
487.517	77.88
487.735	79.88
487.953	84.88
488.171	92.88
488.389	86.88
488.607	75.88
488.825	75.88
489.043	90.88
489.261	85.88
489.479	89.88
489.696	81.88
489.914	79.88
490.132	90.88
490.35	85.88
490.568	78.88
490.786	94.88
491.003	90.88
491.221	86.88
491.439	76.88
491.657	81.88
491.874	91.88
492.092	95.88
492.31	82.88
492.527	84.88
492.745	77.88
492.963	77.88
493.18	90.88
493.398	81.88
493.615	82.88
493.833	86.88
494.05	93.88
494.268	79.88
494.485	89.88
494.703	74.88
494.92	86.88
495.138	80.88
495.355	78.88
495.573	76.88
495.79	82.88
496.008	78.88
496.225	84.88
496.442	77.88
496.66	80.88
496.877	103.88
497.094	87.88
497.312	79.88
497.529	90.88
497.746	85.88
497.963	81.88
498.181	63.88
498.398	104.88
498.615	76.88
498.832	90.88
499.049	79.88
499.267	87.88
499.484	86.88
499.701	80.88
499.918	80.88
500.135	76.88
500.352	104.88
500.569	76.88
500.786	98.88
501.003	79.88
501.22	79.88
501.437	82.88
501.654	75.88
501.871	89.88
502.088	81.88
502.305	95.88
502.522	81.88
502.739	80.88
502.956	76.88
503.172	78.88
503.389	83.88
503.606	83.88
503.823	83.88
504.04	89.88
504.256	83.88
504.473	76.88
504.69	90.88
504.907	105.88
505.123	76.88
505.34	83.88
505.557	78.88
505.773	85.88
505.99	81.88
506.207	91.88
506.423	87.88
506.64	88.88
506.856	86.88
507.073	75.88
507.289	105.88
507.506	87.88
507.722	73.88
507.939	81.88
508.155	71.88
508.372	78.88
508.588	90.88
508.805	81.88
509.021	75.88
509.238	94.88
509.454	95.88
509.67	82.88
509.887	81.88
510.103	85.88
510.319	81.88
510.536	98.88
510.752	89.88
510.968	84.88
511.184	73.88
511.401	91.88
511.617	93.88
511.833	87.88
512.049	83.88
512.265	80.88
512.481	80.88
512.698	85.88
512.914	81.88
513.13	96.88
513.346	82.88
513.562	90.88
513.778	90.88
513.994	94.88
514.21	83.88
514.426	81.88
514.642	85.88
514.858	77.88
515.074	108.88
515.29	98.88
515.506	89.88
515.721	90.88
515.937	79.88
516.153	92.88
516.369	90.88
516.585	88.88
516.801	73.88
517.016	76.88
517.232	76.88
517.448	83.88
517.664	79.88
517.879	81.88
518.095	83.88
518.311	79.88
518.527	75.88
518.742	82.88
518.958	85.88
519.173	82.88
519.389	86.88
519.605	89.88
519.82	83.88
