Data from Dirtheat1_HRD10591_00014.txt Node
Date: Fri Dec 27 15:13:37 EST 2024
User: Yrep
Spectrometer: HR+D1059
Trigger mode: 1
Integration Time (sec): 1.000000E-1
Scans to average: 1
Electric dark correction enabled: true
Nonlinearity correction enabled: false
Boxcar width: 0
XAxis mode: Wavelengths
Number of Pixels in Spectrum: 2048
>>>>>Begin Spectral Data<<<<<
223.165	-26.62
223.4	-26.62
223.635	-26.62
223.869	-30.62
224.104	-33.62
224.338	-11.62
224.573	-10.62
224.808	-10.62
225.042	-11.62
225.277	-1.62
225.511	1.38
225.746	5.38
225.98	10.38
226.215	14.38
226.449	13.38
226.683	18.38
226.918	34.38
227.152	39.38
227.387	23.38
227.621	32.38
227.856	40.38
228.09	36.38
228.324	48.38
228.559	61.38
228.793	56.38
229.027	56.38
229.262	71.38
229.496	72.38
229.73	73.38
229.964	71.38
230.199	78.38
230.433	76.38
230.667	81.38
230.901	75.38
231.136	91.38
231.37	89.38
231.604	81.38
231.838	69.38
232.072	69.38
232.306	87.38
232.541	81.38
232.775	85.38
233.009	84.38
233.243	81.38
233.477	72.38
233.711	78.38
233.945	65.38
234.179	84.38
234.413	70.38
234.647	71.38
234.881	81.38
235.115	69.38
235.349	90.38
235.583	75.38
235.817	60.38
236.051	58.38
236.285	82.38
236.519	79.38
236.753	82.38
236.987	73.38
237.221	77.38
237.455	70.38
237.689	71.38
237.922	66.38
238.156	73.38
238.39	72.38
238.624	77.38
238.858	77.38
239.091	85.38
239.325	60.38
239.559	81.38
239.793	82.38
240.027	79.38
240.26	80.38
240.494	72.38
240.728	76.38
240.961	82.38
241.195	84.38
241.429	76.38
241.662	86.38
241.896	77.38
242.13	69.38
242.363	73.38
242.597	74.38
242.83	70.38
243.064	70.38
243.298	77.38
243.531	74.38
243.765	73.38
243.998	70.38
244.232	73.38
244.465	83.38
244.699	92.38
244.932	74.38
245.166	66.38
245.399	82.38
245.633	91.38
245.866	81.38
246.099	63.38
246.333	82.38
246.566	76.38
246.8	78.38
247.033	72.38
247.266	75.38
247.5	74.38
247.733	73.38
247.966	85.38
248.2	83.38
248.433	79.38
248.666	76.38
248.899	86.38
249.133	79.38
249.366	83.38
249.599	76.38
249.832	70.38
250.066	96.38
250.299	76.38
250.532	82.38
250.765	85.38
250.998	73.38
251.231	87.38
251.465	70.38
251.698	73.38
251.931	75.38
252.164	81.38
252.397	86.38
252.63	71.38
252.863	85.38
253.096	89.38
253.329	93.38
253.562	60.38
253.795	78.38
254.028	84.38
254.261	87.38
254.494	82.38
254.727	77.38
254.96	87.38
255.193	92.38
255.426	92.38
255.659	80.38
255.892	87.38
256.124	78.38
256.357	73.38
256.59	88.38
256.823	90.38
257.056	80.38
257.289	63.38
257.521	75.38
257.754	65.38
257.987	70.38
258.22	91.38
258.452	79.38
258.685	74.38
258.918	77.38
259.151	81.38
259.383	72.38
259.616	77.38
259.849	84.38
260.081	72.38
260.314	75.38
260.547	78.38
260.779	87.38
261.012	76.38
261.244	72.38
261.477	87.38
261.71	77.38
261.942	77.38
262.175	79.38
262.407	83.38
262.64	66.38
262.872	87.38
263.105	86.38
263.337	88.38
263.57	90.38
263.802	92.38
264.035	81.38
264.267	75.38
264.499	78.38
264.732	81.38
264.964	79.38
265.197	79.38
265.429	89.38
265.661	89.38
265.894	82.38
266.126	81.38
266.358	84.38
266.591	81.38
266.823	72.38
267.055	76.38
267.287	92.38
267.52	98.38
267.752	84.38
267.984	95.38
268.216	84.38
268.448	81.38
268.681	96.38
268.913	74.38
269.145	70.38
269.377	88.38
269.609	85.38
269.841	91.38
270.073	100.38
270.306	77.38
270.538	88.38
270.77	95.38
271.002	85.38
271.234	90.38
271.466	92.38
271.698	87.38
271.93	75.38
272.162	73.38
272.394	88.38
272.626	79.38
272.858	94.38
273.09	74.38
273.322	98.38
273.553	72.38
273.785	79.38
274.017	91.38
274.249	64.38
274.481	75.38
274.713	93.38
274.945	80.38
275.176	77.38
275.408	77.38
275.64	85.38
275.872	82.38
276.104	79.38
276.335	80.38
276.567	77.38
276.799	86.38
277.031	84.38
277.262	86.38
277.494	77.38
277.726	83.38
277.957	63.38
278.189	76.38
278.421	77.38
278.652	72.38
278.884	79.38
279.115	103.38
279.347	78.38
279.579	88.38
279.81	87.38
280.042	88.38
280.273	86.38
280.505	85.38
280.736	88.38
280.968	74.38
281.199	82.38
281.431	87.38
281.662	76.38
281.894	91.38
282.125	82.38
282.356	101.38
282.588	88.38
282.819	93.38
283.051	96.38
283.282	92.38
283.513	85.38
283.745	75.38
283.976	85.38
284.207	65.38
284.439	78.38
284.67	80.38
284.901	76.38
285.132	76.38
285.364	84.38
285.595	89.38
285.826	83.38
286.057	84.38
286.288	86.38
286.52	76.38
286.751	80.38
286.982	80.38
287.213	78.38
287.444	75.38
287.675	80.38
287.906	84.38
288.138	75.38
288.369	88.38
288.6	73.38
288.831	76.38
289.062	85.38
289.293	81.38
289.524	91.38
289.755	81.38
289.986	83.38
290.217	71.38
290.448	91.38
290.679	76.38
290.91	90.38
291.141	91.38
291.371	77.38
291.602	86.38
291.833	81.38
292.064	82.38
292.295	80.38
292.526	80.38
292.757	74.38
292.987	77.38
293.218	94.38
293.449	75.38
293.68	75.38
293.91	86.38
294.141	77.38
294.372	93.38
294.603	97.38
294.833	93.38
295.064	98.38
295.295	79.38
295.525	70.38
295.756	84.38
295.987	89.38
296.217	86.38
296.448	88.38
296.679	81.38
296.909	83.38
297.14	80.38
297.37	79.38
297.601	66.38
297.831	67.38
298.062	95.38
298.292	84.38
298.523	73.38
298.753	74.38
298.984	93.38
299.214	88.38
299.445	90.38
299.675	93.38
299.905	108.38
300.136	87.38
300.366	92.38
300.597	89.38
300.827	94.38
301.057	90.38
301.288	94.38
301.518	87.38
301.748	80.38
301.979	115.38
302.209	83.38
302.439	90.38
302.669	81.38
302.9	89.38
303.13	82.38
303.36	71.38
303.59	92.38
303.82	87.38
304.051	90.38
304.281	91.38
304.511	88.38
304.741	89.38
304.971	78.38
305.201	86.38
305.431	84.38
305.661	84.38
305.891	81.38
306.121	80.38
306.352	74.38
306.582	86.38
306.812	87.38
307.042	88.38
307.272	82.38
307.502	75.38
307.731	91.38
307.961	76.38
308.191	77.38
308.421	76.38
308.651	79.38
308.881	92.38
309.111	82.38
309.341	80.38
309.571	84.38
309.8	79.38
310.03	90.38
310.26	70.38
310.49	77.38
310.72	82.38
310.949	91.38
311.179	90.38
311.409	93.38
311.639	71.38
311.868	88.38
312.098	93.38
312.328	93.38
312.557	93.38
312.787	71.38
313.017	79.38
313.246	76.38
313.476	81.38
313.706	75.38
313.935	90.38
314.165	77.38
314.394	91.38
314.624	85.38
314.853	83.38
315.083	66.38
315.312	90.38
315.542	84.38
315.771	85.38
316.001	80.38
316.23	81.38
316.46	86.38
316.689	89.38
316.919	97.38
317.148	90.38
317.377	80.38
317.607	86.38
317.836	76.38
318.065	88.38
318.295	87.38
318.524	88.38
318.753	84.38
318.983	81.38
319.212	85.38
319.441	97.38
319.67	79.38
319.9	82.38
320.129	79.38
320.358	87.38
320.587	72.38
320.816	90.38
321.046	75.38
321.275	98.38
321.504	96.38
321.733	82.38
321.962	77.38
322.191	87.38
322.42	89.38
322.649	96.38
322.878	77.38
323.108	77.38
323.337	78.38
323.566	80.38
323.795	89.38
324.024	90.38
324.253	76.38
324.482	62.38
324.71	86.38
324.939	86.38
325.168	90.38
325.397	79.38
325.626	88.38
325.855	91.38
326.084	93.38
326.313	71.38
326.542	88.38
326.77	77.38
326.999	77.38
327.228	92.38
327.457	78.38
327.686	86.38
327.914	85.38
328.143	90.38
328.372	70.38
328.6	100.38
328.829	81.38
329.058	80.38
329.287	87.38
329.515	80.38
329.744	96.38
329.972	77.38
330.201	74.38
330.43	74.38
330.658	80.38
330.887	75.38
331.115	94.38
331.344	84.38
331.572	99.38
331.801	85.38
332.03	79.38
332.258	82.38
332.486	82.38
332.715	89.38
332.943	94.38
333.172	77.38
333.4	86.38
333.629	89.38
333.857	90.38
334.085	95.38
334.314	87.38
334.542	89.38
334.771	87.38
334.999	72.38
335.227	79.38
335.455	81.38
335.684	79.38
335.912	84.38
336.14	86.38
336.369	81.38
336.597	84.38
336.825	73.38
337.053	80.38
337.281	89.38
337.51	86.38
337.738	90.38
337.966	87.38
338.194	65.38
338.422	81.38
338.65	91.38
338.878	75.38
339.106	76.38
339.334	84.38
339.562	75.38
339.79	91.38
340.018	80.38
340.246	74.38
340.474	94.38
340.702	93.38
340.93	88.38
341.158	70.38
341.386	108.38
341.614	87.38
341.842	88.38
342.07	83.38
342.298	76.38
342.526	82.38
342.754	85.38
342.981	84.38
343.209	79.38
343.437	90.38
343.665	73.38
343.893	90.38
344.12	87.38
344.348	85.38
344.576	83.38
344.804	67.38
345.031	93.38
345.259	74.38
345.487	80.38
345.714	81.38
345.942	79.38
346.17	94.38
346.397	89.38
346.625	83.38
346.853	83.38
347.08	88.38
347.308	81.38
347.535	84.38
347.763	81.38
347.99	85.38
348.218	95.38
348.445	78.38
348.673	80.38
348.9	89.38
349.128	104.38
349.355	84.38
349.583	87.38
349.81	91.38
350.037	77.38
350.265	81.38
350.492	88.38
350.72	85.38
350.947	89.38
351.174	90.38
351.402	96.38
351.629	89.38
351.856	67.38
352.083	82.38
352.311	85.38
352.538	86.38
352.765	78.38
352.992	89.38
353.22	72.38
353.447	80.38
353.674	81.38
353.901	80.38
354.128	87.38
354.355	85.38
354.583	96.38
354.81	86.38
355.037	76.38
355.264	82.38
355.491	83.38
355.718	86.38
355.945	86.38
356.172	88.38
356.399	64.38
356.626	86.38
356.853	80.38
357.08	82.38
357.307	83.38
357.534	70.38
357.761	88.38
357.988	97.38
358.215	81.38
358.441	66.38
358.668	74.38
358.895	95.38
359.122	83.38
359.349	86.38
359.576	80.38
359.802	84.38
360.029	86.38
360.256	79.38
360.483	82.38
360.709	72.38
360.936	101.38
361.163	88.38
361.39	79.38
361.616	84.38
361.843	86.38
362.07	81.38
362.296	84.38
362.523	100.38
362.749	74.38
362.976	85.38
363.203	83.38
363.429	67.38
363.656	85.38
363.882	96.38
364.109	82.38
364.335	78.38
364.562	85.38
364.788	75.38
365.015	89.38
365.241	83.38
365.468	92.38
365.694	79.38
365.92	73.38
366.147	76.38
366.373	94.38
366.599	73.38
366.826	77.38
367.052	77.38
367.278	83.38
367.505	91.38
367.731	96.38
367.957	65.38
368.184	76.38
368.41	91.38
368.636	88.38
368.862	86.38
369.089	78.38
369.315	79.38
369.541	76.38
369.767	79.38
369.993	84.38
370.219	93.38
370.445	79.38
370.672	96.38
370.898	89.38
371.124	91.38
371.35	79.38
371.576	74.38
371.802	77.38
372.028	76.38
372.254	89.38
372.48	70.38
372.706	89.38
372.932	92.38
373.158	71.38
373.384	75.38
373.61	83.38
373.835	83.38
374.061	76.38
374.287	70.38
374.513	98.38
374.739	86.38
374.965	77.38
375.191	77.38
375.416	80.38
375.642	77.38
375.868	79.38
376.094	77.38
376.319	80.38
376.545	61.38
376.771	86.38
376.997	84.38
377.222	81.38
377.448	77.38
377.674	91.38
377.899	77.38
378.125	91.38
378.35	87.38
378.576	80.38
378.802	91.38
379.027	86.38
379.253	88.38
379.478	88.38
379.704	88.38
379.929	84.38
380.155	80.38
380.38	76.38
380.606	82.38
380.831	95.38
381.057	87.38
381.282	75.38
381.507	99.38
381.733	92.38
381.958	69.38
382.184	80.38
382.409	82.38
382.634	73.38
382.86	76.38
383.085	86.38
383.31	76.38
383.535	91.38
383.761	86.38
383.986	89.38
384.211	84.38
384.436	68.38
384.662	68.38
384.887	81.38
385.112	70.38
385.337	82.38
385.562	72.38
385.787	79.38
386.013	70.38
386.238	81.38
386.463	83.38
386.688	101.38
386.913	95.38
387.138	84.38
387.363	79.38
387.588	91.38
387.813	87.38
388.038	90.38
388.263	85.38
388.488	90.38
388.713	75.38
388.938	84.38
389.163	97.38
389.387	82.38
389.612	77.38
389.837	61.38
390.062	95.38
390.287	85.38
390.512	89.38
390.736	97.38
390.961	72.38
391.186	84.38
391.411	84.38
391.636	78.38
391.86	95.38
392.085	72.38
392.31	83.38
392.534	74.38
392.759	86.38
392.984	81.38
393.208	69.38
393.433	82.38
393.658	86.38
393.882	84.38
394.107	80.38
394.331	76.38
394.556	71.38
394.78	89.38
395.005	91.38
395.229	90.38
395.454	75.38
395.678	74.38
395.903	83.38
396.127	92.38
396.352	82.38
396.576	88.38
396.801	72.38
397.025	80.38
397.249	77.38
397.474	86.38
397.698	82.38
397.922	88.38
398.147	85.38
398.371	80.38
398.595	76.38
398.82	84.38
399.044	78.38
399.268	90.38
399.492	82.38
399.717	74.38
399.941	87.38
400.165	81.38
400.389	92.38
400.613	82.38
400.837	79.38
401.062	74.38
401.286	78.38
401.51	76.38
401.734	82.38
401.958	91.38
402.182	73.38
402.406	77.38
402.63	84.38
402.854	77.38
403.078	80.38
403.302	90.38
403.526	80.38
403.75	83.38
403.974	71.38
404.198	72.38
404.422	75.38
404.645	86.38
404.869	86.38
405.093	84.38
405.317	81.38
405.541	85.38
405.765	90.38
405.988	81.38
406.212	80.38
406.436	74.38
406.66	77.38
406.883	66.38
407.107	79.38
407.331	81.38
407.555	87.38
407.778	80.38
408.002	74.38
408.226	79.38
408.449	76.38
408.673	89.38
408.896	76.38
409.12	71.38
409.344	85.38
409.567	89.38
409.791	82.38
410.014	79.38
410.238	82.38
410.461	90.38
410.685	75.38
410.908	82.38
411.132	73.38
411.355	81.38
411.578	94.38
411.802	92.38
412.025	76.38
412.249	80.38
412.472	90.38
412.695	75.38
412.919	93.38
413.142	77.38
413.365	89.38
413.589	78.38
413.812	78.38
414.035	81.38
414.258	71.38
414.482	70.38
414.705	81.38
414.928	79.38
415.151	79.38
415.374	75.38
415.597	86.38
415.821	83.38
416.044	61.38
416.267	77.38
416.49	80.38
416.713	66.38
416.936	85.38
417.159	72.38
417.382	75.38
417.605	76.38
417.828	87.38
418.051	88.38
418.274	86.38
418.497	90.38
418.72	73.38
418.943	94.38
419.166	79.38
419.389	78.38
419.611	87.38
419.834	76.38
420.057	92.38
420.28	76.38
420.503	66.38
420.726	82.38
420.948	76.38
421.171	70.38
421.394	86.38
421.617	83.38
421.839	76.38
422.062	75.38
422.285	73.38
422.507	80.38
422.73	80.38
422.953	86.38
423.175	74.38
423.398	80.38
423.621	84.38
423.843	89.38
424.066	87.38
424.288	73.38
424.511	76.38
424.733	85.38
424.956	84.38
425.178	77.38
425.401	94.38
425.623	78.38
425.846	76.38
426.068	78.38
426.291	96.38
426.513	77.38
426.735	82.38
426.958	82.38
427.18	89.38
427.402	80.38
427.625	85.38
427.847	72.38
428.069	80.38
428.292	84.38
428.514	100.38
428.736	90.38
428.958	81.38
429.181	69.38
429.403	73.38
429.625	77.38
429.847	78.38
430.069	67.38
430.292	75.38
430.514	77.38
430.736	81.38
430.958	83.38
431.18	74.38
431.402	78.38
431.624	84.38
431.846	67.38
432.068	90.38
432.29	86.38
432.512	72.38
432.734	82.38
432.956	87.38
433.178	102.38
433.4	91.38
433.622	97.38
433.844	85.38
434.066	71.38
434.287	86.38
434.509	76.38
434.731	75.38
434.953	70.38
435.175	84.38
435.397	75.38
435.618	81.38
435.84	94.38
436.062	78.38
436.284	78.38
436.505	73.38
436.727	87.38
436.949	90.38
437.17	100.38
437.392	101.38
437.614	80.38
437.835	88.38
438.057	74.38
438.278	69.38
438.5	86.38
438.721	73.38
438.943	78.38
439.165	88.38
439.386	86.38
439.608	63.38
439.829	85.38
440.05	72.38
440.272	85.38
440.493	77.38
440.715	82.38
440.936	83.38
441.158	80.38
441.379	91.38
441.6	88.38
441.822	80.38
442.043	78.38
442.264	76.38
442.486	87.38
442.707	77.38
442.928	92.38
443.149	66.38
443.371	76.38
443.592	80.38
443.813	78.38
444.034	74.38
444.255	86.38
444.476	76.38
444.698	81.38
444.919	90.38
445.14	148.38
445.361	99.38
445.582	90.38
445.803	96.38
446.024	98.38
446.245	82.38
446.466	89.38
446.687	75.38
446.908	84.38
447.129	72.38
447.35	81.38
447.571	70.38
447.792	81.38
448.013	100.38
448.234	92.38
448.455	74.38
448.675	73.38
448.896	78.38
449.117	86.38
449.338	81.38
449.559	84.38
449.779	97.38
450	83.38
450.221	88.38
450.442	81.38
450.662	84.38
450.883	87.38
451.104	78.38
451.324	81.38
451.545	78.38
451.766	87.38
451.986	81.38
452.207	67.38
452.428	95.38
452.648	84.38
452.869	79.38
453.089	83.38
453.31	84.38
453.53	77.38
453.751	69.38
453.971	79.38
454.192	87.38
454.412	71.38
454.633	78.38
454.853	87.38
455.073	75.38
455.294	88.38
455.514	81.38
455.734	83.38
455.955	83.38
456.175	78.38
456.395	83.38
456.616	78.38
456.836	85.38
457.056	73.38
457.276	68.38
457.497	75.38
457.717	90.38
457.937	77.38
458.157	68.38
458.377	70.38
458.598	87.38
458.818	86.38
459.038	76.38
459.258	80.38
459.478	80.38
459.698	77.38
459.918	88.38
460.138	73.38
460.358	85.38
460.578	84.38
460.798	93.38
461.018	80.38
461.238	92.38
461.458	91.38
461.678	72.38
461.898	94.38
462.118	91.38
462.338	90.38
462.558	69.38
462.777	58.38
462.997	90.38
463.217	93.38
463.437	81.38
463.657	66.38
463.876	83.38
464.096	64.38
464.316	82.38
464.536	85.38
464.755	91.38
464.975	76.38
465.195	75.38
465.414	81.38
465.634	74.38
465.854	80.38
466.073	74.38
466.293	80.38
466.512	79.38
466.732	78.38
466.951	80.38
467.171	88.38
467.391	89.38
467.61	78.38
467.829	81.38
468.049	74.38
468.268	83.38
468.488	85.38
468.707	79.38
468.927	84.38
469.146	85.38
469.365	75.38
469.585	90.38
469.804	73.38
470.023	81.38
470.243	78.38
470.462	88.38
470.681	91.38
470.901	80.38
471.12	81.38
471.339	88.38
471.558	70.38
471.777	89.38
471.997	79.38
472.216	94.38
472.435	76.38
472.654	73.38
472.873	81.38
473.092	86.38
473.311	95.38
473.53	82.38
473.749	74.38
473.968	80.38
474.187	71.38
474.406	82.38
474.625	79.38
474.844	102.38
475.063	87.38
475.282	75.38
475.501	73.38
475.72	75.38
475.939	86.38
476.158	79.38
476.377	90.38
476.596	86.38
476.814	81.38
477.033	75.38
477.252	82.38
477.471	70.38
477.69	84.38
477.908	80.38
478.127	79.38
478.346	82.38
478.564	74.38
478.783	77.38
479.002	76.38
479.22	73.38
479.439	78.38
479.658	86.38
479.876	80.38
480.095	79.38
480.313	80.38
480.532	78.38
480.751	69.38
480.969	76.38
481.188	81.38
481.406	79.38
481.624	85.38
481.843	95.38
482.061	84.38
482.28	85.38
482.498	83.38
482.717	88.38
482.935	83.38
483.153	90.38
483.372	83.38
483.59	76.38
483.808	73.38
484.027	83.38
484.245	91.38
484.463	77.38
484.681	87.38
484.9	88.38
485.118	72.38
485.336	77.38
485.554	75.38
485.772	76.38
485.99	77.38
486.209	84.38
486.427	74.38
486.645	79.38
486.863	88.38
487.081	85.38
487.299	84.38
487.517	94.38
487.735	73.38
487.953	72.38
488.171	76.38
488.389	77.38
488.607	84.38
488.825	70.38
489.043	85.38
489.261	80.38
489.479	75.38
489.696	79.38
489.914	79.38
490.132	77.38
490.35	81.38
490.568	81.38
490.786	74.38
491.003	92.38
491.221	90.38
491.439	95.38
491.657	84.38
491.874	81.38
492.092	90.38
492.31	84.38
492.527	86.38
492.745	73.38
492.963	85.38
493.18	89.38
493.398	85.38
493.615	98.38
493.833	82.38
494.05	89.38
494.268	79.38
494.485	85.38
494.703	77.38
494.92	90.38
495.138	94.38
495.355	79.38
495.573	84.38
495.79	84.38
496.008	91.38
496.225	79.38
496.442	83.38
496.66	99.38
496.877	84.38
497.094	84.38
497.312	80.38
497.529	88.38
497.746	98.38
497.963	76.38
498.181	88.38
498.398	75.38
498.615	73.38
498.832	91.38
499.049	78.38
499.267	85.38
499.484	81.38
499.701	81.38
499.918	79.38
500.135	100.38
500.352	95.38
500.569	94.38
500.786	88.38
501.003	71.38
501.22	74.38
501.437	91.38
501.654	88.38
501.871	82.38
502.088	97.38
502.305	81.38
502.522	87.38
502.739	96.38
502.956	84.38
503.172	77.38
503.389	92.38
503.606	73.38
503.823	88.38
504.04	89.38
504.256	78.38
504.473	88.38
504.69	88.38
504.907	84.38
505.123	80.38
505.34	102.38
505.557	74.38
505.773	93.38
505.99	92.38
506.207	77.38
506.423	77.38
506.64	80.38
506.856	81.38
507.073	94.38
507.289	74.38
507.506	86.38
507.722	89.38
507.939	87.38
508.155	76.38
508.372	91.38
508.588	88.38
508.805	91.38
509.021	94.38
509.238	81.38
509.454	86.38
509.67	86.38
509.887	73.38
510.103	85.38
510.319	85.38
510.536	86.38
510.752	66.38
510.968	87.38
511.184	78.38
511.401	72.38
511.617	79.38
511.833	85.38
512.049	96.38
512.265	71.38
512.481	84.38
512.698	79.38
512.914	85.38
513.13	79.38
513.346	76.38
513.562	78.38
513.778	83.38
513.994	77.38
514.21	93.38
514.426	85.38
514.642	89.38
514.858	72.38
515.074	95.38
515.29	66.38
515.506	79.38
515.721	76.38
515.937	95.38
516.153	78.38
516.369	85.38
516.585	85.38
516.801	85.38
517.016	75.38
517.232	89.38
517.448	77.38
517.664	93.38
517.879	76.38
518.095	94.38
518.311	85.38
518.527	101.38
518.742	83.38
518.958	84.38
519.173	73.38
519.389	92.38
519.605	85.38
519.82	80.38
520.036	94.38
