Data from Dirtheat1_HRD10591_00020.txt Node
Date: Fri Dec 27 15:13:43 EST 2024
User: Yrep
Spectrometer: HR+D1059
Trigger mode: 1
Integration Time (sec): 1.000000E-1
Scans to average: 1
Electric dark correction enabled: true
Nonlinearity correction enabled: false
Boxcar width: 0
XAxis mode: Wavelengths
Number of Pixels in Spectrum: 2048
>>>>>Begin Spectral Data<<<<<
223.165	-30.62
223.4	-30.62
223.635	-30.62
223.869	0.38
224.104	-21.62
224.338	-12.62
224.573	-15.62
224.808	-6.62
225.042	-23.62
225.277	-4.62
225.511	1.38
225.746	4.38
225.98	12.38
226.215	11.38
226.449	17.38
226.683	12.38
226.918	22.38
227.152	33.38
227.387	30.38
227.621	52.38
227.856	38.38
228.09	51.38
228.324	67.38
228.559	66.38
228.793	53.38
229.027	65.38
229.262	60.38
229.496	62.38
229.73	72.38
229.964	82.38
230.199	85.38
230.433	76.38
230.667	61.38
230.901	76.38
231.136	75.38
231.37	66.38
231.604	86.38
231.838	86.38
232.072	68.38
232.306	79.38
232.541	78.38
232.775	73.38
233.009	74.38
233.243	92.38
233.477	89.38
233.711	86.38
233.945	73.38
234.179	81.38
234.413	77.38
234.647	81.38
234.881	63.38
235.115	84.38
235.349	82.38
235.583	81.38
235.817	104.38
236.051	77.38
236.285	67.38
236.519	94.38
236.753	85.38
236.987	72.38
237.221	74.38
237.455	69.38
237.689	71.38
237.922	90.38
238.156	65.38
238.39	80.38
238.624	86.38
238.858	62.38
239.091	77.38
239.325	69.38
239.559	61.38
239.793	72.38
240.027	89.38
240.26	84.38
240.494	84.38
240.728	77.38
240.961	68.38
241.195	71.38
241.429	73.38
241.662	85.38
241.896	76.38
242.13	70.38
242.363	84.38
242.597	83.38
242.83	70.38
243.064	57.38
243.298	78.38
243.531	77.38
243.765	74.38
243.998	84.38
244.232	87.38
244.465	84.38
244.699	75.38
244.932	85.38
245.166	80.38
245.399	72.38
245.633	81.38
245.866	81.38
246.099	92.38
246.333	69.38
246.566	67.38
246.8	82.38
247.033	75.38
247.266	84.38
247.5	73.38
247.733	71.38
247.966	82.38
248.2	81.38
248.433	70.38
248.666	87.38
248.899	72.38
249.133	76.38
249.366	79.38
249.599	74.38
249.832	63.38
250.066	88.38
250.299	76.38
250.532	82.38
250.765	70.38
250.998	82.38
251.231	80.38
251.465	86.38
251.698	83.38
251.931	78.38
252.164	73.38
252.397	77.38
252.63	79.38
252.863	82.38
253.096	73.38
253.329	97.38
253.562	86.38
253.795	77.38
254.028	74.38
254.261	86.38
254.494	80.38
254.727	73.38
254.96	81.38
255.193	77.38
255.426	76.38
255.659	88.38
255.892	87.38
256.124	83.38
256.357	76.38
256.59	68.38
256.823	75.38
257.056	81.38
257.289	73.38
257.521	79.38
257.754	66.38
257.987	70.38
258.22	93.38
258.452	82.38
258.685	89.38
258.918	85.38
259.151	67.38
259.383	83.38
259.616	77.38
259.849	73.38
260.081	83.38
260.314	73.38
260.547	81.38
260.779	75.38
261.012	87.38
261.244	81.38
261.477	71.38
261.71	88.38
261.942	80.38
262.175	85.38
262.407	79.38
262.64	65.38
262.872	85.38
263.105	78.38
263.337	95.38
263.57	91.38
263.802	71.38
264.035	77.38
264.267	71.38
264.499	82.38
264.732	76.38
264.964	73.38
265.197	77.38
265.429	87.38
265.661	82.38
265.894	99.38
266.126	95.38
266.358	74.38
266.591	66.38
266.823	80.38
267.055	74.38
267.287	74.38
267.52	82.38
267.752	84.38
267.984	86.38
268.216	74.38
268.448	71.38
268.681	88.38
268.913	82.38
269.145	92.38
269.377	92.38
269.609	81.38
269.841	74.38
270.073	78.38
270.306	71.38
270.538	79.38
270.77	84.38
271.002	84.38
271.234	85.38
271.466	91.38
271.698	72.38
271.93	88.38
272.162	86.38
272.394	88.38
272.626	82.38
272.858	94.38
273.09	85.38
273.322	81.38
273.553	88.38
273.785	78.38
274.017	73.38
274.249	71.38
274.481	80.38
274.713	78.38
274.945	91.38
275.176	67.38
275.408	91.38
275.64	76.38
275.872	76.38
276.104	75.38
276.335	80.38
276.567	85.38
276.799	71.38
277.031	86.38
277.262	94.38
277.494	84.38
277.726	95.38
277.957	90.38
278.189	85.38
278.421	80.38
278.652	67.38
278.884	84.38
279.115	84.38
279.347	80.38
279.579	94.38
279.81	78.38
280.042	88.38
280.273	70.38
280.505	74.38
280.736	86.38
280.968	87.38
281.199	80.38
281.431	87.38
281.662	86.38
281.894	79.38
282.125	90.38
282.356	71.38
282.588	82.38
282.819	84.38
283.051	88.38
283.282	98.38
283.513	79.38
283.745	79.38
283.976	90.38
284.207	77.38
284.439	78.38
284.67	92.38
284.901	74.38
285.132	85.38
285.364	93.38
285.595	80.38
285.826	89.38
286.057	93.38
286.288	92.38
286.52	68.38
286.751	78.38
286.982	87.38
287.213	78.38
287.444	74.38
287.675	73.38
287.906	82.38
288.138	92.38
288.369	83.38
288.6	75.38
288.831	82.38
289.062	93.38
289.293	70.38
289.524	97.38
289.755	84.38
289.986	77.38
290.217	90.38
290.448	89.38
290.679	85.38
290.91	77.38
291.141	69.38
291.371	80.38
291.602	74.38
291.833	90.38
292.064	83.38
292.295	68.38
292.526	86.38
292.757	78.38
292.987	103.38
293.218	63.38
293.449	87.38
293.68	74.38
293.91	64.38
294.141	80.38
294.372	85.38
294.603	100.38
294.833	77.38
295.064	92.38
295.295	93.38
295.525	81.38
295.756	99.38
295.987	87.38
296.217	76.38
296.448	72.38
296.679	78.38
296.909	79.38
297.14	79.38
297.37	79.38
297.601	93.38
297.831	79.38
298.062	88.38
298.292	86.38
298.523	78.38
298.753	78.38
298.984	94.38
299.214	79.38
299.445	97.38
299.675	91.38
299.905	87.38
300.136	92.38
300.366	81.38
300.597	79.38
300.827	88.38
301.057	78.38
301.288	81.38
301.518	72.38
301.748	80.38
301.979	103.38
302.209	87.38
302.439	83.38
302.669	70.38
302.9	81.38
303.13	98.38
303.36	68.38
303.59	92.38
303.82	80.38
304.051	73.38
304.281	92.38
304.511	86.38
304.741	83.38
304.971	76.38
305.201	71.38
305.431	91.38
305.661	83.38
305.891	85.38
306.121	76.38
306.352	81.38
306.582	74.38
306.812	90.38
307.042	79.38
307.272	83.38
307.502	84.38
307.731	81.38
307.961	84.38
308.191	82.38
308.421	92.38
308.651	75.38
308.881	87.38
309.111	83.38
309.341	70.38
309.571	88.38
309.8	82.38
310.03	82.38
310.26	82.38
310.49	76.38
310.72	79.38
310.949	89.38
311.179	92.38
311.409	89.38
311.639	98.38
311.868	85.38
312.098	83.38
312.328	83.38
312.557	85.38
312.787	82.38
313.017	88.38
313.246	79.38
313.476	100.38
313.706	96.38
313.935	84.38
314.165	80.38
314.394	84.38
314.624	81.38
314.853	84.38
315.083	73.38
315.312	87.38
315.542	78.38
315.771	81.38
316.001	82.38
316.23	67.38
316.46	83.38
316.689	78.38
316.919	75.38
317.148	60.38
317.377	83.38
317.607	78.38
317.836	70.38
318.065	82.38
318.295	91.38
318.524	88.38
318.753	83.38
318.983	81.38
319.212	89.38
319.441	76.38
319.67	85.38
319.9	99.38
320.129	76.38
320.358	74.38
320.587	74.38
320.816	83.38
321.046	79.38
321.275	79.38
321.504	83.38
321.733	84.38
321.962	85.38
322.191	94.38
322.42	83.38
322.649	75.38
322.878	84.38
323.108	78.38
323.337	94.38
323.566	81.38
323.795	81.38
324.024	79.38
324.253	89.38
324.482	81.38
324.71	85.38
324.939	85.38
325.168	72.38
325.397	87.38
325.626	79.38
325.855	74.38
326.084	64.38
326.313	94.38
326.542	77.38
326.77	58.38
326.999	79.38
327.228	91.38
327.457	73.38
327.686	79.38
327.914	74.38
328.143	96.38
328.372	82.38
328.6	86.38
328.829	79.38
329.058	86.38
329.287	81.38
329.515	91.38
329.744	79.38
329.972	83.38
330.201	83.38
330.43	82.38
330.658	78.38
330.887	82.38
331.115	72.38
331.344	77.38
331.572	91.38
331.801	88.38
332.03	86.38
332.258	87.38
332.486	81.38
332.715	76.38
332.943	72.38
333.172	83.38
333.4	82.38
333.629	92.38
333.857	77.38
334.085	72.38
334.314	75.38
334.542	81.38
334.771	69.38
334.999	93.38
335.227	96.38
335.455	89.38
335.684	77.38
335.912	78.38
336.14	83.38
336.369	82.38
336.597	66.38
336.825	81.38
337.053	83.38
337.281	77.38
337.51	89.38
337.738	69.38
337.966	94.38
338.194	84.38
338.422	70.38
338.65	84.38
338.878	83.38
339.106	75.38
339.334	75.38
339.562	91.38
339.79	60.38
340.018	68.38
340.246	72.38
340.474	86.38
340.702	83.38
340.93	76.38
341.158	85.38
341.386	84.38
341.614	85.38
341.842	84.38
342.07	76.38
342.298	78.38
342.526	92.38
342.754	79.38
342.981	101.38
343.209	78.38
343.437	99.38
343.665	81.38
343.893	71.38
344.12	74.38
344.348	78.38
344.576	88.38
344.804	89.38
345.031	74.38
345.259	78.38
345.487	82.38
345.714	63.38
345.942	88.38
346.17	84.38
346.397	76.38
346.625	79.38
346.853	83.38
347.08	79.38
347.308	82.38
347.535	88.38
347.763	83.38
347.99	100.38
348.218	85.38
348.445	70.38
348.673	83.38
348.9	79.38
349.128	90.38
349.355	87.38
349.583	82.38
349.81	71.38
350.037	81.38
350.265	77.38
350.492	79.38
350.72	88.38
350.947	82.38
351.174	85.38
351.402	91.38
351.629	68.38
351.856	67.38
352.083	78.38
352.311	94.38
352.538	81.38
352.765	73.38
352.992	87.38
353.22	84.38
353.447	73.38
353.674	81.38
353.901	89.38
354.128	90.38
354.355	77.38
354.583	81.38
354.81	86.38
355.037	92.38
355.264	78.38
355.491	84.38
355.718	67.38
355.945	70.38
356.172	84.38
356.399	89.38
356.626	76.38
356.853	79.38
357.08	96.38
357.307	83.38
357.534	91.38
357.761	92.38
357.988	69.38
358.215	76.38
358.441	83.38
358.668	77.38
358.895	95.38
359.122	87.38
359.349	78.38
359.576	84.38
359.802	78.38
360.029	69.38
360.256	81.38
360.483	71.38
360.709	93.38
360.936	92.38
361.163	85.38
361.39	87.38
361.616	77.38
361.843	75.38
362.07	82.38
362.296	87.38
362.523	73.38
362.749	93.38
362.976	97.38
363.203	92.38
363.429	79.38
363.656	83.38
363.882	88.38
364.109	91.38
364.335	75.38
364.562	81.38
364.788	99.38
365.015	88.38
365.241	79.38
365.468	90.38
365.694	79.38
365.92	77.38
366.147	95.38
366.373	81.38
366.599	88.38
366.826	103.38
367.052	87.38
367.278	83.38
367.505	73.38
367.731	84.38
367.957	84.38
368.184	75.38
368.41	92.38
368.636	78.38
368.862	87.38
369.089	86.38
369.315	66.38
369.541	78.38
369.767	90.38
369.993	76.38
370.219	80.38
370.445	77.38
370.672	77.38
370.898	73.38
371.124	75.38
371.35	78.38
371.576	79.38
371.802	83.38
372.028	83.38
372.254	83.38
372.48	77.38
372.706	83.38
372.932	85.38
373.158	79.38
373.384	91.38
373.61	90.38
373.835	76.38
374.061	91.38
374.287	81.38
374.513	71.38
374.739	90.38
374.965	73.38
375.191	92.38
375.416	80.38
375.642	78.38
375.868	90.38
376.094	78.38
376.319	77.38
376.545	85.38
376.771	75.38
376.997	66.38
377.222	73.38
377.448	68.38
377.674	79.38
377.899	90.38
378.125	76.38
378.35	76.38
378.576	83.38
378.802	99.38
379.027	71.38
379.253	84.38
379.478	77.38
379.704	77.38
379.929	81.38
380.155	78.38
380.38	86.38
380.606	82.38
380.831	90.38
381.057	85.38
381.282	82.38
381.507	92.38
381.733	90.38
381.958	79.38
382.184	93.38
382.409	84.38
382.634	79.38
382.86	75.38
383.085	87.38
383.31	75.38
383.535	76.38
383.761	83.38
383.986	89.38
384.211	81.38
384.436	89.38
384.662	72.38
384.887	89.38
385.112	68.38
385.337	77.38
385.562	74.38
385.787	99.38
386.013	93.38
386.238	67.38
386.463	78.38
386.688	85.38
386.913	65.38
387.138	96.38
387.363	86.38
387.588	84.38
387.813	71.38
388.038	78.38
388.263	77.38
388.488	86.38
388.713	78.38
388.938	81.38
389.163	84.38
389.387	76.38
389.612	73.38
389.837	80.38
390.062	75.38
390.287	75.38
390.512	72.38
390.736	86.38
390.961	79.38
391.186	83.38
391.411	64.38
391.636	71.38
391.86	86.38
392.085	82.38
392.31	77.38
392.534	90.38
392.759	74.38
392.984	89.38
393.208	107.38
393.433	95.38
393.658	111.38
393.882	91.38
394.107	100.38
394.331	74.38
394.556	69.38
394.78	81.38
395.005	85.38
395.229	85.38
395.454	80.38
395.678	83.38
395.903	86.38
396.127	81.38
396.352	79.38
396.576	87.38
396.801	83.38
397.025	86.38
397.249	83.38
397.474	96.38
397.698	81.38
397.922	77.38
398.147	78.38
398.371	87.38
398.595	86.38
398.82	68.38
399.044	69.38
399.268	79.38
399.492	87.38
399.717	99.38
399.941	74.38
400.165	59.38
400.389	88.38
400.613	84.38
400.837	91.38
401.062	74.38
401.286	87.38
401.51	91.38
401.734	85.38
401.958	72.38
402.182	74.38
402.406	83.38
402.63	79.38
402.854	84.38
403.078	82.38
403.302	78.38
403.526	77.38
403.75	79.38
403.974	94.38
404.198	101.38
404.422	84.38
404.645	71.38
404.869	75.38
405.093	65.38
405.317	86.38
405.541	94.38
405.765	86.38
405.988	74.38
406.212	93.38
406.436	83.38
406.66	82.38
406.883	77.38
407.107	72.38
407.331	67.38
407.555	90.38
407.778	76.38
408.002	90.38
408.226	78.38
408.449	73.38
408.673	83.38
408.896	91.38
409.12	84.38
409.344	82.38
409.567	82.38
409.791	80.38
410.014	83.38
410.238	84.38
410.461	97.38
410.685	84.38
410.908	86.38
411.132	94.38
411.355	95.38
411.578	83.38
411.802	82.38
412.025	77.38
412.249	79.38
412.472	71.38
412.695	83.38
412.919	87.38
413.142	73.38
413.365	89.38
413.589	82.38
413.812	94.38
414.035	75.38
414.258	88.38
414.482	88.38
414.705	86.38
414.928	79.38
415.151	80.38
415.374	79.38
415.597	70.38
415.821	67.38
416.044	85.38
416.267	80.38
416.49	86.38
416.713	74.38
416.936	78.38
417.159	91.38
417.382	78.38
417.605	65.38
417.828	79.38
418.051	77.38
418.274	83.38
418.497	86.38
418.72	100.38
418.943	83.38
419.166	96.38
419.389	91.38
419.611	77.38
419.834	85.38
420.057	72.38
420.28	75.38
420.503	82.38
420.726	67.38
420.948	84.38
421.171	83.38
421.394	83.38
421.617	73.38
421.839	88.38
422.062	89.38
422.285	99.38
422.507	90.38
422.73	109.38
422.953	109.38
423.175	112.38
423.398	87.38
423.621	90.38
423.843	81.38
424.066	70.38
424.288	88.38
424.511	85.38
424.733	84.38
424.956	75.38
425.178	79.38
425.401	67.38
425.623	80.38
425.846	80.38
426.068	73.38
426.291	81.38
426.513	75.38
426.735	91.38
426.958	86.38
427.18	84.38
427.402	95.38
427.625	81.38
427.847	83.38
428.069	81.38
428.292	91.38
428.514	84.38
428.736	76.38
428.958	77.38
429.181	94.38
429.403	79.38
429.625	71.38
429.847	90.38
430.069	72.38
430.292	96.38
430.514	94.38
430.736	85.38
430.958	78.38
431.18	84.38
431.402	83.38
431.624	86.38
431.846	74.38
432.068	96.38
432.29	81.38
432.512	67.38
432.734	93.38
432.956	80.38
433.178	99.38
433.4	74.38
433.622	83.38
433.844	88.38
434.066	87.38
434.287	75.38
434.509	75.38
434.731	78.38
434.953	88.38
435.175	76.38
435.397	77.38
435.618	73.38
435.84	89.38
436.062	85.38
436.284	80.38
436.505	84.38
436.727	83.38
436.949	58.38
437.17	70.38
437.392	85.38
437.614	82.38
437.835	78.38
438.057	88.38
438.278	81.38
438.5	76.38
438.721	94.38
438.943	62.38
439.165	88.38
439.386	89.38
439.608	80.38
439.829	90.38
440.05	78.38
440.272	71.38
440.493	90.38
440.715	77.38
440.936	87.38
441.158	80.38
441.379	87.38
441.6	79.38
441.822	65.38
442.043	88.38
442.264	89.38
442.486	85.38
442.707	102.38
442.928	90.38
443.149	94.38
443.371	100.38
443.592	105.38
443.813	87.38
444.034	99.38
444.255	78.38
444.476	75.38
444.698	70.38
444.919	75.38
445.14	149.38
445.361	119.38
445.582	98.38
445.803	93.38
446.024	96.38
446.245	91.38
446.466	88.38
446.687	76.38
446.908	84.38
447.129	71.38
447.35	65.38
447.571	70.38
447.792	61.38
448.013	85.38
448.234	87.38
448.455	86.38
448.675	71.38
448.896	88.38
449.117	85.38
449.338	86.38
449.559	71.38
449.779	89.38
450	90.38
450.221	90.38
450.442	85.38
450.662	94.38
450.883	73.38
451.104	80.38
451.324	75.38
451.545	85.38
451.766	86.38
451.986	74.38
452.207	74.38
452.428	77.38
452.648	68.38
452.869	70.38
453.089	91.38
453.31	82.38
453.53	72.38
453.751	82.38
453.971	74.38
454.192	57.38
454.412	83.38
454.633	77.38
454.853	85.38
455.073	77.38
455.294	82.38
455.514	78.38
455.734	72.38
455.955	99.38
456.175	74.38
456.395	83.38
456.616	73.38
456.836	83.38
457.056	83.38
457.276	85.38
457.497	87.38
457.717	72.38
457.937	78.38
458.157	76.38
458.377	72.38
458.598	90.38
458.818	83.38
459.038	78.38
459.258	80.38
459.478	92.38
459.698	73.38
459.918	79.38
460.138	86.38
460.358	75.38
460.578	91.38
460.798	91.38
461.018	97.38
461.238	65.38
461.458	78.38
461.678	73.38
461.898	84.38
462.118	79.38
462.338	74.38
462.558	76.38
462.777	58.38
462.997	85.38
463.217	84.38
463.437	86.38
463.657	85.38
463.876	79.38
464.096	73.38
464.316	70.38
464.536	88.38
464.755	81.38
464.975	88.38
465.195	85.38
465.414	91.38
465.634	78.38
465.854	80.38
466.073	99.38
466.293	84.38
466.512	70.38
466.732	71.38
466.951	93.38
467.171	93.38
467.391	86.38
467.61	83.38
467.829	79.38
468.049	79.38
468.268	75.38
468.488	67.38
468.707	80.38
468.927	74.38
469.146	74.38
469.365	73.38
469.585	101.38
469.804	81.38
470.023	69.38
470.243	82.38
470.462	77.38
470.681	77.38
470.901	83.38
471.12	81.38
471.339	66.38
471.558	99.38
471.777	70.38
471.997	81.38
472.216	92.38
472.435	81.38
472.654	76.38
472.873	80.38
473.092	84.38
473.311	82.38
473.53	72.38
473.749	85.38
473.968	83.38
474.187	99.38
474.406	105.38
474.625	74.38
474.844	70.38
475.063	75.38
475.282	85.38
475.501	75.38
475.72	90.38
475.939	63.38
476.158	71.38
476.377	70.38
476.596	88.38
476.814	87.38
477.033	84.38
477.252	79.38
477.471	68.38
477.69	81.38
477.908	73.38
478.127	85.38
478.346	85.38
478.564	88.38
478.783	84.38
479.002	86.38
479.22	84.38
479.439	70.38
479.658	82.38
479.876	82.38
480.095	82.38
480.313	89.38
480.532	72.38
480.751	82.38
480.969	80.38
481.188	70.38
481.406	93.38
481.624	70.38
481.843	67.38
482.061	66.38
482.28	82.38
482.498	80.38
482.717	79.38
482.935	84.38
483.153	75.38
483.372	84.38
483.59	78.38
483.808	80.38
484.027	96.38
484.245	77.38
484.463	89.38
484.681	107.38
484.9	83.38
485.118	81.38
485.336	84.38
485.554	89.38
485.772	83.38
485.99	90.38
486.209	91.38
486.427	90.38
486.645	92.38
486.863	80.38
487.081	85.38
487.299	97.38
487.517	77.38
487.735	83.38
487.953	79.38
488.171	83.38
488.389	79.38
488.607	75.38
488.825	66.38
489.043	79.38
489.261	85.38
489.479	60.38
489.696	78.38
489.914	84.38
490.132	82.38
490.35	78.38
490.568	85.38
490.786	75.38
491.003	82.38
491.221	81.38
491.439	77.38
491.657	73.38
491.874	86.38
492.092	82.38
492.31	78.38
492.527	93.38
492.745	84.38
492.963	96.38
493.18	88.38
493.398	94.38
493.615	78.38
493.833	79.38
494.05	103.38
494.268	91.38
494.485	85.38
494.703	83.38
494.92	76.38
495.138	78.38
495.355	99.38
495.573	86.38
495.79	101.38
496.008	75.38
496.225	86.38
496.442	82.38
496.66	92.38
496.877	65.38
497.094	88.38
497.312	77.38
497.529	85.38
497.746	85.38
497.963	76.38
498.181	85.38
498.398	85.38
498.615	83.38
498.832	74.38
499.049	95.38
499.267	86.38
499.484	83.38
499.701	79.38
499.918	87.38
500.135	81.38
500.352	90.38
500.569	87.38
500.786	83.38
501.003	79.38
501.22	72.38
501.437	90.38
501.654	78.38
501.871	76.38
502.088	81.38
502.305	78.38
502.522	89.38
502.739	85.38
502.956	75.38
503.172	91.38
503.389	78.38
503.606	75.38
503.823	89.38
504.04	89.38
504.256	90.38
504.473	87.38
504.69	83.38
504.907	94.38
505.123	81.38
505.34	90.38
505.557	85.38
505.773	91.38
505.99	80.38
506.207	73.38
506.423	86.38
506.64	97.38
506.856	82.38
507.073	79.38
507.289	79.38
507.506	72.38
507.722	74.38
507.939	80.38
508.155	88.38
508.372	79.38
508.588	84.38
508.805	75.38
509.021	75.38
509.238	85.38
509.454	99.38
509.67	84.38
509.887	81.38
510.103	91.38
510.319	72.38
510.536	75.38
510.752	80.38
510.968	90.38
511.184	74.38
511.401	79.38
511.617	82.38
511.833	85.38
512.049	90.38
512.265	74.38
512.481	72.38
512.698	98.38
512.914	88.38
513.13	95.38
513.346	80.38
513.562	75.38
513.778	91.38
513.994	81.38
514.21	99.38
514.426	78.38
514.642	65.38
514.858	60.38
515.074	78.38
515.29	100.38
515.506	92.38
515.721	82.38
515.937	84.38
516.153	64.38
516.369	89.38
516.585	79.38
516.801	82.38
517.016	85.38
517.232	87.38
517.448	79.38
517.664	76.38
517.879	89.38
518.095	84.38
518.311	88.38
518.527	73.38
518.742	83.38
518.958	88.38
519.173	99.38
519.389	74.38
519.605	81.38
519.82	83.38
