Data from Dirtheat1_HRD10591_00013.txt Node
Date: Fri Dec 27 15:13:36 EST 2024
User: Yrep
Spectrometer: HR+D1059
Trigger mode: 1
Integration Time (sec): 1.000000E-1
Scans to average: 1
Electric dark correction enabled: true
Nonlinearity correction enabled: false
Boxcar width: 0
XAxis mode: Wavelengths
Number of Pixels in Spectrum: 2048
>>>>>Begin Spectral Data<<<<<
223.165	-17.31
223.4	-17.31
223.635	-17.31
223.869	-18.31
224.104	-22.31
224.338	-22.31
224.573	-25.31
224.808	-19.31
225.042	-16.31
225.277	-13.31
225.511	4.69
225.746	4.69
225.98	14.69
226.215	9.69
226.449	29.69
226.683	19.69
226.918	27.69
227.152	43.69
227.387	31.69
227.621	35.69
227.856	48.69
228.09	46.69
228.324	53.69
228.559	38.69
228.793	70.69
229.027	63.69
229.262	73.69
229.496	51.69
229.73	71.69
229.964	74.69
230.199	69.69
230.433	67.69
230.667	92.69
230.901	79.69
231.136	73.69
231.37	85.69
231.604	86.69
231.838	78.69
232.072	79.69
232.306	83.69
232.541	87.69
232.775	78.69
233.009	75.69
233.243	74.69
233.477	93.69
233.711	89.69
233.945	80.69
234.179	78.69
234.413	86.69
234.647	80.69
234.881	78.69
235.115	81.69
235.349	62.69
235.583	78.69
235.817	88.69
236.051	76.69
236.285	72.69
236.519	67.69
236.753	69.69
236.987	82.69
237.221	75.69
237.455	84.69
237.689	66.69
237.922	88.69
238.156	76.69
238.39	69.69
238.624	71.69
238.858	76.69
239.091	71.69
239.325	67.69
239.559	78.69
239.793	81.69
240.027	75.69
240.26	56.69
240.494	71.69
240.728	76.69
240.961	82.69
241.195	82.69
241.429	90.69
241.662	61.69
241.896	78.69
242.13	72.69
242.363	73.69
242.597	77.69
242.83	85.69
243.064	84.69
243.298	71.69
243.531	66.69
243.765	65.69
243.998	81.69
244.232	80.69
244.465	74.69
244.699	86.69
244.932	81.69
245.166	73.69
245.399	85.69
245.633	75.69
245.866	98.69
246.099	83.69
246.333	76.69
246.566	63.69
246.8	84.69
247.033	65.69
247.266	85.69
247.5	77.69
247.733	80.69
247.966	74.69
248.2	78.69
248.433	81.69
248.666	75.69
248.899	70.69
249.133	82.69
249.366	84.69
249.599	81.69
249.832	61.69
250.066	80.69
250.299	81.69
250.532	80.69
250.765	87.69
250.998	74.69
251.231	74.69
251.465	73.69
251.698	77.69
251.931	68.69
252.164	80.69
252.397	66.69
252.63	75.69
252.863	80.69
253.096	72.69
253.329	79.69
253.562	89.69
253.795	80.69
254.028	73.69
254.261	90.69
254.494	69.69
254.727	91.69
254.96	71.69
255.193	87.69
255.426	85.69
255.659	83.69
255.892	77.69
256.124	72.69
256.357	75.69
256.59	75.69
256.823	78.69
257.056	71.69
257.289	86.69
257.521	73.69
257.754	82.69
257.987	86.69
258.22	87.69
258.452	78.69
258.685	73.69
258.918	88.69
259.151	69.69
259.383	82.69
259.616	90.69
259.849	86.69
260.081	72.69
260.314	84.69
260.547	92.69
260.779	76.69
261.012	79.69
261.244	82.69
261.477	89.69
261.71	85.69
261.942	78.69
262.175	78.69
262.407	87.69
262.64	79.69
262.872	74.69
263.105	93.69
263.337	83.69
263.57	78.69
263.802	89.69
264.035	90.69
264.267	86.69
264.499	84.69
264.732	78.69
264.964	88.69
265.197	76.69
265.429	102.69
265.661	79.69
265.894	83.69
266.126	102.69
266.358	65.69
266.591	83.69
266.823	90.69
267.055	89.69
267.287	77.69
267.52	88.69
267.752	73.69
267.984	84.69
268.216	70.69
268.448	82.69
268.681	80.69
268.913	74.69
269.145	69.69
269.377	73.69
269.609	77.69
269.841	82.69
270.073	89.69
270.306	67.69
270.538	92.69
270.77	89.69
271.002	100.69
271.234	86.69
271.466	78.69
271.698	91.69
271.93	61.69
272.162	92.69
272.394	80.69
272.626	84.69
272.858	70.69
273.09	82.69
273.322	87.69
273.553	82.69
273.785	101.69
274.017	78.69
274.249	79.69
274.481	74.69
274.713	80.69
274.945	82.69
275.176	82.69
275.408	65.69
275.64	65.69
275.872	75.69
276.104	74.69
276.335	89.69
276.567	80.69
276.799	88.69
277.031	73.69
277.262	63.69
277.494	74.69
277.726	77.69
277.957	72.69
278.189	72.69
278.421	69.69
278.652	77.69
278.884	89.69
279.115	81.69
279.347	85.69
279.579	87.69
279.81	87.69
280.042	79.69
280.273	81.69
280.505	77.69
280.736	85.69
280.968	76.69
281.199	89.69
281.431	79.69
281.662	79.69
281.894	81.69
282.125	91.69
282.356	69.69
282.588	69.69
282.819	87.69
283.051	94.69
283.282	82.69
283.513	90.69
283.745	98.69
283.976	86.69
284.207	97.69
284.439	99.69
284.67	84.69
284.901	69.69
285.132	86.69
285.364	82.69
285.595	79.69
285.826	79.69
286.057	78.69
286.288	75.69
286.52	72.69
286.751	89.69
286.982	90.69
287.213	80.69
287.444	88.69
287.675	82.69
287.906	87.69
288.138	89.69
288.369	74.69
288.6	78.69
288.831	85.69
289.062	80.69
289.293	79.69
289.524	74.69
289.755	90.69
289.986	85.69
290.217	72.69
290.448	72.69
290.679	67.69
290.91	90.69
291.141	76.69
291.371	86.69
291.602	77.69
291.833	78.69
292.064	85.69
292.295	89.69
292.526	86.69
292.757	93.69
292.987	86.69
293.218	77.69
293.449	89.69
293.68	74.69
293.91	88.69
294.141	91.69
294.372	87.69
294.603	95.69
294.833	98.69
295.064	96.69
295.295	92.69
295.525	74.69
295.756	64.69
295.987	70.69
296.217	80.69
296.448	90.69
296.679	88.69
296.909	84.69
297.14	86.69
297.37	82.69
297.601	80.69
297.831	78.69
298.062	83.69
298.292	92.69
298.523	63.69
298.753	78.69
298.984	63.69
299.214	85.69
299.445	78.69
299.675	83.69
299.905	74.69
300.136	69.69
300.366	78.69
300.597	90.69
300.827	85.69
301.057	98.69
301.288	77.69
301.518	84.69
301.748	81.69
301.979	104.69
302.209	78.69
302.439	70.69
302.669	88.69
302.9	92.69
303.13	82.69
303.36	98.69
303.59	74.69
303.82	79.69
304.051	77.69
304.281	87.69
304.511	80.69
304.741	90.69
304.971	84.69
305.201	93.69
305.431	87.69
305.661	85.69
305.891	77.69
306.121	88.69
306.352	92.69
306.582	85.69
306.812	72.69
307.042	79.69
307.272	91.69
307.502	86.69
307.731	89.69
307.961	95.69
308.191	88.69
308.421	84.69
308.651	83.69
308.881	76.69
309.111	90.69
309.341	96.69
309.571	85.69
309.8	82.69
310.03	83.69
310.26	81.69
310.49	85.69
310.72	90.69
310.949	92.69
311.179	87.69
311.409	80.69
311.639	79.69
311.868	81.69
312.098	86.69
312.328	72.69
312.557	90.69
312.787	75.69
313.017	97.69
313.246	83.69
313.476	92.69
313.706	88.69
313.935	82.69
314.165	76.69
314.394	86.69
314.624	82.69
314.853	87.69
315.083	92.69
315.312	84.69
315.542	80.69
315.771	75.69
316.001	84.69
316.23	68.69
316.46	80.69
316.689	78.69
316.919	59.69
317.148	91.69
317.377	80.69
317.607	94.69
317.836	67.69
318.065	97.69
318.295	77.69
318.524	80.69
318.753	90.69
318.983	90.69
319.212	77.69
319.441	90.69
319.67	81.69
319.9	66.69
320.129	72.69
320.358	87.69
320.587	90.69
320.816	86.69
321.046	85.69
321.275	88.69
321.504	90.69
321.733	84.69
321.962	77.69
322.191	88.69
322.42	92.69
322.649	80.69
322.878	81.69
323.108	74.69
323.337	90.69
323.566	85.69
323.795	76.69
324.024	93.69
324.253	94.69
324.482	70.69
324.71	88.69
324.939	85.69
325.168	74.69
325.397	82.69
325.626	86.69
325.855	86.69
326.084	88.69
326.313	73.69
326.542	74.69
326.77	84.69
326.999	77.69
327.228	98.69
327.457	94.69
327.686	86.69
327.914	77.69
328.143	78.69
328.372	88.69
328.6	72.69
328.829	76.69
329.058	99.69
329.287	90.69
329.515	73.69
329.744	80.69
329.972	81.69
330.201	89.69
330.43	74.69
330.658	76.69
330.887	89.69
331.115	71.69
331.344	75.69
331.572	104.69
331.801	76.69
332.03	76.69
332.258	91.69
332.486	73.69
332.715	85.69
332.943	88.69
333.172	81.69
333.4	81.69
333.629	86.69
333.857	81.69
334.085	90.69
334.314	81.69
334.542	81.69
334.771	76.69
334.999	81.69
335.227	75.69
335.455	86.69
335.684	86.69
335.912	80.69
336.14	88.69
336.369	88.69
336.597	73.69
336.825	88.69
337.053	88.69
337.281	74.69
337.51	93.69
337.738	80.69
337.966	74.69
338.194	72.69
338.422	80.69
338.65	94.69
338.878	79.69
339.106	100.69
339.334	82.69
339.562	85.69
339.79	79.69
340.018	97.69
340.246	81.69
340.474	79.69
340.702	78.69
340.93	89.69
341.158	78.69
341.386	95.69
341.614	89.69
341.842	71.69
342.07	76.69
342.298	85.69
342.526	84.69
342.754	74.69
342.981	74.69
343.209	74.69
343.437	95.69
343.665	89.69
343.893	75.69
344.12	76.69
344.348	74.69
344.576	95.69
344.804	87.69
345.031	82.69
345.259	80.69
345.487	89.69
345.714	74.69
345.942	79.69
346.17	77.69
346.397	81.69
346.625	77.69
346.853	99.69
347.08	92.69
347.308	80.69
347.535	88.69
347.763	76.69
347.99	76.69
348.218	80.69
348.445	61.69
348.673	75.69
348.9	91.69
349.128	77.69
349.355	95.69
349.583	84.69
349.81	76.69
350.037	71.69
350.265	80.69
350.492	84.69
350.72	92.69
350.947	89.69
351.174	84.69
351.402	77.69
351.629	85.69
351.856	94.69
352.083	85.69
352.311	95.69
352.538	69.69
352.765	79.69
352.992	87.69
353.22	96.69
353.447	84.69
353.674	85.69
353.901	79.69
354.128	89.69
354.355	83.69
354.583	92.69
354.81	87.69
355.037	82.69
355.264	89.69
355.491	86.69
355.718	86.69
355.945	83.69
356.172	86.69
356.399	76.69
356.626	72.69
356.853	81.69
357.08	88.69
357.307	82.69
357.534	77.69
357.761	78.69
357.988	88.69
358.215	86.69
358.441	88.69
358.668	70.69
358.895	89.69
359.122	74.69
359.349	72.69
359.576	92.69
359.802	83.69
360.029	102.69
360.256	76.69
360.483	89.69
360.709	87.69
360.936	84.69
361.163	79.69
361.39	81.69
361.616	66.69
361.843	73.69
362.07	83.69
362.296	77.69
362.523	80.69
362.749	76.69
362.976	82.69
363.203	99.69
363.429	95.69
363.656	79.69
363.882	91.69
364.109	93.69
364.335	76.69
364.562	70.69
364.788	79.69
365.015	92.69
365.241	90.69
365.468	85.69
365.694	74.69
365.92	76.69
366.147	79.69
366.373	92.69
366.599	73.69
366.826	79.69
367.052	79.69
367.278	85.69
367.505	94.69
367.731	86.69
367.957	76.69
368.184	69.69
368.41	74.69
368.636	86.69
368.862	86.69
369.089	82.69
369.315	84.69
369.541	75.69
369.767	87.69
369.993	86.69
370.219	76.69
370.445	82.69
370.672	78.69
370.898	88.69
371.124	88.69
371.35	78.69
371.576	85.69
371.802	80.69
372.028	84.69
372.254	79.69
372.48	69.69
372.706	79.69
372.932	88.69
373.158	93.69
373.384	85.69
373.61	81.69
373.835	78.69
374.061	79.69
374.287	85.69
374.513	77.69
374.739	70.69
374.965	68.69
375.191	82.69
375.416	74.69
375.642	89.69
375.868	87.69
376.094	76.69
376.319	80.69
376.545	75.69
376.771	55.69
376.997	76.69
377.222	80.69
377.448	80.69
377.674	63.69
377.899	80.69
378.125	80.69
378.35	90.69
378.576	77.69
378.802	77.69
379.027	70.69
379.253	83.69
379.478	92.69
379.704	73.69
379.929	70.69
380.155	74.69
380.38	66.69
380.606	87.69
380.831	88.69
381.057	98.69
381.282	81.69
381.507	76.69
381.733	98.69
381.958	92.69
382.184	90.69
382.409	74.69
382.634	70.69
382.86	67.69
383.085	75.69
383.31	64.69
383.535	88.69
383.761	71.69
383.986	88.69
384.211	81.69
384.436	86.69
384.662	80.69
384.887	81.69
385.112	81.69
385.337	66.69
385.562	81.69
385.787	74.69
386.013	82.69
386.238	67.69
386.463	89.69
386.688	77.69
386.913	89.69
387.138	86.69
387.363	62.69
387.588	84.69
387.813	77.69
388.038	88.69
388.263	72.69
388.488	75.69
388.713	85.69
388.938	84.69
389.163	98.69
389.387	70.69
389.612	85.69
389.837	74.69
390.062	81.69
390.287	78.69
390.512	91.69
390.736	72.69
390.961	87.69
391.186	81.69
391.411	66.69
391.636	74.69
391.86	84.69
392.085	76.69
392.31	69.69
392.534	78.69
392.759	87.69
392.984	86.69
393.208	75.69
393.433	90.69
393.658	75.69
393.882	93.69
394.107	79.69
394.331	79.69
394.556	80.69
394.78	74.69
395.005	80.69
395.229	70.69
395.454	94.69
395.678	85.69
395.903	62.69
396.127	76.69
396.352	77.69
396.576	71.69
396.801	70.69
397.025	79.69
397.249	74.69
397.474	80.69
397.698	74.69
397.922	81.69
398.147	82.69
398.371	82.69
398.595	74.69
398.82	78.69
399.044	76.69
399.268	78.69
399.492	90.69
399.717	93.69
399.941	69.69
400.165	77.69
400.389	69.69
400.613	87.69
400.837	79.69
401.062	83.69
401.286	80.69
401.51	82.69
401.734	89.69
401.958	78.69
402.182	84.69
402.406	89.69
402.63	69.69
402.854	76.69
403.078	82.69
403.302	80.69
403.526	84.69
403.75	59.69
403.974	77.69
404.198	81.69
404.422	78.69
404.645	70.69
404.869	77.69
405.093	76.69
405.317	90.69
405.541	103.69
405.765	85.69
405.988	72.69
406.212	91.69
406.436	67.69
406.66	72.69
406.883	81.69
407.107	87.69
407.331	79.69
407.555	78.69
407.778	80.69
408.002	87.69
408.226	73.69
408.449	101.69
408.673	74.69
408.896	76.69
409.12	74.69
409.344	76.69
409.567	81.69
409.791	82.69
410.014	86.69
410.238	76.69
410.461	81.69
410.685	85.69
410.908	85.69
411.132	82.69
411.355	70.69
411.578	74.69
411.802	72.69
412.025	72.69
412.249	84.69
412.472	73.69
412.695	62.69
412.919	82.69
413.142	70.69
413.365	87.69
413.589	89.69
413.812	86.69
414.035	79.69
414.258	74.69
414.482	88.69
414.705	80.69
414.928	71.69
415.151	81.69
415.374	83.69
415.597	87.69
415.821	74.69
416.044	72.69
416.267	74.69
416.49	79.69
416.713	75.69
416.936	62.69
417.159	74.69
417.382	61.69
417.605	91.69
417.828	90.69
418.051	77.69
418.274	69.69
418.497	89.69
418.72	70.69
418.943	80.69
419.166	63.69
419.389	68.69
419.611	78.69
419.834	78.69
420.057	78.69
420.28	84.69
420.503	85.69
420.726	95.69
420.948	90.69
421.171	66.69
421.394	75.69
421.617	78.69
421.839	79.69
422.062	88.69
422.285	73.69
422.507	81.69
422.73	113.69
422.953	85.69
423.175	87.69
423.398	72.69
423.621	101.69
423.843	84.69
424.066	85.69
424.288	83.69
424.511	81.69
424.733	77.69
424.956	74.69
425.178	91.69
425.401	88.69
425.623	80.69
425.846	77.69
426.068	82.69
426.291	78.69
426.513	81.69
426.735	75.69
426.958	84.69
427.18	73.69
427.402	71.69
427.625	81.69
427.847	78.69
428.069	72.69
428.292	82.69
428.514	77.69
428.736	71.69
428.958	83.69
429.181	94.69
429.403	84.69
429.625	71.69
429.847	82.69
430.069	92.69
430.292	82.69
430.514	87.69
430.736	69.69
430.958	87.69
431.18	79.69
431.402	88.69
431.624	80.69
431.846	75.69
432.068	71.69
432.29	86.69
432.512	82.69
432.734	88.69
432.956	71.69
433.178	79.69
433.4	93.69
433.622	85.69
433.844	88.69
434.066	73.69
434.287	70.69
434.509	93.69
434.731	83.69
434.953	89.69
435.175	66.69
435.397	78.69
435.618	77.69
435.84	76.69
436.062	72.69
436.284	78.69
436.505	80.69
436.727	78.69
436.949	82.69
437.17	81.69
437.392	83.69
437.614	73.69
437.835	81.69
438.057	89.69
438.278	92.69
438.5	80.69
438.721	63.69
438.943	74.69
439.165	92.69
439.386	74.69
439.608	90.69
439.829	83.69
440.05	75.69
440.272	83.69
440.493	85.69
440.715	78.69
440.936	78.69
441.158	71.69
441.379	86.69
441.6	83.69
441.822	78.69
442.043	81.69
442.264	89.69
442.486	74.69
442.707	66.69
442.928	90.69
443.149	66.69
443.371	97.69
443.592	88.69
443.813	89.69
444.034	81.69
444.255	69.69
444.476	89.69
444.698	74.69
444.919	86.69
445.14	153.69
445.361	110.69
445.582	80.69
445.803	83.69
446.024	80.69
446.245	86.69
446.466	76.69
446.687	81.69
446.908	72.69
447.129	80.69
447.35	84.69
447.571	88.69
447.792	80.69
448.013	85.69
448.234	84.69
448.455	77.69
448.675	93.69
448.896	81.69
449.117	71.69
449.338	72.69
449.559	82.69
449.779	66.69
450	84.69
450.221	73.69
450.442	79.69
450.662	78.69
450.883	79.69
451.104	84.69
451.324	82.69
451.545	83.69
451.766	100.69
451.986	100.69
452.207	87.69
452.428	77.69
452.648	76.69
452.869	90.69
453.089	70.69
453.31	69.69
453.53	77.69
453.751	86.69
453.971	80.69
454.192	84.69
454.412	73.69
454.633	89.69
454.853	87.69
455.073	72.69
455.294	77.69
455.514	105.69
455.734	68.69
455.955	76.69
456.175	85.69
456.395	72.69
456.616	92.69
456.836	81.69
457.056	77.69
457.276	77.69
457.497	88.69
457.717	82.69
457.937	83.69
458.157	65.69
458.377	80.69
458.598	82.69
458.818	98.69
459.038	71.69
459.258	64.69
459.478	76.69
459.698	78.69
459.918	93.69
460.138	85.69
460.358	79.69
460.578	80.69
460.798	76.69
461.018	93.69
461.238	83.69
461.458	81.69
461.678	92.69
461.898	80.69
462.118	90.69
462.338	83.69
462.558	90.69
462.777	88.69
462.997	79.69
463.217	79.69
463.437	85.69
463.657	85.69
463.876	85.69
464.096	91.69
464.316	77.69
464.536	85.69
464.755	80.69
464.975	81.69
465.195	79.69
465.414	81.69
465.634	87.69
465.854	85.69
466.073	89.69
466.293	76.69
466.512	83.69
466.732	82.69
466.951	84.69
467.171	80.69
467.391	85.69
467.61	87.69
467.829	74.69
468.049	81.69
468.268	95.69
468.488	89.69
468.707	77.69
468.927	83.69
469.146	88.69
469.365	83.69
469.585	74.69
469.804	73.69
470.023	77.69
470.243	80.69
470.462	88.69
470.681	81.69
470.901	66.69
471.12	81.69
471.339	88.69
471.558	94.69
471.777	74.69
471.997	87.69
472.216	81.69
472.435	72.69
472.654	83.69
472.873	79.69
473.092	90.69
473.311	77.69
473.53	85.69
473.749	82.69
473.968	86.69
474.187	92.69
474.406	88.69
474.625	84.69
474.844	71.69
475.063	80.69
475.282	89.69
475.501	79.69
475.72	86.69
475.939	68.69
476.158	72.69
476.377	88.69
476.596	89.69
476.814	80.69
477.033	83.69
477.252	77.69
477.471	91.69
477.69	70.69
477.908	91.69
478.127	89.69
478.346	86.69
478.564	77.69
478.783	83.69
479.002	88.69
479.22	72.69
479.439	79.69
479.658	88.69
479.876	79.69
480.095	76.69
480.313	82.69
480.532	80.69
480.751	75.69
480.969	79.69
481.188	72.69
481.406	91.69
481.624	76.69
481.843	77.69
482.061	84.69
482.28	84.69
482.498	65.69
482.717	93.69
482.935	97.69
483.153	87.69
483.372	91.69
483.59	93.69
483.808	75.69
484.027	79.69
484.245	70.69
484.463	100.69
484.681	89.69
484.9	88.69
485.118	86.69
485.336	88.69
485.554	87.69
485.772	81.69
485.99	89.69
486.209	72.69
486.427	82.69
486.645	73.69
486.863	79.69
487.081	71.69
487.299	84.69
487.517	84.69
487.735	82.69
487.953	92.69
488.171	84.69
488.389	81.69
488.607	78.69
488.825	77.69
489.043	80.69
489.261	84.69
489.479	86.69
489.696	76.69
489.914	92.69
490.132	86.69
490.35	94.69
490.568	85.69
490.786	71.69
491.003	84.69
491.221	90.69
491.439	98.69
491.657	78.69
491.874	89.69
492.092	75.69
492.31	86.69
492.527	79.69
492.745	90.69
492.963	95.69
493.18	92.69
493.398	85.69
493.615	85.69
493.833	79.69
494.05	82.69
494.268	84.69
494.485	84.69
494.703	83.69
494.92	86.69
495.138	80.69
495.355	86.69
495.573	81.69
495.79	86.69
496.008	88.69
496.225	69.69
496.442	75.69
496.66	95.69
496.877	92.69
497.094	86.69
497.312	80.69
497.529	84.69
497.746	84.69
497.963	77.69
498.181	98.69
498.398	81.69
498.615	88.69
498.832	84.69
499.049	84.69
499.267	85.69
499.484	91.69
499.701	82.69
499.918	79.69
500.135	81.69
500.352	70.69
500.569	79.69
500.786	93.69
501.003	89.69
501.22	74.69
501.437	75.69
501.654	84.69
501.871	75.69
502.088	82.69
502.305	95.69
502.522	88.69
502.739	88.69
502.956	69.69
503.172	87.69
503.389	92.69
503.606	84.69
503.823	89.69
504.04	86.69
504.256	97.69
504.473	86.69
504.69	92.69
504.907	89.69
505.123	81.69
505.34	82.69
505.557	72.69
505.773	88.69
505.99	70.69
506.207	97.69
506.423	92.69
506.64	90.69
506.856	85.69
507.073	86.69
507.289	77.69
507.506	79.69
507.722	87.69
507.939	84.69
508.155	79.69
508.372	92.69
508.588	93.69
508.805	92.69
509.021	88.69
509.238	78.69
509.454	90.69
509.67	78.69
509.887	74.69
510.103	80.69
510.319	85.69
510.536	90.69
510.752	79.69
510.968	76.69
511.184	64.69
511.401	90.69
511.617	80.69
511.833	78.69
512.049	81.69
512.265	70.69
512.481	84.69
512.698	79.69
512.914	88.69
513.13	78.69
513.346	94.69
513.562	87.69
513.778	93.69
513.994	76.69
514.21	78.69
514.426	88.69
514.642	87.69
514.858	86.69
515.074	92.69
515.29	100.69
515.506	92.69
515.721	81.69
515.937	82.69
516.153	86.69
516.369	95.69
516.585	68.69
516.801	79.69
517.016	89.69
517.232	75.69
517.448	87.69
517.664	81.69
517.879	74.69
518.095	90.69
518.311	80.69
518.527	74.69
518.742	79.69
518.958	85.69
519.173	72.69
519.389	82.69
519.605	80.69
519.82	72.69
520.036	79.69
