Data from Dirtheat1_HRD10591_00016.txt Node
Date: Fri Dec 27 15:13:39 EST 2024
User: Yrep
Spectrometer: HR+D1059
Trigger mode: 1
Integration Time (sec): 1.000000E-1
Scans to average: 1
Electric dark correction enabled: true
Nonlinearity correction enabled: false
Boxcar width: 0
XAxis mode: Wavelengths
Number of Pixels in Spectrum: 2048
>>>>>Begin Spectral Data<<<<<
223.165	-9.56
223.4	-9.56
223.635	-9.56
223.869	-27.56
224.104	-19.56
224.338	-7.56
224.573	-8.56
224.808	-4.56
225.042	-9.56
225.277	-13.56
225.511	-2.56
225.746	6.44
225.98	2.44
226.215	9.44
226.449	15.44
226.683	23.44
226.918	19.44
227.152	26.44
227.387	30.44
227.621	44.44
227.856	38.44
228.09	38.44
228.324	43.44
228.559	59.44
228.793	46.44
229.027	57.44
229.262	56.44
229.496	68.44
229.73	54.44
229.964	65.44
230.199	71.44
230.433	59.44
230.667	63.44
230.901	67.44
231.136	80.44
231.37	73.44
231.604	75.44
231.838	86.44
232.072	80.44
232.306	92.44
232.541	81.44
232.775	61.44
233.009	79.44
233.243	87.44
233.477	92.44
233.711	71.44
233.945	86.44
234.179	66.44
234.413	70.44
234.647	72.44
234.881	74.44
235.115	69.44
235.349	72.44
235.583	66.44
235.817	85.44
236.051	70.44
236.285	67.44
236.519	61.44
236.753	66.44
236.987	71.44
237.221	61.44
237.455	75.44
237.689	76.44
237.922	62.44
238.156	54.44
238.39	70.44
238.624	85.44
238.858	69.44
239.091	76.44
239.325	73.44
239.559	90.44
239.793	65.44
240.027	74.44
240.26	66.44
240.494	60.44
240.728	82.44
240.961	69.44
241.195	73.44
241.429	60.44
241.662	65.44
241.896	67.44
242.13	66.44
242.363	83.44
242.597	78.44
242.83	68.44
243.064	78.44
243.298	81.44
243.531	69.44
243.765	74.44
243.998	79.44
244.232	86.44
244.465	76.44
244.699	79.44
244.932	58.44
245.166	64.44
245.399	71.44
245.633	83.44
245.866	84.44
246.099	74.44
246.333	71.44
246.566	62.44
246.8	94.44
247.033	77.44
247.266	73.44
247.5	68.44
247.733	78.44
247.966	70.44
248.2	82.44
248.433	70.44
248.666	71.44
248.899	82.44
249.133	75.44
249.366	87.44
249.599	95.44
249.832	99.44
250.066	78.44
250.299	60.44
250.532	86.44
250.765	73.44
250.998	80.44
251.231	64.44
251.465	74.44
251.698	77.44
251.931	67.44
252.164	74.44
252.397	79.44
252.63	67.44
252.863	65.44
253.096	88.44
253.329	67.44
253.562	62.44
253.795	80.44
254.028	83.44
254.261	68.44
254.494	68.44
254.727	77.44
254.96	71.44
255.193	82.44
255.426	71.44
255.659	84.44
255.892	74.44
256.124	82.44
256.357	68.44
256.59	75.44
256.823	87.44
257.056	67.44
257.289	75.44
257.521	77.44
257.754	78.44
257.987	67.44
258.22	76.44
258.452	82.44
258.685	70.44
258.918	56.44
259.151	77.44
259.383	81.44
259.616	70.44
259.849	73.44
260.081	71.44
260.314	70.44
260.547	73.44
260.779	61.44
261.012	74.44
261.244	83.44
261.477	87.44
261.71	69.44
261.942	84.44
262.175	85.44
262.407	81.44
262.64	73.44
262.872	82.44
263.105	82.44
263.337	77.44
263.57	73.44
263.802	74.44
264.035	67.44
264.267	86.44
264.499	70.44
264.732	85.44
264.964	69.44
265.197	78.44
265.429	70.44
265.661	87.44
265.894	58.44
266.126	78.44
266.358	88.44
266.591	64.44
266.823	59.44
267.055	69.44
267.287	60.44
267.52	80.44
267.752	78.44
267.984	72.44
268.216	71.44
268.448	90.44
268.681	82.44
268.913	83.44
269.145	80.44
269.377	74.44
269.609	78.44
269.841	79.44
270.073	73.44
270.306	80.44
270.538	83.44
270.77	75.44
271.002	77.44
271.234	72.44
271.466	81.44
271.698	60.44
271.93	76.44
272.162	74.44
272.394	79.44
272.626	68.44
272.858	92.44
273.09	82.44
273.322	64.44
273.553	78.44
273.785	80.44
274.017	69.44
274.249	81.44
274.481	74.44
274.713	69.44
274.945	68.44
275.176	71.44
275.408	70.44
275.64	67.44
275.872	83.44
276.104	80.44
276.335	79.44
276.567	82.44
276.799	79.44
277.031	75.44
277.262	79.44
277.494	82.44
277.726	78.44
277.957	80.44
278.189	75.44
278.421	87.44
278.652	99.44
278.884	73.44
279.115	75.44
279.347	82.44
279.579	66.44
279.81	82.44
280.042	90.44
280.273	84.44
280.505	96.44
280.736	79.44
280.968	59.44
281.199	66.44
281.431	70.44
281.662	92.44
281.894	89.44
282.125	83.44
282.356	76.44
282.588	70.44
282.819	81.44
283.051	76.44
283.282	71.44
283.513	83.44
283.745	71.44
283.976	74.44
284.207	74.44
284.439	71.44
284.67	91.44
284.901	83.44
285.132	75.44
285.364	76.44
285.595	79.44
285.826	74.44
286.057	83.44
286.288	82.44
286.52	76.44
286.751	77.44
286.982	74.44
287.213	83.44
287.444	72.44
287.675	68.44
287.906	89.44
288.138	94.44
288.369	76.44
288.6	86.44
288.831	80.44
289.062	84.44
289.293	75.44
289.524	71.44
289.755	63.44
289.986	69.44
290.217	78.44
290.448	86.44
290.679	77.44
290.91	89.44
291.141	76.44
291.371	99.44
291.602	85.44
291.833	75.44
292.064	89.44
292.295	83.44
292.526	74.44
292.757	75.44
292.987	87.44
293.218	79.44
293.449	81.44
293.68	75.44
293.91	89.44
294.141	85.44
294.372	73.44
294.603	70.44
294.833	70.44
295.064	74.44
295.295	87.44
295.525	75.44
295.756	76.44
295.987	81.44
296.217	75.44
296.448	74.44
296.679	83.44
296.909	74.44
297.14	96.44
297.37	84.44
297.601	86.44
297.831	69.44
298.062	77.44
298.292	89.44
298.523	76.44
298.753	64.44
298.984	71.44
299.214	65.44
299.445	90.44
299.675	89.44
299.905	96.44
300.136	80.44
300.366	61.44
300.597	80.44
300.827	73.44
301.057	71.44
301.288	72.44
301.518	69.44
301.748	81.44
301.979	92.44
302.209	100.44
302.439	90.44
302.669	89.44
302.9	85.44
303.13	84.44
303.36	78.44
303.59	78.44
303.82	90.44
304.051	74.44
304.281	79.44
304.511	76.44
304.741	81.44
304.971	95.44
305.201	90.44
305.431	90.44
305.661	90.44
305.891	74.44
306.121	78.44
306.352	80.44
306.582	73.44
306.812	86.44
307.042	86.44
307.272	69.44
307.502	77.44
307.731	80.44
307.961	77.44
308.191	82.44
308.421	81.44
308.651	80.44
308.881	63.44
309.111	86.44
309.341	72.44
309.571	73.44
309.8	85.44
310.03	85.44
310.26	88.44
310.49	87.44
310.72	75.44
310.949	87.44
311.179	77.44
311.409	69.44
311.639	73.44
311.868	78.44
312.098	92.44
312.328	98.44
312.557	72.44
312.787	71.44
313.017	82.44
313.246	89.44
313.476	84.44
313.706	68.44
313.935	73.44
314.165	72.44
314.394	84.44
314.624	74.44
314.853	83.44
315.083	83.44
315.312	82.44
315.542	83.44
315.771	83.44
316.001	86.44
316.23	83.44
316.46	76.44
316.689	101.44
316.919	93.44
317.148	90.44
317.377	85.44
317.607	95.44
317.836	82.44
318.065	88.44
318.295	83.44
318.524	72.44
318.753	75.44
318.983	89.44
319.212	87.44
319.441	69.44
319.67	73.44
319.9	94.44
320.129	72.44
320.358	81.44
320.587	83.44
320.816	84.44
321.046	80.44
321.275	78.44
321.504	62.44
321.733	83.44
321.962	90.44
322.191	80.44
322.42	89.44
322.649	77.44
322.878	71.44
323.108	105.44
323.337	79.44
323.566	80.44
323.795	63.44
324.024	95.44
324.253	73.44
324.482	64.44
324.71	79.44
324.939	82.44
325.168	74.44
325.397	76.44
325.626	85.44
325.855	81.44
326.084	80.44
326.313	80.44
326.542	84.44
326.77	74.44
326.999	73.44
327.228	66.44
327.457	76.44
327.686	70.44
327.914	82.44
328.143	73.44
328.372	75.44
328.6	83.44
328.829	77.44
329.058	87.44
329.287	75.44
329.515	66.44
329.744	84.44
329.972	80.44
330.201	78.44
330.43	80.44
330.658	80.44
330.887	82.44
331.115	89.44
331.344	83.44
331.572	88.44
331.801	89.44
332.03	79.44
332.258	71.44
332.486	78.44
332.715	68.44
332.943	76.44
333.172	75.44
333.4	78.44
333.629	73.44
333.857	85.44
334.085	85.44
334.314	84.44
334.542	74.44
334.771	99.44
334.999	88.44
335.227	72.44
335.455	71.44
335.684	95.44
335.912	66.44
336.14	84.44
336.369	78.44
336.597	73.44
336.825	62.44
337.053	74.44
337.281	89.44
337.51	83.44
337.738	72.44
337.966	66.44
338.194	73.44
338.422	94.44
338.65	98.44
338.878	83.44
339.106	85.44
339.334	72.44
339.562	94.44
339.79	89.44
340.018	90.44
340.246	77.44
340.474	65.44
340.702	77.44
340.93	70.44
341.158	68.44
341.386	83.44
341.614	90.44
341.842	84.44
342.07	73.44
342.298	76.44
342.526	92.44
342.754	85.44
342.981	86.44
343.209	80.44
343.437	94.44
343.665	80.44
343.893	86.44
344.12	67.44
344.348	73.44
344.576	72.44
344.804	88.44
345.031	88.44
345.259	67.44
345.487	84.44
345.714	81.44
345.942	71.44
346.17	85.44
346.397	88.44
346.625	79.44
346.853	75.44
347.08	90.44
347.308	70.44
347.535	81.44
347.763	85.44
347.99	85.44
348.218	71.44
348.445	80.44
348.673	82.44
348.9	59.44
349.128	75.44
349.355	60.44
349.583	91.44
349.81	78.44
350.037	85.44
350.265	89.44
350.492	73.44
350.72	82.44
350.947	75.44
351.174	95.44
351.402	84.44
351.629	66.44
351.856	96.44
352.083	80.44
352.311	83.44
352.538	81.44
352.765	90.44
352.992	94.44
353.22	73.44
353.447	73.44
353.674	65.44
353.901	73.44
354.128	81.44
354.355	89.44
354.583	72.44
354.81	96.44
355.037	82.44
355.264	76.44
355.491	74.44
355.718	74.44
355.945	77.44
356.172	80.44
356.399	75.44
356.626	67.44
356.853	78.44
357.08	90.44
357.307	74.44
357.534	73.44
357.761	66.44
357.988	86.44
358.215	71.44
358.441	75.44
358.668	73.44
358.895	93.44
359.122	73.44
359.349	74.44
359.576	76.44
359.802	74.44
360.029	79.44
360.256	77.44
360.483	69.44
360.709	80.44
360.936	93.44
361.163	72.44
361.39	75.44
361.616	67.44
361.843	71.44
362.07	81.44
362.296	81.44
362.523	81.44
362.749	73.44
362.976	80.44
363.203	86.44
363.429	87.44
363.656	82.44
363.882	81.44
364.109	78.44
364.335	72.44
364.562	86.44
364.788	67.44
365.015	65.44
365.241	80.44
365.468	74.44
365.694	67.44
365.92	86.44
366.147	79.44
366.373	70.44
366.599	73.44
366.826	88.44
367.052	94.44
367.278	79.44
367.505	74.44
367.731	73.44
367.957	80.44
368.184	77.44
368.41	73.44
368.636	71.44
368.862	71.44
369.089	76.44
369.315	70.44
369.541	84.44
369.767	81.44
369.993	78.44
370.219	85.44
370.445	72.44
370.672	66.44
370.898	76.44
371.124	72.44
371.35	94.44
371.576	82.44
371.802	83.44
372.028	81.44
372.254	67.44
372.48	75.44
372.706	82.44
372.932	76.44
373.158	75.44
373.384	66.44
373.61	70.44
373.835	74.44
374.061	71.44
374.287	72.44
374.513	76.44
374.739	85.44
374.965	66.44
375.191	76.44
375.416	69.44
375.642	67.44
375.868	80.44
376.094	91.44
376.319	85.44
376.545	84.44
376.771	79.44
376.997	67.44
377.222	70.44
377.448	106.44
377.674	83.44
377.899	85.44
378.125	70.44
378.35	67.44
378.576	80.44
378.802	65.44
379.027	71.44
379.253	88.44
379.478	76.44
379.704	75.44
379.929	83.44
380.155	64.44
380.38	76.44
380.606	71.44
380.831	70.44
381.057	79.44
381.282	75.44
381.507	77.44
381.733	83.44
381.958	94.44
382.184	76.44
382.409	85.44
382.634	81.44
382.86	71.44
383.085	62.44
383.31	87.44
383.535	52.44
383.761	68.44
383.986	76.44
384.211	76.44
384.436	72.44
384.662	85.44
384.887	80.44
385.112	76.44
385.337	66.44
385.562	82.44
385.787	68.44
386.013	66.44
386.238	85.44
386.463	76.44
386.688	89.44
386.913	73.44
387.138	73.44
387.363	76.44
387.588	76.44
387.813	82.44
388.038	78.44
388.263	66.44
388.488	68.44
388.713	72.44
388.938	87.44
389.163	90.44
389.387	62.44
389.612	87.44
389.837	70.44
390.062	85.44
390.287	73.44
390.512	69.44
390.736	67.44
390.961	65.44
391.186	75.44
391.411	83.44
391.636	81.44
391.86	74.44
392.085	68.44
392.31	81.44
392.534	72.44
392.759	73.44
392.984	81.44
393.208	84.44
393.433	75.44
393.658	76.44
393.882	83.44
394.107	80.44
394.331	83.44
394.556	81.44
394.78	74.44
395.005	67.44
395.229	88.44
395.454	80.44
395.678	72.44
395.903	84.44
396.127	85.44
396.352	91.44
396.576	74.44
396.801	69.44
397.025	89.44
397.249	87.44
397.474	78.44
397.698	67.44
397.922	79.44
398.147	69.44
398.371	74.44
398.595	70.44
398.82	93.44
399.044	81.44
399.268	70.44
399.492	62.44
399.717	78.44
399.941	77.44
400.165	82.44
400.389	77.44
400.613	77.44
400.837	70.44
401.062	69.44
401.286	70.44
401.51	99.44
401.734	83.44
401.958	95.44
402.182	84.44
402.406	69.44
402.63	85.44
402.854	74.44
403.078	82.44
403.302	54.44
403.526	70.44
403.75	86.44
403.974	85.44
404.198	83.44
404.422	80.44
404.645	83.44
404.869	74.44
405.093	69.44
405.317	78.44
405.541	64.44
405.765	79.44
405.988	70.44
406.212	83.44
406.436	86.44
406.66	78.44
406.883	67.44
407.107	89.44
407.331	82.44
407.555	83.44
407.778	86.44
408.002	84.44
408.226	84.44
408.449	79.44
408.673	82.44
408.896	70.44
409.12	67.44
409.344	78.44
409.567	75.44
409.791	79.44
410.014	69.44
410.238	77.44
410.461	75.44
410.685	68.44
410.908	74.44
411.132	69.44
411.355	67.44
411.578	74.44
411.802	68.44
412.025	74.44
412.249	83.44
412.472	79.44
412.695	75.44
412.919	75.44
413.142	76.44
413.365	75.44
413.589	70.44
413.812	97.44
414.035	98.44
414.258	74.44
414.482	68.44
414.705	90.44
414.928	83.44
415.151	76.44
415.374	87.44
415.597	69.44
415.821	84.44
416.044	80.44
416.267	71.44
416.49	76.44
416.713	94.44
416.936	72.44
417.159	84.44
417.382	74.44
417.605	63.44
417.828	78.44
418.051	68.44
418.274	96.44
418.497	72.44
418.72	88.44
418.943	73.44
419.166	72.44
419.389	85.44
419.611	69.44
419.834	73.44
420.057	76.44
420.28	63.44
420.503	73.44
420.726	76.44
420.948	89.44
421.171	76.44
421.394	74.44
421.617	70.44
421.839	79.44
422.062	76.44
422.285	82.44
422.507	85.44
422.73	78.44
422.953	82.44
423.175	78.44
423.398	71.44
423.621	84.44
423.843	77.44
424.066	70.44
424.288	70.44
424.511	76.44
424.733	82.44
424.956	94.44
425.178	79.44
425.401	75.44
425.623	68.44
425.846	70.44
426.068	75.44
426.291	76.44
426.513	73.44
426.735	97.44
426.958	80.44
427.18	76.44
427.402	78.44
427.625	60.44
427.847	67.44
428.069	67.44
428.292	76.44
428.514	66.44
428.736	71.44
428.958	69.44
429.181	79.44
429.403	82.44
429.625	85.44
429.847	75.44
430.069	67.44
430.292	76.44
430.514	60.44
430.736	80.44
430.958	84.44
431.18	75.44
431.402	66.44
431.624	77.44
431.846	79.44
432.068	73.44
432.29	72.44
432.512	73.44
432.734	78.44
432.956	66.44
433.178	85.44
433.4	75.44
433.622	84.44
433.844	70.44
434.066	94.44
434.287	72.44
434.509	62.44
434.731	70.44
434.953	82.44
435.175	85.44
435.397	71.44
435.618	80.44
435.84	72.44
436.062	73.44
436.284	73.44
436.505	71.44
436.727	79.44
436.949	84.44
437.17	85.44
437.392	72.44
437.614	67.44
437.835	67.44
438.057	70.44
438.278	86.44
438.5	79.44
438.721	70.44
438.943	66.44
439.165	75.44
439.386	75.44
439.608	82.44
439.829	80.44
440.05	85.44
440.272	66.44
440.493	76.44
440.715	64.44
440.936	57.44
441.158	68.44
441.379	78.44
441.6	70.44
441.822	48.44
442.043	67.44
442.264	73.44
442.486	81.44
442.707	68.44
442.928	72.44
443.149	74.44
443.371	75.44
443.592	74.44
443.813	71.44
444.034	66.44
444.255	74.44
444.476	90.44
444.698	64.44
444.919	82.44
445.14	151.44
445.361	109.44
445.582	94.44
445.803	90.44
446.024	76.44
446.245	84.44
446.466	73.44
446.687	71.44
446.908	74.44
447.129	89.44
447.35	77.44
447.571	84.44
447.792	86.44
448.013	76.44
448.234	81.44
448.455	66.44
448.675	61.44
448.896	70.44
449.117	80.44
449.338	75.44
449.559	66.44
449.779	70.44
450	83.44
450.221	77.44
450.442	67.44
450.662	74.44
450.883	65.44
451.104	91.44
451.324	77.44
451.545	67.44
451.766	74.44
451.986	72.44
452.207	83.44
452.428	74.44
452.648	84.44
452.869	83.44
453.089	79.44
453.31	88.44
453.53	67.44
453.751	88.44
453.971	94.44
454.192	79.44
454.412	77.44
454.633	82.44
454.853	66.44
455.073	85.44
455.294	73.44
455.514	92.44
455.734	84.44
455.955	83.44
456.175	72.44
456.395	73.44
456.616	73.44
456.836	69.44
457.056	77.44
457.276	64.44
457.497	75.44
457.717	70.44
457.937	82.44
458.157	64.44
458.377	68.44
458.598	75.44
458.818	86.44
459.038	84.44
459.258	79.44
459.478	82.44
459.698	73.44
459.918	87.44
460.138	83.44
460.358	68.44
460.578	81.44
460.798	70.44
461.018	80.44
461.238	86.44
461.458	79.44
461.678	53.44
461.898	81.44
462.118	67.44
462.338	73.44
462.558	72.44
462.777	58.44
462.997	75.44
463.217	63.44
463.437	80.44
463.657	74.44
463.876	77.44
464.096	74.44
464.316	75.44
464.536	75.44
464.755	86.44
464.975	75.44
465.195	69.44
465.414	78.44
465.634	89.44
465.854	83.44
466.073	89.44
466.293	81.44
466.512	81.44
466.732	80.44
466.951	79.44
467.171	86.44
467.391	85.44
467.61	80.44
467.829	81.44
468.049	77.44
468.268	66.44
468.488	70.44
468.707	72.44
468.927	87.44
469.146	63.44
469.365	80.44
469.585	74.44
469.804	74.44
470.023	75.44
470.243	66.44
470.462	81.44
470.681	74.44
470.901	67.44
471.12	80.44
471.339	88.44
471.558	76.44
471.777	72.44
471.997	78.44
472.216	68.44
472.435	82.44
472.654	87.44
472.873	89.44
473.092	89.44
473.311	82.44
473.53	87.44
473.749	81.44
473.968	81.44
474.187	86.44
474.406	73.44
474.625	75.44
474.844	74.44
475.063	73.44
475.282	77.44
475.501	77.44
475.72	92.44
475.939	76.44
476.158	68.44
476.377	83.44
476.596	82.44
476.814	91.44
477.033	77.44
477.252	68.44
477.471	70.44
477.69	72.44
477.908	89.44
478.127	78.44
478.346	83.44
478.564	73.44
478.783	52.44
479.002	68.44
479.22	81.44
479.439	73.44
479.658	75.44
479.876	82.44
480.095	72.44
480.313	81.44
480.532	92.44
480.751	80.44
480.969	71.44
481.188	79.44
481.406	82.44
481.624	90.44
481.843	73.44
482.061	81.44
482.28	77.44
482.498	74.44
482.717	77.44
482.935	68.44
483.153	77.44
483.372	68.44
483.59	84.44
483.808	84.44
484.027	89.44
484.245	67.44
484.463	70.44
484.681	86.44
484.9	84.44
485.118	83.44
485.336	81.44
485.554	78.44
485.772	68.44
485.99	63.44
486.209	74.44
486.427	75.44
486.645	73.44
486.863	69.44
487.081	68.44
487.299	71.44
487.517	82.44
487.735	87.44
487.953	86.44
488.171	68.44
488.389	82.44
488.607	66.44
488.825	71.44
489.043	82.44
489.261	65.44
489.479	97.44
489.696	87.44
489.914	71.44
490.132	87.44
490.35	87.44
490.568	73.44
490.786	78.44
491.003	76.44
491.221	75.44
491.439	75.44
491.657	90.44
491.874	78.44
492.092	79.44
492.31	84.44
492.527	83.44
492.745	73.44
492.963	68.44
493.18	78.44
493.398	80.44
493.615	78.44
493.833	84.44
494.05	84.44
494.268	83.44
494.485	77.44
494.703	74.44
494.92	67.44
495.138	87.44
495.355	63.44
495.573	89.44
495.79	81.44
496.008	75.44
496.225	83.44
496.442	82.44
496.66	87.44
496.877	82.44
497.094	71.44
497.312	68.44
497.529	86.44
497.746	75.44
497.963	73.44
498.181	78.44
498.398	70.44
498.615	75.44
498.832	79.44
499.049	88.44
499.267	61.44
499.484	81.44
499.701	75.44
499.918	73.44
500.135	72.44
500.352	66.44
500.569	72.44
500.786	83.44
501.003	93.44
501.22	74.44
501.437	88.44
501.654	84.44
501.871	88.44
502.088	68.44
502.305	87.44
502.522	88.44
502.739	66.44
502.956	81.44
503.172	83.44
503.389	86.44
503.606	81.44
503.823	77.44
504.04	90.44
504.256	74.44
504.473	96.44
504.69	82.44
504.907	81.44
505.123	69.44
505.34	81.44
505.557	71.44
505.773	84.44
505.99	66.44
506.207	85.44
506.423	98.44
506.64	77.44
506.856	80.44
507.073	71.44
507.289	78.44
507.506	87.44
507.722	81.44
507.939	87.44
508.155	83.44
508.372	70.44
508.588	78.44
508.805	81.44
509.021	78.44
509.238	63.44
509.454	79.44
509.67	73.44
509.887	72.44
510.103	87.44
510.319	93.44
510.536	80.44
510.752	90.44
510.968	73.44
511.184	74.44
511.401	74.44
511.617	62.44
511.833	83.44
512.049	89.44
512.265	85.44
512.481	70.44
512.698	75.44
512.914	64.44
513.13	71.44
513.346	74.44
513.562	81.44
513.778	87.44
513.994	83.44
514.21	73.44
514.426	86.44
514.642	80.44
514.858	78.44
515.074	90.44
515.29	73.44
515.506	75.44
515.721	76.44
515.937	88.44
516.153	68.44
516.369	79.44
516.585	75.44
516.801	73.44
517.016	77.44
517.232	83.44
517.448	65.44
517.664	79.44
517.879	71.44
518.095	70.44
518.311	74.44
518.527	76.44
518.742	73.44
518.958	88.44
519.173	84.44
519.389	87.44
519.605	75.44
519.82	78.44
520.036	66.44
520.251	92.44
