Data from Circ_2015_H10_HRD10591_00035.txt Node
Date: Wed Jan 03 10:00:29 EST 2024
User: Yrep
Spectrometer: HR+D1059
Trigger mode: 1
Integration Time (sec): 1.000000E-1
Scans to average: 1
Electric dark correction enabled: true
Nonlinearity correction enabled: false
Boxcar width: 0
XAxis mode: Wavelengths
Number of Pixels in Spectrum: 2048
>>>>>Begin Spectral Data<<<<<
223.165	-8.75
223.4	-8.75
223.635	-8.75
223.869	-20.75
224.104	-8.75
224.338	-17.75
224.573	-16.75
224.808	-6.75
225.042	-0.75
225.277	-14.75
225.511	-2.75
225.746	5.25
225.98	2.25
226.215	19.25
226.449	12.25
226.683	9.25
226.918	19.25
227.152	30.25
227.387	29.25
227.621	36.25
227.856	33.25
228.09	58.25
228.324	43.25
228.559	67.25
228.793	55.25
229.027	79.25
229.262	77.25
229.496	70.25
229.73	80.25
229.964	79.25
230.199	102.25
230.433	84.25
230.667	98.25
230.901	63.25
231.136	90.25
231.37	69.25
231.604	65.25
231.838	79.25
232.072	88.25
232.306	80.25
232.541	88.25
232.775	81.25
233.009	86.25
233.243	90.25
233.477	99.25
233.711	77.25
233.945	78.25
234.179	78.25
234.413	86.25
234.647	80.25
234.881	75.25
235.115	93.25
235.349	75.25
235.583	92.25
235.817	89.25
236.051	83.25
236.285	83.25
236.519	86.25
236.753	86.25
236.987	74.25
237.221	86.25
237.455	83.25
237.689	79.25
237.922	85.25
238.156	80.25
238.39	67.25
238.624	89.25
238.858	77.25
239.091	84.25
239.325	78.25
239.559	65.25
239.793	83.25
240.027	76.25
240.26	77.25
240.494	77.25
240.728	83.25
240.961	81.25
241.195	81.25
241.429	66.25
241.662	85.25
241.896	81.25
242.13	80.25
242.363	79.25
242.597	75.25
242.83	83.25
243.064	86.25
243.298	65.25
243.531	68.25
243.765	62.25
243.998	80.25
244.232	79.25
244.465	86.25
244.699	86.25
244.932	70.25
245.166	90.25
245.399	71.25
245.633	79.25
245.866	86.25
246.099	76.25
246.333	79.25
246.566	99.25
246.8	84.25
247.033	69.25
247.266	78.25
247.5	86.25
247.733	96.25
247.966	77.25
248.2	71.25
248.433	94.25
248.666	73.25
248.899	90.25
249.133	95.25
249.366	101.25
249.599	84.25
249.832	76.25
250.066	94.25
250.299	89.25
250.532	73.25
250.765	81.25
250.998	80.25
251.231	78.25
251.465	72.25
251.698	76.25
251.931	73.25
252.164	81.25
252.397	73.25
252.63	73.25
252.863	90.25
253.096	89.25
253.329	77.25
253.562	79.25
253.795	94.25
254.028	82.25
254.261	77.25
254.494	87.25
254.727	79.25
254.96	89.25
255.193	79.25
255.426	79.25
255.659	80.25
255.892	81.25
256.124	89.25
256.357	80.25
256.59	88.25
256.823	83.25
257.056	83.25
257.289	89.25
257.521	79.25
257.754	83.25
257.987	81.25
258.22	73.25
258.452	80.25
258.685	90.25
258.918	85.25
259.151	84.25
259.383	99.25
259.616	89.25
259.849	78.25
260.081	90.25
260.314	85.25
260.547	77.25
260.779	82.25
261.012	86.25
261.244	95.25
261.477	80.25
261.71	82.25
261.942	113.25
262.175	120.25
262.407	80.25
262.64	80.25
262.872	85.25
263.105	83.25
263.337	86.25
263.57	83.25
263.802	98.25
264.035	83.25
264.267	83.25
264.499	82.25
264.732	77.25
264.964	92.25
265.197	83.25
265.429	89.25
265.661	106.25
265.894	98.25
266.126	88.25
266.358	78.25
266.591	89.25
266.823	91.25
267.055	80.25
267.287	101.25
267.52	89.25
267.752	88.25
267.984	95.25
268.216	93.25
268.448	80.25
268.681	89.25
268.913	94.25
269.145	88.25
269.377	104.25
269.609	87.25
269.841	95.25
270.073	82.25
270.306	106.25
270.538	99.25
270.77	80.25
271.002	77.25
271.234	71.25
271.466	89.25
271.698	90.25
271.93	88.25
272.162	110.25
272.394	98.25
272.626	114.25
272.858	96.25
273.09	86.25
273.322	75.25
273.553	81.25
273.785	92.25
274.017	87.25
274.249	86.25
274.481	99.25
274.713	89.25
274.945	80.25
275.176	90.25
275.408	99.25
275.64	79.25
275.872	93.25
276.104	101.25
276.335	90.25
276.567	119.25
276.799	115.25
277.031	94.25
277.262	104.25
277.494	98.25
277.726	90.25
277.957	83.25
278.189	89.25
278.421	87.25
278.652	84.25
278.884	90.25
279.115	82.25
279.347	87.25
279.579	102.25
279.81	100.25
280.042	98.25
280.273	100.25
280.505	92.25
280.736	87.25
280.968	96.25
281.199	99.25
281.431	110.25
281.662	81.25
281.894	78.25
282.125	93.25
282.356	120.25
282.588	113.25
282.819	119.25
283.051	91.25
283.282	94.25
283.513	94.25
283.745	95.25
283.976	77.25
284.207	101.25
284.439	102.25
284.67	119.25
284.901	93.25
285.132	109.25
285.364	95.25
285.595	89.25
285.826	92.25
286.057	90.25
286.288	89.25
286.52	101.25
286.751	77.25
286.982	77.25
287.213	81.25
287.444	82.25
287.675	83.25
287.906	108.25
288.138	92.25
288.369	98.25
288.6	104.25
288.831	86.25
289.062	96.25
289.293	89.25
289.524	77.25
289.755	87.25
289.986	90.25
290.217	91.25
290.448	98.25
290.679	98.25
290.91	89.25
291.141	80.25
291.371	91.25
291.602	94.25
291.833	108.25
292.064	90.25
292.295	99.25
292.526	98.25
292.757	78.25
292.987	93.25
293.218	97.25
293.449	96.25
293.68	94.25
293.91	99.25
294.141	83.25
294.372	92.25
294.603	87.25
294.833	94.25
295.064	106.25
295.295	91.25
295.525	90.25
295.756	117.25
295.987	115.25
296.217	135.25
296.448	128.25
296.679	110.25
296.909	85.25
297.14	96.25
297.37	103.25
297.601	85.25
297.831	97.25
298.062	99.25
298.292	91.25
298.523	98.25
298.753	90.25
298.984	97.25
299.214	92.25
299.445	105.25
299.675	92.25
299.905	93.25
300.136	97.25
300.366	94.25
300.597	110.25
300.827	95.25
301.057	85.25
301.288	114.25
301.518	93.25
301.748	96.25
301.979	94.25
302.209	109.25
302.439	78.25
302.669	80.25
302.9	86.25
303.13	94.25
303.36	99.25
303.59	109.25
303.82	104.25
304.051	89.25
304.281	93.25
304.511	102.25
304.741	83.25
304.971	91.25
305.201	96.25
305.431	88.25
305.661	107.25
305.891	94.25
306.121	95.25
306.352	94.25
306.582	106.25
306.812	91.25
307.042	104.25
307.272	104.25
307.502	101.25
307.731	101.25
307.961	101.25
308.191	90.25
308.421	94.25
308.651	109.25
308.881	72.25
309.111	114.25
309.341	83.25
309.571	90.25
309.8	104.25
310.03	101.25
310.26	115.25
310.49	94.25
310.72	86.25
310.949	112.25
311.179	115.25
311.409	81.25
311.639	119.25
311.868	97.25
312.098	104.25
312.328	88.25
312.557	96.25
312.787	95.25
313.017	110.25
313.246	96.25
313.476	88.25
313.706	91.25
313.935	91.25
314.165	106.25
314.394	101.25
314.624	94.25
314.853	104.25
315.083	96.25
315.312	89.25
315.542	91.25
315.771	101.25
316.001	89.25
316.23	110.25
316.46	97.25
316.689	91.25
316.919	98.25
317.148	100.25
317.377	95.25
317.607	87.25
317.836	113.25
318.065	103.25
318.295	98.25
318.524	103.25
318.753	102.25
318.983	98.25
319.212	94.25
319.441	84.25
319.67	111.25
319.9	110.25
320.129	77.25
320.358	90.25
320.587	111.25
320.816	101.25
321.046	102.25
321.275	116.25
321.504	103.25
321.733	103.25
321.962	101.25
322.191	114.25
322.42	120.25
322.649	109.25
322.878	109.25
323.108	114.25
323.337	117.25
323.566	128.25
323.795	146.25
324.024	204.25
324.253	371.25
324.482	757.25
324.71	1569.25
324.939	2121.25
325.168	773.25
325.397	245.25
325.626	142.25
325.855	137.25
326.084	133.25
326.313	118.25
326.542	158.25
326.77	230.25
326.999	448.25
327.228	876.25
327.457	1618.25
327.686	1322.25
327.914	369.25
328.143	207.25
328.372	171.25
328.6	143.25
328.829	117.25
329.058	125.25
329.287	126.25
329.515	112.25
329.744	114.25
329.972	142.25
330.201	159.25
330.43	216.25
330.658	148.25
330.887	135.25
331.115	120.25
331.344	111.25
331.572	102.25
331.801	109.25
332.03	106.25
332.258	94.25
332.486	103.25
332.715	85.25
332.943	98.25
333.172	106.25
333.4	108.25
333.629	119.25
333.857	134.25
334.085	142.25
334.314	155.25
334.542	202.25
334.771	239.25
334.999	136.25
335.227	108.25
335.455	90.25
335.684	105.25
335.912	94.25
336.14	95.25
336.369	98.25
336.597	89.25
336.825	109.25
337.053	96.25
337.281	94.25
337.51	100.25
337.738	104.25
337.966	93.25
338.194	113.25
338.422	95.25
338.65	90.25
338.878	105.25
339.106	92.25
339.334	91.25
339.562	105.25
339.79	97.25
340.018	94.25
340.246	83.25
340.474	83.25
340.702	97.25
340.93	93.25
341.158	101.25
341.386	94.25
341.614	102.25
341.842	97.25
342.07	86.25
342.298	99.25
342.526	94.25
342.754	100.25
342.981	106.25
343.209	102.25
343.437	102.25
343.665	98.25
343.893	91.25
344.12	91.25
344.348	97.25
344.576	100.25
344.804	88.25
345.031	96.25
345.259	96.25
345.487	97.25
345.714	95.25
345.942	100.25
346.17	92.25
346.397	88.25
346.625	104.25
346.853	92.25
347.08	93.25
347.308	94.25
347.535	102.25
347.763	93.25
347.99	103.25
348.218	86.25
348.445	96.25
348.673	103.25
348.9	102.25
349.128	101.25
349.355	92.25
349.583	101.25
349.81	78.25
350.037	88.25
350.265	109.25
350.492	89.25
350.72	103.25
350.947	103.25
351.174	86.25
351.402	112.25
351.629	117.25
351.856	103.25
352.083	113.25
352.311	102.25
352.538	105.25
352.765	110.25
352.992	118.25
353.22	108.25
353.447	109.25
353.674	101.25
353.901	112.25
354.128	106.25
354.355	106.25
354.583	94.25
354.81	105.25
355.037	106.25
355.264	97.25
355.491	94.25
355.718	87.25
355.945	90.25
356.172	97.25
356.399	110.25
356.626	111.25
356.853	97.25
357.08	114.25
357.307	95.25
357.534	95.25
357.761	100.25
357.988	105.25
358.215	104.25
358.441	97.25
358.668	98.25
358.895	91.25
359.122	101.25
359.349	97.25
359.576	86.25
359.802	82.25
360.029	103.25
360.256	105.25
360.483	96.25
360.709	89.25
360.936	99.25
361.163	97.25
361.39	105.25
361.616	89.25
361.843	105.25
362.07	89.25
362.296	90.25
362.523	89.25
362.749	92.25
362.976	84.25
363.203	89.25
363.429	85.25
363.656	99.25
363.882	102.25
364.109	93.25
364.335	103.25
364.562	89.25
364.788	82.25
365.015	89.25
365.241	98.25
365.468	108.25
365.694	110.25
365.92	113.25
366.147	104.25
366.373	99.25
366.599	102.25
366.826	85.25
367.052	90.25
367.278	100.25
367.505	97.25
367.731	95.25
367.957	76.25
368.184	93.25
368.41	105.25
368.636	121.25
368.862	107.25
369.089	120.25
369.315	91.25
369.541	101.25
369.767	83.25
369.993	74.25
370.219	98.25
370.445	99.25
370.672	100.25
370.898	99.25
371.124	84.25
371.35	96.25
371.576	80.25
371.802	77.25
372.028	92.25
372.254	100.25
372.48	89.25
372.706	92.25
372.932	88.25
373.158	99.25
373.384	103.25
373.61	90.25
373.835	91.25
374.061	94.25
374.287	92.25
374.513	104.25
374.739	88.25
374.965	90.25
375.191	88.25
375.416	91.25
375.642	91.25
375.868	88.25
376.094	95.25
376.319	97.25
376.545	88.25
376.771	93.25
376.997	87.25
377.222	87.25
377.448	94.25
377.674	95.25
377.899	89.25
378.125	89.25
378.35	97.25
378.576	84.25
378.802	91.25
379.027	90.25
379.253	88.25
379.478	98.25
379.704	118.25
379.929	98.25
380.155	107.25
380.38	110.25
380.606	110.25
380.831	112.25
381.057	101.25
381.282	106.25
381.507	106.25
381.733	102.25
381.958	102.25
382.184	118.25
382.409	90.25
382.634	89.25
382.86	95.25
383.085	98.25
383.31	106.25
383.535	104.25
383.761	111.25
383.986	109.25
384.211	110.25
384.436	100.25
384.662	120.25
384.887	119.25
385.112	102.25
385.337	116.25
385.562	109.25
385.787	114.25
386.013	114.25
386.238	120.25
386.463	121.25
386.688	118.25
386.913	116.25
387.138	102.25
387.363	119.25
387.588	104.25
387.813	97.25
388.038	96.25
388.263	127.25
388.488	122.25
388.713	94.25
388.938	109.25
389.163	90.25
389.387	97.25
389.612	103.25
389.837	95.25
390.062	99.25
390.287	92.25
390.512	102.25
390.736	95.25
390.961	86.25
391.186	99.25
391.411	91.25
391.636	97.25
391.86	88.25
392.085	94.25
392.31	90.25
392.534	93.25
392.759	83.25
392.984	90.25
393.208	95.25
393.433	116.25
393.658	87.25
393.882	98.25
394.107	100.25
394.331	94.25
394.556	95.25
394.78	88.25
395.005	90.25
395.229	102.25
395.454	96.25
395.678	89.25
395.903	99.25
396.127	93.25
396.352	88.25
396.576	85.25
396.801	99.25
397.025	82.25
397.249	92.25
397.474	89.25
397.698	81.25
397.922	97.25
398.147	91.25
398.371	77.25
398.595	96.25
398.82	109.25
399.044	90.25
399.268	79.25
399.492	98.25
399.717	101.25
399.941	97.25
400.165	93.25
400.389	97.25
400.613	106.25
400.837	103.25
401.062	74.25
401.286	94.25
401.51	102.25
401.734	92.25
401.958	101.25
402.182	121.25
402.406	153.25
402.63	110.25
402.854	97.25
403.078	90.25
403.302	104.25
403.526	82.25
403.75	92.25
403.974	91.25
404.198	91.25
404.422	105.25
404.645	91.25
404.869	92.25
405.093	89.25
405.317	89.25
405.541	110.25
405.765	89.25
405.988	96.25
406.212	143.25
406.436	210.25
406.66	139.25
406.883	97.25
407.107	110.25
407.331	93.25
407.555	97.25
407.778	101.25
408.002	91.25
408.226	97.25
408.449	94.25
408.673	87.25
408.896	104.25
409.12	99.25
409.344	96.25
409.567	82.25
409.791	96.25
410.014	91.25
410.238	84.25
410.461	89.25
410.685	120.25
410.908	94.25
411.132	94.25
411.355	95.25
411.578	102.25
411.802	89.25
412.025	93.25
412.249	93.25
412.472	96.25
412.695	111.25
412.919	85.25
413.142	85.25
413.365	94.25
413.589	97.25
413.812	101.25
414.035	102.25
414.258	86.25
414.482	95.25
414.705	107.25
414.928	95.25
415.151	97.25
415.374	98.25
415.597	86.25
415.821	96.25
416.044	93.25
416.267	106.25
416.49	91.25
416.713	97.25
416.936	100.25
417.159	97.25
417.382	97.25
417.605	99.25
417.828	101.25
418.051	90.25
418.274	92.25
418.497	76.25
418.72	86.25
418.943	82.25
419.166	79.25
419.389	99.25
419.611	93.25
419.834	91.25
420.057	89.25
420.28	101.25
420.503	96.25
420.726	104.25
420.948	90.25
421.171	102.25
421.394	92.25
421.617	98.25
421.839	106.25
422.062	99.25
422.285	104.25
422.507	93.25
422.73	110.25
422.953	111.25
423.175	102.25
423.398	96.25
423.621	96.25
423.843	87.25
424.066	102.25
424.288	97.25
424.511	108.25
424.733	91.25
424.956	99.25
425.178	92.25
425.401	111.25
425.623	87.25
425.846	86.25
426.068	81.25
426.291	97.25
426.513	89.25
426.735	90.25
426.958	93.25
427.18	109.25
427.402	108.25
427.625	156.25
427.847	133.25
428.069	134.25
428.292	90.25
428.514	97.25
428.736	82.25
428.958	98.25
429.181	97.25
429.403	88.25
429.625	100.25
429.847	104.25
430.069	89.25
430.292	101.25
430.514	100.25
430.736	86.25
430.958	90.25
431.18	101.25
431.402	83.25
431.624	83.25
431.846	91.25
432.068	93.25
432.29	91.25
432.512	105.25
432.734	88.25
432.956	100.25
433.178	96.25
433.4	101.25
433.622	98.25
433.844	94.25
434.066	83.25
434.287	85.25
434.509	93.25
434.731	97.25
434.953	98.25
435.175	82.25
435.397	82.25
435.618	99.25
435.84	113.25
436.062	124.25
436.284	112.25
436.505	102.25
436.727	110.25
436.949	98.25
437.17	97.25
437.392	90.25
437.614	105.25
437.835	101.25
438.057	109.25
438.278	113.25
438.5	102.25
438.721	121.25
438.943	92.25
439.165	85.25
439.386	90.25
439.608	81.25
439.829	97.25
440.05	107.25
440.272	123.25
440.493	101.25
440.715	102.25
440.936	96.25
441.158	100.25
441.379	97.25
441.6	102.25
441.822	109.25
442.043	91.25
442.264	94.25
442.486	106.25
442.707	110.25
442.928	103.25
443.149	130.25
443.371	105.25
443.592	104.25
443.813	120.25
444.034	103.25
444.255	101.25
444.476	81.25
444.698	78.25
444.919	99.25
445.14	135.25
445.361	117.25
445.582	101.25
445.803	121.25
446.024	127.25
446.245	119.25
446.466	111.25
446.687	91.25
446.908	89.25
447.129	92.25
447.35	94.25
447.571	97.25
447.792	89.25
448.013	81.25
448.234	114.25
448.455	96.25
448.675	96.25
448.896	118.25
449.117	97.25
449.338	106.25
449.559	127.25
449.779	135.25
450	93.25
450.221	81.25
450.442	101.25
450.662	105.25
450.883	113.25
451.104	113.25
451.324	93.25
451.545	93.25
451.766	92.25
451.986	94.25
452.207	92.25
452.428	95.25
452.648	95.25
452.869	103.25
453.089	128.25
453.31	114.25
453.53	93.25
453.751	99.25
453.971	102.25
454.192	110.25
454.412	105.25
454.633	85.25
454.853	92.25
455.073	99.25
455.294	99.25
455.514	103.25
455.734	103.25
455.955	91.25
456.175	100.25
456.395	102.25
456.616	82.25
456.836	87.25
457.056	98.25
457.276	81.25
457.497	82.25
457.717	72.25
457.937	90.25
458.157	107.25
458.377	101.25
458.598	110.25
458.818	120.25
459.038	146.25
459.258	121.25
459.478	93.25
459.698	83.25
459.918	97.25
460.138	89.25
460.358	89.25
460.578	91.25
460.798	91.25
461.018	78.25
461.238	75.25
461.458	94.25
461.678	96.25
461.898	93.25
462.118	92.25
462.338	89.25
462.558	90.25
462.777	91.25
462.997	99.25
463.217	88.25
463.437	87.25
463.657	92.25
463.876	92.25
464.096	96.25
464.316	95.25
464.536	90.25
464.755	84.25
464.975	112.25
465.195	143.25
465.414	165.25
465.634	96.25
465.854	94.25
466.073	73.25
466.293	89.25
466.512	96.25
466.732	81.25
466.951	78.25
467.171	97.25
467.391	93.25
467.61	89.25
467.829	102.25
468.049	127.25
468.268	143.25
468.488	87.25
468.707	84.25
468.927	93.25
469.146	86.25
469.365	102.25
469.585	93.25
469.804	107.25
470.023	85.25
470.243	91.25
470.462	86.25
470.681	113.25
470.901	99.25
471.12	95.25
471.339	82.25
471.558	86.25
471.777	102.25
471.997	91.25
472.216	172.25
472.435	273.25
472.654	133.25
472.873	93.25
473.092	81.25
473.311	93.25
473.53	71.25
473.749	93.25
473.968	92.25
474.187	107.25
474.406	107.25
474.625	82.25
474.844	107.25
475.063	100.25
475.282	93.25
475.501	85.25
475.72	102.25
475.939	90.25
476.158	95.25
476.377	88.25
476.596	81.25
476.814	81.25
477.033	93.25
477.252	93.25
477.471	89.25
477.69	90.25
477.908	103.25
478.127	82.25
478.346	95.25
478.564	95.25
478.783	103.25
479.002	90.25
479.22	89.25
479.439	92.25
479.658	111.25
479.876	93.25
480.095	95.25
480.313	87.25
480.532	104.25
480.751	102.25
480.969	153.25
481.188	413.25
481.406	291.25
481.624	124.25
481.843	100.25
482.061	80.25
482.28	83.25
482.498	88.25
482.717	95.25
482.935	93.25
483.153	91.25
483.372	97.25
483.59	101.25
483.808	83.25
484.027	90.25
484.245	95.25
484.463	97.25
484.681	102.25
484.9	93.25
485.118	108.25
485.336	99.25
485.554	86.25
485.772	105.25
485.99	114.25
486.209	112.25
486.427	91.25
486.645	107.25
486.863	108.25
487.081	106.25
487.299	99.25
487.517	89.25
487.735	101.25
487.953	93.25
488.171	96.25
488.389	93.25
488.607	93.25
488.825	91.25
489.043	80.25
489.261	93.25
489.479	84.25
489.696	96.25
489.914	94.25
490.132	93.25
490.35	86.25
490.568	93.25
490.786	98.25
491.003	101.25
491.221	96.25
491.439	101.25
491.657	101.25
491.874	91.25
492.092	103.25
492.31	109.25
492.527	94.25
492.745	92.25
492.963	85.25
493.18	90.25
493.398	102.25
493.615	113.25
493.833	110.25
494.05	101.25
494.268	85.25
494.485	102.25
494.703	82.25
494.92	94.25
495.138	81.25
495.355	97.25
495.573	97.25
495.79	81.25
496.008	98.25
496.225	101.25
496.442	98.25
496.66	95.25
496.877	87.25
497.094	100.25
497.312	100.25
497.529	86.25
497.746	96.25
497.963	102.25
498.181	89.25
498.398	102.25
498.615	107.25
498.832	94.25
499.049	87.25
499.267	83.25
499.484	92.25
499.701	85.25
499.918	101.25
500.135	102.25
500.352	86.25
500.569	92.25
500.786	90.25
501.003	94.25
501.22	101.25
501.437	99.25
501.654	98.25
501.871	106.25
502.088	90.25
502.305	82.25
502.522	106.25
502.739	90.25
502.956	106.25
503.172	106.25
503.389	103.25
503.606	98.25
503.823	101.25
504.04	90.25
504.256	86.25
504.473	82.25
504.69	92.25
504.907	92.25
505.123	86.25
505.34	102.25
505.557	94.25
505.773	90.25
505.99	81.25
506.207	92.25
506.423	96.25
506.64	88.25
506.856	94.25
507.073	82.25
507.289	101.25
507.506	107.25
507.722	105.25
507.939	108.25
508.155	112.25
508.372	94.25
508.588	103.25
508.805	107.25
509.021	94.25
509.238	114.25
509.454	113.25
509.67	104.25
509.887	105.25
510.103	128.25
510.319	187.25
510.536	663.25
510.752	2111.25
510.968	642.25
511.184	168.25
511.401	118.25
511.617	92.25
511.833	85.25
512.049	94.25
512.265	109.25
512.481	97.25
512.698	82.25
512.914	108.25
513.13	110.25
513.346	81.25
513.562	102.25
513.778	96.25
