Data from Circ_2015_H10_HRD10591_00034.txt Node
Date: Wed Jan 03 10:00:29 EST 2024
User: Yrep
Spectrometer: HR+D1059
Trigger mode: 1
Integration Time (sec): 1.000000E-1
Scans to average: 1
Electric dark correction enabled: true
Nonlinearity correction enabled: false
Boxcar width: 0
XAxis mode: Wavelengths
Number of Pixels in Spectrum: 2048
>>>>>Begin Spectral Data<<<<<
223.165	-15
223.4	-15
223.635	-15
223.869	-16
224.104	-20
224.338	-11
224.573	-8
224.808	-16
225.042	-6
225.277	-10
225.511	-10
225.746	2
225.98	-1
226.215	14
226.449	22
226.683	29
226.918	14
227.152	32
227.387	36
227.621	34
227.856	45
228.09	47
228.324	44
228.559	56
228.793	52
229.027	69
229.262	68
229.496	78
229.73	77
229.964	77
230.199	78
230.433	67
230.667	77
230.901	79
231.136	86
231.37	71
231.604	74
231.838	80
232.072	79
232.306	86
232.541	86
232.775	62
233.009	74
233.243	83
233.477	75
233.711	71
233.945	84
234.179	78
234.413	72
234.647	76
234.881	78
235.115	82
235.349	75
235.583	82
235.817	77
236.051	78
236.285	66
236.519	78
236.753	77
236.987	81
237.221	82
237.455	84
237.689	81
237.922	71
238.156	79
238.39	80
238.624	78
238.858	85
239.091	81
239.325	69
239.559	72
239.793	84
240.027	69
240.26	82
240.494	73
240.728	72
240.961	76
241.195	74
241.429	79
241.662	64
241.896	77
242.13	85
242.363	85
242.597	71
242.83	76
243.064	65
243.298	75
243.531	71
243.765	67
243.998	78
244.232	86
244.465	88
244.699	61
244.932	62
245.166	70
245.399	76
245.633	73
245.866	74
246.099	72
246.333	82
246.566	81
246.8	75
247.033	75
247.266	88
247.5	78
247.733	73
247.966	71
248.2	83
248.433	87
248.666	67
248.899	87
249.133	82
249.366	84
249.599	95
249.832	70
250.066	82
250.299	72
250.532	76
250.765	78
250.998	87
251.231	67
251.465	78
251.698	91
251.931	87
252.164	78
252.397	74
252.63	79
252.863	76
253.096	78
253.329	74
253.562	82
253.795	96
254.028	82
254.261	73
254.494	98
254.727	90
254.96	77
255.193	72
255.426	68
255.659	90
255.892	67
256.124	99
256.357	87
256.59	77
256.823	85
257.056	95
257.289	97
257.521	77
257.754	72
257.987	99
258.22	89
258.452	91
258.685	85
258.918	91
259.151	68
259.383	72
259.616	79
259.849	78
260.081	86
260.314	91
260.547	77
260.779	69
261.012	75
261.244	92
261.477	75
261.71	92
261.942	105
262.175	121
262.407	97
262.64	91
262.872	76
263.105	91
263.337	85
263.57	84
263.802	76
264.035	77
264.267	77
264.499	73
264.732	84
264.964	73
265.197	85
265.429	93
265.661	90
265.894	99
266.126	84
266.358	82
266.591	85
266.823	84
267.055	77
267.287	78
267.52	89
267.752	69
267.984	89
268.216	81
268.448	72
268.681	82
268.913	74
269.145	79
269.377	88
269.609	69
269.841	80
270.073	75
270.306	83
270.538	93
270.77	87
271.002	100
271.234	77
271.466	79
271.698	89
271.93	81
272.162	88
272.394	86
272.626	78
272.858	89
273.09	83
273.322	65
273.553	73
273.785	78
274.017	88
274.249	101
274.481	89
274.713	86
274.945	86
275.176	93
275.408	99
275.64	94
275.872	94
276.104	86
276.335	86
276.567	89
276.799	91
277.031	94
277.262	98
277.494	86
277.726	90
277.957	83
278.189	79
278.421	90
278.652	75
278.884	77
279.115	81
279.347	74
279.579	77
279.81	94
280.042	79
280.273	100
280.505	89
280.736	88
280.968	89
281.199	86
281.431	82
281.662	84
281.894	85
282.125	89
282.356	110
282.588	137
282.819	96
283.051	97
283.282	91
283.513	94
283.745	98
283.976	83
284.207	91
284.439	93
284.67	91
284.901	71
285.132	100
285.364	97
285.595	94
285.826	83
286.057	93
286.288	84
286.52	98
286.751	81
286.982	82
287.213	77
287.444	93
287.675	84
287.906	84
288.138	105
288.369	93
288.6	81
288.831	84
289.062	84
289.293	94
289.524	84
289.755	78
289.986	91
290.217	87
290.448	92
290.679	85
290.91	103
291.141	77
291.371	91
291.602	81
291.833	88
292.064	98
292.295	92
292.526	103
292.757	97
292.987	85
293.218	78
293.449	80
293.68	104
293.91	93
294.141	79
294.372	88
294.603	80
294.833	89
295.064	77
295.295	93
295.525	94
295.756	91
295.987	113
296.217	131
296.448	120
296.679	81
296.909	84
297.14	90
297.37	103
297.601	78
297.831	85
298.062	103
298.292	78
298.523	87
298.753	88
298.984	83
299.214	77
299.445	100
299.675	103
299.905	102
300.136	85
300.366	81
300.597	85
300.827	84
301.057	93
301.288	89
301.518	98
301.748	100
301.979	99
302.209	99
302.439	82
302.669	90
302.9	83
303.13	91
303.36	100
303.59	105
303.82	98
304.051	104
304.281	99
304.511	91
304.741	82
304.971	75
305.201	89
305.431	96
305.661	93
305.891	90
306.121	86
306.352	109
306.582	108
306.812	93
307.042	75
307.272	91
307.502	100
307.731	111
307.961	85
308.191	81
308.421	90
308.651	102
308.881	105
309.111	102
309.341	94
309.571	86
309.8	101
310.03	87
310.26	93
310.49	86
310.72	106
310.949	84
311.179	84
311.409	104
311.639	102
311.868	98
312.098	83
312.328	100
312.557	92
312.787	99
313.017	100
313.246	87
313.476	93
313.706	89
313.935	90
314.165	82
314.394	103
314.624	74
314.853	84
315.083	93
315.312	88
315.542	84
315.771	92
316.001	91
316.23	98
316.46	85
316.689	89
316.919	83
317.148	95
317.377	89
317.607	101
317.836	91
318.065	95
318.295	85
318.524	83
318.753	90
318.983	99
319.212	107
319.441	100
319.67	111
319.9	92
320.129	92
320.358	89
320.587	92
320.816	93
321.046	89
321.275	103
321.504	92
321.733	99
321.962	102
322.191	98
322.42	94
322.649	105
322.878	103
323.108	109
323.337	101
323.566	118
323.795	152
324.024	210
324.253	358
324.482	780
324.71	1654
324.939	2168
325.168	776
325.397	231
325.626	153
325.855	132
326.084	119
326.313	129
326.542	142
326.77	233
326.999	466
327.228	930
327.457	1657
327.686	1344
327.914	372
328.143	212
328.372	167
328.6	138
328.829	112
329.058	98
329.287	128
329.515	105
329.744	114
329.972	118
330.201	150
330.43	168
330.658	138
330.887	130
331.115	120
331.344	104
331.572	105
331.801	108
332.03	97
332.258	92
332.486	81
332.715	72
332.943	107
333.172	107
333.4	105
333.629	116
333.857	116
334.085	130
334.314	148
334.542	198
334.771	204
334.999	108
335.227	101
335.455	95
335.684	103
335.912	89
336.14	91
336.369	93
336.597	96
336.825	91
337.053	85
337.281	94
337.51	92
337.738	105
337.966	92
338.194	96
338.422	92
338.65	93
338.878	106
339.106	99
339.334	93
339.562	96
339.79	90
340.018	97
340.246	100
340.474	85
340.702	84
340.93	108
341.158	97
341.386	87
341.614	107
341.842	81
342.07	96
342.298	109
342.526	79
342.754	81
342.981	94
343.209	97
343.437	98
343.665	90
343.893	91
344.12	88
344.348	97
344.576	98
344.804	84
345.031	82
345.259	92
345.487	95
345.714	80
345.942	79
346.17	91
346.397	88
346.625	87
346.853	77
347.08	82
347.308	72
347.535	101
347.763	90
347.99	104
348.218	101
348.445	107
348.673	97
348.9	105
349.128	94
349.355	98
349.583	93
349.81	78
350.037	83
350.265	107
350.492	91
350.72	92
350.947	101
351.174	91
351.402	100
351.629	101
351.856	85
352.083	92
352.311	100
352.538	107
352.765	120
352.992	116
353.22	106
353.447	100
353.674	112
353.901	91
354.128	90
354.355	88
354.583	103
354.81	92
355.037	87
355.264	78
355.491	91
355.718	89
355.945	91
356.172	88
356.399	107
356.626	100
356.853	86
357.08	101
357.307	90
357.534	90
357.761	88
357.988	80
358.215	94
358.441	100
358.668	99
358.895	98
359.122	90
359.349	86
359.576	89
359.802	96
360.029	106
360.256	84
360.483	95
360.709	104
360.936	96
361.163	92
361.39	86
361.616	88
361.843	86
362.07	97
362.296	97
362.523	92
362.749	105
362.976	86
363.203	91
363.429	80
363.656	79
363.882	79
364.109	89
364.335	99
364.562	90
364.788	100
365.015	82
365.241	84
365.468	91
365.694	92
365.92	89
366.147	92
366.373	86
366.599	93
366.826	95
367.052	77
367.278	86
367.505	88
367.731	83
367.957	101
368.184	101
368.41	97
368.636	109
368.862	101
369.089	104
369.315	85
369.541	86
369.767	89
369.993	78
370.219	78
370.445	96
370.672	101
370.898	91
371.124	78
371.35	86
371.576	88
371.802	92
372.028	93
372.254	81
372.48	88
372.706	86
372.932	83
373.158	87
373.384	94
373.61	98
373.835	77
374.061	84
374.287	94
374.513	105
374.739	88
374.965	88
375.191	74
375.416	85
375.642	87
375.868	91
376.094	87
376.319	89
376.545	83
376.771	83
376.997	81
377.222	93
377.448	107
377.674	78
377.899	85
378.125	94
378.35	104
378.576	89
378.802	86
379.027	95
379.253	102
379.478	92
379.704	86
379.929	91
380.155	90
380.38	82
380.606	91
380.831	96
381.057	96
381.282	84
381.507	105
381.733	86
381.958	84
382.184	105
382.409	98
382.634	109
382.86	123
383.085	96
383.31	102
383.535	101
383.761	87
383.986	93
384.211	104
384.436	93
384.662	92
384.887	112
385.112	98
385.337	108
385.562	108
385.787	110
386.013	116
386.238	106
386.463	114
386.688	107
386.913	109
387.138	97
387.363	107
387.588	83
387.813	103
388.038	120
388.263	112
388.488	94
388.713	82
388.938	76
389.163	104
389.387	88
389.612	88
389.837	95
390.062	98
390.287	90
390.512	88
390.736	88
390.961	92
391.186	101
391.411	93
391.636	97
391.86	80
392.085	91
392.31	86
392.534	95
392.759	93
392.984	101
393.208	95
393.433	105
393.658	98
393.882	88
394.107	77
394.331	91
394.556	79
394.78	93
395.005	87
395.229	68
395.454	92
395.678	89
395.903	81
396.127	82
396.352	97
396.576	92
396.801	85
397.025	92
397.249	90
397.474	85
397.698	99
397.922	84
398.147	87
398.371	89
398.595	89
398.82	76
399.044	82
399.268	96
399.492	91
399.717	88
399.941	92
400.165	80
400.389	88
400.613	75
400.837	85
401.062	80
401.286	68
401.51	83
401.734	100
401.958	97
402.182	123
402.406	152
402.63	116
402.854	94
403.078	73
403.302	77
403.526	77
403.75	83
403.974	83
404.198	79
404.422	83
404.645	77
404.869	96
405.093	92
405.317	93
405.541	92
405.765	99
405.988	109
406.212	152
406.436	204
406.66	128
406.883	85
407.107	100
407.331	88
407.555	97
407.778	86
408.002	79
408.226	94
408.449	92
408.673	84
408.896	81
409.12	97
409.344	76
409.567	79
409.791	81
410.014	99
410.238	81
410.461	98
410.685	100
410.908	102
411.132	101
411.355	100
411.578	91
411.802	88
412.025	90
412.249	85
412.472	91
412.695	87
412.919	83
413.142	87
413.365	87
413.589	85
413.812	78
414.035	78
414.258	84
414.482	88
414.705	91
414.928	86
415.151	75
415.374	90
415.597	87
415.821	84
416.044	83
416.267	96
416.49	93
416.713	87
416.936	102
417.159	76
417.382	93
417.605	98
417.828	103
418.051	86
418.274	86
418.497	94
418.72	89
418.943	89
419.166	88
419.389	92
419.611	87
419.834	84
420.057	91
420.28	81
420.503	75
420.726	90
420.948	104
421.171	96
421.394	90
421.617	92
421.839	76
422.062	81
422.285	90
422.507	100
422.73	114
422.953	101
423.175	72
423.398	79
423.621	77
423.843	86
424.066	92
424.288	82
424.511	89
424.733	93
424.956	109
425.178	94
425.401	90
425.623	87
425.846	87
426.068	92
426.291	92
426.513	105
426.735	79
426.958	90
427.18	105
427.402	124
427.625	155
427.847	130
428.069	132
428.292	100
428.514	93
428.736	90
428.958	83
429.181	94
429.403	77
429.625	91
429.847	105
430.069	97
430.292	92
430.514	91
430.736	88
430.958	76
431.18	77
431.402	92
431.624	88
431.846	86
432.068	97
432.29	88
432.512	83
432.734	73
432.956	91
433.178	91
433.4	86
433.622	77
433.844	85
434.066	95
434.287	84
434.509	87
434.731	100
434.953	87
435.175	97
435.397	95
435.618	93
435.84	106
436.062	134
436.284	110
436.505	103
436.727	88
436.949	75
437.17	80
437.392	81
437.614	78
437.835	108
438.057	105
438.278	104
438.5	99
438.721	109
438.943	79
439.165	77
439.386	74
439.608	93
439.829	91
440.05	113
440.272	121
440.493	87
440.715	92
440.936	85
441.158	81
441.379	84
441.6	97
441.822	98
442.043	101
442.264	106
442.486	98
442.707	87
442.928	92
443.149	133
443.371	125
443.592	96
443.813	99
444.034	97
444.255	100
444.476	91
444.698	88
444.919	80
445.14	137
445.361	104
445.582	99
445.803	129
446.024	124
446.245	126
446.466	106
446.687	86
446.908	68
447.129	87
447.35	81
447.571	94
447.792	92
448.013	100
448.234	92
448.455	88
448.675	99
448.896	104
449.117	97
449.338	87
449.559	124
449.779	128
450	93
450.221	80
450.442	118
450.662	104
450.883	106
451.104	103
451.324	88
451.545	75
451.766	74
451.986	76
452.207	83
452.428	103
452.648	100
452.869	114
453.089	106
453.31	101
453.53	81
453.751	95
453.971	85
454.192	90
454.412	91
454.633	69
454.853	86
455.073	86
455.294	86
455.514	92
455.734	81
455.955	88
456.175	89
456.395	83
456.616	91
456.836	82
457.056	76
457.276	89
457.497	63
457.717	68
457.937	92
458.157	80
458.377	77
458.598	98
458.818	142
459.038	161
459.258	95
459.478	88
459.698	85
459.918	71
460.138	72
460.358	71
460.578	78
460.798	77
461.018	72
461.238	86
461.458	84
461.678	89
461.898	80
462.118	74
462.338	94
462.558	95
462.777	77
462.997	89
463.217	82
463.437	79
463.657	74
463.876	86
464.096	81
464.316	68
464.536	84
464.755	93
464.975	112
465.195	152
465.414	152
465.634	96
465.854	90
466.073	92
466.293	87
466.512	88
466.732	99
466.951	89
467.171	87
467.391	100
467.61	103
467.829	94
468.049	116
468.268	124
468.488	87
468.707	77
468.927	88
469.146	87
469.365	77
469.585	73
469.804	99
470.023	96
470.243	85
470.462	107
470.681	126
470.901	88
471.12	88
471.339	104
471.558	89
471.777	83
471.997	106
472.216	150
472.435	248
472.654	118
472.873	90
473.092	88
473.311	70
473.53	89
473.749	101
473.968	91
474.187	97
474.406	95
474.625	85
474.844	90
475.063	88
475.282	82
475.501	92
475.72	88
475.939	75
476.158	76
476.377	94
476.596	88
476.814	84
477.033	77
477.252	94
477.471	96
477.69	88
477.908	87
478.127	88
478.346	96
478.564	97
478.783	97
479.002	90
479.22	88
479.439	100
479.658	97
479.876	97
480.095	82
480.313	82
480.532	85
480.751	117
480.969	154
481.188	391
481.406	265
481.624	95
481.843	84
482.061	85
482.28	94
482.498	96
482.717	81
482.935	86
483.153	88
483.372	83
483.59	84
483.808	93
484.027	96
484.245	87
484.463	90
484.681	97
484.9	95
485.118	88
485.336	98
485.554	77
485.772	103
485.99	83
486.209	99
486.427	93
486.645	96
486.863	111
487.081	107
487.299	101
487.517	99
487.735	85
487.953	89
488.171	91
488.389	95
488.607	94
488.825	83
489.043	84
489.261	85
489.479	96
489.696	85
489.914	89
490.132	77
490.35	92
490.568	92
490.786	96
491.003	90
491.221	81
491.439	95
491.657	90
491.874	89
492.092	93
492.31	90
492.527	86
492.745	85
492.963	84
493.18	84
493.398	105
493.615	88
493.833	88
494.05	85
494.268	80
494.485	89
494.703	100
494.92	78
495.138	84
495.355	88
495.573	109
495.79	95
496.008	85
496.225	90
496.442	103
496.66	107
496.877	80
497.094	77
497.312	99
497.529	96
497.746	100
497.963	85
498.181	92
498.398	89
498.615	103
498.832	105
499.049	91
499.267	94
499.484	100
499.701	95
499.918	95
500.135	94
500.352	88
500.569	90
500.786	80
501.003	92
501.22	96
501.437	102
501.654	93
501.871	101
502.088	100
502.305	94
502.522	101
502.739	94
502.956	79
503.172	88
503.389	107
503.606	105
503.823	88
504.04	104
504.256	97
504.473	101
504.69	81
504.907	86
505.123	86
505.34	80
505.557	76
505.773	100
505.99	89
506.207	92
506.423	83
506.64	77
506.856	84
507.073	83
507.289	79
507.506	93
507.722	113
507.939	100
508.155	91
508.372	107
508.588	116
508.805	106
509.021	101
509.238	89
509.454	78
509.67	92
509.887	90
510.103	119
510.319	185
510.536	679
510.752	2292
510.968	652
511.184	133
511.401	99
511.617	102
511.833	79
512.049	83
512.265	97
512.481	96
512.698	92
512.914	82
513.13	84
513.346	82
513.562	94
513.778	110
513.994	97
514.21	89
514.426	118
514.642	122
514.858	116
515.074	153
515.29	393
515.506	1318
515.721	516
515.937	148
516.153	103
516.369	97
516.585	112
516.801	86
517.016	90
517.232	92
517.448	85
517.664	77
517.879	95
518.095	99
518.311	91
518.527	90
518.742	85
518.958	76
519.173	88
519.389	86
519.605	96
519.82	95
520.036	101
520.251	117
520.467	100
520.682	94
520.898	83
521.113	126
521.329	138
521.544	180
521.76	482
521.975	2180
522.19	1415
522.406	304
522.621	114
522.836	91
523.052	92
523.267	84
523.482	96
523.698	89
523.913	125
524.128	102
524.343	90
524.559	105
524.774	97
524.989	88
525.204	109
525.419	101
525.634	88
525.849	85
526.064	91
526.28	89
526.495	81
526.71	99
526.925	93
527.14	93
527.355	89
527.57	102
527.785	88
527.999	96
528.214	73
528.429	102
528.644	75
528.859	83
529.074	97
529.289	102
529.503	162
529.718	101
529.933	98
530.148	97
530.363	89
530.577	83
530.792	84
531.007	89
531.221	94
531.436	83
531.651	92
531.865	76
532.08	89
532.295	96
532.509	101
532.724	83
532.938	89
533.153	97
533.367	80
533.582	80
533.796	77
534.011	106
534.225	84
534.44	80
534.654	97
534.868	81
535.083	86
535.297	80
535.511	89
535.726	107
535.94	95
536.154	88
536.369	91
536.583	95
536.797	90
537.011	94
537.225	88
537.44	78
537.654	96
537.868	96
538.082	75
538.296	81
538.51	88
538.724	93
538.938	96
539.153	106
539.367	118
539.581	93
539.795	73
540.009	84
540.222	86
540.436	105
540.65	92
540.864	99
541.078	100
541.292	82
541.506	91
541.72	88
541.934	80
542.147	84
542.361	85
542.575	91
542.789	90
543.002	89
543.216	82
543.43	88
543.644	89
543.857	81
544.071	80
544.285	84
544.498	84
544.712	91
544.925	83
545.139	90
545.352	91
545.566	80
545.779	82
545.993	105
546.206	85
546.42	94
546.633	96
546.847	102
547.06	82
547.274	74
547.487	96
547.7	96
547.914	89
548.127	78
548.34	90
548.554	77
548.767	101
548.98	91
549.193	78
549.407	82
549.62	85
549.833	89
550.046	80
550.259	87
550.473	79
550.686	88
550.899	81
551.112	92
551.325	87
551.538	88
551.751	81
551.964	100
552.177	92
552.39	90
552.603	88
552.816	98
553.029	94
553.242	88
553.455	90
553.667	99
553.88	96
554.093	101
554.306	103
554.519	86
554.732	87
554.944	93
555.157	85
555.37	81
555.583	90
555.795	91
556.008	89
556.221	96
556.433	101
556.646	101
556.859	102
557.071	79
557.284	88
557.496	86
557.709	86
557.921	94
558.134	85
558.346	88
558.559	90
558.771	79
558.984	97
559.196	72
559.409	73
559.621	83
559.833	100
560.046	81
560.258	99
560.47	83
560.683	93
560.895	74
561.107	73
561.32	94
561.532	93
561.744	83
561.956	87
562.168	96
562.381	95
562.593	103
562.805	89
563.017	87
563.229	92
563.441	89
563.653	88
563.865	82
564.077	98
564.289	101
564.501	101
564.713	81
564.925	84
565.137	97
565.349	80
565.561	104
565.773	73
565.985	84
566.197	75
566.408	85
566.62	85
566.832	90
567.044	86
567.255	96
567.467	91
567.679	87
567.891	89
568.102	90
568.314	88
568.526	94
568.737	75
568.949	100
569.161	99
569.372	88
569.584	89
569.795	87
570.007	112
570.218	219
570.43	139
570.641	92
570.853	84
571.064	90
571.276	88
571.487	87
571.698	78
571.91	92
572.121	68
572.333	76
572.544	83
572.755	95
572.966	90
573.178	79
573.389	109
573.6	80
573.811	73
574.023	82
574.234	95
574.445	77
574.656	101
574.867	90
575.078	88
575.289	86
575.501	83
575.712	103
575.923	90
576.134	94
576.345	90
576.556	84
576.767	87
576.978	84
577.188	101
577.399	93
577.61	102
577.821	93
578.032	117
578.243	240
578.454	704
578.665	192
578.875	104
579.086	101
579.297	76
579.508	82
579.718	80
579.929	83
580.14	81
580.35	82
580.561	80
580.772	87
580.982	80
581.193	94
581.403	97
581.614	78
581.825	81
582.035	69
582.246	91
582.456	78
582.667	80
582.877	81
583.087	93
583.298	88
583.508	77
583.719	74
583.929	92
584.139	95
584.35	84
584.56	78
584.77	84
