Data from Circ_2015_H10_HRD10591_00098.txt Node
Date: Wed Jan 03 10:00:42 EST 2024
User: Yrep
Spectrometer: HR+D1059
Trigger mode: 1
Integration Time (sec): 1.000000E-1
Scans to average: 1
Electric dark correction enabled: true
Nonlinearity correction enabled: false
Boxcar width: 0
XAxis mode: Wavelengths
Number of Pixels in Spectrum: 2048
>>>>>Begin Spectral Data<<<<<
223.165	-11.88
223.4	-11.88
223.635	-11.88
223.869	-17.88
224.104	-33.88
224.338	-19.88
224.573	-19.88
224.808	-8.88
225.042	-19.88
225.277	-6.88
225.511	1.12
225.746	10.12
225.98	8.12
226.215	23.12
226.449	12.12
226.683	34.12
226.918	18.12
227.152	32.12
227.387	45.12
227.621	43.12
227.856	51.12
228.09	65.12
228.324	49.12
228.559	64.12
228.793	60.12
229.027	57.12
229.262	67.12
229.496	73.12
229.73	91.12
229.964	85.12
230.199	81.12
230.433	81.12
230.667	83.12
230.901	77.12
231.136	81.12
231.37	79.12
231.604	73.12
231.838	89.12
232.072	76.12
232.306	62.12
232.541	93.12
232.775	85.12
233.009	86.12
233.243	94.12
233.477	85.12
233.711	68.12
233.945	80.12
234.179	89.12
234.413	90.12
234.647	80.12
234.881	77.12
235.115	63.12
235.349	78.12
235.583	75.12
235.817	77.12
236.051	74.12
236.285	73.12
236.519	80.12
236.753	86.12
236.987	77.12
237.221	88.12
237.455	87.12
237.689	80.12
237.922	76.12
238.156	73.12
238.39	85.12
238.624	70.12
238.858	87.12
239.091	74.12
239.325	75.12
239.559	86.12
239.793	75.12
240.027	63.12
240.26	82.12
240.494	62.12
240.728	76.12
240.961	73.12
241.195	72.12
241.429	84.12
241.662	87.12
241.896	81.12
242.13	70.12
242.363	61.12
242.597	83.12
242.83	89.12
243.064	78.12
243.298	81.12
243.531	73.12
243.765	85.12
243.998	76.12
244.232	85.12
244.465	91.12
244.699	69.12
244.932	71.12
245.166	76.12
245.399	71.12
245.633	80.12
245.866	67.12
246.099	81.12
246.333	87.12
246.566	75.12
246.8	89.12
247.033	84.12
247.266	76.12
247.5	72.12
247.733	76.12
247.966	71.12
248.2	84.12
248.433	76.12
248.666	75.12
248.899	90.12
249.133	83.12
249.366	88.12
249.599	93.12
249.832	75.12
250.066	82.12
250.299	86.12
250.532	94.12
250.765	79.12
250.998	87.12
251.231	79.12
251.465	68.12
251.698	92.12
251.931	85.12
252.164	73.12
252.397	76.12
252.63	95.12
252.863	76.12
253.096	92.12
253.329	79.12
253.562	93.12
253.795	77.12
254.028	75.12
254.261	96.12
254.494	87.12
254.727	92.12
254.96	84.12
255.193	71.12
255.426	83.12
255.659	81.12
255.892	76.12
256.124	70.12
256.357	72.12
256.59	84.12
256.823	92.12
257.056	86.12
257.289	74.12
257.521	78.12
257.754	84.12
257.987	92.12
258.22	97.12
258.452	94.12
258.685	76.12
258.918	88.12
259.151	83.12
259.383	83.12
259.616	87.12
259.849	90.12
260.081	81.12
260.314	80.12
260.547	94.12
260.779	90.12
261.012	100.12
261.244	84.12
261.477	93.12
261.71	86.12
261.942	118.12
262.175	122.12
262.407	86.12
262.64	81.12
262.872	88.12
263.105	83.12
263.337	83.12
263.57	81.12
263.802	87.12
264.035	88.12
264.267	87.12
264.499	75.12
264.732	85.12
264.964	82.12
265.197	77.12
265.429	80.12
265.661	96.12
265.894	77.12
266.126	84.12
266.358	77.12
266.591	96.12
266.823	91.12
267.055	97.12
267.287	101.12
267.52	85.12
267.752	96.12
267.984	81.12
268.216	91.12
268.448	93.12
268.681	79.12
268.913	98.12
269.145	78.12
269.377	84.12
269.609	92.12
269.841	78.12
270.073	88.12
270.306	93.12
270.538	88.12
270.77	86.12
271.002	76.12
271.234	88.12
271.466	89.12
271.698	85.12
271.93	83.12
272.162	87.12
272.394	81.12
272.626	95.12
272.858	85.12
273.09	91.12
273.322	89.12
273.553	75.12
273.785	96.12
274.017	85.12
274.249	86.12
274.481	71.12
274.713	82.12
274.945	94.12
275.176	93.12
275.408	91.12
275.64	72.12
275.872	89.12
276.104	107.12
276.335	84.12
276.567	91.12
276.799	105.12
277.031	100.12
277.262	101.12
277.494	100.12
277.726	89.12
277.957	81.12
278.189	85.12
278.421	85.12
278.652	93.12
278.884	87.12
279.115	89.12
279.347	76.12
279.579	97.12
279.81	94.12
280.042	88.12
280.273	118.12
280.505	95.12
280.736	84.12
280.968	99.12
281.199	87.12
281.431	74.12
281.662	99.12
281.894	84.12
282.125	96.12
282.356	114.12
282.588	122.12
282.819	114.12
283.051	71.12
283.282	80.12
283.513	92.12
283.745	75.12
283.976	81.12
284.207	80.12
284.439	83.12
284.67	87.12
284.901	81.12
285.132	95.12
285.364	90.12
285.595	88.12
285.826	92.12
286.057	95.12
286.288	90.12
286.52	87.12
286.751	79.12
286.982	93.12
287.213	91.12
287.444	87.12
287.675	99.12
287.906	92.12
288.138	79.12
288.369	96.12
288.6	99.12
288.831	89.12
289.062	87.12
289.293	85.12
289.524	98.12
289.755	95.12
289.986	94.12
290.217	92.12
290.448	94.12
290.679	96.12
290.91	87.12
291.141	79.12
291.371	92.12
291.602	93.12
291.833	102.12
292.064	77.12
292.295	77.12
292.526	96.12
292.757	85.12
292.987	83.12
293.218	92.12
293.449	81.12
293.68	91.12
293.91	91.12
294.141	84.12
294.372	92.12
294.603	88.12
294.833	81.12
295.064	89.12
295.295	88.12
295.525	88.12
295.756	93.12
295.987	105.12
296.217	130.12
296.448	145.12
296.679	90.12
296.909	111.12
297.14	99.12
297.37	96.12
297.601	88.12
297.831	94.12
298.062	83.12
298.292	73.12
298.523	84.12
298.753	98.12
298.984	81.12
299.214	83.12
299.445	90.12
299.675	86.12
299.905	92.12
300.136	80.12
300.366	87.12
300.597	98.12
300.827	88.12
301.057	101.12
301.288	95.12
301.518	108.12
301.748	95.12
301.979	104.12
302.209	92.12
302.439	90.12
302.669	96.12
302.9	99.12
303.13	109.12
303.36	92.12
303.59	99.12
303.82	105.12
304.051	87.12
304.281	89.12
304.511	89.12
304.741	85.12
304.971	92.12
305.201	105.12
305.431	81.12
305.661	95.12
305.891	87.12
306.121	102.12
306.352	91.12
306.582	100.12
306.812	83.12
307.042	103.12
307.272	87.12
307.502	90.12
307.731	110.12
307.961	91.12
308.191	103.12
308.421	107.12
308.651	86.12
308.881	99.12
309.111	91.12
309.341	94.12
309.571	97.12
309.8	94.12
310.03	91.12
310.26	94.12
310.49	105.12
310.72	102.12
310.949	109.12
311.179	96.12
311.409	104.12
311.639	100.12
311.868	106.12
312.098	87.12
312.328	88.12
312.557	107.12
312.787	97.12
313.017	112.12
313.246	103.12
313.476	93.12
313.706	82.12
313.935	93.12
314.165	89.12
314.394	110.12
314.624	86.12
314.853	100.12
315.083	90.12
315.312	84.12
315.542	92.12
315.771	101.12
316.001	93.12
316.23	87.12
316.46	96.12
316.689	76.12
316.919	95.12
317.148	101.12
317.377	79.12
317.607	86.12
317.836	88.12
318.065	87.12
318.295	90.12
318.524	88.12
318.753	93.12
318.983	100.12
319.212	101.12
319.441	99.12
319.67	101.12
319.9	101.12
320.129	92.12
320.358	98.12
320.587	106.12
320.816	96.12
321.046	118.12
321.275	95.12
321.504	97.12
321.733	80.12
321.962	102.12
322.191	109.12
322.42	112.12
322.649	103.12
322.878	119.12
323.108	108.12
323.337	112.12
323.566	115.12
323.795	153.12
324.024	193.12
324.253	333.12
324.482	752.12
324.71	1561.12
324.939	2060.12
325.168	757.12
325.397	222.12
325.626	145.12
325.855	129.12
326.084	118.12
326.313	134.12
326.542	146.12
326.77	219.12
326.999	437.12
327.228	864.12
327.457	1592.12
327.686	1260.12
327.914	353.12
328.143	230.12
328.372	217.12
328.6	146.12
328.829	124.12
329.058	135.12
329.287	129.12
329.515	123.12
329.744	120.12
329.972	165.12
330.201	257.12
330.43	337.12
330.658	201.12
330.887	137.12
331.115	122.12
331.344	103.12
331.572	112.12
331.801	103.12
332.03	81.12
332.258	93.12
332.486	94.12
332.715	86.12
332.943	95.12
333.172	105.12
333.4	93.12
333.629	114.12
333.857	129.12
334.085	153.12
334.314	264.12
334.542	423.12
334.771	390.12
334.999	147.12
335.227	120.12
335.455	101.12
335.684	96.12
335.912	88.12
336.14	106.12
336.369	88.12
336.597	109.12
336.825	95.12
337.053	91.12
337.281	96.12
337.51	95.12
337.738	106.12
337.966	96.12
338.194	100.12
338.422	96.12
338.65	88.12
338.878	89.12
339.106	85.12
339.334	86.12
339.562	88.12
339.79	100.12
340.018	90.12
340.246	85.12
340.474	85.12
340.702	95.12
340.93	87.12
341.158	85.12
341.386	88.12
341.614	77.12
341.842	82.12
342.07	91.12
342.298	72.12
342.526	83.12
342.754	83.12
342.981	97.12
343.209	90.12
343.437	92.12
343.665	88.12
343.893	89.12
344.12	82.12
344.348	108.12
344.576	100.12
344.804	99.12
345.031	101.12
345.259	94.12
345.487	104.12
345.714	90.12
345.942	88.12
346.17	92.12
346.397	96.12
346.625	93.12
346.853	89.12
347.08	89.12
347.308	92.12
347.535	93.12
347.763	89.12
347.99	93.12
348.218	97.12
348.445	86.12
348.673	93.12
348.9	88.12
349.128	86.12
349.355	95.12
349.583	105.12
349.81	94.12
350.037	99.12
350.265	92.12
350.492	99.12
350.72	93.12
350.947	96.12
351.174	100.12
351.402	100.12
351.629	107.12
351.856	101.12
352.083	95.12
352.311	106.12
352.538	107.12
352.765	105.12
352.992	100.12
353.22	114.12
353.447	97.12
353.674	104.12
353.901	100.12
354.128	92.12
354.355	91.12
354.583	83.12
354.81	91.12
355.037	86.12
355.264	108.12
355.491	101.12
355.718	93.12
355.945	84.12
356.172	104.12
356.399	100.12
356.626	89.12
356.853	95.12
357.08	106.12
357.307	87.12
357.534	87.12
357.761	92.12
357.988	101.12
358.215	92.12
358.441	96.12
358.668	87.12
358.895	78.12
359.122	81.12
359.349	100.12
359.576	94.12
359.802	104.12
360.029	99.12
360.256	108.12
360.483	98.12
360.709	87.12
360.936	95.12
361.163	97.12
361.39	77.12
361.616	81.12
361.843	99.12
362.07	88.12
362.296	106.12
362.523	110.12
362.749	80.12
362.976	101.12
363.203	92.12
363.429	97.12
363.656	101.12
363.882	80.12
364.109	76.12
364.335	77.12
364.562	91.12
364.788	85.12
365.015	88.12
365.241	104.12
365.468	116.12
365.694	108.12
365.92	93.12
366.147	104.12
366.373	101.12
366.599	94.12
366.826	85.12
367.052	91.12
367.278	99.12
367.505	93.12
367.731	92.12
367.957	110.12
368.184	94.12
368.41	103.12
368.636	116.12
368.862	112.12
369.089	107.12
369.315	87.12
369.541	93.12
369.767	101.12
369.993	85.12
370.219	92.12
370.445	86.12
370.672	97.12
370.898	94.12
371.124	98.12
371.35	93.12
371.576	103.12
371.802	82.12
372.028	92.12
372.254	104.12
372.48	78.12
372.706	74.12
372.932	92.12
373.158	88.12
373.384	91.12
373.61	99.12
373.835	101.12
374.061	86.12
374.287	80.12
374.513	95.12
374.739	96.12
374.965	101.12
375.191	99.12
375.416	95.12
375.642	93.12
375.868	98.12
376.094	102.12
376.319	90.12
376.545	93.12
376.771	81.12
376.997	98.12
377.222	100.12
377.448	96.12
377.674	98.12
377.899	91.12
378.125	67.12
378.35	86.12
378.576	103.12
378.802	97.12
379.027	104.12
379.253	103.12
379.478	89.12
379.704	95.12
379.929	92.12
380.155	93.12
380.38	87.12
380.606	84.12
380.831	90.12
381.057	77.12
381.282	107.12
381.507	87.12
381.733	89.12
381.958	102.12
382.184	96.12
382.409	89.12
382.634	98.12
382.86	96.12
383.085	101.12
383.31	93.12
383.535	94.12
383.761	107.12
383.986	90.12
384.211	98.12
384.436	102.12
384.662	107.12
384.887	95.12
385.112	103.12
385.337	104.12
385.562	103.12
385.787	107.12
386.013	116.12
386.238	115.12
386.463	113.12
386.688	123.12
386.913	106.12
387.138	103.12
387.363	96.12
387.588	86.12
387.813	102.12
388.038	104.12
388.263	107.12
388.488	112.12
388.713	93.12
388.938	89.12
389.163	91.12
389.387	118.12
389.612	99.12
389.837	91.12
390.062	96.12
390.287	82.12
390.512	97.12
390.736	95.12
390.961	99.12
391.186	99.12
391.411	106.12
391.636	95.12
391.86	89.12
392.085	93.12
392.31	88.12
392.534	77.12
392.759	81.12
392.984	99.12
393.208	96.12
393.433	91.12
393.658	98.12
393.882	92.12
394.107	75.12
394.331	83.12
394.556	96.12
394.78	86.12
395.005	88.12
395.229	101.12
395.454	91.12
395.678	79.12
395.903	85.12
396.127	98.12
396.352	94.12
396.576	94.12
396.801	93.12
397.025	102.12
397.249	99.12
397.474	85.12
397.698	81.12
397.922	71.12
398.147	86.12
398.371	79.12
398.595	88.12
398.82	72.12
399.044	84.12
399.268	89.12
399.492	81.12
399.717	86.12
399.941	77.12
400.165	89.12
400.389	94.12
400.613	84.12
400.837	87.12
401.062	92.12
401.286	82.12
401.51	96.12
401.734	83.12
401.958	98.12
402.182	104.12
402.406	140.12
402.63	92.12
402.854	88.12
403.078	92.12
403.302	83.12
403.526	82.12
403.75	88.12
403.974	94.12
404.198	95.12
404.422	87.12
404.645	84.12
404.869	85.12
405.093	105.12
405.317	105.12
405.541	111.12
405.765	100.12
405.988	106.12
406.212	146.12
406.436	189.12
406.66	140.12
406.883	100.12
407.107	86.12
407.331	82.12
407.555	108.12
407.778	92.12
408.002	97.12
408.226	91.12
408.449	96.12
408.673	76.12
408.896	115.12
409.12	85.12
409.344	90.12
409.567	80.12
409.791	100.12
410.014	99.12
410.238	88.12
410.461	87.12
410.685	98.12
410.908	90.12
411.132	105.12
411.355	105.12
411.578	73.12
411.802	95.12
412.025	102.12
412.249	100.12
412.472	97.12
412.695	97.12
412.919	99.12
413.142	94.12
413.365	103.12
413.589	97.12
413.812	87.12
414.035	95.12
414.258	95.12
414.482	89.12
414.705	98.12
414.928	93.12
415.151	91.12
415.374	104.12
415.597	92.12
415.821	75.12
416.044	81.12
416.267	81.12
416.49	88.12
416.713	86.12
416.936	83.12
417.159	86.12
417.382	109.12
417.605	96.12
417.828	100.12
418.051	91.12
418.274	97.12
418.497	88.12
418.72	86.12
418.943	88.12
419.166	94.12
419.389	89.12
419.611	91.12
419.834	81.12
420.057	96.12
420.28	86.12
420.503	83.12
420.726	94.12
420.948	79.12
421.171	90.12
421.394	107.12
421.617	91.12
421.839	106.12
422.062	92.12
422.285	75.12
422.507	94.12
422.73	97.12
422.953	87.12
423.175	82.12
423.398	87.12
423.621	88.12
423.843	82.12
424.066	87.12
424.288	93.12
424.511	100.12
424.733	88.12
424.956	88.12
425.178	92.12
425.401	104.12
425.623	92.12
425.846	81.12
426.068	99.12
426.291	88.12
426.513	100.12
426.735	102.12
426.958	90.12
427.18	108.12
427.402	136.12
427.625	138.12
427.847	126.12
428.069	134.12
428.292	108.12
428.514	88.12
428.736	88.12
428.958	85.12
429.181	95.12
429.403	82.12
429.625	93.12
429.847	93.12
430.069	90.12
430.292	85.12
430.514	84.12
430.736	97.12
430.958	79.12
431.18	91.12
431.402	91.12
431.624	93.12
431.846	78.12
432.068	97.12
432.29	93.12
432.512	92.12
432.734	86.12
432.956	96.12
433.178	96.12
433.4	102.12
433.622	86.12
433.844	101.12
434.066	90.12
434.287	88.12
434.509	96.12
434.731	93.12
434.953	97.12
435.175	94.12
435.397	95.12
435.618	96.12
435.84	99.12
436.062	102.12
436.284	108.12
436.505	105.12
436.727	96.12
436.949	95.12
437.17	92.12
437.392	95.12
437.614	98.12
437.835	92.12
438.057	104.12
438.278	94.12
438.5	100.12
438.721	117.12
438.943	104.12
439.165	99.12
439.386	88.12
439.608	94.12
439.829	109.12
440.05	109.12
440.272	129.12
440.493	95.12
440.715	96.12
440.936	82.12
441.158	88.12
441.379	88.12
441.6	87.12
441.822	89.12
442.043	100.12
442.264	101.12
442.486	103.12
442.707	92.12
442.928	104.12
443.149	125.12
443.371	119.12
443.592	102.12
443.813	96.12
444.034	101.12
444.255	84.12
444.476	72.12
444.698	95.12
444.919	87.12
445.14	129.12
445.361	126.12
445.582	106.12
445.803	140.12
446.024	127.12
446.245	143.12
446.466	101.12
446.687	79.12
446.908	89.12
447.129	92.12
447.35	94.12
447.571	85.12
447.792	89.12
448.013	88.12
448.234	103.12
448.455	97.12
448.675	110.12
448.896	107.12
449.117	90.12
449.338	99.12
449.559	141.12
449.779	105.12
450	79.12
450.221	90.12
450.442	96.12
450.662	97.12
450.883	84.12
451.104	102.12
451.324	97.12
451.545	89.12
451.766	97.12
451.986	91.12
452.207	86.12
452.428	89.12
452.648	88.12
452.869	106.12
453.089	116.12
453.31	100.12
453.53	106.12
453.751	105.12
453.971	102.12
454.192	103.12
454.412	92.12
454.633	86.12
454.853	90.12
455.073	92.12
455.294	96.12
455.514	92.12
455.734	95.12
455.955	94.12
456.175	88.12
456.395	65.12
456.616	87.12
456.836	89.12
457.056	91.12
457.276	80.12
457.497	85.12
457.717	95.12
457.937	81.12
458.157	85.12
458.377	91.12
458.598	89.12
458.818	139.12
459.038	159.12
459.258	104.12
459.478	101.12
459.698	72.12
459.918	92.12
460.138	81.12
460.358	90.12
460.578	80.12
460.798	102.12
461.018	93.12
461.238	102.12
461.458	98.12
461.678	84.12
461.898	97.12
462.118	84.12
462.338	87.12
462.558	69.12
462.777	81.12
462.997	84.12
463.217	79.12
463.437	82.12
463.657	84.12
463.876	86.12
464.096	77.12
464.316	101.12
464.536	88.12
464.755	102.12
464.975	91.12
465.195	134.12
465.414	162.12
465.634	84.12
465.854	88.12
466.073	77.12
466.293	87.12
466.512	84.12
466.732	87.12
466.951	97.12
467.171	94.12
467.391	99.12
467.61	113.12
467.829	124.12
468.049	171.12
468.268	209.12
468.488	87.12
468.707	92.12
468.927	97.12
469.146	103.12
469.365	90.12
469.585	92.12
469.804	99.12
470.023	96.12
470.243	92.12
470.462	105.12
470.681	95.12
470.901	105.12
471.12	96.12
471.339	107.12
471.558	78.12
471.777	101.12
471.997	142.12
472.216	302.12
472.435	588.12
472.654	192.12
472.873	102.12
473.092	95.12
473.311	82.12
473.53	96.12
473.749	91.12
473.968	95.12
474.187	99.12
474.406	118.12
474.625	84.12
474.844	87.12
475.063	83.12
475.282	87.12
475.501	90.12
475.72	77.12
475.939	80.12
476.158	71.12
476.377	92.12
476.596	93.12
476.814	85.12
477.033	95.12
477.252	93.12
477.471	95.12
477.69	86.12
477.908	85.12
478.127	91.12
478.346	89.12
478.564	98.12
478.783	103.12
479.002	76.12
479.22	88.12
479.439	79.12
479.658	91.12
479.876	93.12
480.095	96.12
480.313	102.12
480.532	95.12
480.751	133.12
480.969	284.12
481.188	951.12
481.406	605.12
481.624	150.12
481.843	100.12
482.061	91.12
482.28	79.12
482.498	96.12
482.717	84.12
482.935	108.12
483.153	80.12
483.372	78.12
483.59	94.12
483.808	105.12
484.027	102.12
484.245	94.12
484.463	95.12
484.681	93.12
484.9	92.12
485.118	107.12
485.336	100.12
485.554	102.12
485.772	103.12
485.99	88.12
486.209	99.12
486.427	117.12
486.645	105.12
486.863	115.12
487.081	91.12
487.299	98.12
487.517	100.12
487.735	87.12
487.953	92.12
488.171	97.12
488.389	102.12
488.607	90.12
488.825	95.12
489.043	86.12
489.261	97.12
489.479	89.12
489.696	80.12
489.914	84.12
490.132	103.12
490.35	90.12
490.568	71.12
490.786	91.12
491.003	99.12
491.221	89.12
491.439	92.12
491.657	91.12
491.874	72.12
492.092	89.12
492.31	94.12
492.527	99.12
492.745	77.12
492.963	92.12
493.18	90.12
493.398	102.12
493.615	90.12
493.833	101.12
494.05	82.12
494.268	91.12
494.485	90.12
494.703	102.12
494.92	89.12
495.138	100.12
495.355	96.12
495.573	101.12
495.79	82.12
496.008	81.12
496.225	93.12
496.442	82.12
496.66	83.12
496.877	99.12
497.094	85.12
497.312	81.12
497.529	97.12
497.746	96.12
497.963	101.12
498.181	94.12
498.398	91.12
498.615	81.12
498.832	95.12
499.049	96.12
499.267	86.12
499.484	92.12
499.701	93.12
499.918	82.12
500.135	92.12
500.352	86.12
500.569	77.12
500.786	92.12
501.003	93.12
501.22	94.12
501.437	88.12
501.654	93.12
501.871	91.12
502.088	96.12
502.305	81.12
502.522	92.12
502.739	88.12
502.956	85.12
503.172	100.12
503.389	91.12
503.606	91.12
503.823	109.12
504.04	97.12
504.256	90.12
504.473	87.12
504.69	79.12
504.907	89.12
505.123	90.12
505.34	95.12
505.557	96.12
505.773	91.12
505.99	104.12
506.207	88.12
506.423	87.12
506.64	95.12
506.856	93.12
507.073	109.12
507.289	90.12
507.506	88.12
507.722	111.12
507.939	102.12
508.155	97.12
508.372	110.12
508.588	104.12
508.805	87.12
509.021	97.12
509.238	109.12
509.454	113.12
509.67	97.12
509.887	103.12
510.103	132.12
510.319	180.12
510.536	590.12
510.752	1892.12
510.968	563.12
511.184	141.12
511.401	106.12
511.617	97.12
511.833	86.12
512.049	96.12
512.265	102.12
512.481	92.12
512.698	86.12
512.914	90.12
513.13	87.12
513.346	99.12
513.562	104.12
513.778	110.12
513.994	98.12
514.21	115.12
514.426	109.12
514.642	116.12
514.858	101.12
515.074	139.12
515.29	339.12
