Data from Circ_2015_H10_HRD10591_00076.txt Node
Date: Wed Jan 03 10:00:38 EST 2024
User: Yrep
Spectrometer: HR+D1059
Trigger mode: 1
Integration Time (sec): 1.000000E-1
Scans to average: 1
Electric dark correction enabled: true
Nonlinearity correction enabled: false
Boxcar width: 0
XAxis mode: Wavelengths
Number of Pixels in Spectrum: 2048
>>>>>Begin Spectral Data<<<<<
223.165	-5.12
223.4	-5.12
223.635	-5.12
223.869	-9.12
224.104	-9.12
224.338	-10.12
224.573	-13.12
224.808	-12.12
225.042	-26.12
225.277	-11.12
225.511	2.88
225.746	2.88
225.98	2.88
226.215	-0.12
226.449	17.88
226.683	23.88
226.918	15.88
227.152	29.88
227.387	28.88
227.621	52.88
227.856	44.88
228.09	53.88
228.324	52.88
228.559	63.88
228.793	51.88
229.027	71.88
229.262	65.88
229.496	72.88
229.73	79.88
229.964	80.88
230.199	62.88
230.433	75.88
230.667	78.88
230.901	82.88
231.136	83.88
231.37	87.88
231.604	89.88
231.838	76.88
232.072	68.88
232.306	74.88
232.541	85.88
232.775	71.88
233.009	77.88
233.243	74.88
233.477	73.88
233.711	64.88
233.945	80.88
234.179	74.88
234.413	80.88
234.647	75.88
234.881	66.88
235.115	92.88
235.349	79.88
235.583	67.88
235.817	78.88
236.051	81.88
236.285	67.88
236.519	86.88
236.753	78.88
236.987	78.88
237.221	78.88
237.455	90.88
237.689	75.88
237.922	67.88
238.156	84.88
238.39	70.88
238.624	67.88
238.858	87.88
239.091	71.88
239.325	63.88
239.559	71.88
239.793	65.88
240.027	74.88
240.26	66.88
240.494	80.88
240.728	64.88
240.961	71.88
241.195	75.88
241.429	71.88
241.662	74.88
241.896	70.88
242.13	86.88
242.363	90.88
242.597	74.88
242.83	84.88
243.064	65.88
243.298	74.88
243.531	78.88
243.765	83.88
243.998	83.88
244.232	88.88
244.465	78.88
244.699	64.88
244.932	64.88
245.166	79.88
245.399	91.88
245.633	73.88
245.866	71.88
246.099	63.88
246.333	79.88
246.566	63.88
246.8	79.88
247.033	72.88
247.266	75.88
247.5	77.88
247.733	70.88
247.966	79.88
248.2	85.88
248.433	67.88
248.666	69.88
248.899	66.88
249.133	84.88
249.366	86.88
249.599	73.88
249.832	76.88
250.066	79.88
250.299	78.88
250.532	82.88
250.765	101.88
250.998	81.88
251.231	76.88
251.465	69.88
251.698	71.88
251.931	73.88
252.164	81.88
252.397	74.88
252.63	76.88
252.863	80.88
253.096	70.88
253.329	64.88
253.562	71.88
253.795	88.88
254.028	73.88
254.261	79.88
254.494	81.88
254.727	79.88
254.96	69.88
255.193	80.88
255.426	73.88
255.659	82.88
255.892	78.88
256.124	81.88
256.357	88.88
256.59	66.88
256.823	90.88
257.056	80.88
257.289	82.88
257.521	80.88
257.754	89.88
257.987	89.88
258.22	72.88
258.452	90.88
258.685	85.88
258.918	87.88
259.151	80.88
259.383	88.88
259.616	75.88
259.849	68.88
260.081	80.88
260.314	71.88
260.547	84.88
260.779	81.88
261.012	81.88
261.244	75.88
261.477	85.88
261.71	96.88
261.942	101.88
262.175	107.88
262.407	92.88
262.64	73.88
262.872	86.88
263.105	79.88
263.337	74.88
263.57	82.88
263.802	80.88
264.035	83.88
264.267	82.88
264.499	80.88
264.732	94.88
264.964	81.88
265.197	86.88
265.429	78.88
265.661	82.88
265.894	89.88
266.126	83.88
266.358	91.88
266.591	85.88
266.823	87.88
267.055	82.88
267.287	73.88
267.52	71.88
267.752	76.88
267.984	92.88
268.216	86.88
268.448	85.88
268.681	80.88
268.913	85.88
269.145	78.88
269.377	80.88
269.609	85.88
269.841	87.88
270.073	86.88
270.306	82.88
270.538	74.88
270.77	90.88
271.002	91.88
271.234	94.88
271.466	80.88
271.698	88.88
271.93	94.88
272.162	87.88
272.394	93.88
272.626	76.88
272.858	85.88
273.09	81.88
273.322	79.88
273.553	83.88
273.785	94.88
274.017	77.88
274.249	83.88
274.481	74.88
274.713	87.88
274.945	80.88
275.176	78.88
275.408	77.88
275.64	88.88
275.872	81.88
276.104	88.88
276.335	88.88
276.567	83.88
276.799	96.88
277.031	101.88
277.262	91.88
277.494	70.88
277.726	83.88
277.957	91.88
278.189	87.88
278.421	85.88
278.652	94.88
278.884	87.88
279.115	84.88
279.347	88.88
279.579	80.88
279.81	93.88
280.042	106.88
280.273	104.88
280.505	100.88
280.736	85.88
280.968	80.88
281.199	85.88
281.431	73.88
281.662	92.88
281.894	80.88
282.125	84.88
282.356	113.88
282.588	121.88
282.819	119.88
283.051	95.88
283.282	103.88
283.513	83.88
283.745	91.88
283.976	85.88
284.207	74.88
284.439	88.88
284.67	83.88
284.901	90.88
285.132	76.88
285.364	84.88
285.595	83.88
285.826	87.88
286.057	80.88
286.288	89.88
286.52	94.88
286.751	98.88
286.982	73.88
287.213	80.88
287.444	86.88
287.675	87.88
287.906	83.88
288.138	89.88
288.369	90.88
288.6	95.88
288.831	75.88
289.062	91.88
289.293	91.88
289.524	90.88
289.755	94.88
289.986	84.88
290.217	74.88
290.448	84.88
290.679	92.88
290.91	81.88
291.141	85.88
291.371	99.88
291.602	91.88
291.833	87.88
292.064	82.88
292.295	89.88
292.526	76.88
292.757	88.88
292.987	83.88
293.218	93.88
293.449	79.88
293.68	92.88
293.91	89.88
294.141	87.88
294.372	81.88
294.603	81.88
294.833	99.88
295.064	84.88
295.295	82.88
295.525	84.88
295.756	103.88
295.987	115.88
296.217	119.88
296.448	129.88
296.679	83.88
296.909	99.88
297.14	78.88
297.37	81.88
297.601	99.88
297.831	94.88
298.062	86.88
298.292	80.88
298.523	98.88
298.753	87.88
298.984	90.88
299.214	81.88
299.445	80.88
299.675	87.88
299.905	90.88
300.136	84.88
300.366	84.88
300.597	94.88
300.827	93.88
301.057	86.88
301.288	91.88
301.518	84.88
301.748	80.88
301.979	91.88
302.209	91.88
302.439	86.88
302.669	91.88
302.9	71.88
303.13	100.88
303.36	85.88
303.59	102.88
303.82	93.88
304.051	90.88
304.281	91.88
304.511	95.88
304.741	90.88
304.971	97.88
305.201	89.88
305.431	84.88
305.661	90.88
305.891	69.88
306.121	96.88
306.352	92.88
306.582	98.88
306.812	98.88
307.042	100.88
307.272	102.88
307.502	99.88
307.731	120.88
307.961	94.88
308.191	91.88
308.421	88.88
308.651	83.88
308.881	98.88
309.111	86.88
309.341	96.88
309.571	99.88
309.8	95.88
310.03	94.88
310.26	96.88
310.49	88.88
310.72	86.88
310.949	89.88
311.179	81.88
311.409	97.88
311.639	83.88
311.868	86.88
312.098	92.88
312.328	96.88
312.557	84.88
312.787	100.88
313.017	94.88
313.246	90.88
313.476	95.88
313.706	91.88
313.935	87.88
314.165	92.88
314.394	78.88
314.624	88.88
314.853	95.88
315.083	90.88
315.312	90.88
315.542	91.88
315.771	92.88
316.001	80.88
316.23	87.88
316.46	99.88
316.689	88.88
316.919	87.88
317.148	80.88
317.377	85.88
317.607	87.88
317.836	84.88
318.065	87.88
318.295	97.88
318.524	70.88
318.753	77.88
318.983	90.88
319.212	107.88
319.441	88.88
319.67	98.88
319.9	93.88
320.129	97.88
320.358	88.88
320.587	96.88
320.816	99.88
321.046	98.88
321.275	88.88
321.504	99.88
321.733	91.88
321.962	88.88
322.191	103.88
322.42	92.88
322.649	102.88
322.878	113.88
323.108	108.88
323.337	124.88
323.566	134.88
323.795	150.88
324.024	218.88
324.253	362.88
324.482	760.88
324.71	1578.88
324.939	2082.88
325.168	781.88
325.397	235.88
325.626	146.88
325.855	134.88
326.084	112.88
326.313	123.88
326.542	147.88
326.77	217.88
326.999	444.88
327.228	904.88
327.457	1630.88
327.686	1353.88
327.914	370.88
328.143	216.88
328.372	202.88
328.6	139.88
328.829	119.88
329.058	114.88
329.287	124.88
329.515	113.88
329.744	122.88
329.972	140.88
330.201	219.88
330.43	293.88
330.658	177.88
330.887	138.88
331.115	121.88
331.344	103.88
331.572	101.88
331.801	115.88
332.03	99.88
332.258	96.88
332.486	96.88
332.715	95.88
332.943	96.88
333.172	89.88
333.4	100.88
333.629	104.88
333.857	134.88
334.085	150.88
334.314	223.88
334.542	347.88
334.771	346.88
334.999	127.88
335.227	106.88
335.455	91.88
335.684	91.88
335.912	99.88
336.14	107.88
336.369	80.88
336.597	87.88
336.825	88.88
337.053	90.88
337.281	83.88
337.51	88.88
337.738	93.88
337.966	92.88
338.194	86.88
338.422	97.88
338.65	112.88
338.878	106.88
339.106	90.88
339.334	93.88
339.562	91.88
339.79	90.88
340.018	76.88
340.246	89.88
340.474	85.88
340.702	82.88
340.93	87.88
341.158	91.88
341.386	90.88
341.614	88.88
341.842	75.88
342.07	103.88
342.298	96.88
342.526	87.88
342.754	84.88
342.981	91.88
343.209	94.88
343.437	87.88
343.665	97.88
343.893	78.88
344.12	83.88
344.348	72.88
344.576	86.88
344.804	88.88
345.031	103.88
345.259	85.88
345.487	100.88
345.714	92.88
345.942	87.88
346.17	90.88
346.397	89.88
346.625	89.88
346.853	77.88
347.08	89.88
347.308	85.88
347.535	101.88
347.763	103.88
347.99	90.88
348.218	86.88
348.445	103.88
348.673	95.88
348.9	98.88
349.128	97.88
349.355	80.88
349.583	77.88
349.81	92.88
350.037	78.88
350.265	87.88
350.492	95.88
350.72	93.88
350.947	101.88
351.174	123.88
351.402	111.88
351.629	91.88
351.856	77.88
352.083	88.88
352.311	89.88
352.538	105.88
352.765	111.88
352.992	100.88
353.22	100.88
353.447	107.88
353.674	97.88
353.901	91.88
354.128	92.88
354.355	103.88
354.583	89.88
354.81	103.88
355.037	90.88
355.264	85.88
355.491	100.88
355.718	82.88
355.945	96.88
356.172	101.88
356.399	104.88
356.626	96.88
356.853	89.88
357.08	82.88
357.307	86.88
357.534	78.88
357.761	86.88
357.988	103.88
358.215	102.88
358.441	84.88
358.668	97.88
358.895	74.88
359.122	96.88
359.349	70.88
359.576	95.88
359.802	96.88
360.029	102.88
360.256	86.88
360.483	98.88
360.709	83.88
360.936	87.88
361.163	87.88
361.39	86.88
361.616	88.88
361.843	72.88
362.07	95.88
362.296	86.88
362.523	94.88
362.749	76.88
362.976	84.88
363.203	86.88
363.429	86.88
363.656	95.88
363.882	84.88
364.109	91.88
364.335	84.88
364.562	97.88
364.788	99.88
365.015	79.88
365.241	89.88
365.468	108.88
365.694	105.88
365.92	103.88
366.147	90.88
366.373	75.88
366.599	78.88
366.826	89.88
367.052	83.88
367.278	101.88
367.505	87.88
367.731	104.88
367.957	93.88
368.184	88.88
368.41	106.88
368.636	94.88
368.862	105.88
369.089	92.88
369.315	91.88
369.541	92.88
369.767	94.88
369.993	88.88
370.219	85.88
370.445	87.88
370.672	83.88
370.898	82.88
371.124	77.88
371.35	90.88
371.576	96.88
371.802	87.88
372.028	96.88
372.254	87.88
372.48	85.88
372.706	95.88
372.932	93.88
373.158	102.88
373.384	89.88
373.61	79.88
373.835	90.88
374.061	89.88
374.287	95.88
374.513	97.88
374.739	95.88
374.965	88.88
375.191	87.88
375.416	91.88
375.642	80.88
375.868	88.88
376.094	91.88
376.319	91.88
376.545	95.88
376.771	80.88
376.997	86.88
377.222	89.88
377.448	91.88
377.674	91.88
377.899	95.88
378.125	83.88
378.35	95.88
378.576	85.88
378.802	78.88
379.027	87.88
379.253	82.88
379.478	92.88
379.704	85.88
379.929	87.88
380.155	81.88
380.38	92.88
380.606	97.88
380.831	89.88
381.057	102.88
381.282	87.88
381.507	90.88
381.733	89.88
381.958	97.88
382.184	98.88
382.409	99.88
382.634	94.88
382.86	92.88
383.085	90.88
383.31	93.88
383.535	99.88
383.761	98.88
383.986	90.88
384.211	95.88
384.436	97.88
384.662	104.88
384.887	98.88
385.112	99.88
385.337	104.88
385.562	88.88
385.787	90.88
386.013	123.88
386.238	116.88
386.463	105.88
386.688	101.88
386.913	89.88
387.138	101.88
387.363	101.88
387.588	101.88
387.813	101.88
388.038	100.88
388.263	108.88
388.488	100.88
388.713	97.88
388.938	85.88
389.163	88.88
389.387	101.88
389.612	85.88
389.837	84.88
390.062	87.88
390.287	87.88
390.512	88.88
390.736	93.88
390.961	82.88
391.186	88.88
391.411	83.88
391.636	98.88
391.86	83.88
392.085	82.88
392.31	76.88
392.534	80.88
392.759	93.88
392.984	90.88
393.208	100.88
393.433	80.88
393.658	82.88
393.882	82.88
394.107	74.88
394.331	74.88
394.556	72.88
394.78	87.88
395.005	75.88
395.229	101.88
395.454	82.88
395.678	95.88
395.903	97.88
396.127	94.88
396.352	86.88
396.576	82.88
396.801	73.88
397.025	78.88
397.249	92.88
397.474	79.88
397.698	99.88
397.922	89.88
398.147	81.88
398.371	89.88
398.595	98.88
398.82	73.88
399.044	82.88
399.268	88.88
399.492	75.88
399.717	82.88
399.941	86.88
400.165	89.88
400.389	94.88
400.613	88.88
400.837	86.88
401.062	89.88
401.286	91.88
401.51	79.88
401.734	89.88
401.958	95.88
402.182	114.88
402.406	142.88
402.63	128.88
402.854	83.88
403.078	91.88
403.302	81.88
403.526	85.88
403.75	76.88
403.974	91.88
404.198	91.88
404.422	95.88
404.645	94.88
404.869	83.88
405.093	85.88
405.317	105.88
405.541	102.88
405.765	95.88
405.988	106.88
406.212	161.88
406.436	202.88
406.66	120.88
406.883	97.88
407.107	89.88
407.331	92.88
407.555	95.88
407.778	102.88
408.002	93.88
408.226	101.88
408.449	100.88
408.673	87.88
408.896	87.88
409.12	96.88
409.344	98.88
409.567	77.88
409.791	95.88
410.014	78.88
410.238	99.88
410.461	92.88
410.685	107.88
410.908	90.88
411.132	87.88
411.355	86.88
411.578	89.88
411.802	103.88
412.025	91.88
412.249	84.88
412.472	99.88
412.695	98.88
412.919	98.88
413.142	96.88
413.365	66.88
413.589	82.88
413.812	86.88
414.035	90.88
414.258	86.88
414.482	88.88
414.705	89.88
414.928	95.88
415.151	94.88
415.374	73.88
415.597	75.88
415.821	77.88
416.044	90.88
416.267	69.88
416.49	91.88
416.713	87.88
416.936	90.88
417.159	91.88
417.382	76.88
417.605	91.88
417.828	75.88
418.051	95.88
418.274	105.88
418.497	99.88
418.72	83.88
418.943	96.88
419.166	84.88
419.389	87.88
419.611	62.88
419.834	76.88
420.057	73.88
420.28	82.88
420.503	87.88
420.726	97.88
420.948	85.88
421.171	92.88
421.394	90.88
421.617	75.88
421.839	95.88
422.062	91.88
422.285	107.88
422.507	107.88
422.73	95.88
422.953	87.88
423.175	89.88
423.398	97.88
423.621	81.88
423.843	86.88
424.066	79.88
424.288	89.88
424.511	94.88
424.733	95.88
424.956	100.88
425.178	99.88
425.401	91.88
425.623	98.88
425.846	96.88
426.068	82.88
426.291	86.88
426.513	92.88
426.735	88.88
426.958	95.88
427.18	98.88
427.402	150.88
427.625	157.88
427.847	134.88
428.069	141.88
428.292	99.88
428.514	64.88
428.736	80.88
428.958	93.88
429.181	91.88
429.403	86.88
429.625	93.88
429.847	79.88
430.069	83.88
430.292	91.88
430.514	88.88
430.736	78.88
430.958	89.88
431.18	82.88
431.402	79.88
431.624	90.88
431.846	87.88
432.068	75.88
432.29	82.88
432.512	79.88
432.734	83.88
432.956	96.88
433.178	87.88
433.4	103.88
433.622	97.88
433.844	88.88
434.066	85.88
434.287	86.88
434.509	83.88
434.731	74.88
434.953	80.88
435.175	78.88
435.397	83.88
435.618	83.88
435.84	96.88
436.062	103.88
436.284	114.88
436.505	99.88
436.727	94.88
436.949	94.88
437.17	90.88
437.392	83.88
437.614	83.88
437.835	97.88
438.057	110.88
438.278	114.88
438.5	96.88
438.721	116.88
438.943	97.88
439.165	95.88
439.386	87.88
439.608	97.88
439.829	80.88
440.05	109.88
440.272	127.88
440.493	79.88
440.715	86.88
440.936	88.88
441.158	72.88
441.379	89.88
441.6	94.88
441.822	98.88
442.043	88.88
442.264	92.88
442.486	90.88
442.707	95.88
442.928	97.88
443.149	126.88
443.371	121.88
443.592	103.88
443.813	96.88
444.034	105.88
444.255	85.88
444.476	91.88
444.698	92.88
444.919	86.88
445.14	111.88
445.361	118.88
445.582	106.88
445.803	125.88
446.024	126.88
446.245	117.88
446.466	113.88
446.687	89.88
446.908	83.88
447.129	94.88
447.35	87.88
447.571	95.88
447.792	95.88
448.013	98.88
448.234	93.88
448.455	91.88
448.675	122.88
448.896	122.88
449.117	103.88
449.338	93.88
449.559	120.88
449.779	130.88
450	86.88
450.221	76.88
450.442	73.88
450.662	90.88
450.883	93.88
451.104	111.88
451.324	87.88
451.545	92.88
451.766	87.88
451.986	80.88
452.207	92.88
452.428	103.88
452.648	95.88
452.869	102.88
453.089	102.88
453.31	108.88
453.53	97.88
453.751	76.88
453.971	95.88
454.192	107.88
454.412	83.88
454.633	74.88
454.853	74.88
455.073	75.88
455.294	102.88
455.514	92.88
455.734	86.88
455.955	85.88
456.175	90.88
456.395	65.88
456.616	67.88
456.836	83.88
457.056	67.88
457.276	82.88
457.497	80.88
457.717	75.88
457.937	81.88
458.157	76.88
458.377	86.88
458.598	98.88
458.818	135.88
459.038	128.88
459.258	112.88
459.478	79.88
459.698	69.88
459.918	74.88
460.138	75.88
460.358	82.88
460.578	96.88
460.798	82.88
461.018	89.88
461.238	86.88
461.458	92.88
461.678	103.88
461.898	83.88
462.118	75.88
462.338	71.88
462.558	80.88
462.777	89.88
462.997	97.88
463.217	105.88
463.437	89.88
463.657	81.88
463.876	79.88
464.096	100.88
464.316	79.88
464.536	95.88
464.755	84.88
464.975	94.88
465.195	153.88
465.414	152.88
465.634	95.88
465.854	94.88
466.073	89.88
466.293	72.88
466.512	72.88
466.732	81.88
466.951	80.88
467.171	82.88
467.391	98.88
467.61	92.88
467.829	102.88
468.049	131.88
468.268	178.88
468.488	102.88
468.707	79.88
468.927	90.88
469.146	71.88
469.365	89.88
469.585	91.88
469.804	80.88
470.023	86.88
470.243	82.88
470.462	83.88
470.681	112.88
470.901	97.88
471.12	85.88
471.339	76.88
471.558	90.88
471.777	88.88
471.997	113.88
472.216	257.88
472.435	447.88
472.654	162.88
472.873	99.88
473.092	88.88
473.311	85.88
473.53	83.88
473.749	92.88
473.968	85.88
474.187	96.88
474.406	86.88
474.625	82.88
474.844	84.88
475.063	85.88
475.282	78.88
475.501	81.88
475.72	73.88
475.939	94.88
476.158	75.88
476.377	81.88
476.596	75.88
476.814	97.88
477.033	90.88
477.252	82.88
477.471	85.88
477.69	76.88
477.908	99.88
478.127	77.88
478.346	84.88
478.564	84.88
478.783	80.88
479.002	87.88
479.22	99.88
479.439	104.88
479.658	105.88
479.876	93.88
480.095	88.88
480.313	96.88
480.532	97.88
480.751	125.88
480.969	247.88
481.188	776.88
481.406	480.88
481.624	120.88
481.843	71.88
482.061	98.88
482.28	91.88
482.498	87.88
482.717	77.88
482.935	90.88
483.153	100.88
483.372	84.88
483.59	87.88
483.808	77.88
484.027	101.88
484.245	98.88
484.463	100.88
484.681	107.88
484.9	83.88
485.118	92.88
485.336	97.88
485.554	104.88
485.772	92.88
485.99	112.88
486.209	100.88
486.427	95.88
486.645	100.88
486.863	98.88
487.081	93.88
487.299	94.88
487.517	81.88
487.735	80.88
487.953	84.88
488.171	87.88
488.389	94.88
488.607	86.88
488.825	86.88
489.043	82.88
489.261	86.88
489.479	79.88
489.696	106.88
489.914	86.88
490.132	102.88
490.35	93.88
490.568	95.88
490.786	84.88
491.003	83.88
491.221	99.88
491.439	97.88
491.657	89.88
491.874	95.88
492.092	91.88
492.31	98.88
492.527	92.88
492.745	98.88
492.963	83.88
493.18	76.88
493.398	90.88
493.615	100.88
493.833	102.88
494.05	96.88
494.268	97.88
494.485	91.88
494.703	91.88
494.92	90.88
495.138	95.88
495.355	91.88
495.573	80.88
495.79	78.88
496.008	77.88
496.225	86.88
496.442	103.88
496.66	87.88
496.877	84.88
497.094	102.88
497.312	75.88
497.529	88.88
497.746	92.88
497.963	87.88
498.181	82.88
498.398	88.88
498.615	117.88
498.832	99.88
499.049	69.88
499.267	94.88
499.484	89.88
499.701	89.88
499.918	83.88
500.135	86.88
500.352	99.88
500.569	89.88
500.786	84.88
501.003	94.88
501.22	73.88
501.437	95.88
501.654	92.88
501.871	104.88
502.088	91.88
502.305	78.88
502.522	92.88
502.739	90.88
502.956	81.88
503.172	88.88
503.389	84.88
503.606	97.88
503.823	90.88
504.04	87.88
504.256	95.88
504.473	81.88
504.69	96.88
504.907	92.88
505.123	96.88
505.34	94.88
505.557	80.88
505.773	93.88
505.99	100.88
506.207	75.88
506.423	89.88
506.64	99.88
506.856	85.88
507.073	81.88
507.289	76.88
507.506	90.88
507.722	112.88
507.939	102.88
508.155	81.88
508.372	101.88
508.588	93.88
508.805	91.88
509.021	84.88
509.238	86.88
509.454	80.88
509.67	101.88
509.887	101.88
510.103	138.88
510.319	186.88
510.536	656.88
510.752	2074.88
510.968	629.88
511.184	139.88
511.401	95.88
511.617	85.88
511.833	89.88
512.049	92.88
512.265	90.88
512.481	98.88
512.698	89.88
512.914	86.88
513.13	85.88
513.346	95.88
513.562	91.88
513.778	93.88
513.994	90.88
514.21	104.88
514.426	89.88
514.642	110.88
514.858	118.88
515.074	163.88
515.29	370.88
515.506	1229.88
515.721	487.88
515.937	148.88
516.153	119.88
516.369	81.88
516.585	65.88
516.801	77.88
