Data from Circ_2015_H10_HRD10591_00017.txt Node
Date: Wed Jan 03 10:00:26 EST 2024
User: Yrep
Spectrometer: HR+D1059
Trigger mode: 1
Integration Time (sec): 1.000000E-1
Scans to average: 1
Electric dark correction enabled: true
Nonlinearity correction enabled: false
Boxcar width: 0
XAxis mode: Wavelengths
Number of Pixels in Spectrum: 2048
>>>>>Begin Spectral Data<<<<<
223.165	-13.19
223.4	-13.19
223.635	-13.19
223.869	-32.19
224.104	-30.19
224.338	-7.19
224.573	-22.19
224.808	-16.19
225.042	-7.19
225.277	-9.19
225.511	1.81
225.746	9.81
225.98	1.81
226.215	9.81
226.449	15.81
226.683	32.81
226.918	31.81
227.152	33.81
227.387	46.81
227.621	38.81
227.856	46.81
228.09	42.81
228.324	54.81
228.559	52.81
228.793	63.81
229.027	63.81
229.262	66.81
229.496	77.81
229.73	77.81
229.964	86.81
230.199	75.81
230.433	65.81
230.667	86.81
230.901	88.81
231.136	78.81
231.37	87.81
231.604	73.81
231.838	77.81
232.072	82.81
232.306	73.81
232.541	80.81
232.775	82.81
233.009	88.81
233.243	69.81
233.477	88.81
233.711	89.81
233.945	56.81
234.179	91.81
234.413	91.81
234.647	71.81
234.881	80.81
235.115	79.81
235.349	78.81
235.583	86.81
235.817	71.81
236.051	66.81
236.285	74.81
236.519	78.81
236.753	80.81
236.987	86.81
237.221	78.81
237.455	99.81
237.689	81.81
237.922	68.81
238.156	79.81
238.39	85.81
238.624	81.81
238.858	84.81
239.091	75.81
239.325	77.81
239.559	82.81
239.793	78.81
240.027	85.81
240.26	78.81
240.494	82.81
240.728	86.81
240.961	62.81
241.195	71.81
241.429	76.81
241.662	81.81
241.896	68.81
242.13	75.81
242.363	77.81
242.597	76.81
242.83	81.81
243.064	80.81
243.298	77.81
243.531	64.81
243.765	75.81
243.998	84.81
244.232	79.81
244.465	79.81
244.699	83.81
244.932	62.81
245.166	75.81
245.399	90.81
245.633	89.81
245.866	82.81
246.099	71.81
246.333	87.81
246.566	84.81
246.8	88.81
247.033	85.81
247.266	81.81
247.5	82.81
247.733	94.81
247.966	85.81
248.2	66.81
248.433	85.81
248.666	76.81
248.899	88.81
249.133	89.81
249.366	104.81
249.599	102.81
249.832	86.81
250.066	100.81
250.299	78.81
250.532	74.81
250.765	74.81
250.998	70.81
251.231	77.81
251.465	97.81
251.698	93.81
251.931	84.81
252.164	57.81
252.397	87.81
252.63	93.81
252.863	81.81
253.096	81.81
253.329	90.81
253.562	84.81
253.795	82.81
254.028	89.81
254.261	97.81
254.494	77.81
254.727	84.81
254.96	79.81
255.193	85.81
255.426	85.81
255.659	86.81
255.892	87.81
256.124	65.81
256.357	81.81
256.59	82.81
256.823	76.81
257.056	81.81
257.289	93.81
257.521	80.81
257.754	83.81
257.987	91.81
258.22	84.81
258.452	86.81
258.685	69.81
258.918	78.81
259.151	88.81
259.383	97.81
259.616	92.81
259.849	65.81
260.081	82.81
260.314	88.81
260.547	77.81
260.779	77.81
261.012	82.81
261.244	89.81
261.477	77.81
261.71	92.81
261.942	100.81
262.175	102.81
262.407	95.81
262.64	88.81
262.872	93.81
263.105	75.81
263.337	83.81
263.57	96.81
263.802	92.81
264.035	75.81
264.267	73.81
264.499	97.81
264.732	85.81
264.964	77.81
265.197	98.81
265.429	88.81
265.661	82.81
265.894	81.81
266.126	79.81
266.358	72.81
266.591	82.81
266.823	83.81
267.055	76.81
267.287	83.81
267.52	90.81
267.752	82.81
267.984	86.81
268.216	77.81
268.448	84.81
268.681	98.81
268.913	91.81
269.145	83.81
269.377	86.81
269.609	83.81
269.841	81.81
270.073	88.81
270.306	77.81
270.538	81.81
270.77	96.81
271.002	83.81
271.234	86.81
271.466	106.81
271.698	84.81
271.93	78.81
272.162	74.81
272.394	77.81
272.626	81.81
272.858	80.81
273.09	93.81
273.322	84.81
273.553	94.81
273.785	77.81
274.017	81.81
274.249	88.81
274.481	82.81
274.713	80.81
274.945	89.81
275.176	81.81
275.408	80.81
275.64	81.81
275.872	95.81
276.104	89.81
276.335	96.81
276.567	116.81
276.799	98.81
277.031	92.81
277.262	93.81
277.494	91.81
277.726	86.81
277.957	88.81
278.189	88.81
278.421	81.81
278.652	84.81
278.884	86.81
279.115	94.81
279.347	78.81
279.579	85.81
279.81	69.81
280.042	96.81
280.273	82.81
280.505	94.81
280.736	92.81
280.968	92.81
281.199	88.81
281.431	86.81
281.662	94.81
281.894	79.81
282.125	100.81
282.356	121.81
282.588	128.81
282.819	117.81
283.051	88.81
283.282	84.81
283.513	93.81
283.745	92.81
283.976	86.81
284.207	103.81
284.439	78.81
284.67	88.81
284.901	96.81
285.132	85.81
285.364	102.81
285.595	94.81
285.826	98.81
286.057	91.81
286.288	84.81
286.52	81.81
286.751	91.81
286.982	82.81
287.213	93.81
287.444	95.81
287.675	89.81
287.906	93.81
288.138	81.81
288.369	95.81
288.6	75.81
288.831	96.81
289.062	94.81
289.293	89.81
289.524	100.81
289.755	73.81
289.986	81.81
290.217	82.81
290.448	93.81
290.679	88.81
290.91	84.81
291.141	80.81
291.371	90.81
291.602	69.81
291.833	83.81
292.064	85.81
292.295	100.81
292.526	92.81
292.757	88.81
292.987	80.81
293.218	85.81
293.449	100.81
293.68	103.81
293.91	96.81
294.141	89.81
294.372	92.81
294.603	94.81
294.833	92.81
295.064	87.81
295.295	93.81
295.525	93.81
295.756	96.81
295.987	127.81
296.217	121.81
296.448	121.81
296.679	101.81
296.909	95.81
297.14	92.81
297.37	86.81
297.601	97.81
297.831	82.81
298.062	95.81
298.292	90.81
298.523	91.81
298.753	92.81
298.984	95.81
299.214	101.81
299.445	91.81
299.675	91.81
299.905	93.81
300.136	93.81
300.366	92.81
300.597	94.81
300.827	87.81
301.057	89.81
301.288	97.81
301.518	90.81
301.748	97.81
301.979	107.81
302.209	91.81
302.439	94.81
302.669	94.81
302.9	99.81
303.13	101.81
303.36	106.81
303.59	107.81
303.82	105.81
304.051	103.81
304.281	98.81
304.511	100.81
304.741	99.81
304.971	93.81
305.201	87.81
305.431	89.81
305.661	77.81
305.891	82.81
306.121	88.81
306.352	97.81
306.582	92.81
306.812	83.81
307.042	101.81
307.272	97.81
307.502	97.81
307.731	109.81
307.961	101.81
308.191	105.81
308.421	92.81
308.651	93.81
308.881	92.81
309.111	95.81
309.341	103.81
309.571	99.81
309.8	111.81
310.03	110.81
310.26	111.81
310.49	100.81
310.72	87.81
310.949	97.81
311.179	104.81
311.409	105.81
311.639	92.81
311.868	94.81
312.098	105.81
312.328	101.81
312.557	101.81
312.787	119.81
313.017	102.81
313.246	88.81
313.476	86.81
313.706	84.81
313.935	101.81
314.165	95.81
314.394	89.81
314.624	107.81
314.853	106.81
315.083	95.81
315.312	98.81
315.542	105.81
315.771	102.81
316.001	92.81
316.23	101.81
316.46	97.81
316.689	87.81
316.919	92.81
317.148	86.81
317.377	109.81
317.607	93.81
317.836	96.81
318.065	88.81
318.295	77.81
318.524	89.81
318.753	87.81
318.983	98.81
319.212	108.81
319.441	107.81
319.67	102.81
319.9	95.81
320.129	101.81
320.358	90.81
320.587	95.81
320.816	92.81
321.046	113.81
321.275	101.81
321.504	100.81
321.733	93.81
321.962	111.81
322.191	105.81
322.42	96.81
322.649	106.81
322.878	109.81
323.108	122.81
323.337	106.81
323.566	138.81
323.795	134.81
324.024	205.81
324.253	343.81
324.482	700.81
324.71	1455.81
324.939	1934.81
325.168	708.81
325.397	225.81
325.626	156.81
325.855	136.81
326.084	132.81
326.313	130.81
326.542	144.81
326.77	193.81
326.999	429.81
327.228	833.81
327.457	1511.81
327.686	1212.81
327.914	349.81
328.143	190.81
328.372	153.81
328.6	120.81
328.829	117.81
329.058	119.81
329.287	109.81
329.515	102.81
329.744	117.81
329.972	128.81
330.201	138.81
330.43	157.81
330.658	127.81
330.887	120.81
331.115	117.81
331.344	104.81
331.572	104.81
331.801	104.81
332.03	113.81
332.258	96.81
332.486	108.81
332.715	97.81
332.943	102.81
333.172	97.81
333.4	111.81
333.629	112.81
333.857	114.81
334.085	120.81
334.314	138.81
334.542	182.81
334.771	167.81
334.999	100.81
335.227	97.81
335.455	99.81
335.684	102.81
335.912	98.81
336.14	97.81
336.369	92.81
336.597	99.81
336.825	91.81
337.053	93.81
337.281	77.81
337.51	99.81
337.738	92.81
337.966	78.81
338.194	93.81
338.422	104.81
338.65	105.81
338.878	104.81
339.106	84.81
339.334	102.81
339.562	100.81
339.79	97.81
340.018	97.81
340.246	100.81
340.474	95.81
340.702	82.81
340.93	95.81
341.158	94.81
341.386	95.81
341.614	96.81
341.842	106.81
342.07	101.81
342.298	112.81
342.526	88.81
342.754	99.81
342.981	100.81
343.209	88.81
343.437	98.81
343.665	90.81
343.893	105.81
344.12	92.81
344.348	100.81
344.576	104.81
344.804	90.81
345.031	94.81
345.259	89.81
345.487	87.81
345.714	94.81
345.942	94.81
346.17	111.81
346.397	83.81
346.625	104.81
346.853	86.81
347.08	91.81
347.308	105.81
347.535	101.81
347.763	98.81
347.99	93.81
348.218	106.81
348.445	106.81
348.673	90.81
348.9	97.81
349.128	107.81
349.355	88.81
349.583	87.81
349.81	94.81
350.037	111.81
350.265	93.81
350.492	94.81
350.72	92.81
350.947	101.81
351.174	116.81
351.402	107.81
351.629	116.81
351.856	110.81
352.083	96.81
352.311	105.81
352.538	102.81
352.765	107.81
352.992	104.81
353.22	110.81
353.447	105.81
353.674	106.81
353.901	119.81
354.128	103.81
354.355	113.81
354.583	94.81
354.81	103.81
355.037	103.81
355.264	96.81
355.491	103.81
355.718	96.81
355.945	109.81
356.172	98.81
356.399	101.81
356.626	93.81
356.853	95.81
357.08	100.81
357.307	93.81
357.534	104.81
357.761	102.81
357.988	106.81
358.215	109.81
358.441	97.81
358.668	89.81
358.895	81.81
359.122	87.81
359.349	92.81
359.576	96.81
359.802	112.81
360.029	111.81
360.256	106.81
360.483	98.81
360.709	103.81
360.936	108.81
361.163	92.81
361.39	91.81
361.616	87.81
361.843	110.81
362.07	99.81
362.296	103.81
362.523	100.81
362.749	96.81
362.976	96.81
363.203	99.81
363.429	89.81
363.656	96.81
363.882	80.81
364.109	80.81
364.335	99.81
364.562	94.81
364.788	91.81
365.015	112.81
365.241	112.81
365.468	121.81
365.694	103.81
365.92	107.81
366.147	89.81
366.373	76.81
366.599	89.81
366.826	99.81
367.052	100.81
367.278	94.81
367.505	107.81
367.731	89.81
367.957	89.81
368.184	95.81
368.41	108.81
368.636	112.81
368.862	119.81
369.089	96.81
369.315	82.81
369.541	101.81
369.767	94.81
369.993	82.81
370.219	101.81
370.445	101.81
370.672	81.81
370.898	94.81
371.124	90.81
371.35	94.81
371.576	95.81
371.802	91.81
372.028	87.81
372.254	96.81
372.48	95.81
372.706	90.81
372.932	92.81
373.158	103.81
373.384	92.81
373.61	92.81
373.835	105.81
374.061	86.81
374.287	94.81
374.513	93.81
374.739	101.81
374.965	107.81
375.191	106.81
375.416	89.81
375.642	107.81
375.868	94.81
376.094	93.81
376.319	100.81
376.545	98.81
376.771	95.81
376.997	97.81
377.222	98.81
377.448	90.81
377.674	97.81
377.899	96.81
378.125	96.81
378.35	89.81
378.576	94.81
378.802	90.81
379.027	97.81
379.253	95.81
379.478	98.81
379.704	92.81
379.929	84.81
380.155	94.81
380.38	90.81
380.606	88.81
380.831	92.81
381.057	97.81
381.282	102.81
381.507	103.81
381.733	96.81
381.958	101.81
382.184	96.81
382.409	96.81
382.634	101.81
382.86	108.81
383.085	108.81
383.31	94.81
383.535	118.81
383.761	111.81
383.986	95.81
384.211	109.81
384.436	113.81
384.662	106.81
384.887	131.81
385.112	113.81
385.337	116.81
385.562	112.81
385.787	109.81
386.013	123.81
386.238	116.81
386.463	110.81
386.688	133.81
386.913	121.81
387.138	125.81
387.363	108.81
387.588	106.81
387.813	110.81
388.038	122.81
388.263	130.81
388.488	125.81
388.713	114.81
388.938	105.81
389.163	103.81
389.387	92.81
389.612	91.81
389.837	105.81
390.062	101.81
390.287	105.81
390.512	109.81
390.736	85.81
390.961	98.81
391.186	111.81
391.411	109.81
391.636	98.81
391.86	88.81
392.085	99.81
392.31	81.81
392.534	90.81
392.759	99.81
392.984	90.81
393.208	99.81
393.433	112.81
393.658	101.81
393.882	95.81
394.107	93.81
394.331	81.81
394.556	75.81
394.78	104.81
395.005	92.81
395.229	88.81
395.454	82.81
395.678	94.81
395.903	97.81
396.127	101.81
396.352	99.81
396.576	89.81
396.801	105.81
397.025	105.81
397.249	107.81
397.474	112.81
397.698	84.81
397.922	87.81
398.147	72.81
398.371	83.81
398.595	90.81
398.82	75.81
399.044	76.81
399.268	86.81
399.492	78.81
399.717	99.81
399.941	98.81
400.165	98.81
400.389	88.81
400.613	95.81
400.837	87.81
401.062	81.81
401.286	97.81
401.51	81.81
401.734	90.81
401.958	103.81
402.182	142.81
402.406	152.81
402.63	104.81
402.854	90.81
403.078	93.81
403.302	93.81
403.526	85.81
403.75	109.81
403.974	97.81
404.198	88.81
404.422	79.81
404.645	78.81
404.869	86.81
405.093	96.81
405.317	91.81
405.541	107.81
405.765	97.81
405.988	105.81
406.212	163.81
406.436	214.81
406.66	138.81
406.883	94.81
407.107	92.81
407.331	84.81
407.555	103.81
407.778	111.81
408.002	97.81
408.226	97.81
408.449	96.81
408.673	87.81
408.896	101.81
409.12	91.81
409.344	85.81
409.567	104.81
409.791	90.81
410.014	103.81
410.238	102.81
410.461	89.81
410.685	103.81
410.908	97.81
411.132	100.81
411.355	101.81
411.578	84.81
411.802	100.81
412.025	97.81
412.249	102.81
412.472	98.81
412.695	113.81
412.919	104.81
413.142	79.81
413.365	92.81
413.589	90.81
413.812	90.81
414.035	96.81
414.258	77.81
414.482	95.81
414.705	91.81
414.928	95.81
415.151	91.81
415.374	89.81
415.597	74.81
415.821	81.81
416.044	92.81
416.267	102.81
416.49	98.81
416.713	92.81
416.936	103.81
417.159	94.81
417.382	98.81
417.605	86.81
417.828	96.81
418.051	103.81
418.274	92.81
418.497	98.81
418.72	102.81
418.943	97.81
419.166	92.81
419.389	105.81
419.611	100.81
419.834	97.81
420.057	78.81
420.28	101.81
420.503	97.81
420.726	99.81
420.948	81.81
421.171	82.81
421.394	99.81
421.617	89.81
421.839	102.81
422.062	92.81
422.285	86.81
422.507	101.81
422.73	101.81
422.953	100.81
423.175	103.81
423.398	89.81
423.621	91.81
423.843	80.81
424.066	74.81
424.288	82.81
424.511	96.81
424.733	89.81
424.956	108.81
425.178	97.81
425.401	89.81
425.623	105.81
425.846	92.81
426.068	107.81
426.291	100.81
426.513	95.81
426.735	86.81
426.958	100.81
427.18	111.81
427.402	134.81
427.625	144.81
427.847	111.81
428.069	119.81
428.292	85.81
428.514	97.81
428.736	89.81
428.958	94.81
429.181	80.81
429.403	82.81
429.625	94.81
429.847	90.81
430.069	101.81
430.292	84.81
430.514	80.81
430.736	87.81
430.958	89.81
431.18	84.81
431.402	82.81
431.624	88.81
431.846	88.81
432.068	80.81
432.29	94.81
432.512	95.81
432.734	87.81
432.956	104.81
433.178	96.81
433.4	106.81
433.622	89.81
433.844	81.81
434.066	106.81
434.287	105.81
434.509	82.81
434.731	91.81
434.953	84.81
435.175	103.81
435.397	102.81
435.618	97.81
435.84	104.81
436.062	110.81
436.284	109.81
436.505	108.81
436.727	100.81
436.949	101.81
437.17	90.81
437.392	73.81
437.614	108.81
437.835	104.81
438.057	105.81
438.278	106.81
438.5	115.81
438.721	97.81
438.943	100.81
439.165	91.81
439.386	85.81
439.608	103.81
439.829	101.81
440.05	105.81
440.272	141.81
440.493	106.81
440.715	95.81
440.936	80.81
441.158	99.81
441.379	81.81
441.6	85.81
441.822	84.81
442.043	92.81
442.264	96.81
442.486	103.81
442.707	94.81
442.928	84.81
443.149	108.81
443.371	130.81
443.592	118.81
443.813	113.81
444.034	107.81
444.255	104.81
444.476	94.81
444.698	93.81
444.919	82.81
445.14	144.81
445.361	124.81
445.582	111.81
445.803	124.81
446.024	129.81
446.245	119.81
446.466	113.81
446.687	101.81
446.908	84.81
447.129	93.81
447.35	99.81
447.571	96.81
447.792	104.81
448.013	93.81
448.234	95.81
448.455	94.81
448.675	88.81
448.896	115.81
449.117	103.81
449.338	82.81
449.559	116.81
449.779	128.81
450	98.81
450.221	88.81
450.442	76.81
450.662	88.81
450.883	110.81
451.104	114.81
451.324	103.81
451.545	94.81
451.766	89.81
451.986	86.81
452.207	104.81
452.428	79.81
452.648	87.81
452.869	109.81
453.089	106.81
453.31	116.81
453.53	103.81
453.751	88.81
453.971	110.81
454.192	106.81
454.412	105.81
454.633	88.81
454.853	93.81
455.073	84.81
455.294	94.81
455.514	98.81
455.734	80.81
455.955	81.81
456.175	81.81
456.395	84.81
456.616	84.81
456.836	88.81
457.056	79.81
457.276	104.81
457.497	82.81
457.717	86.81
457.937	78.81
458.157	90.81
458.377	91.81
458.598	108.81
458.818	138.81
459.038	146.81
459.258	110.81
459.478	109.81
459.698	93.81
459.918	78.81
460.138	91.81
460.358	93.81
460.578	82.81
460.798	86.81
461.018	89.81
461.238	93.81
461.458	93.81
461.678	96.81
461.898	80.81
462.118	88.81
462.338	93.81
462.558	88.81
462.777	89.81
462.997	91.81
463.217	85.81
463.437	91.81
463.657	93.81
463.876	86.81
464.096	94.81
464.316	88.81
464.536	87.81
464.755	95.81
464.975	109.81
465.195	135.81
465.414	150.81
465.634	103.81
465.854	82.81
466.073	96.81
466.293	82.81
466.512	80.81
466.732	94.81
466.951	94.81
467.171	81.81
467.391	82.81
467.61	94.81
467.829	97.81
468.049	110.81
468.268	113.81
468.488	65.81
468.707	82.81
468.927	105.81
469.146	79.81
469.365	89.81
469.585	97.81
469.804	94.81
470.023	92.81
470.243	100.81
470.462	109.81
470.681	105.81
470.901	87.81
471.12	88.81
471.339	80.81
471.558	92.81
471.777	92.81
471.997	105.81
472.216	132.81
472.435	186.81
472.654	118.81
472.873	98.81
473.092	101.81
473.311	81.81
473.53	71.81
473.749	89.81
473.968	87.81
474.187	97.81
474.406	97.81
474.625	94.81
474.844	90.81
475.063	83.81
475.282	86.81
475.501	82.81
475.72	106.81
475.939	91.81
476.158	89.81
476.377	87.81
476.596	93.81
476.814	105.81
477.033	93.81
477.252	93.81
477.471	92.81
477.69	100.81
477.908	87.81
478.127	89.81
478.346	92.81
478.564	95.81
478.783	102.81
479.002	94.81
479.22	95.81
479.439	82.81
479.658	105.81
479.876	90.81
480.095	95.81
480.313	87.81
480.532	104.81
480.751	91.81
480.969	126.81
481.188	273.81
481.406	184.81
481.624	108.81
481.843	98.81
482.061	99.81
482.28	93.81
482.498	93.81
482.717	88.81
482.935	98.81
483.153	98.81
483.372	96.81
483.59	86.81
483.808	97.81
484.027	101.81
484.245	92.81
484.463	91.81
484.681	103.81
484.9	92.81
485.118	113.81
485.336	104.81
485.554	96.81
485.772	105.81
485.99	115.81
486.209	96.81
486.427	99.81
486.645	111.81
486.863	114.81
487.081	107.81
487.299	106.81
487.517	74.81
487.735	97.81
487.953	97.81
488.171	88.81
488.389	92.81
488.607	89.81
488.825	93.81
489.043	101.81
489.261	105.81
489.479	105.81
489.696	81.81
489.914	94.81
490.132	85.81
490.35	101.81
490.568	100.81
490.786	95.81
491.003	88.81
491.221	92.81
491.439	100.81
491.657	96.81
491.874	98.81
492.092	85.81
492.31	94.81
492.527	105.81
492.745	86.81
492.963	92.81
493.18	94.81
493.398	102.81
493.615	96.81
493.833	90.81
494.05	96.81
494.268	91.81
494.485	104.81
494.703	102.81
494.92	90.81
495.138	88.81
495.355	88.81
495.573	101.81
495.79	93.81
496.008	97.81
496.225	101.81
496.442	88.81
496.66	99.81
496.877	86.81
497.094	105.81
497.312	102.81
497.529	81.81
497.746	93.81
497.963	91.81
498.181	92.81
498.398	93.81
498.615	102.81
498.832	102.81
499.049	99.81
499.267	96.81
499.484	91.81
499.701	97.81
499.918	98.81
500.135	87.81
500.352	96.81
500.569	100.81
500.786	93.81
501.003	99.81
501.22	92.81
501.437	88.81
501.654	98.81
501.871	102.81
502.088	107.81
502.305	97.81
502.522	86.81
502.739	102.81
502.956	84.81
503.172	107.81
503.389	93.81
503.606	88.81
503.823	99.81
504.04	104.81
504.256	100.81
504.473	87.81
504.69	92.81
504.907	88.81
505.123	103.81
505.34	96.81
505.557	89.81
505.773	93.81
505.99	104.81
506.207	90.81
506.423	84.81
506.64	84.81
506.856	75.81
507.073	82.81
507.289	101.81
507.506	94.81
507.722	105.81
507.939	109.81
508.155	93.81
508.372	91.81
508.588	90.81
508.805	99.81
509.021	89.81
509.238	92.81
509.454	105.81
509.67	107.81
509.887	108.81
510.103	137.81
510.319	190.81
510.536	619.81
510.752	2025.81
510.968	602.81
511.184	152.81
511.401	102.81
511.617	97.81
511.833	88.81
512.049	97.81
512.265	83.81
512.481	103.81
512.698	97.81
512.914	91.81
513.13	93.81
513.346	95.81
513.562	92.81
513.778	83.81
513.994	109.81
514.21	86.81
