Data from Circ_2015_H10_HRD10591_00088.txt Node
Date: Wed Jan 03 10:00:40 EST 2024
User: Yrep
Spectrometer: HR+D1059
Trigger mode: 1
Integration Time (sec): 1.000000E-1
Scans to average: 1
Electric dark correction enabled: true
Nonlinearity correction enabled: false
Boxcar width: 0
XAxis mode: Wavelengths
Number of Pixels in Spectrum: 2048
>>>>>Begin Spectral Data<<<<<
223.165	-24.38
223.4	-24.38
223.635	-24.38
223.869	-22.38
224.104	-22.38
224.338	-7.38
224.573	-17.38
224.808	-11.38
225.042	-21.38
225.277	-10.38
225.511	-0.38
225.746	9.62
225.98	12.62
226.215	6.62
226.449	19.62
226.683	27.62
226.918	23.62
227.152	37.62
227.387	30.62
227.621	35.62
227.856	47.62
228.09	33.62
228.324	43.62
228.559	50.62
228.793	57.62
229.027	59.62
229.262	65.62
229.496	77.62
229.73	86.62
229.964	76.62
230.199	81.62
230.433	69.62
230.667	62.62
230.901	84.62
231.136	79.62
231.37	84.62
231.604	71.62
231.838	76.62
232.072	76.62
232.306	81.62
232.541	87.62
232.775	83.62
233.009	78.62
233.243	67.62
233.477	76.62
233.711	67.62
233.945	75.62
234.179	76.62
234.413	72.62
234.647	99.62
234.881	82.62
235.115	77.62
235.349	81.62
235.583	79.62
235.817	73.62
236.051	75.62
236.285	77.62
236.519	68.62
236.753	70.62
236.987	75.62
237.221	78.62
237.455	79.62
237.689	76.62
237.922	68.62
238.156	76.62
238.39	84.62
238.624	71.62
238.858	82.62
239.091	75.62
239.325	72.62
239.559	63.62
239.793	80.62
240.027	82.62
240.26	88.62
240.494	79.62
240.728	67.62
240.961	67.62
241.195	72.62
241.429	79.62
241.662	79.62
241.896	83.62
242.13	87.62
242.363	73.62
242.597	73.62
242.83	83.62
243.064	74.62
243.298	69.62
243.531	67.62
243.765	75.62
243.998	70.62
244.232	89.62
244.465	81.62
244.699	80.62
244.932	82.62
245.166	73.62
245.399	73.62
245.633	86.62
245.866	100.62
246.099	78.62
246.333	77.62
246.566	61.62
246.8	81.62
247.033	83.62
247.266	82.62
247.5	72.62
247.733	67.62
247.966	68.62
248.2	77.62
248.433	81.62
248.666	66.62
248.899	71.62
249.133	89.62
249.366	100.62
249.599	89.62
249.832	91.62
250.066	82.62
250.299	81.62
250.532	85.62
250.765	69.62
250.998	88.62
251.231	92.62
251.465	83.62
251.698	86.62
251.931	85.62
252.164	76.62
252.397	70.62
252.63	76.62
252.863	77.62
253.096	93.62
253.329	75.62
253.562	80.62
253.795	76.62
254.028	85.62
254.261	90.62
254.494	86.62
254.727	90.62
254.96	73.62
255.193	74.62
255.426	66.62
255.659	86.62
255.892	76.62
256.124	68.62
256.357	79.62
256.59	86.62
256.823	95.62
257.056	75.62
257.289	81.62
257.521	86.62
257.754	69.62
257.987	77.62
258.22	89.62
258.452	92.62
258.685	77.62
258.918	76.62
259.151	87.62
259.383	66.62
259.616	66.62
259.849	89.62
260.081	90.62
260.314	85.62
260.547	67.62
260.779	79.62
261.012	80.62
261.244	66.62
261.477	87.62
261.71	91.62
261.942	101.62
262.175	99.62
262.407	83.62
262.64	73.62
262.872	95.62
263.105	82.62
263.337	79.62
263.57	88.62
263.802	84.62
264.035	81.62
264.267	83.62
264.499	75.62
264.732	90.62
264.964	74.62
265.197	87.62
265.429	84.62
265.661	77.62
265.894	90.62
266.126	77.62
266.358	81.62
266.591	77.62
266.823	83.62
267.055	78.62
267.287	80.62
267.52	76.62
267.752	73.62
267.984	82.62
268.216	80.62
268.448	92.62
268.681	73.62
268.913	90.62
269.145	75.62
269.377	88.62
269.609	81.62
269.841	74.62
270.073	85.62
270.306	96.62
270.538	75.62
270.77	78.62
271.002	77.62
271.234	81.62
271.466	93.62
271.698	68.62
271.93	80.62
272.162	86.62
272.394	83.62
272.626	83.62
272.858	75.62
273.09	95.62
273.322	80.62
273.553	81.62
273.785	89.62
274.017	88.62
274.249	71.62
274.481	82.62
274.713	94.62
274.945	69.62
275.176	80.62
275.408	94.62
275.64	72.62
275.872	90.62
276.104	88.62
276.335	83.62
276.567	83.62
276.799	84.62
277.031	101.62
277.262	103.62
277.494	88.62
277.726	81.62
277.957	91.62
278.189	81.62
278.421	84.62
278.652	80.62
278.884	87.62
279.115	83.62
279.347	91.62
279.579	85.62
279.81	93.62
280.042	95.62
280.273	106.62
280.505	99.62
280.736	77.62
280.968	84.62
281.199	81.62
281.431	85.62
281.662	75.62
281.894	94.62
282.125	81.62
282.356	107.62
282.588	114.62
282.819	98.62
283.051	83.62
283.282	75.62
283.513	81.62
283.745	94.62
283.976	87.62
284.207	77.62
284.439	74.62
284.67	84.62
284.901	93.62
285.132	68.62
285.364	89.62
285.595	92.62
285.826	85.62
286.057	90.62
286.288	94.62
286.52	85.62
286.751	88.62
286.982	68.62
287.213	86.62
287.444	91.62
287.675	97.62
287.906	78.62
288.138	77.62
288.369	89.62
288.6	84.62
288.831	94.62
289.062	104.62
289.293	77.62
289.524	78.62
289.755	81.62
289.986	82.62
290.217	78.62
290.448	85.62
290.679	79.62
290.91	84.62
291.141	74.62
291.371	82.62
291.602	80.62
291.833	79.62
292.064	67.62
292.295	76.62
292.526	96.62
292.757	79.62
292.987	96.62
293.218	92.62
293.449	84.62
293.68	74.62
293.91	91.62
294.141	91.62
294.372	70.62
294.603	84.62
294.833	81.62
295.064	72.62
295.295	84.62
295.525	79.62
295.756	101.62
295.987	91.62
296.217	128.62
296.448	105.62
296.679	105.62
296.909	100.62
297.14	95.62
297.37	91.62
297.601	75.62
297.831	85.62
298.062	84.62
298.292	80.62
298.523	92.62
298.753	82.62
298.984	86.62
299.214	84.62
299.445	100.62
299.675	95.62
299.905	91.62
300.136	93.62
300.366	105.62
300.597	82.62
300.827	83.62
301.057	95.62
301.288	100.62
301.518	81.62
301.748	79.62
301.979	106.62
302.209	87.62
302.439	95.62
302.669	87.62
302.9	99.62
303.13	98.62
303.36	93.62
303.59	93.62
303.82	108.62
304.051	96.62
304.281	93.62
304.511	94.62
304.741	83.62
304.971	83.62
305.201	84.62
305.431	87.62
305.661	92.62
305.891	80.62
306.121	95.62
306.352	94.62
306.582	87.62
306.812	101.62
307.042	99.62
307.272	100.62
307.502	104.62
307.731	101.62
307.961	95.62
308.191	98.62
308.421	81.62
308.651	90.62
308.881	91.62
309.111	94.62
309.341	87.62
309.571	95.62
309.8	84.62
310.03	102.62
310.26	91.62
310.49	90.62
310.72	92.62
310.949	102.62
311.179	101.62
311.409	85.62
311.639	92.62
311.868	95.62
312.098	68.62
312.328	77.62
312.557	96.62
312.787	81.62
313.017	99.62
313.246	89.62
313.476	81.62
313.706	95.62
313.935	90.62
314.165	84.62
314.394	89.62
314.624	87.62
314.853	93.62
315.083	101.62
315.312	97.62
315.542	106.62
315.771	86.62
316.001	79.62
316.23	84.62
316.46	80.62
316.689	86.62
316.919	80.62
317.148	90.62
317.377	74.62
317.607	96.62
317.836	87.62
318.065	83.62
318.295	82.62
318.524	74.62
318.753	93.62
318.983	84.62
319.212	91.62
319.441	93.62
319.67	101.62
319.9	100.62
320.129	100.62
320.358	77.62
320.587	88.62
320.816	95.62
321.046	99.62
321.275	98.62
321.504	101.62
321.733	87.62
321.962	82.62
322.191	108.62
322.42	99.62
322.649	99.62
322.878	97.62
323.108	104.62
323.337	122.62
323.566	129.62
323.795	148.62
324.024	208.62
324.253	419.62
324.482	831.62
324.71	1748.62
324.939	2290.62
325.168	822.62
325.397	229.62
325.626	154.62
325.855	120.62
326.084	119.62
326.313	141.62
326.542	161.62
326.77	234.62
326.999	472.62
327.228	983.62
327.457	1769.62
327.686	1427.62
327.914	397.62
328.143	232.62
328.372	209.62
328.6	157.62
328.829	127.62
329.058	134.62
329.287	116.62
329.515	109.62
329.744	125.62
329.972	159.62
330.201	245.62
330.43	331.62
330.658	196.62
330.887	147.62
331.115	131.62
331.344	96.62
331.572	117.62
331.801	100.62
332.03	96.62
332.258	111.62
332.486	99.62
332.715	103.62
332.943	93.62
333.172	87.62
333.4	106.62
333.629	95.62
333.857	133.62
334.085	142.62
334.314	261.62
334.542	381.62
334.771	385.62
334.999	159.62
335.227	100.62
335.455	95.62
335.684	103.62
335.912	104.62
336.14	90.62
336.369	98.62
336.597	91.62
336.825	92.62
337.053	99.62
337.281	98.62
337.51	87.62
337.738	89.62
337.966	93.62
338.194	88.62
338.422	94.62
338.65	90.62
338.878	79.62
339.106	93.62
339.334	104.62
339.562	88.62
339.79	92.62
340.018	94.62
340.246	89.62
340.474	99.62
340.702	100.62
340.93	90.62
341.158	94.62
341.386	92.62
341.614	84.62
341.842	97.62
342.07	88.62
342.298	89.62
342.526	98.62
342.754	98.62
342.981	92.62
343.209	102.62
343.437	88.62
343.665	81.62
343.893	81.62
344.12	99.62
344.348	80.62
344.576	88.62
344.804	90.62
345.031	90.62
345.259	77.62
345.487	88.62
345.714	93.62
345.942	85.62
346.17	82.62
346.397	104.62
346.625	89.62
346.853	95.62
347.08	82.62
347.308	93.62
347.535	101.62
347.763	96.62
347.99	100.62
348.218	89.62
348.445	115.62
348.673	98.62
348.9	91.62
349.128	84.62
349.355	88.62
349.583	78.62
349.81	98.62
350.037	95.62
350.265	92.62
350.492	91.62
350.72	92.62
350.947	96.62
351.174	103.62
351.402	105.62
351.629	99.62
351.856	88.62
352.083	96.62
352.311	105.62
352.538	105.62
352.765	98.62
352.992	96.62
353.22	96.62
353.447	97.62
353.674	100.62
353.901	94.62
354.128	101.62
354.355	92.62
354.583	93.62
354.81	89.62
355.037	100.62
355.264	100.62
355.491	91.62
355.718	88.62
355.945	95.62
356.172	86.62
356.399	94.62
356.626	93.62
356.853	102.62
357.08	100.62
357.307	84.62
357.534	88.62
357.761	97.62
357.988	89.62
358.215	97.62
358.441	85.62
358.668	95.62
358.895	87.62
359.122	94.62
359.349	91.62
359.576	110.62
359.802	96.62
360.029	113.62
360.256	118.62
360.483	98.62
360.709	88.62
360.936	82.62
361.163	82.62
361.39	98.62
361.616	88.62
361.843	95.62
362.07	91.62
362.296	93.62
362.523	91.62
362.749	95.62
362.976	83.62
363.203	90.62
363.429	88.62
363.656	87.62
363.882	76.62
364.109	87.62
364.335	81.62
364.562	96.62
364.788	89.62
365.015	81.62
365.241	84.62
365.468	103.62
365.694	106.62
365.92	79.62
366.147	96.62
366.373	95.62
366.599	85.62
366.826	77.62
367.052	102.62
367.278	96.62
367.505	94.62
367.731	85.62
367.957	87.62
368.184	82.62
368.41	85.62
368.636	114.62
368.862	117.62
369.089	89.62
369.315	94.62
369.541	103.62
369.767	98.62
369.993	104.62
370.219	89.62
370.445	76.62
370.672	95.62
370.898	83.62
371.124	89.62
371.35	94.62
371.576	91.62
371.802	84.62
372.028	94.62
372.254	83.62
372.48	75.62
372.706	74.62
372.932	81.62
373.158	97.62
373.384	91.62
373.61	100.62
373.835	81.62
374.061	88.62
374.287	104.62
374.513	82.62
374.739	87.62
374.965	81.62
375.191	89.62
375.416	106.62
375.642	86.62
375.868	85.62
376.094	93.62
376.319	91.62
376.545	87.62
376.771	100.62
376.997	97.62
377.222	77.62
377.448	81.62
377.674	79.62
377.899	85.62
378.125	93.62
378.35	104.62
378.576	97.62
378.802	80.62
379.027	83.62
379.253	96.62
379.478	102.62
379.704	88.62
379.929	87.62
380.155	92.62
380.38	86.62
380.606	90.62
380.831	84.62
381.057	106.62
381.282	90.62
381.507	101.62
381.733	88.62
381.958	83.62
382.184	97.62
382.409	105.62
382.634	107.62
382.86	95.62
383.085	90.62
383.31	96.62
383.535	107.62
383.761	100.62
383.986	99.62
384.211	100.62
384.436	95.62
384.662	103.62
384.887	104.62
385.112	99.62
385.337	102.62
385.562	104.62
385.787	107.62
386.013	101.62
386.238	113.62
386.463	97.62
386.688	100.62
386.913	101.62
387.138	90.62
387.363	104.62
387.588	80.62
387.813	90.62
388.038	92.62
388.263	98.62
388.488	110.62
388.713	85.62
388.938	95.62
389.163	90.62
389.387	88.62
389.612	87.62
389.837	96.62
390.062	99.62
390.287	85.62
390.512	99.62
390.736	75.62
390.961	88.62
391.186	113.62
391.411	88.62
391.636	100.62
391.86	88.62
392.085	89.62
392.31	75.62
392.534	83.62
392.759	86.62
392.984	87.62
393.208	77.62
393.433	84.62
393.658	86.62
393.882	79.62
394.107	85.62
394.331	103.62
394.556	90.62
394.78	92.62
395.005	91.62
395.229	76.62
395.454	79.62
395.678	84.62
395.903	79.62
396.127	91.62
396.352	92.62
396.576	88.62
396.801	81.62
397.025	90.62
397.249	85.62
397.474	86.62
397.698	85.62
397.922	79.62
398.147	90.62
398.371	97.62
398.595	83.62
398.82	106.62
399.044	102.62
399.268	85.62
399.492	76.62
399.717	91.62
399.941	83.62
400.165	100.62
400.389	83.62
400.613	84.62
400.837	74.62
401.062	76.62
401.286	77.62
401.51	100.62
401.734	81.62
401.958	83.62
402.182	92.62
402.406	135.62
402.63	125.62
402.854	86.62
403.078	96.62
403.302	88.62
403.526	90.62
403.75	94.62
403.974	97.62
404.198	94.62
404.422	91.62
404.645	100.62
404.869	91.62
405.093	96.62
405.317	112.62
405.541	86.62
405.765	96.62
405.988	108.62
406.212	152.62
406.436	219.62
406.66	146.62
406.883	89.62
407.107	98.62
407.331	96.62
407.555	97.62
407.778	80.62
408.002	94.62
408.226	81.62
408.449	83.62
408.673	89.62
408.896	77.62
409.12	97.62
409.344	89.62
409.567	89.62
409.791	84.62
410.014	91.62
410.238	89.62
410.461	96.62
410.685	92.62
410.908	109.62
411.132	90.62
411.355	89.62
411.578	82.62
411.802	73.62
412.025	101.62
412.249	80.62
412.472	92.62
412.695	91.62
412.919	97.62
413.142	86.62
413.365	93.62
413.589	97.62
413.812	80.62
414.035	93.62
414.258	70.62
414.482	81.62
414.705	93.62
414.928	90.62
415.151	83.62
415.374	94.62
415.597	101.62
415.821	94.62
416.044	95.62
416.267	94.62
416.49	77.62
416.713	75.62
416.936	98.62
417.159	87.62
417.382	82.62
417.605	86.62
417.828	78.62
418.051	93.62
418.274	95.62
418.497	74.62
418.72	83.62
418.943	84.62
419.166	85.62
419.389	74.62
419.611	98.62
419.834	70.62
420.057	85.62
420.28	88.62
420.503	77.62
420.726	86.62
420.948	82.62
421.171	85.62
421.394	88.62
421.617	101.62
421.839	95.62
422.062	91.62
422.285	86.62
422.507	98.62
422.73	98.62
422.953	103.62
423.175	84.62
423.398	95.62
423.621	81.62
423.843	96.62
424.066	87.62
424.288	76.62
424.511	81.62
424.733	86.62
424.956	97.62
425.178	104.62
425.401	93.62
425.623	96.62
425.846	88.62
426.068	98.62
426.291	100.62
426.513	94.62
426.735	74.62
426.958	87.62
427.18	95.62
427.402	116.62
427.625	161.62
427.847	150.62
428.069	135.62
428.292	89.62
428.514	81.62
428.736	93.62
428.958	81.62
429.181	92.62
429.403	96.62
429.625	86.62
429.847	81.62
430.069	92.62
430.292	76.62
430.514	92.62
430.736	91.62
430.958	79.62
431.18	88.62
431.402	91.62
431.624	98.62
431.846	90.62
432.068	81.62
432.29	87.62
432.512	87.62
432.734	78.62
432.956	82.62
433.178	93.62
433.4	109.62
433.622	95.62
433.844	84.62
434.066	94.62
434.287	83.62
434.509	85.62
434.731	87.62
434.953	88.62
435.175	87.62
435.397	101.62
435.618	87.62
435.84	97.62
436.062	103.62
436.284	105.62
436.505	117.62
436.727	97.62
436.949	99.62
437.17	91.62
437.392	86.62
437.614	95.62
437.835	93.62
438.057	123.62
438.278	84.62
438.5	104.62
438.721	117.62
438.943	96.62
439.165	96.62
439.386	77.62
439.608	84.62
439.829	75.62
440.05	99.62
440.272	129.62
440.493	106.62
440.715	86.62
440.936	83.62
441.158	99.62
441.379	99.62
441.6	75.62
441.822	91.62
442.043	88.62
442.264	88.62
442.486	84.62
442.707	76.62
442.928	91.62
443.149	106.62
443.371	129.62
443.592	106.62
443.813	106.62
444.034	98.62
444.255	96.62
444.476	87.62
444.698	82.62
444.919	95.62
445.14	122.62
445.361	121.62
445.582	127.62
445.803	115.62
446.024	133.62
446.245	135.62
446.466	108.62
446.687	69.62
446.908	82.62
447.129	72.62
447.35	87.62
447.571	79.62
447.792	84.62
448.013	77.62
448.234	101.62
448.455	111.62
448.675	109.62
448.896	107.62
449.117	92.62
449.338	84.62
449.559	114.62
449.779	104.62
450	81.62
450.221	83.62
450.442	85.62
450.662	89.62
450.883	107.62
451.104	97.62
451.324	91.62
451.545	105.62
451.766	92.62
451.986	75.62
452.207	75.62
452.428	87.62
452.648	99.62
452.869	93.62
453.089	97.62
453.31	114.62
453.53	86.62
453.751	103.62
453.971	93.62
454.192	103.62
454.412	91.62
454.633	85.62
454.853	91.62
455.073	87.62
455.294	83.62
455.514	89.62
455.734	86.62
455.955	95.62
456.175	90.62
456.395	91.62
456.616	74.62
456.836	74.62
457.056	97.62
457.276	91.62
457.497	75.62
457.717	81.62
457.937	89.62
458.157	84.62
458.377	86.62
458.598	93.62
458.818	135.62
459.038	145.62
459.258	108.62
459.478	96.62
459.698	95.62
459.918	91.62
460.138	68.62
460.358	75.62
460.578	83.62
460.798	79.62
461.018	100.62
461.238	95.62
461.458	72.62
461.678	73.62
461.898	67.62
462.118	84.62
462.338	83.62
462.558	83.62
462.777	89.62
462.997	68.62
463.217	84.62
463.437	94.62
463.657	84.62
463.876	92.62
464.096	89.62
464.316	79.62
464.536	80.62
464.755	87.62
464.975	107.62
465.195	140.62
465.414	157.62
465.634	97.62
465.854	85.62
466.073	95.62
466.293	80.62
466.512	76.62
466.732	76.62
466.951	88.62
467.171	91.62
467.391	101.62
467.61	111.62
467.829	105.62
468.049	161.62
468.268	210.62
468.488	115.62
468.707	100.62
468.927	103.62
469.146	91.62
469.365	92.62
469.585	92.62
469.804	93.62
470.023	89.62
470.243	81.62
470.462	105.62
470.681	106.62
470.901	90.62
471.12	74.62
471.339	87.62
471.558	95.62
471.777	112.62
471.997	115.62
472.216	293.62
472.435	523.62
472.654	187.62
472.873	105.62
473.092	90.62
473.311	76.62
473.53	87.62
473.749	90.62
473.968	91.62
474.187	112.62
474.406	91.62
474.625	92.62
474.844	88.62
475.063	82.62
475.282	96.62
475.501	75.62
475.72	85.62
475.939	97.62
476.158	97.62
476.377	91.62
476.596	75.62
476.814	86.62
477.033	77.62
477.252	89.62
477.471	87.62
477.69	90.62
477.908	84.62
478.127	91.62
478.346	75.62
478.564	81.62
478.783	76.62
479.002	94.62
479.22	106.62
479.439	92.62
479.658	109.62
479.876	93.62
480.095	105.62
480.313	92.62
480.532	98.62
480.751	148.62
480.969	275.62
481.188	901.62
481.406	572.62
481.624	123.62
481.843	97.62
482.061	97.62
482.28	75.62
482.498	77.62
482.717	84.62
482.935	89.62
483.153	83.62
483.372	93.62
483.59	81.62
483.808	100.62
484.027	82.62
484.245	88.62
484.463	92.62
484.681	87.62
484.9	93.62
485.118	86.62
485.336	105.62
485.554	86.62
485.772	100.62
485.99	87.62
486.209	87.62
486.427	89.62
486.645	104.62
486.863	104.62
487.081	85.62
487.299	92.62
487.517	91.62
487.735	99.62
487.953	96.62
488.171	93.62
488.389	82.62
488.607	80.62
488.825	95.62
489.043	87.62
489.261	106.62
489.479	85.62
489.696	110.62
489.914	88.62
490.132	89.62
490.35	88.62
490.568	79.62
490.786	92.62
491.003	102.62
491.221	91.62
491.439	85.62
491.657	91.62
491.874	95.62
492.092	93.62
492.31	102.62
492.527	86.62
492.745	100.62
492.963	98.62
493.18	99.62
493.398	95.62
493.615	100.62
493.833	81.62
494.05	100.62
494.268	80.62
494.485	89.62
494.703	86.62
494.92	91.62
495.138	82.62
495.355	100.62
495.573	93.62
495.79	98.62
496.008	90.62
496.225	90.62
496.442	92.62
496.66	96.62
496.877	84.62
497.094	93.62
497.312	86.62
497.529	92.62
497.746	83.62
497.963	91.62
498.181	89.62
498.398	96.62
498.615	91.62
498.832	99.62
499.049	90.62
499.267	86.62
499.484	88.62
499.701	91.62
499.918	81.62
500.135	90.62
500.352	86.62
500.569	99.62
500.786	86.62
501.003	87.62
501.22	95.62
501.437	86.62
501.654	95.62
501.871	88.62
502.088	75.62
502.305	97.62
502.522	84.62
502.739	88.62
502.956	103.62
503.172	88.62
503.389	100.62
503.606	108.62
503.823	99.62
504.04	90.62
504.256	73.62
504.473	77.62
504.69	86.62
504.907	94.62
505.123	87.62
505.34	82.62
505.557	91.62
505.773	88.62
505.99	81.62
506.207	87.62
506.423	92.62
506.64	84.62
506.856	93.62
507.073	100.62
507.289	99.62
507.506	95.62
507.722	97.62
507.939	90.62
508.155	97.62
508.372	91.62
508.588	84.62
508.805	80.62
509.021	94.62
509.238	91.62
509.454	96.62
509.67	95.62
509.887	91.62
510.103	115.62
510.319	181.62
510.536	689.62
510.752	2147.62
510.968	634.62
511.184	145.62
511.401	100.62
511.617	98.62
511.833	84.62
512.049	96.62
512.265	94.62
512.481	92.62
512.698	92.62
512.914	90.62
513.13	88.62
513.346	86.62
513.562	89.62
513.778	77.62
513.994	107.62
514.21	87.62
514.426	100.62
514.642	132.62
514.858	115.62
515.074	158.62
515.29	411.62
515.506	1291.62
515.721	501.62
515.937	140.62
516.153	97.62
516.369	97.62
