Data from Circ_2015_H10_HRD10591_00002.txt Node
Date: Wed Jan 03 10:00:23 EST 2024
User: Yrep
Spectrometer: HR+D1059
Trigger mode: 1
Integration Time (sec): 1.000000E-1
Scans to average: 1
Electric dark correction enabled: true
Nonlinearity correction enabled: false
Boxcar width: 0
XAxis mode: Wavelengths
Number of Pixels in Spectrum: 2048
>>>>>Begin Spectral Data<<<<<
223.165	-24.88
223.4	-24.88
223.635	-24.88
223.869	-9.88
224.104	-22.88
224.338	-19.88
224.573	-8.88
224.808	-13.88
225.042	2.12
225.277	-11.88
225.511	-1.88
225.746	0.12
225.98	8.12
226.215	27.12
226.449	19.12
226.683	20.12
226.918	25.12
227.152	12.12
227.387	40.12
227.621	40.12
227.856	42.12
228.09	50.12
228.324	49.12
228.559	61.12
228.793	58.12
229.027	58.12
229.262	71.12
229.496	70.12
229.73	85.12
229.964	81.12
230.199	66.12
230.433	65.12
230.667	77.12
230.901	70.12
231.136	86.12
231.37	80.12
231.604	66.12
231.838	90.12
232.072	70.12
232.306	89.12
232.541	99.12
232.775	68.12
233.009	75.12
233.243	76.12
233.477	92.12
233.711	89.12
233.945	86.12
234.179	71.12
234.413	78.12
234.647	85.12
234.881	71.12
235.115	71.12
235.349	91.12
235.583	75.12
235.817	64.12
236.051	73.12
236.285	72.12
236.519	71.12
236.753	80.12
236.987	87.12
237.221	85.12
237.455	91.12
237.689	71.12
237.922	66.12
238.156	72.12
238.39	96.12
238.624	86.12
238.858	84.12
239.091	73.12
239.325	79.12
239.559	86.12
239.793	77.12
240.027	74.12
240.26	77.12
240.494	81.12
240.728	78.12
240.961	68.12
241.195	84.12
241.429	66.12
241.662	70.12
241.896	72.12
242.13	83.12
242.363	70.12
242.597	82.12
242.83	77.12
243.064	68.12
243.298	80.12
243.531	86.12
243.765	76.12
243.998	90.12
244.232	74.12
244.465	87.12
244.699	101.12
244.932	79.12
245.166	68.12
245.399	82.12
245.633	89.12
245.866	71.12
246.099	80.12
246.333	85.12
246.566	73.12
246.8	88.12
247.033	70.12
247.266	72.12
247.5	89.12
247.733	86.12
247.966	70.12
248.2	79.12
248.433	82.12
248.666	75.12
248.899	75.12
249.133	83.12
249.366	95.12
249.599	86.12
249.832	75.12
250.066	85.12
250.299	82.12
250.532	79.12
250.765	89.12
250.998	87.12
251.231	95.12
251.465	66.12
251.698	78.12
251.931	74.12
252.164	85.12
252.397	72.12
252.63	81.12
252.863	80.12
253.096	85.12
253.329	89.12
253.562	83.12
253.795	83.12
254.028	73.12
254.261	75.12
254.494	75.12
254.727	75.12
254.96	79.12
255.193	67.12
255.426	75.12
255.659	86.12
255.892	91.12
256.124	91.12
256.357	86.12
256.59	80.12
256.823	92.12
257.056	66.12
257.289	91.12
257.521	83.12
257.754	76.12
257.987	89.12
258.22	100.12
258.452	76.12
258.685	84.12
258.918	88.12
259.151	80.12
259.383	86.12
259.616	80.12
259.849	75.12
260.081	91.12
260.314	92.12
260.547	83.12
260.779	79.12
261.012	84.12
261.244	69.12
261.477	83.12
261.71	92.12
261.942	103.12
262.175	95.12
262.407	80.12
262.64	88.12
262.872	80.12
263.105	91.12
263.337	88.12
263.57	71.12
263.802	91.12
264.035	89.12
264.267	79.12
264.499	90.12
264.732	82.12
264.964	85.12
265.197	74.12
265.429	81.12
265.661	77.12
265.894	95.12
266.126	93.12
266.358	79.12
266.591	81.12
266.823	92.12
267.055	82.12
267.287	88.12
267.52	97.12
267.752	79.12
267.984	74.12
268.216	94.12
268.448	91.12
268.681	77.12
268.913	94.12
269.145	80.12
269.377	86.12
269.609	85.12
269.841	87.12
270.073	86.12
270.306	87.12
270.538	93.12
270.77	88.12
271.002	80.12
271.234	93.12
271.466	83.12
271.698	80.12
271.93	83.12
272.162	79.12
272.394	84.12
272.626	85.12
272.858	76.12
273.09	87.12
273.322	92.12
273.553	92.12
273.785	71.12
274.017	81.12
274.249	86.12
274.481	74.12
274.713	84.12
274.945	80.12
275.176	90.12
275.408	81.12
275.64	91.12
275.872	89.12
276.104	84.12
276.335	85.12
276.567	94.12
276.799	96.12
277.031	99.12
277.262	86.12
277.494	97.12
277.726	72.12
277.957	84.12
278.189	94.12
278.421	95.12
278.652	88.12
278.884	87.12
279.115	85.12
279.347	90.12
279.579	90.12
279.81	99.12
280.042	90.12
280.273	84.12
280.505	93.12
280.736	91.12
280.968	85.12
281.199	77.12
281.431	86.12
281.662	83.12
281.894	79.12
282.125	96.12
282.356	95.12
282.588	132.12
282.819	108.12
283.051	83.12
283.282	90.12
283.513	95.12
283.745	83.12
283.976	93.12
284.207	81.12
284.439	90.12
284.67	79.12
284.901	98.12
285.132	86.12
285.364	91.12
285.595	82.12
285.826	84.12
286.057	90.12
286.288	85.12
286.52	93.12
286.751	97.12
286.982	80.12
287.213	84.12
287.444	87.12
287.675	83.12
287.906	98.12
288.138	81.12
288.369	77.12
288.6	87.12
288.831	90.12
289.062	93.12
289.293	95.12
289.524	77.12
289.755	92.12
289.986	94.12
290.217	94.12
290.448	101.12
290.679	91.12
290.91	83.12
291.141	92.12
291.371	83.12
291.602	84.12
291.833	95.12
292.064	80.12
292.295	88.12
292.526	90.12
292.757	101.12
292.987	86.12
293.218	80.12
293.449	98.12
293.68	86.12
293.91	79.12
294.141	98.12
294.372	92.12
294.603	91.12
294.833	95.12
295.064	98.12
295.295	80.12
295.525	89.12
295.756	89.12
295.987	116.12
296.217	110.12
296.448	115.12
296.679	84.12
296.909	84.12
297.14	90.12
297.37	100.12
297.601	94.12
297.831	73.12
298.062	95.12
298.292	84.12
298.523	99.12
298.753	86.12
298.984	88.12
299.214	86.12
299.445	96.12
299.675	88.12
299.905	91.12
300.136	92.12
300.366	99.12
300.597	100.12
300.827	107.12
301.057	88.12
301.288	93.12
301.518	85.12
301.748	92.12
301.979	81.12
302.209	84.12
302.439	98.12
302.669	91.12
302.9	85.12
303.13	82.12
303.36	86.12
303.59	99.12
303.82	87.12
304.051	76.12
304.281	94.12
304.511	86.12
304.741	87.12
304.971	93.12
305.201	85.12
305.431	94.12
305.661	84.12
305.891	74.12
306.121	90.12
306.352	105.12
306.582	108.12
306.812	90.12
307.042	87.12
307.272	90.12
307.502	103.12
307.731	85.12
307.961	82.12
308.191	97.12
308.421	92.12
308.651	90.12
308.881	98.12
309.111	103.12
309.341	93.12
309.571	96.12
309.8	102.12
310.03	104.12
310.26	86.12
310.49	90.12
310.72	102.12
310.949	90.12
311.179	85.12
311.409	78.12
311.639	83.12
311.868	95.12
312.098	93.12
312.328	100.12
312.557	87.12
312.787	82.12
313.017	92.12
313.246	83.12
313.476	100.12
313.706	93.12
313.935	92.12
314.165	101.12
314.394	87.12
314.624	81.12
314.853	93.12
315.083	99.12
315.312	88.12
315.542	92.12
315.771	97.12
316.001	97.12
316.23	90.12
316.46	103.12
316.689	108.12
316.919	98.12
317.148	88.12
317.377	99.12
317.607	92.12
317.836	87.12
318.065	97.12
318.295	94.12
318.524	88.12
318.753	85.12
318.983	84.12
319.212	79.12
319.441	97.12
319.67	104.12
319.9	102.12
320.129	98.12
320.358	92.12
320.587	95.12
320.816	88.12
321.046	96.12
321.275	89.12
321.504	96.12
321.733	86.12
321.962	109.12
322.191	88.12
322.42	93.12
322.649	102.12
322.878	100.12
323.108	118.12
323.337	116.12
323.566	130.12
323.795	140.12
324.024	167.12
324.253	335.12
324.482	687.12
324.71	1417.12
324.939	1866.12
325.168	686.12
325.397	215.12
325.626	130.12
325.855	123.12
326.084	111.12
326.313	127.12
326.542	145.12
326.77	199.12
326.999	418.12
327.228	802.12
327.457	1471.12
327.686	1182.12
327.914	319.12
328.143	172.12
328.372	128.12
328.6	111.12
328.829	102.12
329.058	97.12
329.287	114.12
329.515	107.12
329.744	103.12
329.972	98.12
330.201	104.12
330.43	107.12
330.658	115.12
330.887	137.12
331.115	112.12
331.344	98.12
331.572	107.12
331.801	112.12
332.03	101.12
332.258	104.12
332.486	98.12
332.715	99.12
332.943	107.12
333.172	99.12
333.4	77.12
333.629	100.12
333.857	115.12
334.085	118.12
334.314	89.12
334.542	98.12
334.771	103.12
334.999	102.12
335.227	109.12
335.455	100.12
335.684	88.12
335.912	100.12
336.14	102.12
336.369	92.12
336.597	98.12
336.825	94.12
337.053	101.12
337.281	96.12
337.51	88.12
337.738	92.12
337.966	87.12
338.194	80.12
338.422	93.12
338.65	99.12
338.878	81.12
339.106	80.12
339.334	99.12
339.562	83.12
339.79	91.12
340.018	87.12
340.246	90.12
340.474	98.12
340.702	95.12
340.93	100.12
341.158	84.12
341.386	93.12
341.614	91.12
341.842	98.12
342.07	107.12
342.298	101.12
342.526	99.12
342.754	105.12
342.981	97.12
343.209	92.12
343.437	88.12
343.665	84.12
343.893	83.12
344.12	93.12
344.348	105.12
344.576	97.12
344.804	93.12
345.031	94.12
345.259	99.12
345.487	103.12
345.714	95.12
345.942	109.12
346.17	103.12
346.397	100.12
346.625	85.12
346.853	93.12
347.08	84.12
347.308	97.12
347.535	87.12
347.763	103.12
347.99	86.12
348.218	104.12
348.445	117.12
348.673	99.12
348.9	101.12
349.128	98.12
349.355	97.12
349.583	87.12
349.81	96.12
350.037	93.12
350.265	87.12
350.492	93.12
350.72	88.12
350.947	106.12
351.174	90.12
351.402	94.12
351.629	95.12
351.856	90.12
352.083	84.12
352.311	95.12
352.538	109.12
352.765	87.12
352.992	108.12
353.22	109.12
353.447	108.12
353.674	108.12
353.901	100.12
354.128	89.12
354.355	86.12
354.583	94.12
354.81	105.12
355.037	111.12
355.264	105.12
355.491	111.12
355.718	99.12
355.945	94.12
356.172	99.12
356.399	103.12
356.626	99.12
356.853	96.12
357.08	91.12
357.307	104.12
357.534	95.12
357.761	96.12
357.988	101.12
358.215	108.12
358.441	102.12
358.668	88.12
358.895	100.12
359.122	93.12
359.349	83.12
359.576	95.12
359.802	93.12
360.029	115.12
360.256	100.12
360.483	81.12
360.709	76.12
360.936	101.12
361.163	101.12
361.39	86.12
361.616	93.12
361.843	100.12
362.07	92.12
362.296	94.12
362.523	90.12
362.749	97.12
362.976	87.12
363.203	93.12
363.429	89.12
363.656	106.12
363.882	96.12
364.109	104.12
364.335	88.12
364.562	79.12
364.788	87.12
365.015	86.12
365.241	104.12
365.468	99.12
365.694	99.12
365.92	100.12
366.147	101.12
366.373	86.12
366.599	100.12
366.826	104.12
367.052	89.12
367.278	100.12
367.505	91.12
367.731	90.12
367.957	100.12
368.184	96.12
368.41	99.12
368.636	117.12
368.862	98.12
369.089	104.12
369.315	90.12
369.541	94.12
369.767	96.12
369.993	83.12
370.219	88.12
370.445	72.12
370.672	94.12
370.898	93.12
371.124	95.12
371.35	92.12
371.576	83.12
371.802	91.12
372.028	78.12
372.254	88.12
372.48	77.12
372.706	104.12
372.932	89.12
373.158	71.12
373.384	99.12
373.61	101.12
373.835	84.12
374.061	93.12
374.287	90.12
374.513	98.12
374.739	100.12
374.965	78.12
375.191	84.12
375.416	99.12
375.642	90.12
375.868	88.12
376.094	97.12
376.319	81.12
376.545	110.12
376.771	90.12
376.997	109.12
377.222	87.12
377.448	103.12
377.674	116.12
377.899	95.12
378.125	96.12
378.35	109.12
378.576	93.12
378.802	102.12
379.027	107.12
379.253	99.12
379.478	88.12
379.704	97.12
379.929	99.12
380.155	88.12
380.38	95.12
380.606	99.12
380.831	100.12
381.057	110.12
381.282	105.12
381.507	93.12
381.733	114.12
381.958	109.12
382.184	119.12
382.409	130.12
382.634	134.12
382.86	111.12
383.085	119.12
383.31	126.12
383.535	123.12
383.761	120.12
383.986	103.12
384.211	118.12
384.436	112.12
384.662	113.12
384.887	116.12
385.112	121.12
385.337	115.12
385.562	125.12
385.787	129.12
386.013	151.12
386.238	140.12
386.463	133.12
386.688	124.12
386.913	130.12
387.138	143.12
387.363	131.12
387.588	107.12
387.813	116.12
388.038	125.12
388.263	145.12
388.488	120.12
388.713	106.12
388.938	98.12
389.163	94.12
389.387	105.12
389.612	93.12
389.837	96.12
390.062	109.12
390.287	103.12
390.512	89.12
390.736	91.12
390.961	111.12
391.186	79.12
391.411	98.12
391.636	88.12
391.86	88.12
392.085	99.12
392.31	83.12
392.534	82.12
392.759	90.12
392.984	75.12
393.208	96.12
393.433	119.12
393.658	118.12
393.882	95.12
394.107	91.12
394.331	87.12
394.556	89.12
394.78	90.12
395.005	96.12
395.229	87.12
395.454	85.12
395.678	75.12
395.903	107.12
396.127	84.12
396.352	97.12
396.576	99.12
396.801	104.12
397.025	107.12
397.249	94.12
397.474	98.12
397.698	99.12
397.922	98.12
398.147	74.12
398.371	100.12
398.595	91.12
398.82	86.12
399.044	83.12
399.268	114.12
399.492	85.12
399.717	86.12
399.941	84.12
400.165	88.12
400.389	98.12
400.613	80.12
400.837	80.12
401.062	107.12
401.286	85.12
401.51	94.12
401.734	102.12
401.958	96.12
402.182	103.12
402.406	135.12
402.63	110.12
402.854	95.12
403.078	90.12
403.302	101.12
403.526	92.12
403.75	83.12
403.974	77.12
404.198	86.12
404.422	83.12
404.645	79.12
404.869	90.12
405.093	90.12
405.317	92.12
405.541	100.12
405.765	91.12
405.988	98.12
406.212	142.12
406.436	175.12
406.66	121.12
406.883	94.12
407.107	94.12
407.331	89.12
407.555	93.12
407.778	92.12
408.002	91.12
408.226	87.12
408.449	90.12
408.673	97.12
408.896	87.12
409.12	100.12
409.344	100.12
409.567	95.12
409.791	92.12
410.014	102.12
410.238	81.12
410.461	92.12
410.685	101.12
410.908	93.12
411.132	99.12
411.355	103.12
411.578	97.12
411.802	89.12
412.025	96.12
412.249	102.12
412.472	104.12
412.695	88.12
412.919	90.12
413.142	88.12
413.365	93.12
413.589	90.12
413.812	100.12
414.035	94.12
414.258	87.12
414.482	99.12
414.705	87.12
414.928	99.12
415.151	107.12
415.374	82.12
415.597	82.12
415.821	102.12
416.044	90.12
416.267	98.12
416.49	75.12
416.713	99.12
416.936	102.12
417.159	99.12
417.382	95.12
417.605	85.12
417.828	94.12
418.051	93.12
418.274	85.12
418.497	99.12
418.72	92.12
418.943	94.12
419.166	96.12
419.389	88.12
419.611	108.12
419.834	107.12
420.057	85.12
420.28	79.12
420.503	85.12
420.726	89.12
420.948	95.12
421.171	95.12
421.394	88.12
421.617	87.12
421.839	93.12
422.062	88.12
422.285	90.12
422.507	96.12
422.73	105.12
422.953	89.12
423.175	95.12
423.398	77.12
423.621	82.12
423.843	87.12
424.066	89.12
424.288	89.12
424.511	90.12
424.733	114.12
424.956	105.12
425.178	85.12
425.401	97.12
425.623	96.12
425.846	102.12
426.068	101.12
426.291	72.12
426.513	97.12
426.735	95.12
426.958	81.12
427.18	91.12
427.402	119.12
427.625	136.12
427.847	96.12
428.069	87.12
428.292	104.12
428.514	82.12
428.736	92.12
428.958	90.12
429.181	71.12
429.403	99.12
429.625	76.12
429.847	102.12
430.069	79.12
430.292	91.12
430.514	88.12
430.736	85.12
430.958	98.12
431.18	88.12
431.402	92.12
431.624	90.12
431.846	91.12
432.068	92.12
432.29	79.12
432.512	91.12
432.734	80.12
432.956	94.12
433.178	88.12
433.4	98.12
433.622	90.12
433.844	91.12
434.066	98.12
434.287	95.12
434.509	86.12
434.731	97.12
434.953	90.12
435.175	82.12
435.397	86.12
435.618	106.12
435.84	94.12
436.062	113.12
436.284	106.12
436.505	105.12
436.727	90.12
436.949	99.12
437.17	84.12
437.392	89.12
437.614	98.12
437.835	90.12
438.057	109.12
438.278	104.12
438.5	95.12
438.721	103.12
438.943	98.12
439.165	94.12
439.386	106.12
439.608	88.12
439.829	95.12
440.05	107.12
440.272	134.12
440.493	91.12
440.715	82.12
440.936	87.12
441.158	75.12
441.379	99.12
441.6	97.12
441.822	89.12
442.043	86.12
442.264	98.12
442.486	97.12
442.707	102.12
442.928	119.12
443.149	111.12
443.371	114.12
443.592	116.12
443.813	112.12
444.034	97.12
444.255	101.12
444.476	93.12
444.698	89.12
444.919	97.12
445.14	120.12
445.361	114.12
445.582	98.12
445.803	121.12
446.024	118.12
446.245	121.12
446.466	106.12
446.687	86.12
446.908	91.12
447.129	91.12
447.35	102.12
447.571	89.12
447.792	89.12
448.013	104.12
448.234	94.12
448.455	101.12
448.675	91.12
448.896	112.12
449.117	111.12
449.338	100.12
449.559	114.12
449.779	128.12
450	92.12
450.221	78.12
450.442	68.12
450.662	88.12
450.883	99.12
451.104	101.12
451.324	90.12
451.545	85.12
451.766	85.12
451.986	84.12
452.207	83.12
452.428	94.12
452.648	89.12
452.869	97.12
453.089	95.12
453.31	114.12
453.53	90.12
453.751	87.12
453.971	87.12
454.192	92.12
454.412	97.12
454.633	95.12
454.853	97.12
455.073	96.12
455.294	89.12
455.514	86.12
455.734	98.12
455.955	88.12
456.175	87.12
456.395	82.12
456.616	84.12
456.836	99.12
457.056	89.12
457.276	73.12
457.497	81.12
457.717	76.12
457.937	91.12
458.157	83.12
458.377	83.12
458.598	107.12
458.818	144.12
459.038	145.12
459.258	103.12
459.478	82.12
459.698	85.12
459.918	91.12
460.138	73.12
460.358	94.12
460.578	90.12
460.798	85.12
461.018	88.12
461.238	88.12
461.458	85.12
461.678	91.12
461.898	91.12
462.118	88.12
462.338	82.12
462.558	92.12
462.777	95.12
462.997	93.12
463.217	85.12
463.437	87.12
463.657	82.12
463.876	85.12
464.096	87.12
464.316	102.12
464.536	102.12
464.755	113.12
464.975	94.12
465.195	128.12
465.414	130.12
465.634	105.12
465.854	81.12
466.073	84.12
466.293	86.12
466.512	92.12
466.732	98.12
466.951	89.12
467.171	90.12
467.391	84.12
467.61	103.12
467.829	106.12
468.049	84.12
468.268	99.12
468.488	95.12
468.707	88.12
468.927	87.12
469.146	87.12
469.365	85.12
469.585	83.12
469.804	83.12
470.023	88.12
470.243	88.12
470.462	95.12
470.681	99.12
470.901	87.12
471.12	93.12
471.339	91.12
471.558	94.12
471.777	89.12
471.997	96.12
472.216	111.12
472.435	107.12
472.654	84.12
472.873	82.12
473.092	92.12
473.311	83.12
473.53	90.12
473.749	86.12
473.968	111.12
474.187	98.12
474.406	86.12
474.625	82.12
474.844	87.12
475.063	96.12
475.282	92.12
475.501	89.12
475.72	91.12
475.939	93.12
476.158	83.12
476.377	71.12
476.596	86.12
476.814	94.12
477.033	89.12
477.252	81.12
477.471	93.12
477.69	100.12
477.908	97.12
478.127	100.12
478.346	80.12
478.564	86.12
478.783	84.12
479.002	76.12
479.22	95.12
479.439	102.12
479.658	111.12
479.876	95.12
480.095	88.12
480.313	94.12
480.532	88.12
480.751	83.12
480.969	103.12
481.188	129.12
481.406	109.12
481.624	93.12
481.843	92.12
482.061	89.12
482.28	91.12
482.498	95.12
482.717	84.12
482.935	80.12
483.153	95.12
483.372	101.12
483.59	99.12
483.808	92.12
484.027	78.12
484.245	95.12
484.463	87.12
484.681	110.12
484.9	84.12
485.118	98.12
485.336	83.12
485.554	103.12
485.772	97.12
485.99	107.12
486.209	107.12
486.427	114.12
486.645	103.12
486.863	119.12
487.081	116.12
487.299	106.12
487.517	97.12
487.735	97.12
487.953	83.12
488.171	87.12
488.389	80.12
488.607	93.12
488.825	89.12
489.043	98.12
489.261	85.12
489.479	85.12
489.696	110.12
489.914	97.12
490.132	89.12
490.35	85.12
490.568	88.12
490.786	76.12
491.003	76.12
491.221	85.12
491.439	100.12
491.657	93.12
491.874	89.12
492.092	84.12
492.31	93.12
492.527	66.12
492.745	87.12
492.963	92.12
493.18	91.12
493.398	84.12
493.615	91.12
493.833	83.12
494.05	98.12
494.268	87.12
494.485	104.12
494.703	94.12
494.92	85.12
495.138	78.12
495.355	91.12
495.573	91.12
495.79	72.12
496.008	97.12
496.225	87.12
496.442	92.12
496.66	107.12
496.877	94.12
497.094	96.12
497.312	90.12
497.529	87.12
497.746	82.12
497.963	93.12
498.181	92.12
498.398	107.12
498.615	101.12
498.832	93.12
499.049	94.12
499.267	93.12
499.484	88.12
499.701	86.12
499.918	95.12
500.135	79.12
500.352	87.12
500.569	84.12
500.786	76.12
501.003	102.12
501.22	92.12
501.437	83.12
501.654	96.12
501.871	95.12
502.088	105.12
502.305	84.12
502.522	79.12
502.739	92.12
502.956	83.12
503.172	101.12
503.389	86.12
503.606	99.12
503.823	106.12
504.04	90.12
504.256	83.12
504.473	95.12
504.69	88.12
504.907	98.12
505.123	89.12
505.34	76.12
505.557	86.12
505.773	93.12
505.99	100.12
506.207	97.12
506.423	84.12
506.64	84.12
506.856	76.12
507.073	93.12
507.289	87.12
507.506	106.12
507.722	104.12
507.939	92.12
508.155	82.12
508.372	99.12
508.588	87.12
508.805	83.12
509.021	93.12
509.238	103.12
509.454	90.12
509.67	88.12
509.887	97.12
510.103	105.12
510.319	173.12
510.536	538.12
510.752	1684.12
510.968	520.12
511.184	137.12
511.401	108.12
511.617	101.12
511.833	87.12
512.049	86.12
512.265	86.12
512.481	92.12
512.698	94.12
512.914	104.12
513.13	92.12
513.346	85.12
513.562	82.12
513.778	100.12
513.994	92.12
514.21	95.12
514.426	114.12
514.642	110.12
514.858	114.12
515.074	136.12
515.29	301.12
515.506	936.12
515.721	407.12
