Data from Circ_2015_H10_HRD10591_00056.txt Node
Date: Wed Jan 03 10:00:34 EST 2024
User: Yrep
Spectrometer: HR+D1059
Trigger mode: 1
Integration Time (sec): 1.000000E-1
Scans to average: 1
Electric dark correction enabled: true
Nonlinearity correction enabled: false
Boxcar width: 0
XAxis mode: Wavelengths
Number of Pixels in Spectrum: 2048
>>>>>Begin Spectral Data<<<<<
223.165	-20.12
223.4	-20.12
223.635	-20.12
223.869	-10.12
224.104	-27.12
224.338	5.88
224.573	-3.12
224.808	-10.12
225.042	-3.12
225.277	-4.12
225.511	-8.12
225.746	1.88
225.98	8.88
226.215	-0.12
226.449	5.88
226.683	20.88
226.918	20.88
227.152	21.88
227.387	7.88
227.621	45.88
227.856	53.88
228.09	50.88
228.324	43.88
228.559	64.88
228.793	53.88
229.027	66.88
229.262	76.88
229.496	74.88
229.73	77.88
229.964	90.88
230.199	74.88
230.433	74.88
230.667	70.88
230.901	83.88
231.136	76.88
231.37	77.88
231.604	85.88
231.838	78.88
232.072	80.88
232.306	83.88
232.541	75.88
232.775	98.88
233.009	83.88
233.243	87.88
233.477	77.88
233.711	77.88
233.945	85.88
234.179	91.88
234.413	72.88
234.647	78.88
234.881	75.88
235.115	78.88
235.349	84.88
235.583	78.88
235.817	75.88
236.051	70.88
236.285	76.88
236.519	88.88
236.753	84.88
236.987	80.88
237.221	98.88
237.455	89.88
237.689	75.88
237.922	59.88
238.156	70.88
238.39	63.88
238.624	83.88
238.858	78.88
239.091	84.88
239.325	89.88
239.559	68.88
239.793	87.88
240.027	85.88
240.26	87.88
240.494	71.88
240.728	74.88
240.961	74.88
241.195	74.88
241.429	51.88
241.662	76.88
241.896	89.88
242.13	82.88
242.363	68.88
242.597	77.88
242.83	76.88
243.064	81.88
243.298	79.88
243.531	68.88
243.765	87.88
243.998	89.88
244.232	79.88
244.465	71.88
244.699	85.88
244.932	71.88
245.166	82.88
245.399	87.88
245.633	85.88
245.866	75.88
246.099	76.88
246.333	83.88
246.566	63.88
246.8	70.88
247.033	67.88
247.266	93.88
247.5	85.88
247.733	78.88
247.966	75.88
248.2	78.88
248.433	74.88
248.666	73.88
248.899	95.88
249.133	71.88
249.366	97.88
249.599	91.88
249.832	73.88
250.066	100.88
250.299	91.88
250.532	81.88
250.765	66.88
250.998	83.88
251.231	72.88
251.465	76.88
251.698	90.88
251.931	72.88
252.164	90.88
252.397	85.88
252.63	73.88
252.863	68.88
253.096	83.88
253.329	89.88
253.562	80.88
253.795	80.88
254.028	83.88
254.261	94.88
254.494	80.88
254.727	85.88
254.96	81.88
255.193	88.88
255.426	88.88
255.659	82.88
255.892	87.88
256.124	76.88
256.357	76.88
256.59	78.88
256.823	69.88
257.056	76.88
257.289	83.88
257.521	77.88
257.754	63.88
257.987	86.88
258.22	78.88
258.452	85.88
258.685	77.88
258.918	77.88
259.151	73.88
259.383	85.88
259.616	89.88
259.849	83.88
260.081	85.88
260.314	90.88
260.547	84.88
260.779	80.88
261.012	89.88
261.244	73.88
261.477	102.88
261.71	97.88
261.942	104.88
262.175	112.88
262.407	86.88
262.64	77.88
262.872	90.88
263.105	75.88
263.337	86.88
263.57	88.88
263.802	92.88
264.035	83.88
264.267	83.88
264.499	87.88
264.732	87.88
264.964	81.88
265.197	86.88
265.429	88.88
265.661	91.88
265.894	81.88
266.126	78.88
266.358	79.88
266.591	70.88
266.823	83.88
267.055	87.88
267.287	78.88
267.52	78.88
267.752	69.88
267.984	82.88
268.216	75.88
268.448	79.88
268.681	84.88
268.913	80.88
269.145	86.88
269.377	88.88
269.609	87.88
269.841	69.88
270.073	78.88
270.306	84.88
270.538	78.88
270.77	87.88
271.002	86.88
271.234	77.88
271.466	85.88
271.698	89.88
271.93	65.88
272.162	94.88
272.394	82.88
272.626	91.88
272.858	85.88
273.09	94.88
273.322	91.88
273.553	97.88
273.785	81.88
274.017	81.88
274.249	72.88
274.481	90.88
274.713	82.88
274.945	80.88
275.176	88.88
275.408	91.88
275.64	83.88
275.872	89.88
276.104	79.88
276.335	97.88
276.567	93.88
276.799	113.88
277.031	102.88
277.262	100.88
277.494	96.88
277.726	86.88
277.957	87.88
278.189	77.88
278.421	88.88
278.652	74.88
278.884	90.88
279.115	85.88
279.347	88.88
279.579	82.88
279.81	73.88
280.042	101.88
280.273	93.88
280.505	93.88
280.736	96.88
280.968	81.88
281.199	86.88
281.431	97.88
281.662	87.88
281.894	88.88
282.125	99.88
282.356	119.88
282.588	136.88
282.819	114.88
283.051	86.88
283.282	93.88
283.513	89.88
283.745	87.88
283.976	90.88
284.207	74.88
284.439	78.88
284.67	82.88
284.901	77.88
285.132	83.88
285.364	80.88
285.595	90.88
285.826	89.88
286.057	91.88
286.288	73.88
286.52	96.88
286.751	99.88
286.982	100.88
287.213	66.88
287.444	84.88
287.675	91.88
287.906	100.88
288.138	78.88
288.369	79.88
288.6	101.88
288.831	76.88
289.062	85.88
289.293	83.88
289.524	89.88
289.755	80.88
289.986	74.88
290.217	85.88
290.448	85.88
290.679	98.88
290.91	90.88
291.141	91.88
291.371	89.88
291.602	86.88
291.833	89.88
292.064	101.88
292.295	74.88
292.526	88.88
292.757	84.88
292.987	94.88
293.218	85.88
293.449	82.88
293.68	84.88
293.91	92.88
294.141	79.88
294.372	81.88
294.603	86.88
294.833	95.88
295.064	82.88
295.295	89.88
295.525	92.88
295.756	75.88
295.987	95.88
296.217	130.88
296.448	101.88
296.679	84.88
296.909	92.88
297.14	92.88
297.37	87.88
297.601	90.88
297.831	83.88
298.062	78.88
298.292	99.88
298.523	99.88
298.753	98.88
298.984	93.88
299.214	95.88
299.445	91.88
299.675	97.88
299.905	78.88
300.136	93.88
300.366	94.88
300.597	85.88
300.827	86.88
301.057	105.88
301.288	111.88
301.518	100.88
301.748	81.88
301.979	78.88
302.209	94.88
302.439	97.88
302.669	86.88
302.9	96.88
303.13	87.88
303.36	94.88
303.59	93.88
303.82	98.88
304.051	92.88
304.281	108.88
304.511	91.88
304.741	71.88
304.971	90.88
305.201	89.88
305.431	78.88
305.661	93.88
305.891	82.88
306.121	108.88
306.352	92.88
306.582	92.88
306.812	92.88
307.042	97.88
307.272	108.88
307.502	110.88
307.731	94.88
307.961	102.88
308.191	104.88
308.421	75.88
308.651	106.88
308.881	99.88
309.111	102.88
309.341	99.88
309.571	100.88
309.8	96.88
310.03	89.88
310.26	87.88
310.49	83.88
310.72	98.88
310.949	105.88
311.179	96.88
311.409	91.88
311.639	84.88
311.868	103.88
312.098	96.88
312.328	95.88
312.557	103.88
312.787	112.88
313.017	95.88
313.246	81.88
313.476	83.88
313.706	77.88
313.935	104.88
314.165	95.88
314.394	101.88
314.624	98.88
314.853	102.88
315.083	100.88
315.312	106.88
315.542	93.88
315.771	101.88
316.001	79.88
316.23	98.88
316.46	113.88
316.689	95.88
316.919	93.88
317.148	113.88
317.377	77.88
317.607	101.88
317.836	69.88
318.065	75.88
318.295	92.88
318.524	93.88
318.753	98.88
318.983	93.88
319.212	99.88
319.441	101.88
319.67	105.88
319.9	79.88
320.129	77.88
320.358	93.88
320.587	100.88
320.816	90.88
321.046	94.88
321.275	113.88
321.504	95.88
321.733	87.88
321.962	92.88
322.191	106.88
322.42	95.88
322.649	101.88
322.878	107.88
323.108	129.88
323.337	116.88
323.566	149.88
323.795	155.88
324.024	199.88
324.253	349.88
324.482	729.88
324.71	1497.88
324.939	1980.88
325.168	739.88
325.397	226.88
325.626	140.88
325.855	132.88
326.084	124.88
326.313	131.88
326.542	133.88
326.77	211.88
326.999	426.88
327.228	829.88
327.457	1521.88
327.686	1225.88
327.914	347.88
328.143	194.88
328.372	173.88
328.6	139.88
328.829	124.88
329.058	135.88
329.287	108.88
329.515	97.88
329.744	125.88
329.972	141.88
330.201	170.88
330.43	216.88
330.658	161.88
330.887	126.88
331.115	120.88
331.344	90.88
331.572	108.88
331.801	109.88
332.03	100.88
332.258	94.88
332.486	102.88
332.715	83.88
332.943	98.88
333.172	103.88
333.4	107.88
333.629	113.88
333.857	129.88
334.085	136.88
334.314	170.88
334.542	268.88
334.771	254.88
334.999	125.88
335.227	117.88
335.455	99.88
335.684	97.88
335.912	113.88
336.14	89.88
336.369	87.88
336.597	92.88
336.825	98.88
337.053	85.88
337.281	87.88
337.51	102.88
337.738	92.88
337.966	83.88
338.194	89.88
338.422	87.88
338.65	91.88
338.878	88.88
339.106	80.88
339.334	97.88
339.562	91.88
339.79	90.88
340.018	74.88
340.246	91.88
340.474	88.88
340.702	78.88
340.93	92.88
341.158	93.88
341.386	92.88
341.614	84.88
341.842	102.88
342.07	94.88
342.298	91.88
342.526	82.88
342.754	90.88
342.981	94.88
343.209	97.88
343.437	92.88
343.665	79.88
343.893	97.88
344.12	91.88
344.348	85.88
344.576	84.88
344.804	89.88
345.031	92.88
345.259	95.88
345.487	82.88
345.714	87.88
345.942	96.88
346.17	96.88
346.397	93.88
346.625	100.88
346.853	96.88
347.08	87.88
347.308	86.88
347.535	85.88
347.763	93.88
347.99	99.88
348.218	94.88
348.445	101.88
348.673	96.88
348.9	96.88
349.128	93.88
349.355	97.88
349.583	92.88
349.81	86.88
350.037	92.88
350.265	97.88
350.492	103.88
350.72	92.88
350.947	105.88
351.174	88.88
351.402	104.88
351.629	111.88
351.856	102.88
352.083	100.88
352.311	106.88
352.538	111.88
352.765	107.88
352.992	108.88
353.22	102.88
353.447	103.88
353.674	109.88
353.901	105.88
354.128	97.88
354.355	105.88
354.583	99.88
354.81	105.88
355.037	80.88
355.264	89.88
355.491	99.88
355.718	88.88
355.945	101.88
356.172	87.88
356.399	91.88
356.626	87.88
356.853	87.88
357.08	96.88
357.307	90.88
357.534	94.88
357.761	98.88
357.988	107.88
358.215	81.88
358.441	100.88
358.668	97.88
358.895	83.88
359.122	99.88
359.349	92.88
359.576	87.88
359.802	91.88
360.029	113.88
360.256	92.88
360.483	94.88
360.709	87.88
360.936	99.88
361.163	114.88
361.39	106.88
361.616	102.88
361.843	90.88
362.07	101.88
362.296	109.88
362.523	102.88
362.749	92.88
362.976	88.88
363.203	85.88
363.429	91.88
363.656	80.88
363.882	82.88
364.109	98.88
364.335	102.88
364.562	97.88
364.788	101.88
365.015	94.88
365.241	90.88
365.468	94.88
365.694	107.88
365.92	92.88
366.147	93.88
366.373	99.88
366.599	86.88
366.826	87.88
367.052	80.88
367.278	99.88
367.505	90.88
367.731	92.88
367.957	98.88
368.184	90.88
368.41	97.88
368.636	100.88
368.862	120.88
369.089	98.88
369.315	89.88
369.541	92.88
369.767	91.88
369.993	96.88
370.219	89.88
370.445	87.88
370.672	72.88
370.898	88.88
371.124	94.88
371.35	85.88
371.576	83.88
371.802	81.88
372.028	90.88
372.254	87.88
372.48	87.88
372.706	71.88
372.932	79.88
373.158	91.88
373.384	93.88
373.61	98.88
373.835	98.88
374.061	86.88
374.287	85.88
374.513	78.88
374.739	97.88
374.965	79.88
375.191	86.88
375.416	98.88
375.642	101.88
375.868	86.88
376.094	95.88
376.319	96.88
376.545	91.88
376.771	82.88
376.997	92.88
377.222	91.88
377.448	98.88
377.674	106.88
377.899	74.88
378.125	101.88
378.35	97.88
378.576	90.88
378.802	86.88
379.027	90.88
379.253	77.88
379.478	89.88
379.704	106.88
379.929	91.88
380.155	93.88
380.38	89.88
380.606	87.88
380.831	102.88
381.057	84.88
381.282	88.88
381.507	103.88
381.733	94.88
381.958	92.88
382.184	93.88
382.409	89.88
382.634	99.88
382.86	96.88
383.085	79.88
383.31	105.88
383.535	98.88
383.761	89.88
383.986	72.88
384.211	94.88
384.436	101.88
384.662	100.88
384.887	92.88
385.112	97.88
385.337	102.88
385.562	97.88
385.787	101.88
386.013	99.88
386.238	117.88
386.463	115.88
386.688	108.88
386.913	97.88
387.138	108.88
387.363	104.88
387.588	104.88
387.813	106.88
388.038	94.88
388.263	118.88
388.488	106.88
388.713	102.88
388.938	106.88
389.163	94.88
389.387	102.88
389.612	90.88
389.837	93.88
390.062	96.88
390.287	98.88
390.512	84.88
390.736	88.88
390.961	92.88
391.186	108.88
391.411	92.88
391.636	94.88
391.86	91.88
392.085	91.88
392.31	78.88
392.534	79.88
392.759	105.88
392.984	93.88
393.208	73.88
393.433	95.88
393.658	84.88
393.882	82.88
394.107	86.88
394.331	86.88
394.556	96.88
394.78	90.88
395.005	77.88
395.229	70.88
395.454	82.88
395.678	77.88
395.903	79.88
396.127	87.88
396.352	82.88
396.576	80.88
396.801	98.88
397.025	94.88
397.249	103.88
397.474	90.88
397.698	83.88
397.922	98.88
398.147	88.88
398.371	89.88
398.595	89.88
398.82	97.88
399.044	94.88
399.268	79.88
399.492	76.88
399.717	97.88
399.941	97.88
400.165	85.88
400.389	96.88
400.613	90.88
400.837	80.88
401.062	106.88
401.286	99.88
401.51	93.88
401.734	84.88
401.958	102.88
402.182	134.88
402.406	159.88
402.63	109.88
402.854	88.88
403.078	103.88
403.302	88.88
403.526	81.88
403.75	82.88
403.974	94.88
404.198	76.88
404.422	100.88
404.645	82.88
404.869	87.88
405.093	92.88
405.317	98.88
405.541	88.88
405.765	95.88
405.988	122.88
406.212	152.88
406.436	206.88
406.66	134.88
406.883	98.88
407.107	93.88
407.331	95.88
407.555	78.88
407.778	102.88
408.002	97.88
408.226	99.88
408.449	93.88
408.673	87.88
408.896	84.88
409.12	86.88
409.344	94.88
409.567	83.88
409.791	85.88
410.014	98.88
410.238	94.88
410.461	94.88
410.685	93.88
410.908	94.88
411.132	108.88
411.355	102.88
411.578	74.88
411.802	83.88
412.025	85.88
412.249	84.88
412.472	97.88
412.695	95.88
412.919	95.88
413.142	84.88
413.365	84.88
413.589	86.88
413.812	71.88
414.035	93.88
414.258	96.88
414.482	94.88
414.705	93.88
414.928	93.88
415.151	89.88
415.374	74.88
415.597	92.88
415.821	94.88
416.044	96.88
416.267	102.88
416.49	82.88
416.713	95.88
416.936	88.88
417.159	78.88
417.382	86.88
417.605	98.88
417.828	87.88
418.051	106.88
418.274	83.88
418.497	83.88
418.72	98.88
418.943	99.88
419.166	97.88
419.389	98.88
419.611	101.88
419.834	101.88
420.057	93.88
420.28	91.88
420.503	100.88
420.726	84.88
420.948	79.88
421.171	84.88
421.394	83.88
421.617	93.88
421.839	79.88
422.062	90.88
422.285	98.88
422.507	114.88
422.73	89.88
422.953	81.88
423.175	99.88
423.398	98.88
423.621	86.88
423.843	88.88
424.066	79.88
424.288	93.88
424.511	85.88
424.733	95.88
424.956	115.88
425.178	87.88
425.401	102.88
425.623	111.88
425.846	90.88
426.068	90.88
426.291	92.88
426.513	93.88
426.735	81.88
426.958	85.88
427.18	110.88
427.402	127.88
427.625	143.88
427.847	145.88
428.069	97.88
428.292	113.88
428.514	85.88
428.736	84.88
428.958	86.88
429.181	110.88
429.403	103.88
429.625	75.88
429.847	91.88
430.069	89.88
430.292	94.88
430.514	78.88
430.736	81.88
430.958	66.88
431.18	100.88
431.402	82.88
431.624	89.88
431.846	77.88
432.068	79.88
432.29	79.88
432.512	103.88
432.734	88.88
432.956	99.88
433.178	103.88
433.4	103.88
433.622	87.88
433.844	90.88
434.066	91.88
434.287	86.88
434.509	97.88
434.731	92.88
434.953	76.88
435.175	78.88
435.397	90.88
435.618	76.88
435.84	97.88
436.062	121.88
436.284	108.88
436.505	106.88
436.727	94.88
436.949	92.88
437.17	83.88
437.392	94.88
437.614	92.88
437.835	92.88
438.057	111.88
438.278	108.88
438.5	110.88
438.721	110.88
438.943	100.88
439.165	91.88
439.386	93.88
439.608	89.88
439.829	99.88
440.05	95.88
440.272	121.88
440.493	94.88
440.715	91.88
440.936	95.88
441.158	103.88
441.379	91.88
441.6	85.88
441.822	100.88
442.043	91.88
442.264	90.88
442.486	89.88
442.707	90.88
442.928	94.88
443.149	114.88
443.371	111.88
443.592	99.88
443.813	102.88
444.034	84.88
444.255	72.88
444.476	71.88
444.698	92.88
444.919	86.88
445.14	114.88
445.361	109.88
445.582	107.88
445.803	117.88
446.024	128.88
446.245	118.88
446.466	100.88
446.687	82.88
446.908	91.88
447.129	89.88
447.35	82.88
447.571	82.88
447.792	99.88
448.013	103.88
448.234	100.88
448.455	93.88
448.675	118.88
448.896	110.88
449.117	95.88
449.338	100.88
449.559	121.88
449.779	110.88
450	100.88
450.221	85.88
450.442	75.88
450.662	84.88
450.883	103.88
451.104	118.88
451.324	80.88
451.545	78.88
451.766	89.88
451.986	83.88
452.207	96.88
452.428	93.88
452.648	83.88
452.869	95.88
453.089	110.88
453.31	128.88
453.53	89.88
453.751	106.88
453.971	85.88
454.192	99.88
454.412	76.88
454.633	87.88
454.853	95.88
455.073	72.88
455.294	92.88
455.514	86.88
455.734	78.88
455.955	98.88
456.175	81.88
456.395	79.88
456.616	92.88
456.836	84.88
457.056	83.88
457.276	102.88
457.497	87.88
457.717	84.88
457.937	82.88
458.157	89.88
458.377	83.88
458.598	103.88
458.818	139.88
459.038	154.88
459.258	127.88
459.478	87.88
459.698	76.88
459.918	85.88
460.138	78.88
460.358	83.88
460.578	80.88
460.798	87.88
461.018	103.88
461.238	100.88
461.458	78.88
461.678	77.88
461.898	76.88
462.118	90.88
462.338	81.88
462.558	80.88
462.777	87.88
462.997	82.88
463.217	81.88
463.437	89.88
463.657	90.88
463.876	85.88
464.096	69.88
464.316	98.88
464.536	97.88
464.755	83.88
464.975	87.88
465.195	144.88
465.414	148.88
465.634	101.88
465.854	93.88
466.073	86.88
466.293	88.88
466.512	92.88
466.732	87.88
466.951	86.88
467.171	92.88
467.391	100.88
467.61	108.88
467.829	117.88
468.049	143.88
468.268	149.88
468.488	100.88
468.707	84.88
468.927	81.88
469.146	81.88
469.365	97.88
469.585	97.88
469.804	92.88
470.023	85.88
470.243	77.88
470.462	98.88
470.681	123.88
470.901	80.88
471.12	99.88
471.339	90.88
471.558	76.88
471.777	94.88
471.997	110.88
472.216	194.88
472.435	325.88
472.654	145.88
472.873	102.88
473.092	82.88
473.311	90.88
473.53	102.88
473.749	102.88
473.968	89.88
474.187	86.88
474.406	77.88
474.625	95.88
474.844	86.88
475.063	90.88
475.282	91.88
475.501	92.88
475.72	92.88
475.939	85.88
476.158	88.88
476.377	81.88
476.596	111.88
476.814	93.88
477.033	101.88
477.252	88.88
477.471	87.88
477.69	83.88
477.908	88.88
478.127	94.88
478.346	83.88
478.564	91.88
478.783	89.88
479.002	97.88
479.22	101.88
479.439	84.88
479.658	90.88
479.876	90.88
480.095	93.88
480.313	93.88
480.532	103.88
480.751	107.88
480.969	162.88
481.188	532.88
481.406	374.88
481.624	131.88
481.843	98.88
482.061	95.88
482.28	95.88
482.498	89.88
482.717	95.88
482.935	81.88
483.153	97.88
483.372	86.88
483.59	91.88
483.808	94.88
484.027	85.88
484.245	85.88
484.463	102.88
484.681	98.88
484.9	79.88
485.118	88.88
485.336	102.88
485.554	92.88
485.772	99.88
485.99	105.88
486.209	98.88
486.427	104.88
486.645	115.88
486.863	113.88
487.081	102.88
487.299	90.88
487.517	84.88
487.735	87.88
487.953	80.88
488.171	113.88
488.389	101.88
488.607	95.88
488.825	90.88
489.043	81.88
489.261	94.88
489.479	78.88
489.696	97.88
489.914	84.88
490.132	85.88
490.35	81.88
490.568	101.88
490.786	82.88
491.003	86.88
491.221	88.88
491.439	86.88
491.657	86.88
491.874	95.88
492.092	79.88
492.31	89.88
492.527	87.88
492.745	91.88
492.963	91.88
493.18	81.88
493.398	91.88
493.615	94.88
493.833	91.88
494.05	85.88
494.268	101.88
494.485	90.88
494.703	84.88
494.92	85.88
495.138	87.88
495.355	92.88
495.573	93.88
495.79	88.88
496.008	91.88
496.225	95.88
496.442	82.88
496.66	94.88
496.877	79.88
497.094	96.88
497.312	87.88
497.529	94.88
497.746	85.88
497.963	87.88
498.181	91.88
498.398	100.88
498.615	99.88
498.832	98.88
499.049	90.88
499.267	88.88
499.484	104.88
499.701	75.88
499.918	87.88
500.135	86.88
500.352	86.88
500.569	88.88
500.786	96.88
501.003	85.88
501.22	70.88
501.437	95.88
501.654	82.88
501.871	114.88
502.088	92.88
502.305	87.88
502.522	81.88
502.739	90.88
502.956	96.88
503.172	88.88
503.389	94.88
503.606	107.88
503.823	97.88
504.04	92.88
504.256	102.88
504.473	98.88
504.69	105.88
504.907	100.88
505.123	99.88
505.34	103.88
505.557	84.88
505.773	99.88
505.99	93.88
506.207	95.88
506.423	92.88
506.64	85.88
506.856	85.88
507.073	84.88
507.289	97.88
507.506	106.88
507.722	116.88
507.939	107.88
508.155	91.88
508.372	102.88
508.588	93.88
508.805	101.88
509.021	87.88
509.238	103.88
509.454	103.88
509.67	99.88
509.887	105.88
510.103	130.88
510.319	185.88
510.536	685.88
510.752	2179.88
510.968	644.88
511.184	141.88
511.401	102.88
511.617	103.88
511.833	92.88
512.049	89.88
512.265	90.88
512.481	88.88
512.698	90.88
512.914	93.88
513.13	89.88
513.346	101.88
513.562	96.88
513.778	87.88
513.994	101.88
514.21	97.88
514.426	102.88
514.642	118.88
514.858	125.88
515.074	156.88
515.29	387.88
515.506	1289.88
515.721	491.88
