Data from Circ_2015_H10_HRD10591_00093.txt Node
Date: Wed Jan 03 10:00:41 EST 2024
User: Yrep
Spectrometer: HR+D1059
Trigger mode: 1
Integration Time (sec): 1.000000E-1
Scans to average: 1
Electric dark correction enabled: true
Nonlinearity correction enabled: false
Boxcar width: 0
XAxis mode: Wavelengths
Number of Pixels in Spectrum: 2048
>>>>>Begin Spectral Data<<<<<
223.165	-9.19
223.4	-9.19
223.635	-9.19
223.869	-18.19
224.104	-28.19
224.338	-24.19
224.573	0.81
224.808	-13.19
225.042	-6.19
225.277	-4.19
225.511	-0.19
225.746	-7.19
225.98	5.81
226.215	5.81
226.449	14.81
226.683	26.81
226.918	23.81
227.152	32.81
227.387	41.81
227.621	42.81
227.856	60.81
228.09	35.81
228.324	45.81
228.559	67.81
228.793	51.81
229.027	67.81
229.262	68.81
229.496	79.81
229.73	79.81
229.964	75.81
230.199	70.81
230.433	72.81
230.667	81.81
230.901	86.81
231.136	77.81
231.37	59.81
231.604	84.81
231.838	80.81
232.072	65.81
232.306	83.81
232.541	74.81
232.775	80.81
233.009	91.81
233.243	88.81
233.477	75.81
233.711	83.81
233.945	81.81
234.179	67.81
234.413	68.81
234.647	70.81
234.881	82.81
235.115	71.81
235.349	77.81
235.583	75.81
235.817	80.81
236.051	75.81
236.285	66.81
236.519	80.81
236.753	73.81
236.987	81.81
237.221	82.81
237.455	79.81
237.689	75.81
237.922	76.81
238.156	81.81
238.39	62.81
238.624	83.81
238.858	83.81
239.091	86.81
239.325	71.81
239.559	86.81
239.793	74.81
240.027	76.81
240.26	74.81
240.494	63.81
240.728	74.81
240.961	73.81
241.195	65.81
241.429	67.81
241.662	81.81
241.896	69.81
242.13	65.81
242.363	72.81
242.597	69.81
242.83	84.81
243.064	81.81
243.298	73.81
243.531	83.81
243.765	82.81
243.998	77.81
244.232	70.81
244.465	83.81
244.699	86.81
244.932	65.81
245.166	72.81
245.399	72.81
245.633	82.81
245.866	68.81
246.099	70.81
246.333	67.81
246.566	76.81
246.8	84.81
247.033	91.81
247.266	83.81
247.5	85.81
247.733	85.81
247.966	71.81
248.2	87.81
248.433	83.81
248.666	91.81
248.899	84.81
249.133	81.81
249.366	90.81
249.599	95.81
249.832	84.81
250.066	86.81
250.299	67.81
250.532	75.81
250.765	66.81
250.998	84.81
251.231	77.81
251.465	79.81
251.698	79.81
251.931	92.81
252.164	77.81
252.397	87.81
252.63	73.81
252.863	67.81
253.096	81.81
253.329	68.81
253.562	101.81
253.795	80.81
254.028	88.81
254.261	80.81
254.494	72.81
254.727	84.81
254.96	79.81
255.193	88.81
255.426	73.81
255.659	82.81
255.892	94.81
256.124	77.81
256.357	87.81
256.59	83.81
256.823	88.81
257.056	82.81
257.289	77.81
257.521	76.81
257.754	90.81
257.987	79.81
258.22	86.81
258.452	95.81
258.685	88.81
258.918	72.81
259.151	86.81
259.383	83.81
259.616	92.81
259.849	81.81
260.081	80.81
260.314	76.81
260.547	75.81
260.779	74.81
261.012	82.81
261.244	86.81
261.477	87.81
261.71	94.81
261.942	106.81
262.175	113.81
262.407	98.81
262.64	76.81
262.872	82.81
263.105	85.81
263.337	94.81
263.57	82.81
263.802	87.81
264.035	83.81
264.267	86.81
264.499	88.81
264.732	88.81
264.964	83.81
265.197	90.81
265.429	83.81
265.661	72.81
265.894	85.81
266.126	84.81
266.358	71.81
266.591	87.81
266.823	68.81
267.055	89.81
267.287	79.81
267.52	82.81
267.752	89.81
267.984	104.81
268.216	88.81
268.448	83.81
268.681	74.81
268.913	75.81
269.145	89.81
269.377	86.81
269.609	90.81
269.841	87.81
270.073	77.81
270.306	92.81
270.538	88.81
270.77	86.81
271.002	81.81
271.234	83.81
271.466	69.81
271.698	91.81
271.93	94.81
272.162	78.81
272.394	73.81
272.626	96.81
272.858	70.81
273.09	81.81
273.322	81.81
273.553	89.81
273.785	92.81
274.017	77.81
274.249	75.81
274.481	77.81
274.713	93.81
274.945	78.81
275.176	97.81
275.408	80.81
275.64	99.81
275.872	92.81
276.104	82.81
276.335	73.81
276.567	97.81
276.799	103.81
277.031	104.81
277.262	104.81
277.494	95.81
277.726	92.81
277.957	74.81
278.189	75.81
278.421	96.81
278.652	95.81
278.884	81.81
279.115	83.81
279.347	84.81
279.579	92.81
279.81	85.81
280.042	95.81
280.273	128.81
280.505	103.81
280.736	87.81
280.968	80.81
281.199	104.81
281.431	89.81
281.662	75.81
281.894	88.81
282.125	88.81
282.356	123.81
282.588	115.81
282.819	115.81
283.051	99.81
283.282	91.81
283.513	87.81
283.745	76.81
283.976	90.81
284.207	90.81
284.439	92.81
284.67	83.81
284.901	73.81
285.132	77.81
285.364	98.81
285.595	85.81
285.826	83.81
286.057	94.81
286.288	87.81
286.52	87.81
286.751	83.81
286.982	80.81
287.213	83.81
287.444	83.81
287.675	83.81
287.906	93.81
288.138	93.81
288.369	97.81
288.6	88.81
288.831	84.81
289.062	87.81
289.293	83.81
289.524	88.81
289.755	87.81
289.986	77.81
290.217	85.81
290.448	84.81
290.679	86.81
290.91	85.81
291.141	84.81
291.371	81.81
291.602	77.81
291.833	78.81
292.064	81.81
292.295	74.81
292.526	76.81
292.757	84.81
292.987	83.81
293.218	77.81
293.449	87.81
293.68	80.81
293.91	91.81
294.141	94.81
294.372	83.81
294.603	82.81
294.833	95.81
295.064	97.81
295.295	95.81
295.525	96.81
295.756	108.81
295.987	98.81
296.217	137.81
296.448	125.81
296.679	94.81
296.909	95.81
297.14	87.81
297.37	87.81
297.601	86.81
297.831	84.81
298.062	85.81
298.292	93.81
298.523	89.81
298.753	95.81
298.984	93.81
299.214	74.81
299.445	97.81
299.675	87.81
299.905	85.81
300.136	88.81
300.366	80.81
300.597	84.81
300.827	87.81
301.057	85.81
301.288	89.81
301.518	109.81
301.748	79.81
301.979	95.81
302.209	93.81
302.439	86.81
302.669	92.81
302.9	98.81
303.13	89.81
303.36	92.81
303.59	104.81
303.82	112.81
304.051	95.81
304.281	90.81
304.511	88.81
304.741	79.81
304.971	88.81
305.201	92.81
305.431	86.81
305.661	90.81
305.891	83.81
306.121	85.81
306.352	102.81
306.582	94.81
306.812	87.81
307.042	91.81
307.272	108.81
307.502	95.81
307.731	111.81
307.961	91.81
308.191	80.81
308.421	79.81
308.651	86.81
308.881	88.81
309.111	91.81
309.341	96.81
309.571	95.81
309.8	100.81
310.03	93.81
310.26	101.81
310.49	91.81
310.72	100.81
310.949	101.81
311.179	97.81
311.409	83.81
311.639	101.81
311.868	88.81
312.098	90.81
312.328	96.81
312.557	104.81
312.787	112.81
313.017	90.81
313.246	89.81
313.476	84.81
313.706	84.81
313.935	99.81
314.165	88.81
314.394	102.81
314.624	97.81
314.853	94.81
315.083	92.81
315.312	95.81
315.542	89.81
315.771	75.81
316.001	81.81
316.23	84.81
316.46	90.81
316.689	99.81
316.919	90.81
317.148	88.81
317.377	90.81
317.607	85.81
317.836	94.81
318.065	98.81
318.295	84.81
318.524	98.81
318.753	83.81
318.983	108.81
319.212	89.81
319.441	99.81
319.67	102.81
319.9	99.81
320.129	98.81
320.358	92.81
320.587	104.81
320.816	108.81
321.046	99.81
321.275	101.81
321.504	95.81
321.733	94.81
321.962	104.81
322.191	97.81
322.42	94.81
322.649	84.81
322.878	89.81
323.108	121.81
323.337	113.81
323.566	148.81
323.795	145.81
324.024	208.81
324.253	401.81
324.482	849.81
324.71	1706.81
324.939	2269.81
325.168	821.81
325.397	248.81
325.626	149.81
325.855	132.81
326.084	121.81
326.313	138.81
326.542	156.81
326.77	227.81
326.999	480.81
327.228	1002.81
327.457	1755.81
327.686	1375.81
327.914	391.81
328.143	251.81
328.372	245.81
328.6	152.81
328.829	127.81
329.058	131.81
329.287	128.81
329.515	108.81
329.744	145.81
329.972	188.81
330.201	273.81
330.43	377.81
330.658	215.81
330.887	175.81
331.115	117.81
331.344	92.81
331.572	102.81
331.801	98.81
332.03	88.81
332.258	97.81
332.486	93.81
332.715	96.81
332.943	90.81
333.172	90.81
333.4	100.81
333.629	128.81
333.857	134.81
334.085	179.81
334.314	279.81
334.542	471.81
334.771	434.81
334.999	177.81
335.227	102.81
335.455	109.81
335.684	91.81
335.912	96.81
336.14	101.81
336.369	105.81
336.597	104.81
336.825	108.81
337.053	85.81
337.281	86.81
337.51	97.81
337.738	91.81
337.966	85.81
338.194	89.81
338.422	102.81
338.65	97.81
338.878	91.81
339.106	92.81
339.334	88.81
339.562	87.81
339.79	93.81
340.018	89.81
340.246	89.81
340.474	92.81
340.702	83.81
340.93	91.81
341.158	86.81
341.386	94.81
341.614	101.81
341.842	88.81
342.07	94.81
342.298	88.81
342.526	87.81
342.754	81.81
342.981	83.81
343.209	98.81
343.437	99.81
343.665	93.81
343.893	93.81
344.12	89.81
344.348	88.81
344.576	91.81
344.804	104.81
345.031	74.81
345.259	86.81
345.487	89.81
345.714	101.81
345.942	83.81
346.17	98.81
346.397	95.81
346.625	104.81
346.853	95.81
347.08	82.81
347.308	106.81
347.535	104.81
347.763	104.81
347.99	87.81
348.218	84.81
348.445	99.81
348.673	90.81
348.9	97.81
349.128	100.81
349.355	91.81
349.583	96.81
349.81	103.81
350.037	98.81
350.265	89.81
350.492	96.81
350.72	86.81
350.947	100.81
351.174	102.81
351.402	104.81
351.629	87.81
351.856	107.81
352.083	107.81
352.311	131.81
352.538	113.81
352.765	105.81
352.992	108.81
353.22	106.81
353.447	104.81
353.674	115.81
353.901	91.81
354.128	84.81
354.355	107.81
354.583	96.81
354.81	100.81
355.037	94.81
355.264	80.81
355.491	93.81
355.718	79.81
355.945	83.81
356.172	99.81
356.399	103.81
356.626	91.81
356.853	86.81
357.08	93.81
357.307	98.81
357.534	96.81
357.761	92.81
357.988	98.81
358.215	96.81
358.441	105.81
358.668	102.81
358.895	101.81
359.122	85.81
359.349	89.81
359.576	92.81
359.802	99.81
360.029	103.81
360.256	105.81
360.483	87.81
360.709	89.81
360.936	92.81
361.163	93.81
361.39	102.81
361.616	89.81
361.843	93.81
362.07	85.81
362.296	89.81
362.523	99.81
362.749	97.81
362.976	93.81
363.203	112.81
363.429	82.81
363.656	84.81
363.882	95.81
364.109	81.81
364.335	88.81
364.562	68.81
364.788	77.81
365.015	85.81
365.241	102.81
365.468	104.81
365.694	92.81
365.92	88.81
366.147	92.81
366.373	91.81
366.599	86.81
366.826	84.81
367.052	84.81
367.278	101.81
367.505	101.81
367.731	97.81
367.957	84.81
368.184	103.81
368.41	103.81
368.636	88.81
368.862	112.81
369.089	108.81
369.315	95.81
369.541	88.81
369.767	92.81
369.993	85.81
370.219	85.81
370.445	79.81
370.672	87.81
370.898	87.81
371.124	84.81
371.35	83.81
371.576	85.81
371.802	85.81
372.028	93.81
372.254	93.81
372.48	86.81
372.706	85.81
372.932	79.81
373.158	79.81
373.384	84.81
373.61	75.81
373.835	81.81
374.061	92.81
374.287	80.81
374.513	78.81
374.739	93.81
374.965	86.81
375.191	96.81
375.416	92.81
375.642	90.81
375.868	90.81
376.094	85.81
376.319	95.81
376.545	105.81
376.771	99.81
376.997	99.81
377.222	84.81
377.448	92.81
377.674	87.81
377.899	80.81
378.125	99.81
378.35	86.81
378.576	84.81
378.802	95.81
379.027	92.81
379.253	95.81
379.478	82.81
379.704	84.81
379.929	92.81
380.155	88.81
380.38	86.81
380.606	99.81
380.831	93.81
381.057	100.81
381.282	86.81
381.507	96.81
381.733	79.81
381.958	93.81
382.184	99.81
382.409	92.81
382.634	102.81
382.86	89.81
383.085	107.81
383.31	95.81
383.535	100.81
383.761	100.81
383.986	90.81
384.211	91.81
384.436	90.81
384.662	87.81
384.887	86.81
385.112	107.81
385.337	80.81
385.562	104.81
385.787	93.81
386.013	103.81
386.238	97.81
386.463	102.81
386.688	107.81
386.913	103.81
387.138	97.81
387.363	102.81
387.588	90.81
387.813	96.81
388.038	108.81
388.263	113.81
388.488	126.81
388.713	86.81
388.938	76.81
389.163	92.81
389.387	88.81
389.612	91.81
389.837	106.81
390.062	94.81
390.287	87.81
390.512	102.81
390.736	98.81
390.961	87.81
391.186	80.81
391.411	81.81
391.636	78.81
391.86	80.81
392.085	90.81
392.31	95.81
392.534	76.81
392.759	84.81
392.984	107.81
393.208	75.81
393.433	74.81
393.658	82.81
393.882	96.81
394.107	86.81
394.331	96.81
394.556	89.81
394.78	87.81
395.005	91.81
395.229	88.81
395.454	94.81
395.678	96.81
395.903	92.81
396.127	91.81
396.352	92.81
396.576	88.81
396.801	84.81
397.025	76.81
397.249	87.81
397.474	84.81
397.698	87.81
397.922	82.81
398.147	93.81
398.371	87.81
398.595	84.81
398.82	63.81
399.044	90.81
399.268	80.81
399.492	84.81
399.717	79.81
399.941	84.81
400.165	94.81
400.389	94.81
400.613	93.81
400.837	78.81
401.062	81.81
401.286	76.81
401.51	88.81
401.734	94.81
401.958	97.81
402.182	116.81
402.406	151.81
402.63	124.81
402.854	92.81
403.078	84.81
403.302	87.81
403.526	91.81
403.75	82.81
403.974	103.81
404.198	71.81
404.422	95.81
404.645	92.81
404.869	82.81
405.093	89.81
405.317	116.81
405.541	108.81
405.765	112.81
405.988	114.81
406.212	152.81
406.436	204.81
406.66	149.81
406.883	93.81
407.107	80.81
407.331	86.81
407.555	107.81
407.778	93.81
408.002	89.81
408.226	93.81
408.449	84.81
408.673	82.81
408.896	77.81
409.12	87.81
409.344	86.81
409.567	96.81
409.791	103.81
410.014	89.81
410.238	70.81
410.461	92.81
410.685	104.81
410.908	93.81
411.132	108.81
411.355	86.81
411.578	90.81
411.802	72.81
412.025	96.81
412.249	92.81
412.472	102.81
412.695	100.81
412.919	88.81
413.142	91.81
413.365	83.81
413.589	84.81
413.812	88.81
414.035	95.81
414.258	92.81
414.482	93.81
414.705	82.81
414.928	81.81
415.151	94.81
415.374	98.81
415.597	76.81
415.821	93.81
416.044	89.81
416.267	100.81
416.49	95.81
416.713	75.81
416.936	82.81
417.159	77.81
417.382	93.81
417.605	95.81
417.828	92.81
418.051	96.81
418.274	72.81
418.497	83.81
418.72	94.81
418.943	83.81
419.166	89.81
419.389	93.81
419.611	103.81
419.834	78.81
420.057	98.81
420.28	89.81
420.503	76.81
420.726	88.81
420.948	88.81
421.171	100.81
421.394	92.81
421.617	92.81
421.839	90.81
422.062	82.81
422.285	78.81
422.507	96.81
422.73	99.81
422.953	89.81
423.175	97.81
423.398	93.81
423.621	86.81
423.843	83.81
424.066	78.81
424.288	90.81
424.511	78.81
424.733	99.81
424.956	115.81
425.178	94.81
425.401	106.81
425.623	104.81
425.846	95.81
426.068	92.81
426.291	86.81
426.513	88.81
426.735	89.81
426.958	96.81
427.18	108.81
427.402	141.81
427.625	168.81
427.847	139.81
428.069	136.81
428.292	106.81
428.514	90.81
428.736	82.81
428.958	88.81
429.181	83.81
429.403	85.81
429.625	77.81
429.847	78.81
430.069	94.81
430.292	90.81
430.514	85.81
430.736	82.81
430.958	84.81
431.18	89.81
431.402	71.81
431.624	91.81
431.846	80.81
432.068	86.81
432.29	76.81
432.512	90.81
432.734	100.81
432.956	83.81
433.178	106.81
433.4	85.81
433.622	101.81
433.844	84.81
434.066	86.81
434.287	94.81
434.509	101.81
434.731	86.81
434.953	81.81
435.175	91.81
435.397	86.81
435.618	93.81
435.84	82.81
436.062	130.81
436.284	115.81
436.505	98.81
436.727	114.81
436.949	99.81
437.17	88.81
437.392	85.81
437.614	82.81
437.835	96.81
438.057	111.81
438.278	105.81
438.5	127.81
438.721	118.81
438.943	94.81
439.165	84.81
439.386	71.81
439.608	91.81
439.829	94.81
440.05	104.81
440.272	127.81
440.493	100.81
440.715	83.81
440.936	80.81
441.158	91.81
441.379	95.81
441.6	91.81
441.822	85.81
442.043	101.81
442.264	100.81
442.486	95.81
442.707	94.81
442.928	90.81
443.149	130.81
443.371	117.81
443.592	106.81
443.813	111.81
444.034	111.81
444.255	84.81
444.476	92.81
444.698	91.81
444.919	78.81
445.14	126.81
445.361	110.81
445.582	105.81
445.803	134.81
446.024	140.81
446.245	120.81
446.466	105.81
446.687	81.81
446.908	76.81
447.129	87.81
447.35	77.81
447.571	78.81
447.792	82.81
448.013	93.81
448.234	104.81
448.455	104.81
448.675	107.81
448.896	114.81
449.117	110.81
449.338	111.81
449.559	134.81
449.779	138.81
450	92.81
450.221	80.81
450.442	85.81
450.662	96.81
450.883	105.81
451.104	104.81
451.324	98.81
451.545	100.81
451.766	100.81
451.986	95.81
452.207	93.81
452.428	94.81
452.648	71.81
452.869	104.81
453.089	100.81
453.31	106.81
453.53	98.81
453.751	86.81
453.971	95.81
454.192	101.81
454.412	89.81
454.633	87.81
454.853	87.81
455.073	91.81
455.294	77.81
455.514	80.81
455.734	89.81
455.955	69.81
456.175	81.81
456.395	83.81
456.616	72.81
456.836	96.81
457.056	73.81
457.276	74.81
457.497	85.81
457.717	79.81
457.937	83.81
458.157	69.81
458.377	93.81
458.598	101.81
458.818	155.81
459.038	161.81
459.258	118.81
459.478	95.81
459.698	85.81
459.918	80.81
460.138	67.81
460.358	83.81
460.578	86.81
460.798	96.81
461.018	93.81
461.238	73.81
461.458	92.81
461.678	80.81
461.898	87.81
462.118	104.81
462.338	77.81
462.558	92.81
462.777	98.81
462.997	86.81
463.217	86.81
463.437	90.81
463.657	74.81
463.876	89.81
464.096	88.81
464.316	91.81
464.536	96.81
464.755	95.81
464.975	104.81
465.195	161.81
465.414	142.81
465.634	93.81
465.854	87.81
466.073	85.81
466.293	74.81
466.512	72.81
466.732	84.81
466.951	85.81
467.171	104.81
467.391	96.81
467.61	100.81
467.829	127.81
468.049	173.81
468.268	242.81
468.488	117.81
468.707	88.81
468.927	90.81
469.146	83.81
469.365	85.81
469.585	83.81
469.804	98.81
470.023	92.81
470.243	77.81
470.462	106.81
470.681	107.81
470.901	94.81
471.12	89.81
471.339	79.81
471.558	83.81
471.777	98.81
471.997	127.81
472.216	312.81
472.435	608.81
472.654	199.81
472.873	107.81
473.092	86.81
473.311	92.81
473.53	84.81
473.749	80.81
473.968	104.81
474.187	110.81
474.406	87.81
474.625	77.81
474.844	96.81
475.063	92.81
475.282	88.81
475.501	89.81
475.72	90.81
475.939	88.81
476.158	91.81
476.377	99.81
476.596	78.81
476.814	107.81
477.033	93.81
477.252	95.81
477.471	85.81
477.69	89.81
477.908	91.81
478.127	81.81
478.346	89.81
478.564	84.81
478.783	95.81
479.002	97.81
479.22	94.81
479.439	101.81
479.658	105.81
479.876	109.81
480.095	83.81
480.313	100.81
480.532	107.81
480.751	135.81
480.969	314.81
481.188	1029.81
481.406	663.81
481.624	150.81
481.843	101.81
482.061	92.81
482.28	89.81
482.498	76.81
482.717	98.81
482.935	85.81
483.153	91.81
483.372	98.81
483.59	86.81
483.808	84.81
484.027	93.81
484.245	87.81
484.463	92.81
484.681	97.81
484.9	81.81
485.118	92.81
485.336	89.81
485.554	77.81
485.772	90.81
485.99	85.81
486.209	79.81
486.427	104.81
486.645	100.81
486.863	108.81
487.081	110.81
487.299	104.81
487.517	87.81
487.735	88.81
487.953	90.81
488.171	90.81
488.389	110.81
488.607	84.81
488.825	91.81
489.043	95.81
489.261	103.81
489.479	92.81
489.696	96.81
489.914	84.81
490.132	91.81
490.35	93.81
490.568	84.81
490.786	89.81
491.003	87.81
491.221	91.81
491.439	83.81
491.657	88.81
491.874	89.81
492.092	83.81
492.31	82.81
492.527	86.81
492.745	88.81
492.963	81.81
493.18	72.81
493.398	104.81
493.615	84.81
493.833	93.81
494.05	82.81
494.268	77.81
494.485	87.81
494.703	87.81
494.92	98.81
495.138	87.81
495.355	95.81
495.573	92.81
495.79	95.81
496.008	104.81
496.225	98.81
496.442	80.81
496.66	84.81
496.877	82.81
497.094	90.81
497.312	77.81
497.529	85.81
497.746	89.81
497.963	89.81
498.181	99.81
498.398	94.81
498.615	109.81
498.832	97.81
499.049	86.81
499.267	99.81
499.484	88.81
499.701	89.81
499.918	89.81
500.135	89.81
500.352	84.81
500.569	79.81
500.786	87.81
501.003	91.81
501.22	88.81
501.437	80.81
501.654	82.81
501.871	91.81
502.088	84.81
502.305	88.81
502.522	89.81
502.739	86.81
502.956	83.81
503.172	84.81
503.389	103.81
503.606	96.81
503.823	95.81
504.04	88.81
504.256	87.81
504.473	98.81
504.69	89.81
504.907	84.81
505.123	72.81
505.34	96.81
505.557	93.81
505.773	81.81
505.99	96.81
506.207	81.81
506.423	102.81
506.64	76.81
506.856	94.81
507.073	104.81
507.289	99.81
507.506	86.81
507.722	101.81
507.939	103.81
508.155	101.81
508.372	96.81
508.588	108.81
508.805	94.81
509.021	92.81
509.238	99.81
509.454	92.81
509.67	100.81
509.887	98.81
510.103	130.81
510.319	194.81
510.536	666.81
510.752	2091.81
510.968	609.81
511.184	152.81
511.401	113.81
511.617	112.81
511.833	96.81
512.049	103.81
512.265	99.81
512.481	95.81
512.698	100.81
512.914	93.81
513.13	89.81
513.346	104.81
513.562	90.81
513.778	113.81
513.994	99.81
514.21	109.81
514.426	93.81
514.642	129.81
514.858	110.81
515.074	156.81
515.29	412.81
515.506	1297.81
515.721	520.81
515.937	147.81
