Data from Circ_2015_H10_HRD10591_00039.txt Node
Date: Wed Jan 03 10:00:30 EST 2024
User: Yrep
Spectrometer: HR+D1059
Trigger mode: 1
Integration Time (sec): 1.000000E-1
Scans to average: 1
Electric dark correction enabled: true
Nonlinearity correction enabled: false
Boxcar width: 0
XAxis mode: Wavelengths
Number of Pixels in Spectrum: 2048
>>>>>Begin Spectral Data<<<<<
223.165	-3.44
223.4	-3.44
223.635	-3.44
223.869	-28.44
224.104	-31.44
224.338	-24.44
224.573	-1.44
224.808	-16.44
225.042	-3.44
225.277	-12.44
225.511	-11.44
225.746	-0.44
225.98	10.56
226.215	24.56
226.449	12.56
226.683	14.56
226.918	45.56
227.152	25.56
227.387	23.56
227.621	49.56
227.856	42.56
228.09	39.56
228.324	45.56
228.559	59.56
228.793	58.56
229.027	59.56
229.262	68.56
229.496	75.56
229.73	71.56
229.964	72.56
230.199	75.56
230.433	76.56
230.667	83.56
230.901	81.56
231.136	76.56
231.37	76.56
231.604	73.56
231.838	90.56
232.072	84.56
232.306	73.56
232.541	76.56
232.775	55.56
233.009	85.56
233.243	81.56
233.477	78.56
233.711	71.56
233.945	75.56
234.179	67.56
234.413	79.56
234.647	84.56
234.881	68.56
235.115	98.56
235.349	80.56
235.583	82.56
235.817	57.56
236.051	79.56
236.285	61.56
236.519	60.56
236.753	85.56
236.987	86.56
237.221	77.56
237.455	71.56
237.689	74.56
237.922	77.56
238.156	107.56
238.39	73.56
238.624	77.56
238.858	61.56
239.091	73.56
239.325	82.56
239.559	62.56
239.793	82.56
240.027	84.56
240.26	76.56
240.494	61.56
240.728	83.56
240.961	74.56
241.195	82.56
241.429	74.56
241.662	78.56
241.896	67.56
242.13	77.56
242.363	79.56
242.597	67.56
242.83	74.56
243.064	69.56
243.298	87.56
243.531	83.56
243.765	75.56
243.998	83.56
244.232	78.56
244.465	73.56
244.699	85.56
244.932	75.56
245.166	69.56
245.399	69.56
245.633	71.56
245.866	81.56
246.099	59.56
246.333	75.56
246.566	67.56
246.8	87.56
247.033	73.56
247.266	66.56
247.5	75.56
247.733	68.56
247.966	76.56
248.2	65.56
248.433	79.56
248.666	73.56
248.899	77.56
249.133	85.56
249.366	83.56
249.599	108.56
249.832	85.56
250.066	74.56
250.299	77.56
250.532	85.56
250.765	75.56
250.998	69.56
251.231	88.56
251.465	79.56
251.698	89.56
251.931	80.56
252.164	86.56
252.397	68.56
252.63	84.56
252.863	71.56
253.096	79.56
253.329	85.56
253.562	79.56
253.795	72.56
254.028	96.56
254.261	86.56
254.494	82.56
254.727	88.56
254.96	84.56
255.193	73.56
255.426	76.56
255.659	71.56
255.892	69.56
256.124	90.56
256.357	79.56
256.59	79.56
256.823	83.56
257.056	69.56
257.289	73.56
257.521	77.56
257.754	80.56
257.987	72.56
258.22	79.56
258.452	84.56
258.685	68.56
258.918	89.56
259.151	99.56
259.383	73.56
259.616	75.56
259.849	82.56
260.081	83.56
260.314	84.56
260.547	89.56
260.779	89.56
261.012	74.56
261.244	87.56
261.477	80.56
261.71	97.56
261.942	105.56
262.175	106.56
262.407	83.56
262.64	84.56
262.872	84.56
263.105	77.56
263.337	91.56
263.57	75.56
263.802	86.56
264.035	92.56
264.267	81.56
264.499	105.56
264.732	76.56
264.964	88.56
265.197	82.56
265.429	83.56
265.661	96.56
265.894	72.56
266.126	77.56
266.358	87.56
266.591	81.56
266.823	73.56
267.055	66.56
267.287	81.56
267.52	88.56
267.752	78.56
267.984	78.56
268.216	87.56
268.448	78.56
268.681	77.56
268.913	86.56
269.145	88.56
269.377	86.56
269.609	92.56
269.841	85.56
270.073	95.56
270.306	75.56
270.538	85.56
270.77	83.56
271.002	77.56
271.234	87.56
271.466	69.56
271.698	76.56
271.93	72.56
272.162	92.56
272.394	90.56
272.626	90.56
272.858	79.56
273.09	76.56
273.322	76.56
273.553	83.56
273.785	77.56
274.017	82.56
274.249	90.56
274.481	70.56
274.713	76.56
274.945	89.56
275.176	87.56
275.408	91.56
275.64	87.56
275.872	79.56
276.104	75.56
276.335	85.56
276.567	90.56
276.799	101.56
277.031	97.56
277.262	89.56
277.494	94.56
277.726	91.56
277.957	85.56
278.189	85.56
278.421	67.56
278.652	72.56
278.884	77.56
279.115	77.56
279.347	86.56
279.579	97.56
279.81	93.56
280.042	82.56
280.273	102.56
280.505	88.56
280.736	70.56
280.968	85.56
281.199	82.56
281.431	89.56
281.662	76.56
281.894	85.56
282.125	84.56
282.356	117.56
282.588	140.56
282.819	94.56
283.051	84.56
283.282	85.56
283.513	89.56
283.745	83.56
283.976	99.56
284.207	94.56
284.439	73.56
284.67	85.56
284.901	85.56
285.132	86.56
285.364	80.56
285.595	100.56
285.826	75.56
286.057	103.56
286.288	91.56
286.52	97.56
286.751	90.56
286.982	83.56
287.213	83.56
287.444	91.56
287.675	89.56
287.906	90.56
288.138	87.56
288.369	86.56
288.6	85.56
288.831	85.56
289.062	77.56
289.293	91.56
289.524	79.56
289.755	86.56
289.986	79.56
290.217	84.56
290.448	80.56
290.679	83.56
290.91	74.56
291.141	77.56
291.371	92.56
291.602	81.56
291.833	76.56
292.064	87.56
292.295	86.56
292.526	88.56
292.757	83.56
292.987	84.56
293.218	84.56
293.449	77.56
293.68	86.56
293.91	83.56
294.141	94.56
294.372	87.56
294.603	82.56
294.833	82.56
295.064	90.56
295.295	77.56
295.525	91.56
295.756	93.56
295.987	104.56
296.217	142.56
296.448	118.56
296.679	88.56
296.909	95.56
297.14	79.56
297.37	85.56
297.601	87.56
297.831	99.56
298.062	74.56
298.292	82.56
298.523	89.56
298.753	87.56
298.984	93.56
299.214	94.56
299.445	91.56
299.675	84.56
299.905	99.56
300.136	92.56
300.366	76.56
300.597	85.56
300.827	98.56
301.057	102.56
301.288	99.56
301.518	91.56
301.748	92.56
301.979	103.56
302.209	84.56
302.439	92.56
302.669	84.56
302.9	101.56
303.13	85.56
303.36	107.56
303.59	98.56
303.82	118.56
304.051	91.56
304.281	83.56
304.511	82.56
304.741	87.56
304.971	99.56
305.201	87.56
305.431	86.56
305.661	104.56
305.891	89.56
306.121	89.56
306.352	94.56
306.582	94.56
306.812	96.56
307.042	94.56
307.272	103.56
307.502	100.56
307.731	102.56
307.961	102.56
308.191	98.56
308.421	87.56
308.651	87.56
308.881	108.56
309.111	84.56
309.341	94.56
309.571	103.56
309.8	105.56
310.03	90.56
310.26	85.56
310.49	84.56
310.72	107.56
310.949	92.56
311.179	94.56
311.409	85.56
311.639	83.56
311.868	100.56
312.098	90.56
312.328	91.56
312.557	89.56
312.787	101.56
313.017	105.56
313.246	101.56
313.476	75.56
313.706	93.56
313.935	82.56
314.165	106.56
314.394	95.56
314.624	102.56
314.853	99.56
315.083	89.56
315.312	91.56
315.542	95.56
315.771	98.56
316.001	93.56
316.23	91.56
316.46	95.56
316.689	86.56
316.919	93.56
317.148	86.56
317.377	96.56
317.607	98.56
317.836	76.56
318.065	88.56
318.295	75.56
318.524	81.56
318.753	94.56
318.983	93.56
319.212	91.56
319.441	110.56
319.67	92.56
319.9	94.56
320.129	92.56
320.358	98.56
320.587	92.56
320.816	98.56
321.046	98.56
321.275	97.56
321.504	85.56
321.733	97.56
321.962	100.56
322.191	94.56
322.42	107.56
322.649	113.56
322.878	106.56
323.108	115.56
323.337	124.56
323.566	133.56
323.795	143.56
324.024	206.56
324.253	375.56
324.482	822.56
324.71	1675.56
324.939	2218.56
325.168	842.56
325.397	246.56
325.626	137.56
325.855	140.56
326.084	119.56
326.313	119.56
326.542	143.56
326.77	199.56
326.999	437.56
327.228	959.56
327.457	1717.56
327.686	1383.56
327.914	385.56
328.143	216.56
328.372	195.56
328.6	134.56
328.829	133.56
329.058	129.56
329.287	135.56
329.515	118.56
329.744	120.56
329.972	126.56
330.201	154.56
330.43	197.56
330.658	159.56
330.887	133.56
331.115	119.56
331.344	120.56
331.572	87.56
331.801	109.56
332.03	90.56
332.258	97.56
332.486	89.56
332.715	91.56
332.943	85.56
333.172	100.56
333.4	106.56
333.629	114.56
333.857	108.56
334.085	125.56
334.314	171.56
334.542	236.56
334.771	220.56
334.999	122.56
335.227	92.56
335.455	92.56
335.684	92.56
335.912	87.56
336.14	104.56
336.369	104.56
336.597	98.56
336.825	99.56
337.053	97.56
337.281	97.56
337.51	94.56
337.738	86.56
337.966	91.56
338.194	88.56
338.422	100.56
338.65	86.56
338.878	100.56
339.106	95.56
339.334	89.56
339.562	77.56
339.79	82.56
340.018	78.56
340.246	94.56
340.474	95.56
340.702	95.56
340.93	94.56
341.158	116.56
341.386	99.56
341.614	83.56
341.842	89.56
342.07	91.56
342.298	95.56
342.526	99.56
342.754	79.56
342.981	98.56
343.209	73.56
343.437	94.56
343.665	88.56
343.893	96.56
344.12	86.56
344.348	91.56
344.576	90.56
344.804	86.56
345.031	91.56
345.259	99.56
345.487	86.56
345.714	99.56
345.942	93.56
346.17	98.56
346.397	103.56
346.625	98.56
346.853	84.56
347.08	79.56
347.308	104.56
347.535	93.56
347.763	102.56
347.99	97.56
348.218	98.56
348.445	94.56
348.673	115.56
348.9	94.56
349.128	89.56
349.355	89.56
349.583	89.56
349.81	99.56
350.037	97.56
350.265	86.56
350.492	98.56
350.72	88.56
350.947	107.56
351.174	109.56
351.402	93.56
351.629	102.56
351.856	89.56
352.083	84.56
352.311	99.56
352.538	113.56
352.765	101.56
352.992	97.56
353.22	109.56
353.447	117.56
353.674	99.56
353.901	90.56
354.128	94.56
354.355	88.56
354.583	105.56
354.81	89.56
355.037	108.56
355.264	99.56
355.491	101.56
355.718	95.56
355.945	104.56
356.172	92.56
356.399	88.56
356.626	91.56
356.853	90.56
357.08	89.56
357.307	92.56
357.534	94.56
357.761	99.56
357.988	98.56
358.215	102.56
358.441	91.56
358.668	99.56
358.895	81.56
359.122	99.56
359.349	98.56
359.576	90.56
359.802	91.56
360.029	103.56
360.256	114.56
360.483	91.56
360.709	92.56
360.936	92.56
361.163	98.56
361.39	107.56
361.616	98.56
361.843	94.56
362.07	94.56
362.296	92.56
362.523	86.56
362.749	83.56
362.976	89.56
363.203	94.56
363.429	87.56
363.656	93.56
363.882	93.56
364.109	79.56
364.335	102.56
364.562	78.56
364.788	99.56
365.015	95.56
365.241	93.56
365.468	114.56
365.694	100.56
365.92	92.56
366.147	85.56
366.373	88.56
366.599	93.56
366.826	87.56
367.052	94.56
367.278	85.56
367.505	85.56
367.731	107.56
367.957	99.56
368.184	90.56
368.41	114.56
368.636	101.56
368.862	102.56
369.089	118.56
369.315	93.56
369.541	82.56
369.767	86.56
369.993	93.56
370.219	99.56
370.445	79.56
370.672	89.56
370.898	83.56
371.124	77.56
371.35	89.56
371.576	81.56
371.802	75.56
372.028	88.56
372.254	81.56
372.48	91.56
372.706	93.56
372.932	109.56
373.158	76.56
373.384	83.56
373.61	90.56
373.835	89.56
374.061	77.56
374.287	85.56
374.513	90.56
374.739	81.56
374.965	85.56
375.191	87.56
375.416	89.56
375.642	88.56
375.868	92.56
376.094	103.56
376.319	79.56
376.545	104.56
376.771	92.56
376.997	116.56
377.222	90.56
377.448	96.56
377.674	87.56
377.899	93.56
378.125	90.56
378.35	92.56
378.576	73.56
378.802	85.56
379.027	91.56
379.253	91.56
379.478	94.56
379.704	79.56
379.929	73.56
380.155	91.56
380.38	82.56
380.606	88.56
380.831	92.56
381.057	101.56
381.282	96.56
381.507	110.56
381.733	118.56
381.958	105.56
382.184	104.56
382.409	99.56
382.634	96.56
382.86	104.56
383.085	106.56
383.31	122.56
383.535	93.56
383.761	97.56
383.986	96.56
384.211	83.56
384.436	99.56
384.662	97.56
384.887	88.56
385.112	108.56
385.337	103.56
385.562	102.56
385.787	105.56
386.013	108.56
386.238	104.56
386.463	114.56
386.688	119.56
386.913	107.56
387.138	125.56
387.363	125.56
387.588	103.56
387.813	104.56
388.038	115.56
388.263	117.56
388.488	123.56
388.713	105.56
388.938	101.56
389.163	97.56
389.387	90.56
389.612	101.56
389.837	92.56
390.062	88.56
390.287	104.56
390.512	103.56
390.736	85.56
390.961	94.56
391.186	87.56
391.411	94.56
391.636	98.56
391.86	85.56
392.085	88.56
392.31	81.56
392.534	87.56
392.759	80.56
392.984	90.56
393.208	92.56
393.433	105.56
393.658	109.56
393.882	81.56
394.107	95.56
394.331	83.56
394.556	93.56
394.78	88.56
395.005	85.56
395.229	63.56
395.454	82.56
395.678	89.56
395.903	76.56
396.127	90.56
396.352	92.56
396.576	81.56
396.801	93.56
397.025	105.56
397.249	83.56
397.474	91.56
397.698	87.56
397.922	76.56
398.147	77.56
398.371	95.56
398.595	92.56
398.82	85.56
399.044	85.56
399.268	94.56
399.492	76.56
399.717	82.56
399.941	87.56
400.165	85.56
400.389	86.56
400.613	95.56
400.837	87.56
401.062	78.56
401.286	103.56
401.51	83.56
401.734	95.56
401.958	97.56
402.182	116.56
402.406	149.56
402.63	130.56
402.854	97.56
403.078	97.56
403.302	93.56
403.526	79.56
403.75	86.56
403.974	93.56
404.198	75.56
404.422	94.56
404.645	96.56
404.869	91.56
405.093	98.56
405.317	116.56
405.541	95.56
405.765	98.56
405.988	109.56
406.212	169.56
406.436	224.56
406.66	148.56
406.883	106.56
407.107	105.56
407.331	100.56
407.555	102.56
407.778	91.56
408.002	89.56
408.226	95.56
408.449	86.56
408.673	98.56
408.896	95.56
409.12	96.56
409.344	93.56
409.567	100.56
409.791	89.56
410.014	94.56
410.238	92.56
410.461	96.56
410.685	93.56
410.908	103.56
411.132	95.56
411.355	98.56
411.578	97.56
411.802	83.56
412.025	83.56
412.249	104.56
412.472	103.56
412.695	106.56
412.919	93.56
413.142	85.56
413.365	76.56
413.589	94.56
413.812	89.56
414.035	79.56
414.258	100.56
414.482	82.56
414.705	88.56
414.928	96.56
415.151	91.56
415.374	86.56
415.597	90.56
415.821	94.56
416.044	85.56
416.267	101.56
416.49	87.56
416.713	91.56
416.936	79.56
417.159	105.56
417.382	74.56
417.605	80.56
417.828	100.56
418.051	113.56
418.274	101.56
418.497	91.56
418.72	96.56
418.943	85.56
419.166	91.56
419.389	89.56
419.611	94.56
419.834	80.56
420.057	73.56
420.28	96.56
420.503	69.56
420.726	92.56
420.948	78.56
421.171	86.56
421.394	97.56
421.617	90.56
421.839	92.56
422.062	93.56
422.285	91.56
422.507	109.56
422.73	94.56
422.953	110.56
423.175	97.56
423.398	94.56
423.621	103.56
423.843	96.56
424.066	93.56
424.288	91.56
424.511	92.56
424.733	86.56
424.956	92.56
425.178	91.56
425.401	111.56
425.623	98.56
425.846	97.56
426.068	107.56
426.291	87.56
426.513	90.56
426.735	82.56
426.958	85.56
427.18	89.56
427.402	158.56
427.625	157.56
427.847	134.56
428.069	126.56
428.292	86.56
428.514	88.56
428.736	63.56
428.958	88.56
429.181	78.56
429.403	91.56
429.625	98.56
429.847	79.56
430.069	98.56
430.292	95.56
430.514	87.56
430.736	89.56
430.958	98.56
431.18	88.56
431.402	87.56
431.624	98.56
431.846	81.56
432.068	79.56
432.29	75.56
432.512	81.56
432.734	84.56
432.956	87.56
433.178	107.56
433.4	105.56
433.622	93.56
433.844	89.56
434.066	100.56
434.287	91.56
434.509	88.56
434.731	85.56
434.953	64.56
435.175	92.56
435.397	91.56
435.618	90.56
435.84	101.56
436.062	128.56
436.284	112.56
436.505	106.56
436.727	98.56
436.949	94.56
437.17	86.56
437.392	87.56
437.614	94.56
437.835	95.56
438.057	117.56
438.278	99.56
438.5	89.56
438.721	127.56
438.943	96.56
439.165	90.56
439.386	80.56
439.608	108.56
439.829	90.56
440.05	120.56
440.272	139.56
440.493	101.56
440.715	92.56
440.936	95.56
441.158	89.56
441.379	91.56
441.6	100.56
441.822	91.56
442.043	91.56
442.264	109.56
442.486	98.56
442.707	97.56
442.928	102.56
443.149	119.56
443.371	130.56
443.592	107.56
443.813	89.56
444.034	94.56
444.255	94.56
444.476	78.56
444.698	82.56
444.919	93.56
445.14	129.56
445.361	118.56
445.582	104.56
445.803	140.56
446.024	131.56
446.245	124.56
446.466	113.56
446.687	103.56
446.908	105.56
447.129	79.56
447.35	91.56
447.571	96.56
447.792	102.56
448.013	98.56
448.234	114.56
448.455	107.56
448.675	109.56
448.896	115.56
449.117	102.56
449.338	97.56
449.559	120.56
449.779	120.56
450	97.56
450.221	93.56
450.442	91.56
450.662	83.56
450.883	91.56
451.104	95.56
451.324	92.56
451.545	98.56
451.766	96.56
451.986	90.56
452.207	90.56
452.428	85.56
452.648	95.56
452.869	91.56
453.089	109.56
453.31	116.56
453.53	86.56
453.751	94.56
453.971	89.56
454.192	106.56
454.412	98.56
454.633	102.56
454.853	77.56
455.073	89.56
455.294	88.56
455.514	116.56
455.734	102.56
455.955	86.56
456.175	97.56
456.395	79.56
456.616	81.56
456.836	92.56
457.056	90.56
457.276	89.56
457.497	96.56
457.717	83.56
457.937	99.56
458.157	92.56
458.377	96.56
458.598	115.56
458.818	142.56
459.038	151.56
459.258	113.56
459.478	83.56
459.698	79.56
459.918	89.56
460.138	89.56
460.358	96.56
460.578	93.56
460.798	94.56
461.018	89.56
461.238	78.56
461.458	82.56
461.678	79.56
461.898	82.56
462.118	81.56
462.338	97.56
462.558	75.56
462.777	81.56
462.997	92.56
463.217	75.56
463.437	78.56
463.657	79.56
463.876	92.56
464.096	82.56
464.316	74.56
464.536	79.56
464.755	89.56
464.975	92.56
465.195	163.56
465.414	136.56
465.634	84.56
465.854	94.56
466.073	90.56
466.293	93.56
466.512	65.56
466.732	78.56
466.951	86.56
467.171	101.56
467.391	96.56
467.61	103.56
467.829	95.56
468.049	129.56
468.268	151.56
468.488	99.56
468.707	91.56
468.927	83.56
469.146	90.56
469.365	84.56
469.585	105.56
469.804	96.56
470.023	98.56
470.243	104.56
470.462	106.56
470.681	109.56
470.901	78.56
471.12	93.56
471.339	104.56
471.558	76.56
471.777	96.56
471.997	104.56
472.216	170.56
472.435	281.56
472.654	120.56
472.873	95.56
473.092	81.56
473.311	77.56
473.53	85.56
473.749	98.56
473.968	98.56
474.187	89.56
474.406	99.56
474.625	109.56
474.844	80.56
475.063	96.56
475.282	99.56
475.501	79.56
475.72	84.56
475.939	92.56
476.158	81.56
476.377	79.56
476.596	88.56
476.814	95.56
477.033	94.56
477.252	92.56
477.471	77.56
477.69	87.56
477.908	79.56
478.127	96.56
478.346	83.56
478.564	106.56
478.783	101.56
479.002	99.56
479.22	83.56
479.439	87.56
479.658	106.56
479.876	96.56
480.095	103.56
480.313	89.56
480.532	97.56
480.751	120.56
480.969	178.56
481.188	451.56
481.406	315.56
481.624	106.56
481.843	92.56
482.061	80.56
482.28	90.56
482.498	79.56
482.717	93.56
482.935	89.56
483.153	85.56
483.372	90.56
483.59	91.56
483.808	76.56
484.027	83.56
484.245	79.56
484.463	90.56
484.681	76.56
484.9	90.56
485.118	88.56
485.336	82.56
485.554	97.56
485.772	97.56
485.99	97.56
486.209	80.56
486.427	91.56
486.645	95.56
486.863	92.56
487.081	91.56
487.299	101.56
487.517	110.56
487.735	88.56
487.953	88.56
488.171	84.56
488.389	89.56
488.607	90.56
488.825	90.56
489.043	90.56
489.261	104.56
489.479	92.56
489.696	90.56
489.914	85.56
490.132	97.56
490.35	93.56
490.568	86.56
490.786	92.56
491.003	91.56
491.221	73.56
491.439	94.56
491.657	105.56
491.874	87.56
492.092	78.56
492.31	86.56
492.527	86.56
492.745	82.56
492.963	85.56
493.18	97.56
493.398	86.56
493.615	94.56
493.833	84.56
494.05	99.56
494.268	78.56
494.485	89.56
494.703	92.56
494.92	82.56
495.138	94.56
495.355	97.56
495.573	89.56
495.79	88.56
496.008	97.56
496.225	93.56
496.442	93.56
496.66	88.56
496.877	95.56
497.094	90.56
497.312	77.56
497.529	90.56
497.746	94.56
497.963	85.56
498.181	83.56
498.398	77.56
498.615	97.56
498.832	100.56
499.049	97.56
499.267	83.56
499.484	85.56
499.701	88.56
499.918	80.56
500.135	73.56
500.352	82.56
500.569	96.56
500.786	93.56
501.003	88.56
501.22	89.56
501.437	109.56
501.654	102.56
501.871	110.56
502.088	93.56
502.305	103.56
502.522	86.56
502.739	100.56
502.956	98.56
503.172	94.56
503.389	95.56
503.606	96.56
503.823	73.56
504.04	84.56
504.256	86.56
504.473	86.56
504.69	80.56
504.907	101.56
505.123	94.56
505.34	105.56
505.557	85.56
505.773	86.56
505.99	84.56
506.207	86.56
506.423	75.56
506.64	99.56
506.856	87.56
507.073	92.56
507.289	96.56
507.506	87.56
507.722	101.56
507.939	104.56
508.155	96.56
508.372	97.56
508.588	93.56
508.805	108.56
509.021	83.56
509.238	94.56
509.454	99.56
509.67	94.56
509.887	107.56
510.103	132.56
510.319	228.56
510.536	782.56
510.752	2537.56
510.968	731.56
511.184	153.56
511.401	108.56
511.617	99.56
511.833	98.56
512.049	94.56
512.265	98.56
512.481	95.56
512.698	88.56
512.914	85.56
513.13	78.56
513.346	83.56
513.562	86.56
513.778	108.56
513.994	104.56
514.21	101.56
514.426	122.56
514.642	131.56
514.858	123.56
515.074	169.56
515.29	413.56
515.506	1498.56
515.721	575.56
515.937	145.56
