Data from Circ_2015_H10_HRD10591_00089.txt Node
Date: Wed Jan 03 10:00:40 EST 2024
User: Yrep
Spectrometer: HR+D1059
Trigger mode: 1
Integration Time (sec): 1.000000E-1
Scans to average: 1
Electric dark correction enabled: true
Nonlinearity correction enabled: false
Boxcar width: 0
XAxis mode: Wavelengths
Number of Pixels in Spectrum: 2048
>>>>>Begin Spectral Data<<<<<
223.165	-7.88
223.4	-7.88
223.635	-7.88
223.869	-12.88
224.104	-14.88
224.338	-10.88
224.573	-3.88
224.808	-6.88
225.042	-9.88
225.277	-4.88
225.511	-11.88
225.746	-1.88
225.98	12.12
226.215	2.12
226.449	-0.88
226.683	14.12
226.918	33.12
227.152	25.12
227.387	32.12
227.621	23.12
227.856	36.12
228.09	68.12
228.324	53.12
228.559	56.12
228.793	51.12
229.027	74.12
229.262	74.12
229.496	68.12
229.73	100.12
229.964	104.12
230.199	86.12
230.433	70.12
230.667	74.12
230.901	92.12
231.136	69.12
231.37	88.12
231.604	83.12
231.838	64.12
232.072	81.12
232.306	72.12
232.541	82.12
232.775	67.12
233.009	81.12
233.243	79.12
233.477	84.12
233.711	89.12
233.945	86.12
234.179	82.12
234.413	83.12
234.647	80.12
234.881	88.12
235.115	85.12
235.349	73.12
235.583	77.12
235.817	69.12
236.051	82.12
236.285	84.12
236.519	67.12
236.753	88.12
236.987	73.12
237.221	97.12
237.455	110.12
237.689	86.12
237.922	70.12
238.156	68.12
238.39	68.12
238.624	80.12
238.858	81.12
239.091	62.12
239.325	86.12
239.559	76.12
239.793	73.12
240.027	67.12
240.26	85.12
240.494	85.12
240.728	83.12
240.961	91.12
241.195	81.12
241.429	75.12
241.662	82.12
241.896	92.12
242.13	74.12
242.363	71.12
242.597	78.12
242.83	71.12
243.064	79.12
243.298	84.12
243.531	77.12
243.765	97.12
243.998	81.12
244.232	78.12
244.465	87.12
244.699	68.12
244.932	89.12
245.166	75.12
245.399	77.12
245.633	82.12
245.866	80.12
246.099	66.12
246.333	91.12
246.566	74.12
246.8	86.12
247.033	80.12
247.266	91.12
247.5	87.12
247.733	75.12
247.966	81.12
248.2	79.12
248.433	84.12
248.666	77.12
248.899	85.12
249.133	79.12
249.366	89.12
249.599	102.12
249.832	95.12
250.066	82.12
250.299	88.12
250.532	85.12
250.765	95.12
250.998	75.12
251.231	71.12
251.465	83.12
251.698	84.12
251.931	89.12
252.164	82.12
252.397	71.12
252.63	75.12
252.863	88.12
253.096	87.12
253.329	77.12
253.562	93.12
253.795	75.12
254.028	86.12
254.261	76.12
254.494	75.12
254.727	77.12
254.96	91.12
255.193	81.12
255.426	72.12
255.659	77.12
255.892	84.12
256.124	95.12
256.357	80.12
256.59	88.12
256.823	82.12
257.056	87.12
257.289	90.12
257.521	86.12
257.754	85.12
257.987	80.12
258.22	91.12
258.452	93.12
258.685	70.12
258.918	69.12
259.151	81.12
259.383	95.12
259.616	78.12
259.849	83.12
260.081	68.12
260.314	88.12
260.547	104.12
260.779	89.12
261.012	80.12
261.244	81.12
261.477	95.12
261.71	110.12
261.942	124.12
262.175	144.12
262.407	88.12
262.64	87.12
262.872	93.12
263.105	98.12
263.337	84.12
263.57	90.12
263.802	81.12
264.035	92.12
264.267	72.12
264.499	77.12
264.732	87.12
264.964	83.12
265.197	94.12
265.429	97.12
265.661	83.12
265.894	94.12
266.126	86.12
266.358	80.12
266.591	80.12
266.823	67.12
267.055	72.12
267.287	85.12
267.52	94.12
267.752	90.12
267.984	86.12
268.216	84.12
268.448	99.12
268.681	89.12
268.913	77.12
269.145	89.12
269.377	85.12
269.609	85.12
269.841	78.12
270.073	67.12
270.306	81.12
270.538	90.12
270.77	86.12
271.002	90.12
271.234	91.12
271.466	80.12
271.698	87.12
271.93	104.12
272.162	90.12
272.394	83.12
272.626	84.12
272.858	73.12
273.09	95.12
273.322	74.12
273.553	85.12
273.785	76.12
274.017	84.12
274.249	82.12
274.481	89.12
274.713	89.12
274.945	98.12
275.176	92.12
275.408	97.12
275.64	104.12
275.872	99.12
276.104	93.12
276.335	82.12
276.567	111.12
276.799	118.12
277.031	116.12
277.262	137.12
277.494	114.12
277.726	95.12
277.957	70.12
278.189	97.12
278.421	90.12
278.652	91.12
278.884	77.12
279.115	90.12
279.347	88.12
279.579	94.12
279.81	92.12
280.042	127.12
280.273	158.12
280.505	113.12
280.736	95.12
280.968	80.12
281.199	88.12
281.431	92.12
281.662	87.12
281.894	101.12
282.125	116.12
282.356	131.12
282.588	168.12
282.819	132.12
283.051	92.12
283.282	94.12
283.513	84.12
283.745	91.12
283.976	71.12
284.207	96.12
284.439	96.12
284.67	92.12
284.901	95.12
285.132	80.12
285.364	78.12
285.595	82.12
285.826	94.12
286.057	85.12
286.288	83.12
286.52	71.12
286.751	83.12
286.982	80.12
287.213	91.12
287.444	88.12
287.675	91.12
287.906	77.12
288.138	87.12
288.369	99.12
288.6	94.12
288.831	95.12
289.062	94.12
289.293	91.12
289.524	81.12
289.755	83.12
289.986	96.12
290.217	88.12
290.448	91.12
290.679	91.12
290.91	77.12
291.141	83.12
291.371	92.12
291.602	94.12
291.833	102.12
292.064	90.12
292.295	80.12
292.526	82.12
292.757	80.12
292.987	90.12
293.218	87.12
293.449	93.12
293.68	92.12
293.91	90.12
294.141	112.12
294.372	83.12
294.603	101.12
294.833	72.12
295.064	89.12
295.295	71.12
295.525	98.12
295.756	115.12
295.987	114.12
296.217	164.12
296.448	145.12
296.679	102.12
296.909	89.12
297.14	87.12
297.37	87.12
297.601	90.12
297.831	86.12
298.062	90.12
298.292	81.12
298.523	91.12
298.753	85.12
298.984	100.12
299.214	89.12
299.445	82.12
299.675	81.12
299.905	90.12
300.136	83.12
300.366	103.12
300.597	80.12
300.827	93.12
301.057	117.12
301.288	115.12
301.518	92.12
301.748	85.12
301.979	99.12
302.209	89.12
302.439	110.12
302.669	98.12
302.9	82.12
303.13	94.12
303.36	80.12
303.59	88.12
303.82	136.12
304.051	93.12
304.281	99.12
304.511	94.12
304.741	77.12
304.971	90.12
305.201	79.12
305.431	99.12
305.661	89.12
305.891	103.12
306.121	109.12
306.352	95.12
306.582	124.12
306.812	108.12
307.042	121.12
307.272	135.12
307.502	130.12
307.731	120.12
307.961	107.12
308.191	96.12
308.421	93.12
308.651	102.12
308.881	102.12
309.111	86.12
309.341	83.12
309.571	104.12
309.8	98.12
310.03	96.12
310.26	116.12
310.49	111.12
310.72	84.12
310.949	115.12
311.179	115.12
311.409	80.12
311.639	104.12
311.868	87.12
312.098	88.12
312.328	107.12
312.557	99.12
312.787	111.12
313.017	102.12
313.246	113.12
313.476	91.12
313.706	97.12
313.935	111.12
314.165	97.12
314.394	113.12
314.624	87.12
314.853	109.12
315.083	87.12
315.312	95.12
315.542	95.12
315.771	88.12
316.001	84.12
316.23	84.12
316.46	104.12
316.689	103.12
316.919	97.12
317.148	97.12
317.377	106.12
317.607	97.12
317.836	108.12
318.065	96.12
318.295	98.12
318.524	87.12
318.753	91.12
318.983	101.12
319.212	111.12
319.441	113.12
319.67	97.12
319.9	90.12
320.129	92.12
320.358	79.12
320.587	98.12
320.816	104.12
321.046	106.12
321.275	118.12
321.504	95.12
321.733	89.12
321.962	88.12
322.191	113.12
322.42	117.12
322.649	111.12
322.878	129.12
323.108	139.12
323.337	130.12
323.566	159.12
323.795	182.12
324.024	244.12
324.253	518.12
324.482	1161.12
324.71	2454.12
324.939	3399.12
325.168	1207.12
325.397	326.12
325.626	190.12
325.855	158.12
326.084	138.12
326.313	154.12
326.542	187.12
326.77	299.12
326.999	612.12
327.228	1293.12
327.457	2442.12
327.686	1994.12
327.914	575.12
328.143	366.12
328.372	362.12
328.6	228.12
328.829	168.12
329.058	162.12
329.287	186.12
329.515	156.12
329.744	168.12
329.972	235.12
330.201	452.12
330.43	633.12
330.658	346.12
330.887	227.12
331.115	171.12
331.344	100.12
331.572	99.12
331.801	121.12
332.03	128.12
332.258	109.12
332.486	91.12
332.715	102.12
332.943	127.12
333.172	115.12
333.4	108.12
333.629	128.12
333.857	157.12
334.085	240.12
334.314	409.12
334.542	782.12
334.771	748.12
334.999	243.12
335.227	133.12
335.455	114.12
335.684	105.12
335.912	95.12
336.14	99.12
336.369	112.12
336.597	115.12
336.825	103.12
337.053	95.12
337.281	92.12
337.51	96.12
337.738	88.12
337.966	103.12
338.194	101.12
338.422	97.12
338.65	99.12
338.878	99.12
339.106	80.12
339.334	96.12
339.562	87.12
339.79	84.12
340.018	89.12
340.246	88.12
340.474	90.12
340.702	100.12
340.93	94.12
341.158	89.12
341.386	99.12
341.614	112.12
341.842	101.12
342.07	92.12
342.298	100.12
342.526	92.12
342.754	95.12
342.981	83.12
343.209	76.12
343.437	98.12
343.665	96.12
343.893	96.12
344.12	98.12
344.348	87.12
344.576	94.12
344.804	96.12
345.031	99.12
345.259	112.12
345.487	113.12
345.714	97.12
345.942	96.12
346.17	108.12
346.397	98.12
346.625	94.12
346.853	83.12
347.08	90.12
347.308	100.12
347.535	90.12
347.763	115.12
347.99	117.12
348.218	111.12
348.445	119.12
348.673	109.12
348.9	88.12
349.128	92.12
349.355	89.12
349.583	92.12
349.81	90.12
350.037	95.12
350.265	81.12
350.492	85.12
350.72	102.12
350.947	99.12
351.174	120.12
351.402	115.12
351.629	105.12
351.856	117.12
352.083	119.12
352.311	111.12
352.538	133.12
352.765	115.12
352.992	117.12
353.22	115.12
353.447	112.12
353.674	97.12
353.901	86.12
354.128	87.12
354.355	100.12
354.583	102.12
354.81	94.12
355.037	95.12
355.264	83.12
355.491	96.12
355.718	85.12
355.945	97.12
356.172	91.12
356.399	93.12
356.626	100.12
356.853	111.12
357.08	86.12
357.307	76.12
357.534	86.12
357.761	82.12
357.988	97.12
358.215	99.12
358.441	98.12
358.668	98.12
358.895	105.12
359.122	93.12
359.349	97.12
359.576	103.12
359.802	103.12
360.029	128.12
360.256	125.12
360.483	101.12
360.709	106.12
360.936	101.12
361.163	96.12
361.39	91.12
361.616	100.12
361.843	106.12
362.07	99.12
362.296	123.12
362.523	95.12
362.749	87.12
362.976	95.12
363.203	84.12
363.429	100.12
363.656	102.12
363.882	87.12
364.109	88.12
364.335	97.12
364.562	84.12
364.788	104.12
365.015	91.12
365.241	101.12
365.468	113.12
365.694	124.12
365.92	92.12
366.147	89.12
366.373	87.12
366.599	95.12
366.826	95.12
367.052	83.12
367.278	106.12
367.505	102.12
367.731	99.12
367.957	106.12
368.184	89.12
368.41	103.12
368.636	128.12
368.862	129.12
369.089	112.12
369.315	104.12
369.541	99.12
369.767	95.12
369.993	95.12
370.219	108.12
370.445	89.12
370.672	75.12
370.898	81.12
371.124	84.12
371.35	93.12
371.576	91.12
371.802	87.12
372.028	92.12
372.254	87.12
372.48	99.12
372.706	105.12
372.932	75.12
373.158	74.12
373.384	94.12
373.61	84.12
373.835	80.12
374.061	90.12
374.287	99.12
374.513	92.12
374.739	93.12
374.965	89.12
375.191	70.12
375.416	83.12
375.642	79.12
375.868	89.12
376.094	87.12
376.319	92.12
376.545	67.12
376.771	85.12
376.997	92.12
377.222	90.12
377.448	90.12
377.674	87.12
377.899	87.12
378.125	95.12
378.35	82.12
378.576	86.12
378.802	84.12
379.027	83.12
379.253	103.12
379.478	87.12
379.704	89.12
379.929	97.12
380.155	87.12
380.38	97.12
380.606	88.12
380.831	95.12
381.057	96.12
381.282	87.12
381.507	89.12
381.733	118.12
381.958	91.12
382.184	89.12
382.409	100.12
382.634	92.12
382.86	91.12
383.085	104.12
383.31	87.12
383.535	99.12
383.761	98.12
383.986	100.12
384.211	92.12
384.436	93.12
384.662	101.12
384.887	99.12
385.112	85.12
385.337	106.12
385.562	111.12
385.787	108.12
386.013	112.12
386.238	125.12
386.463	106.12
386.688	105.12
386.913	102.12
387.138	101.12
387.363	91.12
387.588	94.12
387.813	105.12
388.038	108.12
388.263	103.12
388.488	100.12
388.713	95.12
388.938	92.12
389.163	94.12
389.387	91.12
389.612	89.12
389.837	92.12
390.062	83.12
390.287	89.12
390.512	96.12
390.736	88.12
390.961	85.12
391.186	94.12
391.411	94.12
391.636	102.12
391.86	80.12
392.085	82.12
392.31	92.12
392.534	85.12
392.759	93.12
392.984	89.12
393.208	80.12
393.433	99.12
393.658	98.12
393.882	86.12
394.107	76.12
394.331	85.12
394.556	78.12
394.78	100.12
395.005	83.12
395.229	94.12
395.454	89.12
395.678	82.12
395.903	97.12
396.127	115.12
396.352	87.12
396.576	91.12
396.801	83.12
397.025	96.12
397.249	79.12
397.474	84.12
397.698	95.12
397.922	73.12
398.147	90.12
398.371	87.12
398.595	95.12
398.82	88.12
399.044	82.12
399.268	83.12
399.492	92.12
399.717	108.12
399.941	99.12
400.165	97.12
400.389	86.12
400.613	92.12
400.837	98.12
401.062	83.12
401.286	84.12
401.51	101.12
401.734	104.12
401.958	103.12
402.182	148.12
402.406	202.12
402.63	141.12
402.854	103.12
403.078	89.12
403.302	89.12
403.526	89.12
403.75	83.12
403.974	91.12
404.198	83.12
404.422	92.12
404.645	94.12
404.869	99.12
405.093	112.12
405.317	135.12
405.541	137.12
405.765	120.12
405.988	139.12
406.212	210.12
406.436	311.12
406.66	198.12
406.883	125.12
407.107	91.12
407.331	109.12
407.555	101.12
407.778	105.12
408.002	92.12
408.226	92.12
408.449	85.12
408.673	93.12
408.896	103.12
409.12	108.12
409.344	81.12
409.567	92.12
409.791	76.12
410.014	92.12
410.238	104.12
410.461	86.12
410.685	100.12
410.908	88.12
411.132	101.12
411.355	107.12
411.578	77.12
411.802	91.12
412.025	79.12
412.249	99.12
412.472	106.12
412.695	104.12
412.919	108.12
413.142	99.12
413.365	74.12
413.589	92.12
413.812	99.12
414.035	83.12
414.258	80.12
414.482	88.12
414.705	89.12
414.928	90.12
415.151	78.12
415.374	99.12
415.597	85.12
415.821	97.12
416.044	88.12
416.267	89.12
416.49	85.12
416.713	82.12
416.936	70.12
417.159	92.12
417.382	93.12
417.605	93.12
417.828	105.12
418.051	93.12
418.274	94.12
418.497	99.12
418.72	93.12
418.943	83.12
419.166	84.12
419.389	84.12
419.611	101.12
419.834	93.12
420.057	95.12
420.28	96.12
420.503	85.12
420.726	83.12
420.948	87.12
421.171	95.12
421.394	100.12
421.617	71.12
421.839	88.12
422.062	75.12
422.285	99.12
422.507	90.12
422.73	104.12
422.953	98.12
423.175	91.12
423.398	88.12
423.621	79.12
423.843	90.12
424.066	89.12
424.288	93.12
424.511	103.12
424.733	97.12
424.956	128.12
425.178	113.12
425.401	114.12
425.623	100.12
425.846	95.12
426.068	88.12
426.291	87.12
426.513	92.12
426.735	92.12
426.958	100.12
427.18	116.12
427.402	169.12
427.625	252.12
427.847	229.12
428.069	190.12
428.292	117.12
428.514	106.12
428.736	95.12
428.958	77.12
429.181	79.12
429.403	92.12
429.625	88.12
429.847	99.12
430.069	116.12
430.292	86.12
430.514	95.12
430.736	96.12
430.958	73.12
431.18	82.12
431.402	96.12
431.624	82.12
431.846	78.12
432.068	92.12
432.29	92.12
432.512	81.12
432.734	83.12
432.956	92.12
433.178	103.12
433.4	115.12
433.622	96.12
433.844	84.12
434.066	89.12
434.287	85.12
434.509	87.12
434.731	86.12
434.953	93.12
435.175	80.12
435.397	82.12
435.618	73.12
435.84	118.12
436.062	135.12
436.284	136.12
436.505	118.12
436.727	106.12
436.949	93.12
437.17	83.12
437.392	89.12
437.614	91.12
437.835	116.12
438.057	145.12
438.278	135.12
438.5	128.12
438.721	147.12
438.943	104.12
439.165	93.12
439.386	90.12
439.608	81.12
439.829	105.12
440.05	139.12
440.272	192.12
440.493	111.12
440.715	82.12
440.936	95.12
441.158	83.12
441.379	81.12
441.6	92.12
441.822	94.12
442.043	116.12
442.264	118.12
442.486	107.12
442.707	118.12
442.928	132.12
443.149	155.12
443.371	167.12
443.592	115.12
443.813	149.12
444.034	118.12
444.255	99.12
444.476	80.12
444.698	83.12
444.919	83.12
445.14	120.12
445.361	130.12
445.582	155.12
445.803	172.12
446.024	185.12
446.245	181.12
446.466	132.12
446.687	95.12
446.908	84.12
447.129	93.12
447.35	101.12
447.571	96.12
447.792	106.12
448.013	105.12
448.234	108.12
448.455	108.12
448.675	122.12
448.896	143.12
449.117	117.12
449.338	118.12
449.559	155.12
449.779	159.12
450	108.12
450.221	87.12
450.442	92.12
450.662	111.12
450.883	121.12
451.104	132.12
451.324	115.12
451.545	85.12
451.766	94.12
451.986	85.12
452.207	82.12
452.428	108.12
452.648	96.12
452.869	116.12
453.089	139.12
453.31	138.12
453.53	105.12
453.751	96.12
453.971	112.12
454.192	119.12
454.412	107.12
454.633	90.12
454.853	81.12
455.073	85.12
455.294	95.12
455.514	100.12
455.734	104.12
455.955	90.12
456.175	91.12
456.395	80.12
456.616	83.12
456.836	80.12
457.056	80.12
457.276	88.12
457.497	104.12
457.717	88.12
457.937	103.12
458.157	93.12
458.377	96.12
458.598	129.12
458.818	205.12
459.038	211.12
459.258	143.12
459.478	92.12
459.698	82.12
459.918	90.12
460.138	68.12
460.358	73.12
460.578	77.12
460.798	94.12
461.018	88.12
461.238	83.12
461.458	73.12
461.678	84.12
461.898	79.12
462.118	83.12
462.338	92.12
462.558	90.12
462.777	85.12
462.997	85.12
463.217	97.12
463.437	96.12
463.657	93.12
463.876	79.12
464.096	103.12
464.316	101.12
464.536	95.12
464.755	97.12
464.975	128.12
465.195	215.12
465.414	233.12
465.634	106.12
465.854	91.12
466.073	98.12
466.293	72.12
466.512	100.12
466.732	87.12
466.951	88.12
467.171	99.12
467.391	101.12
467.61	114.12
467.829	143.12
468.049	252.12
468.268	362.12
468.488	129.12
468.707	111.12
468.927	95.12
469.146	92.12
469.365	94.12
469.585	100.12
469.804	93.12
470.023	102.12
470.243	76.12
470.462	130.12
470.681	138.12
470.901	104.12
471.12	95.12
471.339	107.12
471.558	90.12
471.777	114.12
471.997	164.12
472.216	465.12
472.435	1030.12
472.654	297.12
472.873	117.12
473.092	94.12
473.311	78.12
473.53	89.12
473.749	80.12
473.968	96.12
474.187	116.12
474.406	112.12
474.625	92.12
474.844	84.12
475.063	76.12
475.282	99.12
475.501	80.12
475.72	82.12
475.939	72.12
476.158	88.12
476.377	74.12
476.596	90.12
476.814	105.12
477.033	103.12
477.252	76.12
477.471	95.12
477.69	98.12
477.908	95.12
478.127	102.12
478.346	86.12
478.564	99.12
478.783	118.12
479.002	91.12
479.22	100.12
479.439	123.12
479.658	119.12
479.876	107.12
480.095	104.12
480.313	109.12
480.532	110.12
480.751	155.12
480.969	435.12
481.188	1668.12
481.406	1111.12
481.624	208.12
481.843	119.12
482.061	96.12
482.28	96.12
482.498	77.12
482.717	85.12
482.935	93.12
483.153	92.12
483.372	87.12
483.59	103.12
483.808	88.12
484.027	92.12
484.245	82.12
484.463	106.12
484.681	101.12
484.9	88.12
485.118	85.12
485.336	98.12
485.554	91.12
485.772	92.12
485.99	97.12
486.209	100.12
486.427	101.12
486.645	122.12
486.863	107.12
487.081	98.12
487.299	84.12
487.517	101.12
487.735	83.12
487.953	103.12
488.171	97.12
488.389	88.12
488.607	92.12
488.825	92.12
489.043	89.12
489.261	89.12
489.479	90.12
489.696	100.12
489.914	81.12
490.132	96.12
490.35	87.12
490.568	95.12
490.786	102.12
491.003	97.12
491.221	77.12
491.439	80.12
491.657	86.12
491.874	83.12
492.092	95.12
492.31	92.12
492.527	99.12
492.745	88.12
492.963	95.12
493.18	84.12
493.398	100.12
493.615	92.12
493.833	91.12
494.05	84.12
494.268	85.12
494.485	92.12
494.703	100.12
494.92	85.12
495.138	103.12
495.355	101.12
495.573	89.12
495.79	84.12
496.008	108.12
496.225	100.12
496.442	84.12
496.66	93.12
496.877	81.12
497.094	106.12
497.312	100.12
497.529	83.12
497.746	113.12
497.963	94.12
498.181	89.12
498.398	87.12
498.615	109.12
498.832	113.12
499.049	87.12
499.267	83.12
499.484	97.12
499.701	100.12
499.918	97.12
500.135	98.12
500.352	87.12
500.569	82.12
500.786	89.12
501.003	90.12
501.22	100.12
501.437	94.12
501.654	92.12
501.871	107.12
502.088	82.12
502.305	101.12
502.522	94.12
502.739	108.12
502.956	88.12
503.172	76.12
503.389	115.12
503.606	118.12
503.823	111.12
504.04	83.12
504.256	96.12
504.473	92.12
504.69	77.12
504.907	115.12
505.123	94.12
505.34	85.12
505.557	81.12
505.773	101.12
505.99	92.12
506.207	93.12
506.423	75.12
506.64	91.12
506.856	92.12
507.073	91.12
507.289	87.12
507.506	97.12
507.722	131.12
507.939	121.12
508.155	102.12
508.372	106.12
508.588	96.12
508.805	94.12
509.021	89.12
509.238	104.12
509.454	103.12
509.67	104.12
509.887	120.12
510.103	153.12
510.319	235.12
510.536	892.12
510.752	3168.12
510.968	913.12
511.184	181.12
511.401	135.12
511.617	97.12
511.833	93.12
512.049	100.12
512.265	104.12
512.481	101.12
512.698	100.12
512.914	101.12
513.13	80.12
513.346	92.12
513.562	96.12
513.778	108.12
513.994	118.12
