Data from Circ_2015_H10_HRD10591_00040.txt Node
Date: Wed Jan 03 10:00:30 EST 2024
User: Yrep
Spectrometer: HR+D1059
Trigger mode: 1
Integration Time (sec): 1.000000E-1
Scans to average: 1
Electric dark correction enabled: true
Nonlinearity correction enabled: false
Boxcar width: 0
XAxis mode: Wavelengths
Number of Pixels in Spectrum: 2048
>>>>>Begin Spectral Data<<<<<
223.165	-15.12
223.4	-15.12
223.635	-15.12
223.869	-30.12
224.104	-14.12
224.338	-22.12
224.573	-2.12
224.808	-14.12
225.042	-14.12
225.277	-6.12
225.511	-0.12
225.746	-1.12
225.98	15.88
226.215	5.88
226.449	27.88
226.683	24.88
226.918	26.88
227.152	17.88
227.387	26.88
227.621	29.88
227.856	41.88
228.09	44.88
228.324	64.88
228.559	55.88
228.793	47.88
229.027	62.88
229.262	70.88
229.496	77.88
229.73	92.88
229.964	71.88
230.199	73.88
230.433	90.88
230.667	72.88
230.901	76.88
231.136	82.88
231.37	67.88
231.604	73.88
231.838	78.88
232.072	76.88
232.306	79.88
232.541	76.88
232.775	88.88
233.009	64.88
233.243	94.88
233.477	86.88
233.711	94.88
233.945	73.88
234.179	65.88
234.413	74.88
234.647	88.88
234.881	87.88
235.115	81.88
235.349	76.88
235.583	69.88
235.817	79.88
236.051	86.88
236.285	74.88
236.519	87.88
236.753	79.88
236.987	66.88
237.221	78.88
237.455	79.88
237.689	73.88
237.922	76.88
238.156	72.88
238.39	91.88
238.624	68.88
238.858	70.88
239.091	88.88
239.325	64.88
239.559	77.88
239.793	69.88
240.027	76.88
240.26	74.88
240.494	73.88
240.728	76.88
240.961	69.88
241.195	73.88
241.429	85.88
241.662	75.88
241.896	84.88
242.13	85.88
242.363	85.88
242.597	84.88
242.83	67.88
243.064	87.88
243.298	92.88
243.531	81.88
243.765	66.88
243.998	82.88
244.232	80.88
244.465	73.88
244.699	80.88
244.932	77.88
245.166	81.88
245.399	86.88
245.633	77.88
245.866	81.88
246.099	73.88
246.333	89.88
246.566	76.88
246.8	80.88
247.033	71.88
247.266	74.88
247.5	78.88
247.733	82.88
247.966	79.88
248.2	78.88
248.433	66.88
248.666	87.88
248.899	87.88
249.133	79.88
249.366	97.88
249.599	90.88
249.832	75.88
250.066	63.88
250.299	82.88
250.532	83.88
250.765	75.88
250.998	66.88
251.231	93.88
251.465	73.88
251.698	79.88
251.931	72.88
252.164	75.88
252.397	76.88
252.63	85.88
252.863	89.88
253.096	83.88
253.329	81.88
253.562	87.88
253.795	88.88
254.028	87.88
254.261	93.88
254.494	85.88
254.727	91.88
254.96	78.88
255.193	77.88
255.426	84.88
255.659	84.88
255.892	82.88
256.124	85.88
256.357	84.88
256.59	93.88
256.823	98.88
257.056	82.88
257.289	92.88
257.521	86.88
257.754	83.88
257.987	86.88
258.22	84.88
258.452	84.88
258.685	89.88
258.918	78.88
259.151	76.88
259.383	86.88
259.616	73.88
259.849	81.88
260.081	87.88
260.314	77.88
260.547	106.88
260.779	75.88
261.012	88.88
261.244	92.88
261.477	90.88
261.71	92.88
261.942	105.88
262.175	99.88
262.407	82.88
262.64	88.88
262.872	84.88
263.105	82.88
263.337	91.88
263.57	86.88
263.802	83.88
264.035	82.88
264.267	86.88
264.499	86.88
264.732	78.88
264.964	97.88
265.197	88.88
265.429	80.88
265.661	87.88
265.894	89.88
266.126	95.88
266.358	89.88
266.591	83.88
266.823	94.88
267.055	91.88
267.287	79.88
267.52	86.88
267.752	85.88
267.984	70.88
268.216	86.88
268.448	89.88
268.681	87.88
268.913	87.88
269.145	85.88
269.377	78.88
269.609	105.88
269.841	78.88
270.073	88.88
270.306	74.88
270.538	89.88
270.77	87.88
271.002	88.88
271.234	83.88
271.466	102.88
271.698	85.88
271.93	79.88
272.162	100.88
272.394	87.88
272.626	95.88
272.858	86.88
273.09	80.88
273.322	102.88
273.553	97.88
273.785	88.88
274.017	88.88
274.249	82.88
274.481	79.88
274.713	81.88
274.945	86.88
275.176	76.88
275.408	86.88
275.64	92.88
275.872	94.88
276.104	86.88
276.335	88.88
276.567	103.88
276.799	86.88
277.031	100.88
277.262	106.88
277.494	107.88
277.726	84.88
277.957	91.88
278.189	88.88
278.421	74.88
278.652	81.88
278.884	94.88
279.115	78.88
279.347	88.88
279.579	81.88
279.81	97.88
280.042	102.88
280.273	101.88
280.505	87.88
280.736	96.88
280.968	86.88
281.199	86.88
281.431	82.88
281.662	80.88
281.894	86.88
282.125	95.88
282.356	116.88
282.588	123.88
282.819	105.88
283.051	82.88
283.282	87.88
283.513	91.88
283.745	86.88
283.976	102.88
284.207	91.88
284.439	98.88
284.67	90.88
284.901	89.88
285.132	104.88
285.364	75.88
285.595	90.88
285.826	79.88
286.057	79.88
286.288	90.88
286.52	78.88
286.751	84.88
286.982	87.88
287.213	86.88
287.444	78.88
287.675	87.88
287.906	97.88
288.138	83.88
288.369	95.88
288.6	101.88
288.831	89.88
289.062	93.88
289.293	90.88
289.524	87.88
289.755	78.88
289.986	83.88
290.217	77.88
290.448	95.88
290.679	86.88
290.91	94.88
291.141	94.88
291.371	94.88
291.602	95.88
291.833	77.88
292.064	102.88
292.295	78.88
292.526	88.88
292.757	91.88
292.987	81.88
293.218	82.88
293.449	90.88
293.68	94.88
293.91	86.88
294.141	95.88
294.372	91.88
294.603	85.88
294.833	96.88
295.064	78.88
295.295	99.88
295.525	92.88
295.756	85.88
295.987	90.88
296.217	123.88
296.448	101.88
296.679	101.88
296.909	84.88
297.14	95.88
297.37	98.88
297.601	82.88
297.831	89.88
298.062	89.88
298.292	95.88
298.523	89.88
298.753	83.88
298.984	76.88
299.214	86.88
299.445	90.88
299.675	84.88
299.905	102.88
300.136	91.88
300.366	94.88
300.597	95.88
300.827	90.88
301.057	91.88
301.288	96.88
301.518	90.88
301.748	86.88
301.979	105.88
302.209	99.88
302.439	91.88
302.669	95.88
302.9	80.88
303.13	89.88
303.36	96.88
303.59	99.88
303.82	101.88
304.051	91.88
304.281	83.88
304.511	81.88
304.741	93.88
304.971	86.88
305.201	87.88
305.431	90.88
305.661	82.88
305.891	104.88
306.121	93.88
306.352	92.88
306.582	94.88
306.812	102.88
307.042	95.88
307.272	101.88
307.502	103.88
307.731	102.88
307.961	105.88
308.191	87.88
308.421	85.88
308.651	83.88
308.881	77.88
309.111	93.88
309.341	96.88
309.571	87.88
309.8	84.88
310.03	96.88
310.26	100.88
310.49	98.88
310.72	114.88
310.949	88.88
311.179	87.88
311.409	93.88
311.639	82.88
311.868	88.88
312.098	108.88
312.328	78.88
312.557	100.88
312.787	99.88
313.017	98.88
313.246	86.88
313.476	97.88
313.706	84.88
313.935	97.88
314.165	104.88
314.394	104.88
314.624	97.88
314.853	86.88
315.083	87.88
315.312	89.88
315.542	92.88
315.771	89.88
316.001	106.88
316.23	81.88
316.46	81.88
316.689	94.88
316.919	104.88
317.148	95.88
317.377	90.88
317.607	95.88
317.836	105.88
318.065	94.88
318.295	88.88
318.524	82.88
318.753	101.88
318.983	89.88
319.212	124.88
319.441	101.88
319.67	126.88
319.9	91.88
320.129	92.88
320.358	103.88
320.587	85.88
320.816	105.88
321.046	113.88
321.275	96.88
321.504	95.88
321.733	98.88
321.962	111.88
322.191	88.88
322.42	103.88
322.649	107.88
322.878	123.88
323.108	121.88
323.337	125.88
323.566	128.88
323.795	140.88
324.024	203.88
324.253	379.88
324.482	807.88
324.71	1649.88
324.939	2121.88
325.168	773.88
325.397	247.88
325.626	147.88
325.855	142.88
326.084	133.88
326.313	144.88
326.542	141.88
326.77	240.88
326.999	467.88
327.228	897.88
327.457	1727.88
327.686	1355.88
327.914	358.88
328.143	203.88
328.372	181.88
328.6	131.88
328.829	106.88
329.058	139.88
329.287	140.88
329.515	111.88
329.744	117.88
329.972	140.88
330.201	196.88
330.43	222.88
330.658	171.88
330.887	147.88
331.115	129.88
331.344	92.88
331.572	102.88
331.801	93.88
332.03	89.88
332.258	111.88
332.486	85.88
332.715	85.88
332.943	100.88
333.172	95.88
333.4	118.88
333.629	105.88
333.857	119.88
334.085	131.88
334.314	191.88
334.542	299.88
334.771	253.88
334.999	120.88
335.227	103.88
335.455	102.88
335.684	100.88
335.912	94.88
336.14	93.88
336.369	90.88
336.597	102.88
336.825	86.88
337.053	91.88
337.281	105.88
337.51	84.88
337.738	92.88
337.966	91.88
338.194	105.88
338.422	96.88
338.65	93.88
338.878	95.88
339.106	97.88
339.334	98.88
339.562	89.88
339.79	92.88
340.018	95.88
340.246	99.88
340.474	100.88
340.702	101.88
340.93	95.88
341.158	89.88
341.386	106.88
341.614	97.88
341.842	110.88
342.07	102.88
342.298	99.88
342.526	78.88
342.754	87.88
342.981	110.88
343.209	92.88
343.437	98.88
343.665	95.88
343.893	98.88
344.12	87.88
344.348	76.88
344.576	100.88
344.804	91.88
345.031	103.88
345.259	106.88
345.487	104.88
345.714	98.88
345.942	81.88
346.17	87.88
346.397	95.88
346.625	98.88
346.853	89.88
347.08	86.88
347.308	104.88
347.535	90.88
347.763	110.88
347.99	94.88
348.218	89.88
348.445	92.88
348.673	106.88
348.9	98.88
349.128	99.88
349.355	85.88
349.583	95.88
349.81	95.88
350.037	102.88
350.265	86.88
350.492	97.88
350.72	103.88
350.947	83.88
351.174	106.88
351.402	107.88
351.629	116.88
351.856	103.88
352.083	109.88
352.311	94.88
352.538	92.88
352.765	115.88
352.992	139.88
353.22	112.88
353.447	107.88
353.674	102.88
353.901	99.88
354.128	86.88
354.355	98.88
354.583	93.88
354.81	99.88
355.037	108.88
355.264	90.88
355.491	102.88
355.718	86.88
355.945	87.88
356.172	94.88
356.399	91.88
356.626	87.88
356.853	92.88
357.08	97.88
357.307	84.88
357.534	100.88
357.761	92.88
357.988	107.88
358.215	72.88
358.441	94.88
358.668	104.88
358.895	91.88
359.122	95.88
359.349	86.88
359.576	91.88
359.802	88.88
360.029	114.88
360.256	109.88
360.483	99.88
360.709	92.88
360.936	78.88
361.163	97.88
361.39	95.88
361.616	90.88
361.843	90.88
362.07	90.88
362.296	109.88
362.523	85.88
362.749	90.88
362.976	98.88
363.203	95.88
363.429	81.88
363.656	99.88
363.882	92.88
364.109	83.88
364.335	96.88
364.562	96.88
364.788	89.88
365.015	92.88
365.241	90.88
365.468	110.88
365.694	104.88
365.92	98.88
366.147	74.88
366.373	92.88
366.599	102.88
366.826	100.88
367.052	88.88
367.278	101.88
367.505	87.88
367.731	82.88
367.957	93.88
368.184	89.88
368.41	111.88
368.636	113.88
368.862	113.88
369.089	107.88
369.315	103.88
369.541	94.88
369.767	85.88
369.993	87.88
370.219	101.88
370.445	85.88
370.672	80.88
370.898	83.88
371.124	97.88
371.35	81.88
371.576	76.88
371.802	81.88
372.028	87.88
372.254	84.88
372.48	84.88
372.706	88.88
372.932	81.88
373.158	86.88
373.384	93.88
373.61	81.88
373.835	92.88
374.061	100.88
374.287	90.88
374.513	87.88
374.739	83.88
374.965	78.88
375.191	82.88
375.416	94.88
375.642	96.88
375.868	94.88
376.094	89.88
376.319	106.88
376.545	100.88
376.771	75.88
376.997	93.88
377.222	95.88
377.448	90.88
377.674	82.88
377.899	84.88
378.125	96.88
378.35	82.88
378.576	94.88
378.802	85.88
379.027	86.88
379.253	88.88
379.478	85.88
379.704	92.88
379.929	86.88
380.155	109.88
380.38	88.88
380.606	86.88
380.831	102.88
381.057	94.88
381.282	100.88
381.507	96.88
381.733	102.88
381.958	100.88
382.184	126.88
382.409	97.88
382.634	103.88
382.86	89.88
383.085	106.88
383.31	103.88
383.535	97.88
383.761	109.88
383.986	89.88
384.211	96.88
384.436	97.88
384.662	91.88
384.887	99.88
385.112	93.88
385.337	99.88
385.562	103.88
385.787	100.88
386.013	123.88
386.238	117.88
386.463	110.88
386.688	126.88
386.913	95.88
387.138	113.88
387.363	110.88
387.588	105.88
387.813	105.88
388.038	119.88
388.263	103.88
388.488	103.88
388.713	89.88
388.938	108.88
389.163	97.88
389.387	87.88
389.612	100.88
389.837	89.88
390.062	83.88
390.287	85.88
390.512	88.88
390.736	88.88
390.961	94.88
391.186	97.88
391.411	90.88
391.636	95.88
391.86	93.88
392.085	98.88
392.31	74.88
392.534	78.88
392.759	82.88
392.984	89.88
393.208	90.88
393.433	88.88
393.658	95.88
393.882	76.88
394.107	66.88
394.331	97.88
394.556	87.88
394.78	91.88
395.005	73.88
395.229	98.88
395.454	74.88
395.678	106.88
395.903	90.88
396.127	96.88
396.352	96.88
396.576	89.88
396.801	83.88
397.025	92.88
397.249	101.88
397.474	93.88
397.698	94.88
397.922	84.88
398.147	82.88
398.371	89.88
398.595	91.88
398.82	84.88
399.044	93.88
399.268	84.88
399.492	74.88
399.717	84.88
399.941	78.88
400.165	90.88
400.389	88.88
400.613	87.88
400.837	83.88
401.062	94.88
401.286	76.88
401.51	72.88
401.734	99.88
401.958	88.88
402.182	115.88
402.406	150.88
402.63	111.88
402.854	90.88
403.078	110.88
403.302	103.88
403.526	81.88
403.75	88.88
403.974	77.88
404.198	92.88
404.422	90.88
404.645	78.88
404.869	97.88
405.093	90.88
405.317	118.88
405.541	108.88
405.765	95.88
405.988	98.88
406.212	147.88
406.436	203.88
406.66	135.88
406.883	97.88
407.107	92.88
407.331	87.88
407.555	81.88
407.778	113.88
408.002	92.88
408.226	90.88
408.449	82.88
408.673	94.88
408.896	98.88
409.12	92.88
409.344	95.88
409.567	86.88
409.791	89.88
410.014	88.88
410.238	83.88
410.461	75.88
410.685	100.88
410.908	111.88
411.132	108.88
411.355	92.88
411.578	99.88
411.802	94.88
412.025	89.88
412.249	102.88
412.472	105.88
412.695	99.88
412.919	107.88
413.142	92.88
413.365	87.88
413.589	86.88
413.812	88.88
414.035	86.88
414.258	101.88
414.482	79.88
414.705	90.88
414.928	104.88
415.151	89.88
415.374	79.88
415.597	104.88
415.821	83.88
416.044	89.88
416.267	95.88
416.49	84.88
416.713	95.88
416.936	94.88
417.159	93.88
417.382	88.88
417.605	88.88
417.828	81.88
418.051	93.88
418.274	94.88
418.497	87.88
418.72	68.88
418.943	92.88
419.166	87.88
419.389	84.88
419.611	100.88
419.834	93.88
420.057	105.88
420.28	78.88
420.503	93.88
420.726	95.88
420.948	73.88
421.171	90.88
421.394	94.88
421.617	85.88
421.839	88.88
422.062	110.88
422.285	103.88
422.507	114.88
422.73	100.88
422.953	98.88
423.175	97.88
423.398	96.88
423.621	92.88
423.843	100.88
424.066	88.88
424.288	80.88
424.511	82.88
424.733	96.88
424.956	102.88
425.178	109.88
425.401	88.88
425.623	106.88
425.846	87.88
426.068	97.88
426.291	97.88
426.513	91.88
426.735	94.88
426.958	89.88
427.18	114.88
427.402	131.88
427.625	156.88
427.847	135.88
428.069	133.88
428.292	102.88
428.514	71.88
428.736	79.88
428.958	89.88
429.181	80.88
429.403	94.88
429.625	86.88
429.847	87.88
430.069	100.88
430.292	90.88
430.514	84.88
430.736	79.88
430.958	94.88
431.18	89.88
431.402	75.88
431.624	84.88
431.846	88.88
432.068	78.88
432.29	79.88
432.512	80.88
432.734	86.88
432.956	99.88
433.178	98.88
433.4	114.88
433.622	74.88
433.844	85.88
434.066	83.88
434.287	92.88
434.509	87.88
434.731	89.88
434.953	103.88
435.175	85.88
435.397	92.88
435.618	106.88
435.84	112.88
436.062	126.88
436.284	115.88
436.505	105.88
436.727	97.88
436.949	99.88
437.17	100.88
437.392	82.88
437.614	109.88
437.835	103.88
438.057	109.88
438.278	104.88
438.5	103.88
438.721	120.88
438.943	93.88
439.165	99.88
439.386	91.88
439.608	85.88
439.829	113.88
440.05	116.88
440.272	137.88
440.493	97.88
440.715	91.88
440.936	95.88
441.158	83.88
441.379	99.88
441.6	86.88
441.822	95.88
442.043	89.88
442.264	104.88
442.486	109.88
442.707	92.88
442.928	107.88
443.149	119.88
443.371	121.88
443.592	109.88
443.813	113.88
444.034	108.88
444.255	97.88
444.476	89.88
444.698	86.88
444.919	91.88
445.14	127.88
445.361	122.88
445.582	113.88
445.803	133.88
446.024	134.88
446.245	132.88
446.466	113.88
446.687	107.88
446.908	97.88
447.129	90.88
447.35	78.88
447.571	82.88
447.792	86.88
448.013	90.88
448.234	98.88
448.455	115.88
448.675	131.88
448.896	123.88
449.117	97.88
449.338	101.88
449.559	125.88
449.779	132.88
450	97.88
450.221	95.88
450.442	94.88
450.662	110.88
450.883	117.88
451.104	104.88
451.324	96.88
451.545	83.88
451.766	89.88
451.986	90.88
452.207	85.88
452.428	92.88
452.648	91.88
452.869	101.88
453.089	121.88
453.31	124.88
453.53	84.88
453.751	94.88
453.971	84.88
454.192	109.88
454.412	90.88
454.633	73.88
454.853	87.88
455.073	91.88
455.294	91.88
455.514	96.88
455.734	105.88
455.955	89.88
456.175	79.88
456.395	89.88
456.616	89.88
456.836	89.88
457.056	85.88
457.276	81.88
457.497	84.88
457.717	84.88
457.937	99.88
458.157	94.88
458.377	86.88
458.598	98.88
458.818	150.88
459.038	139.88
459.258	106.88
459.478	88.88
459.698	81.88
459.918	87.88
460.138	85.88
460.358	78.88
460.578	85.88
460.798	90.88
461.018	79.88
461.238	82.88
461.458	83.88
461.678	70.88
461.898	90.88
462.118	84.88
462.338	88.88
462.558	85.88
462.777	90.88
462.997	89.88
463.217	87.88
463.437	98.88
463.657	92.88
463.876	92.88
464.096	85.88
464.316	92.88
464.536	96.88
464.755	91.88
464.975	110.88
465.195	153.88
465.414	161.88
465.634	91.88
465.854	94.88
466.073	98.88
466.293	92.88
466.512	79.88
466.732	81.88
466.951	115.88
467.171	86.88
467.391	98.88
467.61	107.88
467.829	90.88
468.049	128.88
468.268	165.88
468.488	102.88
468.707	77.88
468.927	86.88
469.146	81.88
469.365	73.88
469.585	95.88
469.804	90.88
470.023	101.88
470.243	95.88
470.462	95.88
470.681	106.88
470.901	81.88
471.12	81.88
471.339	94.88
471.558	101.88
471.777	99.88
471.997	108.88
472.216	190.88
472.435	346.88
472.654	141.88
472.873	95.88
473.092	86.88
473.311	94.88
473.53	83.88
473.749	91.88
473.968	96.88
474.187	102.88
474.406	99.88
474.625	92.88
474.844	96.88
475.063	90.88
475.282	96.88
475.501	87.88
475.72	91.88
475.939	89.88
476.158	85.88
476.377	85.88
476.596	94.88
476.814	91.88
477.033	92.88
477.252	75.88
477.471	82.88
477.69	94.88
477.908	85.88
478.127	92.88
478.346	100.88
478.564	83.88
478.783	89.88
479.002	108.88
479.22	93.88
479.439	101.88
479.658	97.88
479.876	95.88
480.095	104.88
480.313	91.88
480.532	97.88
480.751	120.88
480.969	199.88
481.188	533.88
481.406	363.88
481.624	114.88
481.843	98.88
482.061	79.88
482.28	90.88
482.498	86.88
482.717	86.88
482.935	84.88
483.153	83.88
483.372	93.88
483.59	83.88
483.808	92.88
484.027	88.88
484.245	86.88
484.463	91.88
484.681	88.88
484.9	98.88
485.118	93.88
485.336	84.88
485.554	91.88
485.772	83.88
485.99	93.88
486.209	107.88
486.427	113.88
486.645	99.88
486.863	113.88
487.081	99.88
487.299	110.88
487.517	96.88
487.735	93.88
487.953	90.88
488.171	76.88
488.389	90.88
488.607	110.88
488.825	89.88
489.043	96.88
489.261	100.88
489.479	80.88
489.696	100.88
489.914	89.88
490.132	91.88
490.35	88.88
490.568	88.88
490.786	74.88
491.003	94.88
491.221	100.88
491.439	88.88
491.657	92.88
491.874	87.88
492.092	83.88
492.31	88.88
492.527	99.88
492.745	89.88
492.963	94.88
493.18	87.88
493.398	96.88
493.615	92.88
493.833	95.88
494.05	84.88
494.268	91.88
494.485	86.88
494.703	81.88
494.92	78.88
495.138	92.88
495.355	99.88
495.573	106.88
495.79	81.88
496.008	85.88
496.225	69.88
496.442	79.88
496.66	84.88
496.877	80.88
497.094	79.88
497.312	93.88
497.529	82.88
497.746	83.88
497.963	82.88
498.181	86.88
498.398	96.88
498.615	102.88
498.832	98.88
499.049	101.88
499.267	83.88
499.484	96.88
499.701	91.88
499.918	88.88
500.135	90.88
500.352	74.88
500.569	82.88
500.786	102.88
501.003	90.88
501.22	104.88
501.437	100.88
501.654	95.88
501.871	105.88
502.088	79.88
502.305	99.88
502.522	100.88
502.739	99.88
502.956	102.88
503.172	105.88
503.389	119.88
503.606	106.88
503.823	104.88
504.04	89.88
504.256	78.88
504.473	81.88
504.69	80.88
504.907	99.88
505.123	88.88
505.34	77.88
505.557	89.88
505.773	87.88
505.99	90.88
506.207	110.88
506.423	101.88
506.64	67.88
506.856	92.88
507.073	99.88
507.289	86.88
507.506	91.88
507.722	109.88
507.939	100.88
508.155	104.88
508.372	100.88
508.588	101.88
508.805	100.88
509.021	100.88
509.238	97.88
509.454	105.88
509.67	84.88
509.887	86.88
510.103	117.88
510.319	193.88
510.536	647.88
510.752	2112.88
510.968	631.88
511.184	157.88
511.401	115.88
511.617	98.88
511.833	95.88
512.049	94.88
512.265	91.88
512.481	93.88
512.698	86.88
512.914	93.88
513.13	91.88
513.346	86.88
513.562	97.88
513.778	96.88
513.994	105.88
514.21	102.88
514.426	118.88
514.642	121.88
514.858	106.88
515.074	148.88
515.29	391.88
