Data from Circ_2015_H10_HRD10591_00095.txt Node
Date: Wed Jan 03 10:00:41 EST 2024
User: Yrep
Spectrometer: HR+D1059
Trigger mode: 1
Integration Time (sec): 1.000000E-1
Scans to average: 1
Electric dark correction enabled: true
Nonlinearity correction enabled: false
Boxcar width: 0
XAxis mode: Wavelengths
Number of Pixels in Spectrum: 2048
>>>>>Begin Spectral Data<<<<<
223.165	-14.38
223.4	-14.38
223.635	-14.38
223.869	-16.38
224.104	-29.38
224.338	-19.38
224.573	-19.38
224.808	-5.38
225.042	-3.38
225.277	-9.38
225.511	7.62
225.746	14.62
225.98	-11.38
226.215	-2.38
226.449	21.62
226.683	34.62
226.918	33.62
227.152	18.62
227.387	34.62
227.621	33.62
227.856	51.62
228.09	54.62
228.324	52.62
228.559	58.62
228.793	31.62
229.027	55.62
229.262	65.62
229.496	74.62
229.73	60.62
229.964	72.62
230.199	71.62
230.433	64.62
230.667	73.62
230.901	81.62
231.136	75.62
231.37	89.62
231.604	72.62
231.838	75.62
232.072	81.62
232.306	88.62
232.541	84.62
232.775	75.62
233.009	81.62
233.243	81.62
233.477	77.62
233.711	92.62
233.945	73.62
234.179	92.62
234.413	75.62
234.647	81.62
234.881	90.62
235.115	89.62
235.349	88.62
235.583	77.62
235.817	86.62
236.051	90.62
236.285	75.62
236.519	59.62
236.753	79.62
236.987	77.62
237.221	68.62
237.455	56.62
237.689	76.62
237.922	67.62
238.156	63.62
238.39	94.62
238.624	69.62
238.858	63.62
239.091	63.62
239.325	73.62
239.559	68.62
239.793	71.62
240.027	73.62
240.26	75.62
240.494	81.62
240.728	88.62
240.961	63.62
241.195	60.62
241.429	72.62
241.662	85.62
241.896	68.62
242.13	78.62
242.363	78.62
242.597	83.62
242.83	74.62
243.064	76.62
243.298	65.62
243.531	84.62
243.765	80.62
243.998	68.62
244.232	72.62
244.465	86.62
244.699	82.62
244.932	83.62
245.166	76.62
245.399	80.62
245.633	72.62
245.866	89.62
246.099	87.62
246.333	90.62
246.566	79.62
246.8	71.62
247.033	87.62
247.266	68.62
247.5	70.62
247.733	75.62
247.966	72.62
248.2	83.62
248.433	77.62
248.666	72.62
248.899	74.62
249.133	67.62
249.366	87.62
249.599	82.62
249.832	74.62
250.066	81.62
250.299	85.62
250.532	73.62
250.765	72.62
250.998	77.62
251.231	77.62
251.465	67.62
251.698	75.62
251.931	77.62
252.164	75.62
252.397	92.62
252.63	81.62
252.863	90.62
253.096	69.62
253.329	67.62
253.562	70.62
253.795	82.62
254.028	89.62
254.261	85.62
254.494	102.62
254.727	93.62
254.96	72.62
255.193	78.62
255.426	83.62
255.659	64.62
255.892	65.62
256.124	84.62
256.357	89.62
256.59	82.62
256.823	77.62
257.056	84.62
257.289	72.62
257.521	79.62
257.754	84.62
257.987	68.62
258.22	81.62
258.452	91.62
258.685	57.62
258.918	90.62
259.151	81.62
259.383	83.62
259.616	79.62
259.849	88.62
260.081	86.62
260.314	83.62
260.547	72.62
260.779	96.62
261.012	75.62
261.244	75.62
261.477	84.62
261.71	81.62
261.942	96.62
262.175	95.62
262.407	87.62
262.64	92.62
262.872	81.62
263.105	85.62
263.337	85.62
263.57	63.62
263.802	82.62
264.035	82.62
264.267	76.62
264.499	76.62
264.732	66.62
264.964	73.62
265.197	86.62
265.429	88.62
265.661	83.62
265.894	90.62
266.126	80.62
266.358	83.62
266.591	84.62
266.823	92.62
267.055	76.62
267.287	68.62
267.52	77.62
267.752	83.62
267.984	83.62
268.216	83.62
268.448	87.62
268.681	86.62
268.913	73.62
269.145	67.62
269.377	83.62
269.609	94.62
269.841	81.62
270.073	77.62
270.306	78.62
270.538	77.62
270.77	69.62
271.002	85.62
271.234	89.62
271.466	78.62
271.698	58.62
271.93	82.62
272.162	80.62
272.394	70.62
272.626	89.62
272.858	80.62
273.09	79.62
273.322	72.62
273.553	92.62
273.785	85.62
274.017	72.62
274.249	81.62
274.481	77.62
274.713	67.62
274.945	70.62
275.176	84.62
275.408	103.62
275.64	73.62
275.872	67.62
276.104	82.62
276.335	87.62
276.567	98.62
276.799	93.62
277.031	91.62
277.262	98.62
277.494	83.62
277.726	73.62
277.957	75.62
278.189	89.62
278.421	81.62
278.652	74.62
278.884	84.62
279.115	77.62
279.347	68.62
279.579	93.62
279.81	74.62
280.042	86.62
280.273	102.62
280.505	96.62
280.736	94.62
280.968	85.62
281.199	86.62
281.431	84.62
281.662	95.62
281.894	77.62
282.125	96.62
282.356	112.62
282.588	133.62
282.819	91.62
283.051	95.62
283.282	80.62
283.513	77.62
283.745	89.62
283.976	90.62
284.207	81.62
284.439	81.62
284.67	92.62
284.901	69.62
285.132	77.62
285.364	83.62
285.595	83.62
285.826	75.62
286.057	84.62
286.288	84.62
286.52	85.62
286.751	91.62
286.982	77.62
287.213	76.62
287.444	84.62
287.675	87.62
287.906	94.62
288.138	85.62
288.369	82.62
288.6	83.62
288.831	67.62
289.062	86.62
289.293	69.62
289.524	77.62
289.755	86.62
289.986	91.62
290.217	87.62
290.448	81.62
290.679	73.62
290.91	73.62
291.141	82.62
291.371	87.62
291.602	87.62
291.833	84.62
292.064	85.62
292.295	83.62
292.526	92.62
292.757	89.62
292.987	87.62
293.218	77.62
293.449	88.62
293.68	87.62
293.91	84.62
294.141	75.62
294.372	68.62
294.603	104.62
294.833	83.62
295.064	82.62
295.295	84.62
295.525	74.62
295.756	95.62
295.987	93.62
296.217	123.62
296.448	117.62
296.679	98.62
296.909	92.62
297.14	79.62
297.37	81.62
297.601	89.62
297.831	85.62
298.062	91.62
298.292	86.62
298.523	95.62
298.753	104.62
298.984	83.62
299.214	81.62
299.445	82.62
299.675	90.62
299.905	77.62
300.136	83.62
300.366	83.62
300.597	86.62
300.827	82.62
301.057	92.62
301.288	91.62
301.518	80.62
301.748	91.62
301.979	99.62
302.209	84.62
302.439	88.62
302.669	87.62
302.9	93.62
303.13	98.62
303.36	82.62
303.59	97.62
303.82	88.62
304.051	94.62
304.281	71.62
304.511	81.62
304.741	84.62
304.971	86.62
305.201	79.62
305.431	82.62
305.661	93.62
305.891	96.62
306.121	89.62
306.352	87.62
306.582	100.62
306.812	96.62
307.042	96.62
307.272	94.62
307.502	114.62
307.731	97.62
307.961	82.62
308.191	91.62
308.421	91.62
308.651	89.62
308.881	93.62
309.111	96.62
309.341	85.62
309.571	100.62
309.8	83.62
310.03	88.62
310.26	85.62
310.49	83.62
310.72	80.62
310.949	80.62
311.179	90.62
311.409	93.62
311.639	103.62
311.868	86.62
312.098	82.62
312.328	81.62
312.557	92.62
312.787	107.62
313.017	94.62
313.246	88.62
313.476	98.62
313.706	85.62
313.935	78.62
314.165	90.62
314.394	95.62
314.624	92.62
314.853	85.62
315.083	85.62
315.312	83.62
315.542	91.62
315.771	87.62
316.001	93.62
316.23	82.62
316.46	76.62
316.689	89.62
316.919	76.62
317.148	89.62
317.377	83.62
317.607	68.62
317.836	91.62
318.065	98.62
318.295	97.62
318.524	99.62
318.753	91.62
318.983	88.62
319.212	97.62
319.441	93.62
319.67	91.62
319.9	93.62
320.129	83.62
320.358	79.62
320.587	91.62
320.816	85.62
321.046	92.62
321.275	88.62
321.504	91.62
321.733	99.62
321.962	85.62
322.191	97.62
322.42	97.62
322.649	103.62
322.878	110.62
323.108	108.62
323.337	108.62
323.566	121.62
323.795	143.62
324.024	181.62
324.253	346.62
324.482	704.62
324.71	1419.62
324.939	1853.62
325.168	681.62
325.397	223.62
325.626	135.62
325.855	127.62
326.084	111.62
326.313	122.62
326.542	143.62
326.77	212.62
326.999	409.62
327.228	823.62
327.457	1497.62
327.686	1206.62
327.914	339.62
328.143	209.62
328.372	203.62
328.6	155.62
328.829	111.62
329.058	121.62
329.287	112.62
329.515	91.62
329.744	113.62
329.972	147.62
330.201	223.62
330.43	290.62
330.658	168.62
330.887	140.62
331.115	116.62
331.344	96.62
331.572	102.62
331.801	108.62
332.03	95.62
332.258	93.62
332.486	105.62
332.715	91.62
332.943	94.62
333.172	94.62
333.4	107.62
333.629	117.62
333.857	124.62
334.085	163.62
334.314	232.62
334.542	375.62
334.771	330.62
334.999	137.62
335.227	113.62
335.455	95.62
335.684	92.62
335.912	119.62
336.14	104.62
336.369	104.62
336.597	98.62
336.825	92.62
337.053	105.62
337.281	87.62
337.51	80.62
337.738	88.62
337.966	90.62
338.194	100.62
338.422	106.62
338.65	103.62
338.878	96.62
339.106	91.62
339.334	96.62
339.562	101.62
339.79	94.62
340.018	81.62
340.246	83.62
340.474	84.62
340.702	103.62
340.93	88.62
341.158	95.62
341.386	100.62
341.614	84.62
341.842	88.62
342.07	83.62
342.298	90.62
342.526	83.62
342.754	82.62
342.981	81.62
343.209	85.62
343.437	86.62
343.665	88.62
343.893	95.62
344.12	94.62
344.348	82.62
344.576	95.62
344.804	91.62
345.031	94.62
345.259	89.62
345.487	100.62
345.714	74.62
345.942	83.62
346.17	105.62
346.397	90.62
346.625	79.62
346.853	85.62
347.08	87.62
347.308	95.62
347.535	93.62
347.763	96.62
347.99	96.62
348.218	95.62
348.445	105.62
348.673	105.62
348.9	88.62
349.128	108.62
349.355	84.62
349.583	88.62
349.81	96.62
350.037	86.62
350.265	95.62
350.492	95.62
350.72	92.62
350.947	102.62
351.174	103.62
351.402	95.62
351.629	89.62
351.856	90.62
352.083	101.62
352.311	97.62
352.538	84.62
352.765	102.62
352.992	106.62
353.22	116.62
353.447	108.62
353.674	90.62
353.901	86.62
354.128	95.62
354.355	99.62
354.583	90.62
354.81	98.62
355.037	101.62
355.264	81.62
355.491	85.62
355.718	86.62
355.945	93.62
356.172	93.62
356.399	86.62
356.626	81.62
356.853	84.62
357.08	90.62
357.307	94.62
357.534	86.62
357.761	81.62
357.988	99.62
358.215	93.62
358.441	103.62
358.668	88.62
358.895	68.62
359.122	99.62
359.349	81.62
359.576	77.62
359.802	88.62
360.029	104.62
360.256	105.62
360.483	94.62
360.709	88.62
360.936	87.62
361.163	84.62
361.39	99.62
361.616	98.62
361.843	96.62
362.07	96.62
362.296	99.62
362.523	80.62
362.749	83.62
362.976	100.62
363.203	93.62
363.429	95.62
363.656	114.62
363.882	80.62
364.109	92.62
364.335	83.62
364.562	75.62
364.788	83.62
365.015	95.62
365.241	86.62
365.468	101.62
365.694	92.62
365.92	84.62
366.147	92.62
366.373	88.62
366.599	81.62
366.826	82.62
367.052	103.62
367.278	79.62
367.505	98.62
367.731	81.62
367.957	85.62
368.184	98.62
368.41	92.62
368.636	89.62
368.862	105.62
369.089	112.62
369.315	79.62
369.541	91.62
369.767	98.62
369.993	84.62
370.219	89.62
370.445	91.62
370.672	73.62
370.898	88.62
371.124	83.62
371.35	87.62
371.576	74.62
371.802	71.62
372.028	93.62
372.254	86.62
372.48	86.62
372.706	72.62
372.932	75.62
373.158	85.62
373.384	75.62
373.61	87.62
373.835	81.62
374.061	77.62
374.287	88.62
374.513	80.62
374.739	89.62
374.965	80.62
375.191	78.62
375.416	95.62
375.642	100.62
375.868	93.62
376.094	96.62
376.319	77.62
376.545	95.62
376.771	91.62
376.997	85.62
377.222	84.62
377.448	85.62
377.674	96.62
377.899	85.62
378.125	88.62
378.35	74.62
378.576	96.62
378.802	83.62
379.027	99.62
379.253	104.62
379.478	99.62
379.704	94.62
379.929	107.62
380.155	99.62
380.38	93.62
380.606	77.62
380.831	92.62
381.057	102.62
381.282	103.62
381.507	97.62
381.733	95.62
381.958	90.62
382.184	91.62
382.409	99.62
382.634	88.62
382.86	87.62
383.085	87.62
383.31	96.62
383.535	104.62
383.761	101.62
383.986	81.62
384.211	102.62
384.436	84.62
384.662	98.62
384.887	93.62
385.112	95.62
385.337	98.62
385.562	112.62
385.787	103.62
386.013	105.62
386.238	98.62
386.463	104.62
386.688	101.62
386.913	96.62
387.138	105.62
387.363	100.62
387.588	98.62
387.813	108.62
388.038	100.62
388.263	104.62
388.488	108.62
388.713	89.62
388.938	92.62
389.163	89.62
389.387	93.62
389.612	102.62
389.837	105.62
390.062	87.62
390.287	86.62
390.512	99.62
390.736	94.62
390.961	98.62
391.186	88.62
391.411	89.62
391.636	101.62
391.86	68.62
392.085	87.62
392.31	85.62
392.534	82.62
392.759	77.62
392.984	87.62
393.208	82.62
393.433	85.62
393.658	96.62
393.882	87.62
394.107	70.62
394.331	85.62
394.556	89.62
394.78	74.62
395.005	85.62
395.229	89.62
395.454	91.62
395.678	77.62
395.903	100.62
396.127	78.62
396.352	84.62
396.576	86.62
396.801	79.62
397.025	99.62
397.249	84.62
397.474	101.62
397.698	87.62
397.922	78.62
398.147	86.62
398.371	96.62
398.595	100.62
398.82	94.62
399.044	80.62
399.268	90.62
399.492	89.62
399.717	91.62
399.941	92.62
400.165	74.62
400.389	74.62
400.613	81.62
400.837	89.62
401.062	88.62
401.286	85.62
401.51	80.62
401.734	104.62
401.958	100.62
402.182	112.62
402.406	130.62
402.63	99.62
402.854	98.62
403.078	86.62
403.302	78.62
403.526	80.62
403.75	102.62
403.974	77.62
404.198	82.62
404.422	76.62
404.645	87.62
404.869	86.62
405.093	88.62
405.317	106.62
405.541	93.62
405.765	90.62
405.988	108.62
406.212	140.62
406.436	204.62
406.66	131.62
406.883	105.62
407.107	92.62
407.331	98.62
407.555	87.62
407.778	93.62
408.002	90.62
408.226	80.62
408.449	87.62
408.673	86.62
408.896	95.62
409.12	85.62
409.344	83.62
409.567	69.62
409.791	82.62
410.014	87.62
410.238	96.62
410.461	97.62
410.685	98.62
410.908	99.62
411.132	111.62
411.355	96.62
411.578	100.62
411.802	92.62
412.025	86.62
412.249	84.62
412.472	93.62
412.695	104.62
412.919	107.62
413.142	77.62
413.365	90.62
413.589	80.62
413.812	91.62
414.035	95.62
414.258	74.62
414.482	85.62
414.705	81.62
414.928	91.62
415.151	88.62
415.374	83.62
415.597	93.62
415.821	93.62
416.044	100.62
416.267	84.62
416.49	81.62
416.713	88.62
416.936	91.62
417.159	79.62
417.382	96.62
417.605	90.62
417.828	84.62
418.051	99.62
418.274	86.62
418.497	96.62
418.72	75.62
418.943	97.62
419.166	73.62
419.389	89.62
419.611	87.62
419.834	100.62
420.057	98.62
420.28	87.62
420.503	78.62
420.726	86.62
420.948	81.62
421.171	85.62
421.394	90.62
421.617	92.62
421.839	78.62
422.062	85.62
422.285	98.62
422.507	78.62
422.73	82.62
422.953	95.62
423.175	77.62
423.398	83.62
423.621	79.62
423.843	100.62
424.066	83.62
424.288	94.62
424.511	88.62
424.733	71.62
424.956	95.62
425.178	73.62
425.401	100.62
425.623	99.62
425.846	80.62
426.068	95.62
426.291	95.62
426.513	79.62
426.735	84.62
426.958	84.62
427.18	92.62
427.402	108.62
427.625	151.62
427.847	136.62
428.069	133.62
428.292	108.62
428.514	95.62
428.736	67.62
428.958	77.62
429.181	86.62
429.403	74.62
429.625	90.62
429.847	87.62
430.069	90.62
430.292	92.62
430.514	90.62
430.736	98.62
430.958	89.62
431.18	88.62
431.402	85.62
431.624	88.62
431.846	85.62
432.068	90.62
432.29	90.62
432.512	92.62
432.734	86.62
432.956	77.62
433.178	96.62
433.4	104.62
433.622	86.62
433.844	92.62
434.066	88.62
434.287	86.62
434.509	89.62
434.731	94.62
434.953	94.62
435.175	88.62
435.397	84.62
435.618	101.62
435.84	85.62
436.062	106.62
436.284	105.62
436.505	99.62
436.727	91.62
436.949	87.62
437.17	85.62
437.392	84.62
437.614	87.62
437.835	97.62
438.057	97.62
438.278	103.62
438.5	93.62
438.721	98.62
438.943	93.62
439.165	76.62
439.386	88.62
439.608	79.62
439.829	87.62
440.05	112.62
440.272	135.62
440.493	102.62
440.715	89.62
440.936	85.62
441.158	90.62
441.379	80.62
441.6	94.62
441.822	92.62
442.043	82.62
442.264	104.62
442.486	102.62
442.707	91.62
442.928	107.62
443.149	121.62
443.371	116.62
443.592	89.62
443.813	91.62
444.034	107.62
444.255	93.62
444.476	91.62
444.698	92.62
444.919	74.62
445.14	122.62
445.361	112.62
445.582	97.62
445.803	139.62
446.024	135.62
446.245	127.62
446.466	103.62
446.687	77.62
446.908	85.62
447.129	81.62
447.35	85.62
447.571	86.62
447.792	87.62
448.013	89.62
448.234	81.62
448.455	107.62
448.675	90.62
448.896	106.62
449.117	88.62
449.338	100.62
449.559	125.62
449.779	120.62
450	88.62
450.221	86.62
450.442	82.62
450.662	80.62
450.883	98.62
451.104	119.62
451.324	90.62
451.545	95.62
451.766	81.62
451.986	86.62
452.207	89.62
452.428	96.62
452.648	86.62
452.869	96.62
453.089	100.62
453.31	83.62
453.53	90.62
453.751	97.62
453.971	96.62
454.192	103.62
454.412	102.62
454.633	85.62
454.853	83.62
455.073	92.62
455.294	87.62
455.514	100.62
455.734	90.62
455.955	76.62
456.175	75.62
456.395	89.62
456.616	86.62
456.836	92.62
457.056	86.62
457.276	86.62
457.497	79.62
457.717	75.62
457.937	70.62
458.157	71.62
458.377	69.62
458.598	99.62
458.818	120.62
459.038	131.62
459.258	109.62
459.478	81.62
459.698	86.62
459.918	83.62
460.138	76.62
460.358	82.62
460.578	76.62
460.798	100.62
461.018	88.62
461.238	91.62
461.458	96.62
461.678	91.62
461.898	99.62
462.118	104.62
462.338	81.62
462.558	94.62
462.777	80.62
462.997	73.62
463.217	69.62
463.437	83.62
463.657	79.62
463.876	84.62
464.096	97.62
464.316	86.62
464.536	102.62
464.755	87.62
464.975	101.62
465.195	124.62
465.414	138.62
465.634	85.62
465.854	86.62
466.073	94.62
466.293	81.62
466.512	71.62
466.732	83.62
466.951	77.62
467.171	90.62
467.391	105.62
467.61	104.62
467.829	106.62
468.049	167.62
468.268	196.62
468.488	97.62
468.707	80.62
468.927	88.62
469.146	75.62
469.365	90.62
469.585	90.62
469.804	86.62
470.023	86.62
470.243	98.62
470.462	90.62
470.681	115.62
470.901	109.62
471.12	87.62
471.339	97.62
471.558	74.62
471.777	84.62
471.997	109.62
472.216	244.62
472.435	500.62
472.654	172.62
472.873	97.62
473.092	89.62
473.311	92.62
473.53	83.62
473.749	85.62
473.968	90.62
474.187	92.62
474.406	91.62
474.625	66.62
474.844	84.62
475.063	87.62
475.282	82.62
475.501	81.62
475.72	86.62
475.939	84.62
476.158	84.62
476.377	87.62
476.596	89.62
476.814	91.62
477.033	83.62
477.252	75.62
477.471	77.62
477.69	74.62
477.908	88.62
478.127	94.62
478.346	85.62
478.564	71.62
478.783	84.62
479.002	88.62
479.22	98.62
479.439	96.62
479.658	88.62
479.876	93.62
480.095	93.62
480.313	98.62
480.532	100.62
480.751	117.62
480.969	255.62
481.188	824.62
481.406	522.62
481.624	137.62
481.843	91.62
482.061	82.62
482.28	83.62
482.498	89.62
482.717	91.62
482.935	93.62
483.153	95.62
483.372	71.62
483.59	93.62
483.808	92.62
484.027	82.62
484.245	82.62
484.463	77.62
484.681	96.62
484.9	87.62
485.118	87.62
485.336	85.62
485.554	84.62
485.772	75.62
485.99	114.62
486.209	97.62
486.427	92.62
486.645	112.62
486.863	107.62
487.081	66.62
487.299	99.62
487.517	87.62
487.735	81.62
487.953	93.62
488.171	88.62
488.389	88.62
488.607	100.62
488.825	97.62
489.043	82.62
489.261	69.62
489.479	86.62
489.696	76.62
489.914	77.62
490.132	83.62
490.35	70.62
490.568	76.62
490.786	88.62
491.003	71.62
491.221	85.62
491.439	83.62
491.657	93.62
491.874	95.62
492.092	87.62
492.31	79.62
492.527	86.62
492.745	89.62
492.963	73.62
493.18	79.62
493.398	83.62
493.615	106.62
493.833	85.62
494.05	74.62
494.268	99.62
494.485	84.62
494.703	80.62
494.92	83.62
495.138	98.62
495.355	96.62
495.573	94.62
495.79	81.62
496.008	98.62
496.225	85.62
496.442	95.62
496.66	80.62
496.877	84.62
497.094	92.62
497.312	86.62
497.529	71.62
497.746	87.62
497.963	78.62
498.181	89.62
498.398	96.62
498.615	99.62
498.832	96.62
499.049	92.62
499.267	86.62
499.484	79.62
499.701	85.62
499.918	91.62
500.135	85.62
500.352	88.62
500.569	85.62
500.786	96.62
501.003	87.62
501.22	93.62
501.437	99.62
501.654	83.62
501.871	97.62
502.088	94.62
502.305	88.62
502.522	76.62
502.739	87.62
502.956	94.62
503.172	92.62
503.389	87.62
503.606	89.62
503.823	88.62
504.04	90.62
504.256	92.62
504.473	83.62
504.69	93.62
504.907	91.62
505.123	83.62
505.34	77.62
505.557	96.62
505.773	102.62
505.99	83.62
506.207	84.62
506.423	71.62
506.64	84.62
506.856	89.62
507.073	69.62
507.289	83.62
507.506	101.62
507.722	92.62
507.939	102.62
508.155	95.62
508.372	80.62
508.588	87.62
508.805	108.62
509.021	87.62
509.238	86.62
509.454	84.62
509.67	95.62
509.887	106.62
510.103	120.62
510.319	172.62
510.536	563.62
510.752	1771.62
510.968	563.62
511.184	134.62
511.401	91.62
511.617	100.62
511.833	83.62
512.049	100.62
512.265	96.62
512.481	85.62
512.698	81.62
512.914	83.62
513.13	96.62
513.346	93.62
513.562	85.62
513.778	103.62
513.994	90.62
514.21	90.62
514.426	112.62
514.642	107.62
514.858	115.62
515.074	122.62
515.29	318.62
515.506	1046.62
515.721	425.62
515.937	140.62
516.153	96.62
516.369	86.62
516.585	84.62
516.801	86.62
