Data from Circ_2015_H10_HRD10591_00086.txt Node
Date: Wed Jan 03 10:00:40 EST 2024
User: Yrep
Spectrometer: HR+D1059
Trigger mode: 1
Integration Time (sec): 1.000000E-1
Scans to average: 1
Electric dark correction enabled: true
Nonlinearity correction enabled: false
Boxcar width: 0
XAxis mode: Wavelengths
Number of Pixels in Spectrum: 2048
>>>>>Begin Spectral Data<<<<<
223.165	-19.62
223.4	-19.62
223.635	-19.62
223.869	-19.62
224.104	-16.62
224.338	-14.62
224.573	-8.62
224.808	-11.62
225.042	-7.62
225.277	-13.62
225.511	-1.62
225.746	4.38
225.98	4.38
226.215	21.38
226.449	15.38
226.683	38.38
226.918	11.38
227.152	18.38
227.387	53.38
227.621	39.38
227.856	36.38
228.09	67.38
228.324	50.38
228.559	48.38
228.793	66.38
229.027	69.38
229.262	49.38
229.496	66.38
229.73	69.38
229.964	88.38
230.199	58.38
230.433	83.38
230.667	73.38
230.901	83.38
231.136	79.38
231.37	82.38
231.604	68.38
231.838	84.38
232.072	87.38
232.306	84.38
232.541	82.38
232.775	73.38
233.009	89.38
233.243	82.38
233.477	81.38
233.711	82.38
233.945	81.38
234.179	74.38
234.413	83.38
234.647	95.38
234.881	79.38
235.115	80.38
235.349	78.38
235.583	75.38
235.817	76.38
236.051	85.38
236.285	69.38
236.519	85.38
236.753	73.38
236.987	81.38
237.221	82.38
237.455	82.38
237.689	80.38
237.922	81.38
238.156	80.38
238.39	83.38
238.624	78.38
238.858	81.38
239.091	54.38
239.325	75.38
239.559	78.38
239.793	73.38
240.027	80.38
240.26	83.38
240.494	83.38
240.728	72.38
240.961	82.38
241.195	71.38
241.429	79.38
241.662	80.38
241.896	80.38
242.13	60.38
242.363	76.38
242.597	74.38
242.83	59.38
243.064	75.38
243.298	71.38
243.531	66.38
243.765	79.38
243.998	80.38
244.232	70.38
244.465	88.38
244.699	82.38
244.932	81.38
245.166	83.38
245.399	82.38
245.633	80.38
245.866	60.38
246.099	72.38
246.333	73.38
246.566	75.38
246.8	67.38
247.033	83.38
247.266	87.38
247.5	82.38
247.733	72.38
247.966	84.38
248.2	70.38
248.433	70.38
248.666	79.38
248.899	77.38
249.133	86.38
249.366	108.38
249.599	89.38
249.832	75.38
250.066	63.38
250.299	67.38
250.532	87.38
250.765	73.38
250.998	87.38
251.231	82.38
251.465	69.38
251.698	90.38
251.931	83.38
252.164	75.38
252.397	75.38
252.63	75.38
252.863	64.38
253.096	83.38
253.329	73.38
253.562	72.38
253.795	89.38
254.028	72.38
254.261	59.38
254.494	77.38
254.727	77.38
254.96	65.38
255.193	73.38
255.426	71.38
255.659	68.38
255.892	72.38
256.124	72.38
256.357	82.38
256.59	83.38
256.823	79.38
257.056	87.38
257.289	89.38
257.521	71.38
257.754	90.38
257.987	92.38
258.22	79.38
258.452	82.38
258.685	69.38
258.918	91.38
259.151	83.38
259.383	87.38
259.616	72.38
259.849	99.38
260.081	65.38
260.314	88.38
260.547	89.38
260.779	82.38
261.012	93.38
261.244	70.38
261.477	80.38
261.71	92.38
261.942	96.38
262.175	112.38
262.407	82.38
262.64	73.38
262.872	79.38
263.105	63.38
263.337	81.38
263.57	76.38
263.802	100.38
264.035	94.38
264.267	75.38
264.499	73.38
264.732	79.38
264.964	74.38
265.197	82.38
265.429	91.38
265.661	85.38
265.894	89.38
266.126	88.38
266.358	84.38
266.591	86.38
266.823	76.38
267.055	78.38
267.287	83.38
267.52	88.38
267.752	80.38
267.984	96.38
268.216	74.38
268.448	95.38
268.681	80.38
268.913	85.38
269.145	77.38
269.377	85.38
269.609	80.38
269.841	83.38
270.073	76.38
270.306	75.38
270.538	80.38
270.77	73.38
271.002	83.38
271.234	79.38
271.466	77.38
271.698	87.38
271.93	87.38
272.162	84.38
272.394	100.38
272.626	76.38
272.858	74.38
273.09	88.38
273.322	91.38
273.553	88.38
273.785	78.38
274.017	94.38
274.249	88.38
274.481	98.38
274.713	80.38
274.945	92.38
275.176	97.38
275.408	100.38
275.64	100.38
275.872	89.38
276.104	84.38
276.335	70.38
276.567	97.38
276.799	97.38
277.031	108.38
277.262	102.38
277.494	89.38
277.726	84.38
277.957	81.38
278.189	98.38
278.421	76.38
278.652	99.38
278.884	80.38
279.115	80.38
279.347	85.38
279.579	73.38
279.81	83.38
280.042	96.38
280.273	112.38
280.505	99.38
280.736	79.38
280.968	81.38
281.199	83.38
281.431	99.38
281.662	94.38
281.894	97.38
282.125	77.38
282.356	89.38
282.588	137.38
282.819	96.38
283.051	77.38
283.282	91.38
283.513	95.38
283.745	75.38
283.976	79.38
284.207	92.38
284.439	66.38
284.67	84.38
284.901	89.38
285.132	95.38
285.364	83.38
285.595	75.38
285.826	74.38
286.057	69.38
286.288	74.38
286.52	75.38
286.751	106.38
286.982	80.38
287.213	87.38
287.444	90.38
287.675	85.38
287.906	91.38
288.138	90.38
288.369	83.38
288.6	93.38
288.831	86.38
289.062	92.38
289.293	85.38
289.524	91.38
289.755	98.38
289.986	72.38
290.217	79.38
290.448	78.38
290.679	81.38
290.91	102.38
291.141	84.38
291.371	85.38
291.602	75.38
291.833	86.38
292.064	86.38
292.295	99.38
292.526	84.38
292.757	89.38
292.987	88.38
293.218	79.38
293.449	88.38
293.68	89.38
293.91	74.38
294.141	94.38
294.372	79.38
294.603	94.38
294.833	89.38
295.064	84.38
295.295	94.38
295.525	98.38
295.756	93.38
295.987	106.38
296.217	116.38
296.448	117.38
296.679	77.38
296.909	91.38
297.14	87.38
297.37	81.38
297.601	88.38
297.831	85.38
298.062	95.38
298.292	92.38
298.523	74.38
298.753	78.38
298.984	98.38
299.214	83.38
299.445	92.38
299.675	93.38
299.905	97.38
300.136	75.38
300.366	89.38
300.597	74.38
300.827	90.38
301.057	92.38
301.288	95.38
301.518	95.38
301.748	82.38
301.979	106.38
302.209	85.38
302.439	85.38
302.669	100.38
302.9	75.38
303.13	80.38
303.36	87.38
303.59	96.38
303.82	109.38
304.051	85.38
304.281	83.38
304.511	91.38
304.741	90.38
304.971	80.38
305.201	113.38
305.431	91.38
305.661	69.38
305.891	82.38
306.121	79.38
306.352	99.38
306.582	93.38
306.812	104.38
307.042	104.38
307.272	113.38
307.502	105.38
307.731	115.38
307.961	99.38
308.191	90.38
308.421	87.38
308.651	78.38
308.881	89.38
309.111	90.38
309.341	85.38
309.571	106.38
309.8	91.38
310.03	91.38
310.26	92.38
310.49	94.38
310.72	104.38
310.949	100.38
311.179	102.38
311.409	93.38
311.639	85.38
311.868	105.38
312.098	99.38
312.328	115.38
312.557	86.38
312.787	108.38
313.017	100.38
313.246	95.38
313.476	92.38
313.706	86.38
313.935	85.38
314.165	103.38
314.394	91.38
314.624	89.38
314.853	84.38
315.083	89.38
315.312	79.38
315.542	84.38
315.771	95.38
316.001	86.38
316.23	82.38
316.46	91.38
316.689	98.38
316.919	80.38
317.148	83.38
317.377	80.38
317.607	79.38
317.836	89.38
318.065	83.38
318.295	81.38
318.524	86.38
318.753	95.38
318.983	94.38
319.212	94.38
319.441	105.38
319.67	95.38
319.9	96.38
320.129	90.38
320.358	84.38
320.587	97.38
320.816	84.38
321.046	93.38
321.275	86.38
321.504	88.38
321.733	105.38
321.962	96.38
322.191	97.38
322.42	99.38
322.649	100.38
322.878	101.38
323.108	105.38
323.337	120.38
323.566	114.38
323.795	140.38
324.024	181.38
324.253	361.38
324.482	798.38
324.71	1599.38
324.939	2189.38
325.168	806.38
325.397	251.38
325.626	148.38
325.855	121.38
326.084	126.38
326.313	131.38
326.542	161.38
326.77	223.38
326.999	451.38
327.228	939.38
327.457	1706.38
327.686	1377.38
327.914	387.38
328.143	227.38
328.372	226.38
328.6	166.38
328.829	112.38
329.058	129.38
329.287	125.38
329.515	119.38
329.744	141.38
329.972	183.38
330.201	255.38
330.43	354.38
330.658	208.38
330.887	134.38
331.115	118.38
331.344	109.38
331.572	96.38
331.801	99.38
332.03	97.38
332.258	118.38
332.486	91.38
332.715	96.38
332.943	91.38
333.172	93.38
333.4	101.38
333.629	112.38
333.857	126.38
334.085	170.38
334.314	274.38
334.542	457.38
334.771	420.38
334.999	175.38
335.227	125.38
335.455	93.38
335.684	91.38
335.912	100.38
336.14	98.38
336.369	94.38
336.597	98.38
336.825	93.38
337.053	84.38
337.281	80.38
337.51	90.38
337.738	85.38
337.966	87.38
338.194	91.38
338.422	114.38
338.65	95.38
338.878	92.38
339.106	95.38
339.334	96.38
339.562	92.38
339.79	93.38
340.018	86.38
340.246	102.38
340.474	90.38
340.702	80.38
340.93	91.38
341.158	79.38
341.386	107.38
341.614	88.38
341.842	81.38
342.07	99.38
342.298	73.38
342.526	76.38
342.754	95.38
342.981	83.38
343.209	88.38
343.437	95.38
343.665	98.38
343.893	89.38
344.12	89.38
344.348	87.38
344.576	91.38
344.804	100.38
345.031	93.38
345.259	86.38
345.487	100.38
345.714	89.38
345.942	88.38
346.17	89.38
346.397	98.38
346.625	93.38
346.853	95.38
347.08	84.38
347.308	85.38
347.535	85.38
347.763	99.38
347.99	94.38
348.218	91.38
348.445	107.38
348.673	99.38
348.9	100.38
349.128	92.38
349.355	65.38
349.583	84.38
349.81	85.38
350.037	87.38
350.265	100.38
350.492	107.38
350.72	91.38
350.947	90.38
351.174	101.38
351.402	77.38
351.629	95.38
351.856	95.38
352.083	98.38
352.311	97.38
352.538	99.38
352.765	91.38
352.992	116.38
353.22	109.38
353.447	100.38
353.674	114.38
353.901	108.38
354.128	98.38
354.355	90.38
354.583	85.38
354.81	93.38
355.037	85.38
355.264	102.38
355.491	87.38
355.718	77.38
355.945	91.38
356.172	77.38
356.399	100.38
356.626	99.38
356.853	93.38
357.08	88.38
357.307	99.38
357.534	93.38
357.761	99.38
357.988	91.38
358.215	92.38
358.441	76.38
358.668	83.38
358.895	92.38
359.122	83.38
359.349	78.38
359.576	82.38
359.802	108.38
360.029	93.38
360.256	101.38
360.483	95.38
360.709	95.38
360.936	88.38
361.163	85.38
361.39	88.38
361.616	92.38
361.843	96.38
362.07	113.38
362.296	98.38
362.523	102.38
362.749	80.38
362.976	88.38
363.203	81.38
363.429	90.38
363.656	80.38
363.882	97.38
364.109	81.38
364.335	103.38
364.562	74.38
364.788	85.38
365.015	91.38
365.241	88.38
365.468	108.38
365.694	97.38
365.92	93.38
366.147	83.38
366.373	81.38
366.599	82.38
366.826	97.38
367.052	85.38
367.278	83.38
367.505	86.38
367.731	88.38
367.957	93.38
368.184	95.38
368.41	95.38
368.636	108.38
368.862	100.38
369.089	101.38
369.315	96.38
369.541	94.38
369.767	92.38
369.993	92.38
370.219	105.38
370.445	96.38
370.672	71.38
370.898	91.38
371.124	90.38
371.35	81.38
371.576	79.38
371.802	89.38
372.028	84.38
372.254	90.38
372.48	74.38
372.706	82.38
372.932	92.38
373.158	92.38
373.384	77.38
373.61	95.38
373.835	70.38
374.061	94.38
374.287	70.38
374.513	97.38
374.739	90.38
374.965	88.38
375.191	89.38
375.416	74.38
375.642	90.38
375.868	95.38
376.094	96.38
376.319	88.38
376.545	101.38
376.771	89.38
376.997	79.38
377.222	96.38
377.448	91.38
377.674	93.38
377.899	105.38
378.125	88.38
378.35	69.38
378.576	87.38
378.802	88.38
379.027	88.38
379.253	93.38
379.478	99.38
379.704	86.38
379.929	97.38
380.155	84.38
380.38	94.38
380.606	83.38
380.831	107.38
381.057	98.38
381.282	95.38
381.507	88.38
381.733	83.38
381.958	87.38
382.184	92.38
382.409	108.38
382.634	88.38
382.86	105.38
383.085	101.38
383.31	92.38
383.535	115.38
383.761	103.38
383.986	107.38
384.211	79.38
384.436	88.38
384.662	98.38
384.887	100.38
385.112	97.38
385.337	91.38
385.562	104.38
385.787	106.38
386.013	102.38
386.238	114.38
386.463	117.38
386.688	100.38
386.913	105.38
387.138	95.38
387.363	114.38
387.588	97.38
387.813	88.38
388.038	95.38
388.263	98.38
388.488	112.38
388.713	88.38
388.938	96.38
389.163	92.38
389.387	93.38
389.612	87.38
389.837	95.38
390.062	96.38
390.287	89.38
390.512	76.38
390.736	93.38
390.961	85.38
391.186	90.38
391.411	88.38
391.636	92.38
391.86	93.38
392.085	81.38
392.31	89.38
392.534	83.38
392.759	84.38
392.984	91.38
393.208	72.38
393.433	91.38
393.658	90.38
393.882	75.38
394.107	73.38
394.331	89.38
394.556	96.38
394.78	82.38
395.005	81.38
395.229	85.38
395.454	74.38
395.678	77.38
395.903	74.38
396.127	92.38
396.352	93.38
396.576	86.38
396.801	80.38
397.025	82.38
397.249	95.38
397.474	79.38
397.698	97.38
397.922	79.38
398.147	84.38
398.371	79.38
398.595	80.38
398.82	97.38
399.044	97.38
399.268	87.38
399.492	75.38
399.717	99.38
399.941	80.38
400.165	92.38
400.389	96.38
400.613	85.38
400.837	95.38
401.062	95.38
401.286	92.38
401.51	76.38
401.734	91.38
401.958	94.38
402.182	106.38
402.406	146.38
402.63	105.38
402.854	92.38
403.078	99.38
403.302	91.38
403.526	66.38
403.75	88.38
403.974	87.38
404.198	85.38
404.422	102.38
404.645	85.38
404.869	86.38
405.093	104.38
405.317	109.38
405.541	102.38
405.765	94.38
405.988	100.38
406.212	144.38
406.436	189.38
406.66	127.38
406.883	104.38
407.107	106.38
407.331	93.38
407.555	90.38
407.778	92.38
408.002	105.38
408.226	85.38
408.449	89.38
408.673	99.38
408.896	97.38
409.12	83.38
409.344	80.38
409.567	97.38
409.791	98.38
410.014	99.38
410.238	96.38
410.461	80.38
410.685	95.38
410.908	87.38
411.132	129.38
411.355	94.38
411.578	85.38
411.802	78.38
412.025	98.38
412.249	96.38
412.472	97.38
412.695	103.38
412.919	99.38
413.142	72.38
413.365	76.38
413.589	91.38
413.812	94.38
414.035	83.38
414.258	76.38
414.482	80.38
414.705	87.38
414.928	98.38
415.151	108.38
415.374	76.38
415.597	91.38
415.821	88.38
416.044	83.38
416.267	75.38
416.49	83.38
416.713	77.38
416.936	93.38
417.159	79.38
417.382	81.38
417.605	93.38
417.828	90.38
418.051	89.38
418.274	93.38
418.497	100.38
418.72	87.38
418.943	92.38
419.166	99.38
419.389	75.38
419.611	80.38
419.834	115.38
420.057	97.38
420.28	91.38
420.503	76.38
420.726	83.38
420.948	97.38
421.171	98.38
421.394	95.38
421.617	96.38
421.839	93.38
422.062	87.38
422.285	104.38
422.507	95.38
422.73	106.38
422.953	90.38
423.175	76.38
423.398	84.38
423.621	100.38
423.843	82.38
424.066	87.38
424.288	79.38
424.511	93.38
424.733	103.38
424.956	107.38
425.178	84.38
425.401	85.38
425.623	106.38
425.846	90.38
426.068	91.38
426.291	67.38
426.513	76.38
426.735	91.38
426.958	99.38
427.18	99.38
427.402	137.38
427.625	180.38
427.847	140.38
428.069	136.38
428.292	96.38
428.514	101.38
428.736	83.38
428.958	81.38
429.181	98.38
429.403	88.38
429.625	80.38
429.847	96.38
430.069	105.38
430.292	80.38
430.514	74.38
430.736	91.38
430.958	83.38
431.18	66.38
431.402	91.38
431.624	111.38
431.846	87.38
432.068	80.38
432.29	89.38
432.512	86.38
432.734	85.38
432.956	80.38
433.178	87.38
433.4	91.38
433.622	79.38
433.844	83.38
434.066	87.38
434.287	76.38
434.509	88.38
434.731	77.38
434.953	94.38
435.175	86.38
435.397	86.38
435.618	97.38
435.84	97.38
436.062	117.38
436.284	100.38
436.505	92.38
436.727	99.38
436.949	91.38
437.17	80.38
437.392	80.38
437.614	89.38
437.835	92.38
438.057	115.38
438.278	95.38
438.5	103.38
438.721	124.38
438.943	94.38
439.165	98.38
439.386	81.38
439.608	98.38
439.829	92.38
440.05	118.38
440.272	136.38
440.493	92.38
440.715	99.38
440.936	89.38
441.158	81.38
441.379	85.38
441.6	96.38
441.822	77.38
442.043	88.38
442.264	115.38
442.486	107.38
442.707	90.38
442.928	101.38
443.149	124.38
443.371	120.38
443.592	93.38
443.813	114.38
444.034	108.38
444.255	88.38
444.476	76.38
444.698	90.38
444.919	93.38
445.14	127.38
445.361	122.38
445.582	125.38
445.803	143.38
446.024	129.38
446.245	143.38
446.466	109.38
446.687	83.38
446.908	81.38
447.129	83.38
447.35	77.38
447.571	98.38
447.792	100.38
448.013	100.38
448.234	84.38
448.455	107.38
448.675	107.38
448.896	118.38
449.117	95.38
449.338	101.38
449.559	117.38
449.779	123.38
450	94.38
450.221	73.38
450.442	94.38
450.662	94.38
450.883	104.38
451.104	100.38
451.324	90.38
451.545	78.38
451.766	81.38
451.986	104.38
452.207	76.38
452.428	92.38
452.648	93.38
452.869	91.38
453.089	112.38
453.31	101.38
453.53	93.38
453.751	93.38
453.971	108.38
454.192	103.38
454.412	85.38
454.633	90.38
454.853	74.38
455.073	83.38
455.294	84.38
455.514	97.38
455.734	92.38
455.955	88.38
456.175	72.38
456.395	81.38
456.616	79.38
456.836	84.38
457.056	80.38
457.276	76.38
457.497	85.38
457.717	77.38
457.937	108.38
458.157	81.38
458.377	88.38
458.598	102.38
458.818	123.38
459.038	134.38
459.258	120.38
459.478	98.38
459.698	81.38
459.918	90.38
460.138	73.38
460.358	90.38
460.578	95.38
460.798	95.38
461.018	79.38
461.238	82.38
461.458	73.38
461.678	91.38
461.898	92.38
462.118	83.38
462.338	82.38
462.558	84.38
462.777	59.38
462.997	96.38
463.217	81.38
463.437	94.38
463.657	79.38
463.876	88.38
464.096	87.38
464.316	101.38
464.536	100.38
464.755	96.38
464.975	92.38
465.195	144.38
465.414	137.38
465.634	101.38
465.854	96.38
466.073	88.38
466.293	79.38
466.512	80.38
466.732	89.38
466.951	87.38
467.171	85.38
467.391	95.38
467.61	111.38
467.829	110.38
468.049	180.38
468.268	234.38
468.488	90.38
468.707	78.38
468.927	87.38
469.146	85.38
469.365	89.38
469.585	96.38
469.804	98.38
470.023	97.38
470.243	83.38
470.462	102.38
470.681	95.38
470.901	83.38
471.12	93.38
471.339	101.38
471.558	86.38
471.777	95.38
471.997	142.38
472.216	299.38
472.435	591.38
472.654	199.38
472.873	94.38
473.092	99.38
473.311	96.38
473.53	95.38
473.749	77.38
473.968	104.38
474.187	102.38
474.406	83.38
474.625	78.38
474.844	82.38
475.063	88.38
475.282	84.38
475.501	94.38
475.72	95.38
475.939	75.38
476.158	82.38
476.377	97.38
476.596	89.38
476.814	83.38
477.033	81.38
477.252	86.38
477.471	81.38
477.69	86.38
477.908	88.38
478.127	83.38
478.346	89.38
478.564	87.38
478.783	101.38
479.002	100.38
479.22	93.38
479.439	94.38
479.658	107.38
479.876	102.38
480.095	96.38
480.313	96.38
480.532	97.38
480.751	135.38
480.969	291.38
481.188	990.38
481.406	625.38
481.624	150.38
481.843	101.38
482.061	97.38
482.28	96.38
482.498	87.38
482.717	94.38
482.935	91.38
483.153	85.38
483.372	88.38
483.59	91.38
483.808	97.38
484.027	97.38
484.245	91.38
484.463	90.38
484.681	108.38
484.9	85.38
485.118	79.38
485.336	87.38
485.554	84.38
485.772	87.38
485.99	99.38
486.209	111.38
486.427	108.38
486.645	99.38
486.863	111.38
487.081	75.38
487.299	96.38
487.517	103.38
487.735	85.38
487.953	87.38
488.171	87.38
488.389	107.38
488.607	103.38
488.825	89.38
489.043	90.38
489.261	90.38
489.479	95.38
489.696	93.38
489.914	93.38
490.132	81.38
490.35	86.38
490.568	86.38
490.786	89.38
491.003	98.38
491.221	87.38
491.439	90.38
491.657	91.38
491.874	88.38
492.092	97.38
492.31	100.38
492.527	92.38
492.745	85.38
492.963	90.38
493.18	88.38
493.398	86.38
493.615	95.38
493.833	104.38
494.05	92.38
494.268	78.38
494.485	101.38
494.703	92.38
494.92	97.38
495.138	97.38
495.355	97.38
495.573	98.38
495.79	91.38
496.008	92.38
496.225	89.38
496.442	86.38
496.66	87.38
496.877	96.38
497.094	87.38
497.312	88.38
497.529	86.38
497.746	86.38
497.963	97.38
498.181	78.38
498.398	94.38
498.615	112.38
498.832	101.38
499.049	96.38
499.267	77.38
499.484	112.38
499.701	87.38
499.918	82.38
500.135	94.38
500.352	82.38
500.569	84.38
500.786	90.38
501.003	86.38
501.22	89.38
501.437	74.38
501.654	91.38
501.871	101.38
502.088	89.38
502.305	90.38
502.522	88.38
502.739	79.38
502.956	80.38
503.172	89.38
503.389	91.38
503.606	103.38
503.823	99.38
504.04	95.38
504.256	85.38
504.473	90.38
504.69	77.38
504.907	100.38
505.123	89.38
505.34	67.38
505.557	88.38
505.773	87.38
505.99	93.38
506.207	95.38
506.423	98.38
506.64	95.38
506.856	92.38
507.073	94.38
507.289	103.38
507.506	92.38
507.722	105.38
507.939	104.38
508.155	90.38
508.372	86.38
508.588	99.38
508.805	92.38
509.021	88.38
509.238	85.38
509.454	83.38
509.67	100.38
509.887	98.38
510.103	128.38
510.319	186.38
510.536	554.38
510.752	1878.38
510.968	570.38
511.184	137.38
511.401	105.38
511.617	92.38
511.833	88.38
512.049	85.38
512.265	98.38
512.481	93.38
512.698	85.38
512.914	87.38
513.13	94.38
513.346	99.38
513.562	88.38
513.778	104.38
513.994	96.38
514.21	97.38
514.426	102.38
514.642	115.38
514.858	105.38
515.074	152.38
515.29	384.38
515.506	1153.38
515.721	478.38
515.937	150.38
516.153	107.38
516.369	98.38
