Data from Circ_2015_H10_HRD10591_00074.txt Node
Date: Wed Jan 03 10:00:37 EST 2024
User: Yrep
Spectrometer: HR+D1059
Trigger mode: 1
Integration Time (sec): 1.000000E-1
Scans to average: 1
Electric dark correction enabled: true
Nonlinearity correction enabled: false
Boxcar width: 0
XAxis mode: Wavelengths
Number of Pixels in Spectrum: 2048
>>>>>Begin Spectral Data<<<<<
223.165	-26.38
223.4	-26.38
223.635	-26.38
223.869	-20.38
224.104	-10.38
224.338	-22.38
224.573	-4.38
224.808	-17.38
225.042	-10.38
225.277	-6.38
225.511	-0.38
225.746	11.62
225.98	5.62
226.215	18.62
226.449	7.62
226.683	19.62
226.918	28.62
227.152	26.62
227.387	30.62
227.621	41.62
227.856	46.62
228.09	56.62
228.324	53.62
228.559	61.62
228.793	62.62
229.027	60.62
229.262	76.62
229.496	81.62
229.73	67.62
229.964	69.62
230.199	73.62
230.433	78.62
230.667	90.62
230.901	83.62
231.136	90.62
231.37	79.62
231.604	79.62
231.838	81.62
232.072	84.62
232.306	84.62
232.541	80.62
232.775	83.62
233.009	89.62
233.243	79.62
233.477	83.62
233.711	92.62
233.945	80.62
234.179	74.62
234.413	91.62
234.647	87.62
234.881	81.62
235.115	98.62
235.349	78.62
235.583	72.62
235.817	65.62
236.051	97.62
236.285	86.62
236.519	75.62
236.753	78.62
236.987	78.62
237.221	79.62
237.455	77.62
237.689	69.62
237.922	72.62
238.156	82.62
238.39	68.62
238.624	78.62
238.858	80.62
239.091	84.62
239.325	60.62
239.559	88.62
239.793	81.62
240.027	76.62
240.26	75.62
240.494	102.62
240.728	76.62
240.961	70.62
241.195	70.62
241.429	65.62
241.662	66.62
241.896	92.62
242.13	84.62
242.363	79.62
242.597	77.62
242.83	73.62
243.064	78.62
243.298	87.62
243.531	71.62
243.765	84.62
243.998	71.62
244.232	78.62
244.465	92.62
244.699	87.62
244.932	72.62
245.166	77.62
245.399	79.62
245.633	64.62
245.866	69.62
246.099	75.62
246.333	86.62
246.566	80.62
246.8	84.62
247.033	82.62
247.266	73.62
247.5	76.62
247.733	90.62
247.966	73.62
248.2	90.62
248.433	81.62
248.666	82.62
248.899	85.62
249.133	99.62
249.366	73.62
249.599	85.62
249.832	70.62
250.066	90.62
250.299	74.62
250.532	74.62
250.765	72.62
250.998	72.62
251.231	69.62
251.465	73.62
251.698	79.62
251.931	74.62
252.164	92.62
252.397	85.62
252.63	83.62
252.863	84.62
253.096	90.62
253.329	81.62
253.562	85.62
253.795	84.62
254.028	74.62
254.261	76.62
254.494	77.62
254.727	82.62
254.96	77.62
255.193	77.62
255.426	100.62
255.659	76.62
255.892	87.62
256.124	85.62
256.357	71.62
256.59	81.62
256.823	75.62
257.056	86.62
257.289	87.62
257.521	75.62
257.754	77.62
257.987	70.62
258.22	78.62
258.452	89.62
258.685	95.62
258.918	84.62
259.151	73.62
259.383	77.62
259.616	85.62
259.849	96.62
260.081	96.62
260.314	88.62
260.547	89.62
260.779	85.62
261.012	79.62
261.244	93.62
261.477	79.62
261.71	83.62
261.942	119.62
262.175	109.62
262.407	77.62
262.64	79.62
262.872	84.62
263.105	88.62
263.337	85.62
263.57	82.62
263.802	82.62
264.035	83.62
264.267	87.62
264.499	72.62
264.732	83.62
264.964	92.62
265.197	72.62
265.429	82.62
265.661	78.62
265.894	69.62
266.126	82.62
266.358	86.62
266.591	74.62
266.823	85.62
267.055	94.62
267.287	77.62
267.52	91.62
267.752	86.62
267.984	71.62
268.216	76.62
268.448	84.62
268.681	97.62
268.913	73.62
269.145	85.62
269.377	67.62
269.609	94.62
269.841	73.62
270.073	90.62
270.306	88.62
270.538	79.62
270.77	85.62
271.002	104.62
271.234	75.62
271.466	81.62
271.698	88.62
271.93	91.62
272.162	86.62
272.394	89.62
272.626	75.62
272.858	92.62
273.09	83.62
273.322	81.62
273.553	88.62
273.785	85.62
274.017	92.62
274.249	82.62
274.481	98.62
274.713	92.62
274.945	77.62
275.176	84.62
275.408	80.62
275.64	89.62
275.872	92.62
276.104	92.62
276.335	92.62
276.567	93.62
276.799	96.62
277.031	116.62
277.262	93.62
277.494	88.62
277.726	99.62
277.957	89.62
278.189	100.62
278.421	77.62
278.652	78.62
278.884	90.62
279.115	82.62
279.347	75.62
279.579	84.62
279.81	96.62
280.042	96.62
280.273	110.62
280.505	113.62
280.736	99.62
280.968	82.62
281.199	94.62
281.431	85.62
281.662	80.62
281.894	86.62
282.125	90.62
282.356	103.62
282.588	119.62
282.819	121.62
283.051	86.62
283.282	85.62
283.513	95.62
283.745	82.62
283.976	92.62
284.207	102.62
284.439	91.62
284.67	87.62
284.901	92.62
285.132	110.62
285.364	87.62
285.595	86.62
285.826	92.62
286.057	86.62
286.288	78.62
286.52	89.62
286.751	92.62
286.982	94.62
287.213	77.62
287.444	90.62
287.675	75.62
287.906	99.62
288.138	86.62
288.369	89.62
288.6	86.62
288.831	77.62
289.062	92.62
289.293	78.62
289.524	92.62
289.755	79.62
289.986	87.62
290.217	87.62
290.448	70.62
290.679	94.62
290.91	81.62
291.141	82.62
291.371	90.62
291.602	88.62
291.833	87.62
292.064	89.62
292.295	93.62
292.526	105.62
292.757	87.62
292.987	91.62
293.218	97.62
293.449	91.62
293.68	87.62
293.91	107.62
294.141	100.62
294.372	91.62
294.603	79.62
294.833	82.62
295.064	69.62
295.295	85.62
295.525	86.62
295.756	105.62
295.987	103.62
296.217	113.62
296.448	140.62
296.679	89.62
296.909	83.62
297.14	77.62
297.37	90.62
297.601	97.62
297.831	90.62
298.062	87.62
298.292	77.62
298.523	90.62
298.753	73.62
298.984	75.62
299.214	84.62
299.445	95.62
299.675	92.62
299.905	90.62
300.136	86.62
300.366	98.62
300.597	97.62
300.827	103.62
301.057	95.62
301.288	98.62
301.518	89.62
301.748	81.62
301.979	115.62
302.209	89.62
302.439	86.62
302.669	93.62
302.9	95.62
303.13	89.62
303.36	79.62
303.59	105.62
303.82	104.62
304.051	97.62
304.281	103.62
304.511	79.62
304.741	86.62
304.971	81.62
305.201	90.62
305.431	97.62
305.661	78.62
305.891	115.62
306.121	99.62
306.352	92.62
306.582	89.62
306.812	86.62
307.042	103.62
307.272	113.62
307.502	98.62
307.731	102.62
307.961	99.62
308.191	94.62
308.421	86.62
308.651	91.62
308.881	76.62
309.111	93.62
309.341	106.62
309.571	97.62
309.8	88.62
310.03	86.62
310.26	107.62
310.49	98.62
310.72	89.62
310.949	92.62
311.179	93.62
311.409	97.62
311.639	105.62
311.868	88.62
312.098	97.62
312.328	92.62
312.557	90.62
312.787	107.62
313.017	106.62
313.246	99.62
313.476	98.62
313.706	103.62
313.935	83.62
314.165	94.62
314.394	102.62
314.624	96.62
314.853	100.62
315.083	104.62
315.312	107.62
315.542	79.62
315.771	82.62
316.001	91.62
316.23	88.62
316.46	85.62
316.689	88.62
316.919	96.62
317.148	93.62
317.377	101.62
317.607	94.62
317.836	83.62
318.065	96.62
318.295	101.62
318.524	89.62
318.753	87.62
318.983	104.62
319.212	87.62
319.441	94.62
319.67	97.62
319.9	94.62
320.129	89.62
320.358	101.62
320.587	77.62
320.816	91.62
321.046	96.62
321.275	95.62
321.504	107.62
321.733	96.62
321.962	98.62
322.191	93.62
322.42	87.62
322.649	126.62
322.878	107.62
323.108	124.62
323.337	100.62
323.566	129.62
323.795	145.62
324.024	188.62
324.253	357.62
324.482	745.62
324.71	1501.62
324.939	1995.62
325.168	750.62
325.397	236.62
325.626	143.62
325.855	133.62
326.084	134.62
326.313	116.62
326.542	154.62
326.77	220.62
326.999	419.62
327.228	874.62
327.457	1541.62
327.686	1268.62
327.914	366.62
328.143	212.62
328.372	211.62
328.6	147.62
328.829	119.62
329.058	133.62
329.287	130.62
329.515	114.62
329.744	142.62
329.972	157.62
330.201	219.62
330.43	269.62
330.658	182.62
330.887	131.62
331.115	110.62
331.344	105.62
331.572	100.62
331.801	107.62
332.03	106.62
332.258	98.62
332.486	95.62
332.715	93.62
332.943	90.62
333.172	101.62
333.4	100.62
333.629	118.62
333.857	133.62
334.085	157.62
334.314	228.62
334.542	339.62
334.771	324.62
334.999	147.62
335.227	105.62
335.455	91.62
335.684	98.62
335.912	110.62
336.14	96.62
336.369	101.62
336.597	110.62
336.825	98.62
337.053	81.62
337.281	71.62
337.51	97.62
337.738	92.62
337.966	85.62
338.194	101.62
338.422	97.62
338.65	98.62
338.878	93.62
339.106	101.62
339.334	86.62
339.562	98.62
339.79	95.62
340.018	75.62
340.246	93.62
340.474	81.62
340.702	94.62
340.93	99.62
341.158	87.62
341.386	105.62
341.614	98.62
341.842	90.62
342.07	92.62
342.298	82.62
342.526	87.62
342.754	92.62
342.981	90.62
343.209	88.62
343.437	105.62
343.665	84.62
343.893	100.62
344.12	93.62
344.348	79.62
344.576	84.62
344.804	85.62
345.031	95.62
345.259	108.62
345.487	92.62
345.714	96.62
345.942	88.62
346.17	108.62
346.397	98.62
346.625	86.62
346.853	98.62
347.08	95.62
347.308	98.62
347.535	101.62
347.763	94.62
347.99	91.62
348.218	100.62
348.445	93.62
348.673	99.62
348.9	98.62
349.128	91.62
349.355	98.62
349.583	101.62
349.81	86.62
350.037	86.62
350.265	106.62
350.492	96.62
350.72	90.62
350.947	108.62
351.174	108.62
351.402	118.62
351.629	102.62
351.856	99.62
352.083	97.62
352.311	105.62
352.538	111.62
352.765	119.62
352.992	97.62
353.22	106.62
353.447	107.62
353.674	93.62
353.901	100.62
354.128	92.62
354.355	102.62
354.583	113.62
354.81	93.62
355.037	98.62
355.264	99.62
355.491	94.62
355.718	96.62
355.945	87.62
356.172	89.62
356.399	104.62
356.626	86.62
356.853	89.62
357.08	89.62
357.307	86.62
357.534	77.62
357.761	83.62
357.988	90.62
358.215	107.62
358.441	93.62
358.668	89.62
358.895	88.62
359.122	96.62
359.349	86.62
359.576	92.62
359.802	104.62
360.029	107.62
360.256	99.62
360.483	92.62
360.709	95.62
360.936	107.62
361.163	102.62
361.39	84.62
361.616	96.62
361.843	87.62
362.07	103.62
362.296	81.62
362.523	84.62
362.749	85.62
362.976	96.62
363.203	94.62
363.429	86.62
363.656	86.62
363.882	95.62
364.109	98.62
364.335	97.62
364.562	100.62
364.788	88.62
365.015	92.62
365.241	100.62
365.468	95.62
365.694	97.62
365.92	103.62
366.147	102.62
366.373	92.62
366.599	91.62
366.826	83.62
367.052	95.62
367.278	87.62
367.505	91.62
367.731	99.62
367.957	82.62
368.184	99.62
368.41	96.62
368.636	120.62
368.862	129.62
369.089	104.62
369.315	81.62
369.541	78.62
369.767	89.62
369.993	105.62
370.219	82.62
370.445	97.62
370.672	95.62
370.898	82.62
371.124	100.62
371.35	90.62
371.576	84.62
371.802	88.62
372.028	78.62
372.254	84.62
372.48	78.62
372.706	94.62
372.932	92.62
373.158	95.62
373.384	91.62
373.61	93.62
373.835	94.62
374.061	95.62
374.287	102.62
374.513	101.62
374.739	98.62
374.965	78.62
375.191	89.62
375.416	84.62
375.642	89.62
375.868	106.62
376.094	104.62
376.319	105.62
376.545	91.62
376.771	88.62
376.997	85.62
377.222	74.62
377.448	92.62
377.674	93.62
377.899	86.62
378.125	92.62
378.35	101.62
378.576	89.62
378.802	92.62
379.027	104.62
379.253	83.62
379.478	89.62
379.704	88.62
379.929	89.62
380.155	93.62
380.38	96.62
380.606	93.62
380.831	100.62
381.057	90.62
381.282	91.62
381.507	95.62
381.733	99.62
381.958	96.62
382.184	90.62
382.409	108.62
382.634	101.62
382.86	104.62
383.085	109.62
383.31	95.62
383.535	109.62
383.761	102.62
383.986	90.62
384.211	97.62
384.436	119.62
384.662	107.62
384.887	85.62
385.112	117.62
385.337	115.62
385.562	100.62
385.787	108.62
386.013	95.62
386.238	101.62
386.463	111.62
386.688	104.62
386.913	95.62
387.138	94.62
387.363	99.62
387.588	102.62
387.813	99.62
388.038	101.62
388.263	111.62
388.488	130.62
388.713	93.62
388.938	85.62
389.163	113.62
389.387	96.62
389.612	94.62
389.837	99.62
390.062	100.62
390.287	89.62
390.512	80.62
390.736	89.62
390.961	84.62
391.186	87.62
391.411	91.62
391.636	93.62
391.86	97.62
392.085	88.62
392.31	87.62
392.534	97.62
392.759	93.62
392.984	95.62
393.208	92.62
393.433	100.62
393.658	103.62
393.882	90.62
394.107	89.62
394.331	91.62
394.556	86.62
394.78	99.62
395.005	94.62
395.229	91.62
395.454	97.62
395.678	92.62
395.903	100.62
396.127	95.62
396.352	77.62
396.576	89.62
396.801	90.62
397.025	86.62
397.249	93.62
397.474	83.62
397.698	99.62
397.922	83.62
398.147	87.62
398.371	102.62
398.595	87.62
398.82	87.62
399.044	77.62
399.268	85.62
399.492	95.62
399.717	90.62
399.941	78.62
400.165	103.62
400.389	96.62
400.613	91.62
400.837	91.62
401.062	93.62
401.286	91.62
401.51	89.62
401.734	94.62
401.958	95.62
402.182	121.62
402.406	141.62
402.63	109.62
402.854	84.62
403.078	110.62
403.302	91.62
403.526	81.62
403.75	94.62
403.974	85.62
404.198	90.62
404.422	78.62
404.645	84.62
404.869	91.62
405.093	92.62
405.317	104.62
405.541	96.62
405.765	99.62
405.988	109.62
406.212	155.62
406.436	204.62
406.66	133.62
406.883	99.62
407.107	95.62
407.331	86.62
407.555	108.62
407.778	102.62
408.002	82.62
408.226	87.62
408.449	88.62
408.673	102.62
408.896	93.62
409.12	99.62
409.344	93.62
409.567	105.62
409.791	88.62
410.014	92.62
410.238	94.62
410.461	90.62
410.685	85.62
410.908	102.62
411.132	105.62
411.355	97.62
411.578	97.62
411.802	84.62
412.025	90.62
412.249	98.62
412.472	98.62
412.695	109.62
412.919	93.62
413.142	83.62
413.365	99.62
413.589	97.62
413.812	87.62
414.035	89.62
414.258	78.62
414.482	92.62
414.705	100.62
414.928	94.62
415.151	102.62
415.374	90.62
415.597	83.62
415.821	75.62
416.044	86.62
416.267	96.62
416.49	103.62
416.713	86.62
416.936	81.62
417.159	79.62
417.382	94.62
417.605	93.62
417.828	107.62
418.051	103.62
418.274	87.62
418.497	88.62
418.72	98.62
418.943	103.62
419.166	97.62
419.389	71.62
419.611	101.62
419.834	88.62
420.057	105.62
420.28	85.62
420.503	94.62
420.726	96.62
420.948	85.62
421.171	103.62
421.394	90.62
421.617	100.62
421.839	80.62
422.062	83.62
422.285	87.62
422.507	103.62
422.73	102.62
422.953	94.62
423.175	96.62
423.398	83.62
423.621	90.62
423.843	90.62
424.066	92.62
424.288	100.62
424.511	99.62
424.733	92.62
424.956	96.62
425.178	74.62
425.401	80.62
425.623	113.62
425.846	109.62
426.068	88.62
426.291	71.62
426.513	93.62
426.735	107.62
426.958	108.62
427.18	113.62
427.402	120.62
427.625	146.62
427.847	154.62
428.069	125.62
428.292	107.62
428.514	84.62
428.736	81.62
428.958	85.62
429.181	90.62
429.403	86.62
429.625	87.62
429.847	90.62
430.069	103.62
430.292	90.62
430.514	85.62
430.736	89.62
430.958	83.62
431.18	78.62
431.402	82.62
431.624	85.62
431.846	82.62
432.068	88.62
432.29	84.62
432.512	98.62
432.734	79.62
432.956	91.62
433.178	109.62
433.4	99.62
433.622	92.62
433.844	90.62
434.066	100.62
434.287	92.62
434.509	80.62
434.731	89.62
434.953	92.62
435.175	75.62
435.397	90.62
435.618	75.62
435.84	107.62
436.062	117.62
436.284	115.62
436.505	87.62
436.727	113.62
436.949	93.62
437.17	90.62
437.392	111.62
437.614	101.62
437.835	93.62
438.057	104.62
438.278	108.62
438.5	89.62
438.721	115.62
438.943	100.62
439.165	96.62
439.386	91.62
439.608	109.62
439.829	97.62
440.05	101.62
440.272	133.62
440.493	94.62
440.715	99.62
440.936	83.62
441.158	92.62
441.379	79.62
441.6	116.62
441.822	93.62
442.043	92.62
442.264	97.62
442.486	77.62
442.707	85.62
442.928	88.62
443.149	111.62
443.371	122.62
443.592	107.62
443.813	108.62
444.034	93.62
444.255	95.62
444.476	89.62
444.698	81.62
444.919	98.62
445.14	131.62
445.361	127.62
445.582	113.62
445.803	131.62
446.024	121.62
446.245	133.62
446.466	111.62
446.687	100.62
446.908	73.62
447.129	102.62
447.35	83.62
447.571	94.62
447.792	87.62
448.013	97.62
448.234	106.62
448.455	95.62
448.675	119.62
448.896	101.62
449.117	90.62
449.338	103.62
449.559	109.62
449.779	120.62
450	93.62
450.221	105.62
450.442	82.62
450.662	83.62
450.883	110.62
451.104	107.62
451.324	100.62
451.545	90.62
451.766	88.62
451.986	83.62
452.207	100.62
452.428	90.62
452.648	90.62
452.869	104.62
453.089	93.62
453.31	102.62
453.53	79.62
453.751	90.62
453.971	89.62
454.192	109.62
454.412	91.62
454.633	85.62
454.853	86.62
455.073	83.62
455.294	83.62
455.514	82.62
455.734	73.62
455.955	78.62
456.175	79.62
456.395	82.62
456.616	105.62
456.836	70.62
457.056	84.62
457.276	89.62
457.497	74.62
457.717	94.62
457.937	87.62
458.157	86.62
458.377	79.62
458.598	114.62
458.818	136.62
459.038	133.62
459.258	109.62
459.478	83.62
459.698	77.62
459.918	84.62
460.138	94.62
460.358	83.62
460.578	100.62
460.798	93.62
461.018	89.62
461.238	91.62
461.458	103.62
461.678	86.62
461.898	94.62
462.118	94.62
462.338	94.62
462.558	110.62
462.777	78.62
462.997	87.62
463.217	97.62
463.437	71.62
463.657	82.62
463.876	97.62
464.096	74.62
464.316	69.62
464.536	87.62
464.755	98.62
464.975	97.62
465.195	134.62
465.414	154.62
465.634	77.62
465.854	77.62
466.073	95.62
466.293	86.62
466.512	74.62
466.732	83.62
466.951	71.62
467.171	97.62
467.391	104.62
467.61	111.62
467.829	108.62
468.049	146.62
468.268	187.62
468.488	98.62
468.707	90.62
468.927	89.62
469.146	98.62
469.365	85.62
469.585	92.62
469.804	95.62
470.023	106.62
470.243	100.62
470.462	103.62
470.681	103.62
470.901	86.62
471.12	85.62
471.339	83.62
471.558	90.62
471.777	105.62
471.997	117.62
472.216	231.62
472.435	424.62
472.654	170.62
472.873	93.62
473.092	95.62
473.311	99.62
473.53	99.62
473.749	71.62
473.968	95.62
474.187	93.62
474.406	87.62
474.625	92.62
474.844	84.62
475.063	77.62
475.282	85.62
475.501	86.62
475.72	86.62
475.939	84.62
476.158	79.62
476.377	66.62
476.596	83.62
476.814	84.62
477.033	87.62
477.252	85.62
477.471	88.62
477.69	84.62
477.908	83.62
478.127	83.62
478.346	88.62
478.564	79.62
478.783	100.62
479.002	91.62
479.22	98.62
479.439	98.62
479.658	93.62
479.876	97.62
480.095	97.62
480.313	111.62
480.532	105.62
480.751	134.62
480.969	245.62
481.188	728.62
481.406	480.62
481.624	132.62
481.843	98.62
482.061	79.62
482.28	86.62
482.498	93.62
482.717	89.62
482.935	103.62
483.153	75.62
483.372	89.62
483.59	83.62
483.808	76.62
484.027	80.62
484.245	103.62
484.463	101.62
484.681	82.62
484.9	90.62
485.118	76.62
485.336	82.62
485.554	91.62
485.772	86.62
485.99	90.62
486.209	93.62
486.427	104.62
486.645	102.62
486.863	121.62
487.081	89.62
487.299	106.62
487.517	97.62
487.735	84.62
487.953	94.62
488.171	92.62
488.389	88.62
488.607	87.62
488.825	97.62
489.043	92.62
489.261	89.62
489.479	88.62
489.696	80.62
489.914	82.62
490.132	93.62
490.35	100.62
490.568	92.62
490.786	103.62
491.003	87.62
491.221	95.62
491.439	87.62
491.657	79.62
491.874	90.62
492.092	87.62
492.31	97.62
492.527	95.62
492.745	80.62
492.963	82.62
493.18	93.62
493.398	104.62
493.615	97.62
493.833	100.62
494.05	96.62
494.268	86.62
494.485	90.62
494.703	99.62
494.92	88.62
495.138	86.62
495.355	83.62
495.573	97.62
495.79	104.62
496.008	101.62
496.225	85.62
496.442	104.62
496.66	91.62
496.877	89.62
497.094	76.62
497.312	90.62
497.529	82.62
497.746	90.62
497.963	96.62
498.181	91.62
498.398	94.62
498.615	97.62
498.832	105.62
499.049	83.62
499.267	94.62
499.484	82.62
499.701	93.62
499.918	88.62
500.135	76.62
500.352	91.62
500.569	74.62
500.786	89.62
501.003	90.62
501.22	73.62
501.437	95.62
501.654	99.62
501.871	96.62
502.088	92.62
502.305	91.62
502.522	85.62
502.739	100.62
502.956	85.62
503.172	94.62
503.389	91.62
503.606	94.62
503.823	99.62
504.04	92.62
504.256	93.62
504.473	79.62
504.69	97.62
504.907	98.62
505.123	83.62
505.34	77.62
505.557	97.62
505.773	93.62
505.99	84.62
506.207	85.62
506.423	82.62
506.64	96.62
506.856	109.62
507.073	91.62
507.289	99.62
507.506	108.62
507.722	118.62
507.939	96.62
508.155	81.62
508.372	93.62
508.588	109.62
508.805	106.62
509.021	94.62
509.238	82.62
509.454	102.62
509.67	98.62
509.887	97.62
510.103	119.62
510.319	179.62
510.536	616.62
510.752	1943.62
510.968	622.62
511.184	149.62
511.401	93.62
511.617	95.62
511.833	90.62
512.049	92.62
512.265	87.62
512.481	90.62
512.698	85.62
512.914	102.62
513.13	89.62
513.346	104.62
513.562	86.62
513.778	88.62
513.994	80.62
514.21	104.62
514.426	108.62
514.642	134.62
514.858	121.62
515.074	152.62
515.29	346.62
515.506	1182.62
