Data from Circ_2015_H10_HRD10591_00016.txt Node
Date: Wed Jan 03 10:00:26 EST 2024
User: Yrep
Spectrometer: HR+D1059
Trigger mode: 1
Integration Time (sec): 1.000000E-1
Scans to average: 1
Electric dark correction enabled: true
Nonlinearity correction enabled: false
Boxcar width: 0
XAxis mode: Wavelengths
Number of Pixels in Spectrum: 2048
>>>>>Begin Spectral Data<<<<<
223.165	-19.56
223.4	-19.56
223.635	-19.56
223.869	-17.56
224.104	-14.56
224.338	-22.56
224.573	-13.56
224.808	-17.56
225.042	-2.56
225.277	-7.56
225.511	-7.56
225.746	2.44
225.98	2.44
226.215	17.44
226.449	9.44
226.683	34.44
226.918	27.44
227.152	29.44
227.387	42.44
227.621	31.44
227.856	48.44
228.09	49.44
228.324	36.44
228.559	47.44
228.793	61.44
229.027	56.44
229.262	58.44
229.496	70.44
229.73	77.44
229.964	67.44
230.199	69.44
230.433	72.44
230.667	75.44
230.901	72.44
231.136	86.44
231.37	72.44
231.604	89.44
231.838	96.44
232.072	79.44
232.306	81.44
232.541	77.44
232.775	86.44
233.009	83.44
233.243	97.44
233.477	77.44
233.711	81.44
233.945	86.44
234.179	88.44
234.413	69.44
234.647	84.44
234.881	79.44
235.115	76.44
235.349	89.44
235.583	82.44
235.817	78.44
236.051	79.44
236.285	79.44
236.519	73.44
236.753	66.44
236.987	81.44
237.221	74.44
237.455	78.44
237.689	87.44
237.922	79.44
238.156	68.44
238.39	78.44
238.624	75.44
238.858	61.44
239.091	71.44
239.325	77.44
239.559	93.44
239.793	75.44
240.027	78.44
240.26	88.44
240.494	67.44
240.728	73.44
240.961	72.44
241.195	84.44
241.429	81.44
241.662	72.44
241.896	71.44
242.13	78.44
242.363	83.44
242.597	70.44
242.83	89.44
243.064	67.44
243.298	76.44
243.531	84.44
243.765	85.44
243.998	84.44
244.232	83.44
244.465	80.44
244.699	75.44
244.932	90.44
245.166	85.44
245.399	79.44
245.633	77.44
245.866	83.44
246.099	84.44
246.333	85.44
246.566	77.44
246.8	58.44
247.033	78.44
247.266	81.44
247.5	82.44
247.733	77.44
247.966	75.44
248.2	81.44
248.433	58.44
248.666	85.44
248.899	85.44
249.133	81.44
249.366	88.44
249.599	85.44
249.832	71.44
250.066	78.44
250.299	81.44
250.532	75.44
250.765	82.44
250.998	70.44
251.231	72.44
251.465	89.44
251.698	80.44
251.931	85.44
252.164	81.44
252.397	88.44
252.63	81.44
252.863	77.44
253.096	75.44
253.329	75.44
253.562	81.44
253.795	83.44
254.028	83.44
254.261	82.44
254.494	84.44
254.727	85.44
254.96	78.44
255.193	87.44
255.426	73.44
255.659	73.44
255.892	77.44
256.124	84.44
256.357	62.44
256.59	71.44
256.823	83.44
257.056	68.44
257.289	68.44
257.521	82.44
257.754	80.44
257.987	92.44
258.22	77.44
258.452	70.44
258.685	70.44
258.918	75.44
259.151	81.44
259.383	82.44
259.616	89.44
259.849	79.44
260.081	82.44
260.314	81.44
260.547	86.44
260.779	91.44
261.012	88.44
261.244	76.44
261.477	91.44
261.71	101.44
261.942	100.44
262.175	108.44
262.407	83.44
262.64	84.44
262.872	86.44
263.105	92.44
263.337	81.44
263.57	89.44
263.802	72.44
264.035	88.44
264.267	78.44
264.499	79.44
264.732	83.44
264.964	77.44
265.197	75.44
265.429	84.44
265.661	73.44
265.894	88.44
266.126	74.44
266.358	77.44
266.591	81.44
266.823	79.44
267.055	85.44
267.287	85.44
267.52	87.44
267.752	88.44
267.984	82.44
268.216	99.44
268.448	94.44
268.681	86.44
268.913	83.44
269.145	89.44
269.377	78.44
269.609	80.44
269.841	88.44
270.073	90.44
270.306	73.44
270.538	68.44
270.77	91.44
271.002	90.44
271.234	88.44
271.466	80.44
271.698	86.44
271.93	87.44
272.162	72.44
272.394	87.44
272.626	112.44
272.858	94.44
273.09	88.44
273.322	79.44
273.553	87.44
273.785	88.44
274.017	93.44
274.249	89.44
274.481	92.44
274.713	81.44
274.945	86.44
275.176	83.44
275.408	93.44
275.64	82.44
275.872	90.44
276.104	84.44
276.335	91.44
276.567	98.44
276.799	98.44
277.031	91.44
277.262	86.44
277.494	86.44
277.726	81.44
277.957	89.44
278.189	81.44
278.421	88.44
278.652	86.44
278.884	70.44
279.115	90.44
279.347	86.44
279.579	100.44
279.81	80.44
280.042	86.44
280.273	84.44
280.505	77.44
280.736	85.44
280.968	86.44
281.199	84.44
281.431	76.44
281.662	92.44
281.894	90.44
282.125	99.44
282.356	118.44
282.588	139.44
282.819	114.44
283.051	86.44
283.282	84.44
283.513	91.44
283.745	85.44
283.976	101.44
284.207	74.44
284.439	85.44
284.67	90.44
284.901	87.44
285.132	87.44
285.364	86.44
285.595	82.44
285.826	90.44
286.057	97.44
286.288	81.44
286.52	76.44
286.751	97.44
286.982	89.44
287.213	98.44
287.444	85.44
287.675	95.44
287.906	85.44
288.138	92.44
288.369	85.44
288.6	84.44
288.831	97.44
289.062	99.44
289.293	92.44
289.524	83.44
289.755	90.44
289.986	89.44
290.217	88.44
290.448	94.44
290.679	93.44
290.91	95.44
291.141	84.44
291.371	85.44
291.602	87.44
291.833	84.44
292.064	76.44
292.295	79.44
292.526	84.44
292.757	91.44
292.987	77.44
293.218	81.44
293.449	89.44
293.68	95.44
293.91	86.44
294.141	84.44
294.372	80.44
294.603	77.44
294.833	89.44
295.064	85.44
295.295	92.44
295.525	78.44
295.756	100.44
295.987	100.44
296.217	133.44
296.448	126.44
296.679	100.44
296.909	90.44
297.14	102.44
297.37	89.44
297.601	90.44
297.831	84.44
298.062	98.44
298.292	81.44
298.523	83.44
298.753	95.44
298.984	90.44
299.214	86.44
299.445	100.44
299.675	106.44
299.905	91.44
300.136	101.44
300.366	99.44
300.597	86.44
300.827	89.44
301.057	88.44
301.288	94.44
301.518	99.44
301.748	81.44
301.979	96.44
302.209	85.44
302.439	102.44
302.669	95.44
302.9	82.44
303.13	104.44
303.36	84.44
303.59	96.44
303.82	117.44
304.051	90.44
304.281	101.44
304.511	77.44
304.741	90.44
304.971	92.44
305.201	85.44
305.431	81.44
305.661	83.44
305.891	78.44
306.121	80.44
306.352	113.44
306.582	91.44
306.812	97.44
307.042	93.44
307.272	83.44
307.502	94.44
307.731	100.44
307.961	99.44
308.191	93.44
308.421	104.44
308.651	88.44
308.881	86.44
309.111	97.44
309.341	94.44
309.571	116.44
309.8	85.44
310.03	112.44
310.26	102.44
310.49	100.44
310.72	92.44
310.949	86.44
311.179	93.44
311.409	100.44
311.639	98.44
311.868	89.44
312.098	87.44
312.328	95.44
312.557	96.44
312.787	92.44
313.017	97.44
313.246	94.44
313.476	81.44
313.706	101.44
313.935	82.44
314.165	105.44
314.394	98.44
314.624	105.44
314.853	98.44
315.083	104.44
315.312	80.44
315.542	94.44
315.771	101.44
316.001	96.44
316.23	101.44
316.46	89.44
316.689	97.44
316.919	97.44
317.148	97.44
317.377	88.44
317.607	80.44
317.836	93.44
318.065	91.44
318.295	77.44
318.524	98.44
318.753	89.44
318.983	106.44
319.212	112.44
319.441	116.44
319.67	72.44
319.9	92.44
320.129	99.44
320.358	86.44
320.587	97.44
320.816	99.44
321.046	101.44
321.275	83.44
321.504	88.44
321.733	96.44
321.962	94.44
322.191	101.44
322.42	96.44
322.649	99.44
322.878	100.44
323.108	117.44
323.337	118.44
323.566	134.44
323.795	119.44
324.024	170.44
324.253	346.44
324.482	755.44
324.71	1493.44
324.939	1977.44
325.168	755.44
325.397	212.44
325.626	150.44
325.855	118.44
326.084	107.44
326.313	130.44
326.542	157.44
326.77	210.44
326.999	434.44
327.228	872.44
327.457	1537.44
327.686	1265.44
327.914	342.44
328.143	187.44
328.372	150.44
328.6	122.44
328.829	117.44
329.058	125.44
329.287	109.44
329.515	90.44
329.744	107.44
329.972	117.44
330.201	130.44
330.43	139.44
330.658	133.44
330.887	135.44
331.115	109.44
331.344	95.44
331.572	100.44
331.801	103.44
332.03	108.44
332.258	85.44
332.486	89.44
332.715	97.44
332.943	95.44
333.172	94.44
333.4	102.44
333.629	117.44
333.857	124.44
334.085	119.44
334.314	135.44
334.542	156.44
334.771	162.44
334.999	102.44
335.227	112.44
335.455	103.44
335.684	92.44
335.912	102.44
336.14	105.44
336.369	102.44
336.597	89.44
336.825	89.44
337.053	88.44
337.281	88.44
337.51	90.44
337.738	93.44
337.966	96.44
338.194	101.44
338.422	102.44
338.65	93.44
338.878	86.44
339.106	89.44
339.334	84.44
339.562	87.44
339.79	113.44
340.018	100.44
340.246	95.44
340.474	102.44
340.702	103.44
340.93	75.44
341.158	87.44
341.386	84.44
341.614	92.44
341.842	104.44
342.07	94.44
342.298	87.44
342.526	87.44
342.754	91.44
342.981	99.44
343.209	85.44
343.437	92.44
343.665	90.44
343.893	80.44
344.12	98.44
344.348	91.44
344.576	92.44
344.804	83.44
345.031	96.44
345.259	91.44
345.487	93.44
345.714	92.44
345.942	100.44
346.17	97.44
346.397	90.44
346.625	99.44
346.853	105.44
347.08	92.44
347.308	86.44
347.535	85.44
347.763	97.44
347.99	85.44
348.218	90.44
348.445	92.44
348.673	93.44
348.9	89.44
349.128	88.44
349.355	81.44
349.583	96.44
349.81	108.44
350.037	100.44
350.265	111.44
350.492	89.44
350.72	92.44
350.947	92.44
351.174	96.44
351.402	104.44
351.629	91.44
351.856	107.44
352.083	113.44
352.311	114.44
352.538	92.44
352.765	102.44
352.992	99.44
353.22	104.44
353.447	101.44
353.674	99.44
353.901	106.44
354.128	103.44
354.355	84.44
354.583	94.44
354.81	77.44
355.037	113.44
355.264	105.44
355.491	112.44
355.718	90.44
355.945	91.44
356.172	99.44
356.399	87.44
356.626	105.44
356.853	89.44
357.08	96.44
357.307	104.44
357.534	84.44
357.761	91.44
357.988	87.44
358.215	100.44
358.441	88.44
358.668	92.44
358.895	85.44
359.122	91.44
359.349	86.44
359.576	109.44
359.802	103.44
360.029	109.44
360.256	98.44
360.483	79.44
360.709	91.44
360.936	87.44
361.163	75.44
361.39	93.44
361.616	90.44
361.843	85.44
362.07	92.44
362.296	87.44
362.523	86.44
362.749	98.44
362.976	101.44
363.203	86.44
363.429	98.44
363.656	98.44
363.882	85.44
364.109	90.44
364.335	91.44
364.562	80.44
364.788	80.44
365.015	85.44
365.241	104.44
365.468	109.44
365.694	104.44
365.92	83.44
366.147	85.44
366.373	107.44
366.599	106.44
366.826	85.44
367.052	85.44
367.278	81.44
367.505	91.44
367.731	100.44
367.957	84.44
368.184	93.44
368.41	109.44
368.636	102.44
368.862	108.44
369.089	117.44
369.315	95.44
369.541	97.44
369.767	86.44
369.993	91.44
370.219	83.44
370.445	84.44
370.672	69.44
370.898	83.44
371.124	74.44
371.35	88.44
371.576	85.44
371.802	81.44
372.028	88.44
372.254	92.44
372.48	82.44
372.706	86.44
372.932	88.44
373.158	91.44
373.384	81.44
373.61	95.44
373.835	102.44
374.061	91.44
374.287	72.44
374.513	85.44
374.739	85.44
374.965	99.44
375.191	74.44
375.416	93.44
375.642	93.44
375.868	93.44
376.094	98.44
376.319	96.44
376.545	88.44
376.771	97.44
376.997	99.44
377.222	97.44
377.448	85.44
377.674	85.44
377.899	87.44
378.125	96.44
378.35	95.44
378.576	84.44
378.802	93.44
379.027	112.44
379.253	102.44
379.478	98.44
379.704	93.44
379.929	99.44
380.155	99.44
380.38	96.44
380.606	89.44
380.831	96.44
381.057	97.44
381.282	99.44
381.507	101.44
381.733	104.44
381.958	98.44
382.184	109.44
382.409	84.44
382.634	110.44
382.86	100.44
383.085	119.44
383.31	93.44
383.535	103.44
383.761	97.44
383.986	103.44
384.211	104.44
384.436	100.44
384.662	119.44
384.887	120.44
385.112	132.44
385.337	124.44
385.562	104.44
385.787	112.44
386.013	109.44
386.238	126.44
386.463	113.44
386.688	116.44
386.913	100.44
387.138	136.44
387.363	115.44
387.588	117.44
387.813	109.44
388.038	122.44
388.263	109.44
388.488	118.44
388.713	110.44
388.938	96.44
389.163	82.44
389.387	96.44
389.612	92.44
389.837	94.44
390.062	100.44
390.287	101.44
390.512	96.44
390.736	105.44
390.961	92.44
391.186	108.44
391.411	99.44
391.636	79.44
391.86	83.44
392.085	88.44
392.31	99.44
392.534	91.44
392.759	88.44
392.984	95.44
393.208	84.44
393.433	109.44
393.658	95.44
393.882	87.44
394.107	95.44
394.331	93.44
394.556	85.44
394.78	84.44
395.005	93.44
395.229	82.44
395.454	89.44
395.678	78.44
395.903	82.44
396.127	97.44
396.352	98.44
396.576	69.44
396.801	98.44
397.025	86.44
397.249	94.44
397.474	85.44
397.698	80.44
397.922	92.44
398.147	88.44
398.371	90.44
398.595	84.44
398.82	97.44
399.044	92.44
399.268	63.44
399.492	84.44
399.717	90.44
399.941	85.44
400.165	85.44
400.389	94.44
400.613	83.44
400.837	77.44
401.062	76.44
401.286	93.44
401.51	76.44
401.734	93.44
401.958	99.44
402.182	121.44
402.406	152.44
402.63	108.44
402.854	87.44
403.078	92.44
403.302	86.44
403.526	91.44
403.75	96.44
403.974	68.44
404.198	88.44
404.422	88.44
404.645	82.44
404.869	89.44
405.093	94.44
405.317	90.44
405.541	103.44
405.765	86.44
405.988	100.44
406.212	143.44
406.436	202.44
406.66	130.44
406.883	96.44
407.107	81.44
407.331	105.44
407.555	102.44
407.778	77.44
408.002	86.44
408.226	85.44
408.449	85.44
408.673	107.44
408.896	83.44
409.12	86.44
409.344	86.44
409.567	106.44
409.791	95.44
410.014	94.44
410.238	88.44
410.461	91.44
410.685	94.44
410.908	89.44
411.132	101.44
411.355	102.44
411.578	96.44
411.802	83.44
412.025	97.44
412.249	77.44
412.472	89.44
412.695	99.44
412.919	97.44
413.142	89.44
413.365	89.44
413.589	89.44
413.812	92.44
414.035	94.44
414.258	91.44
414.482	85.44
414.705	88.44
414.928	86.44
415.151	94.44
415.374	100.44
415.597	70.44
415.821	89.44
416.044	96.44
416.267	88.44
416.49	97.44
416.713	88.44
416.936	89.44
417.159	84.44
417.382	89.44
417.605	83.44
417.828	97.44
418.051	89.44
418.274	84.44
418.497	80.44
418.72	85.44
418.943	98.44
419.166	92.44
419.389	85.44
419.611	101.44
419.834	78.44
420.057	98.44
420.28	88.44
420.503	79.44
420.726	91.44
420.948	90.44
421.171	92.44
421.394	88.44
421.617	96.44
421.839	91.44
422.062	86.44
422.285	99.44
422.507	107.44
422.73	103.44
422.953	106.44
423.175	96.44
423.398	88.44
423.621	78.44
423.843	84.44
424.066	70.44
424.288	73.44
424.511	88.44
424.733	102.44
424.956	94.44
425.178	86.44
425.401	85.44
425.623	99.44
425.846	73.44
426.068	93.44
426.291	84.44
426.513	90.44
426.735	93.44
426.958	94.44
427.18	113.44
427.402	122.44
427.625	147.44
427.847	129.44
428.069	105.44
428.292	81.44
428.514	78.44
428.736	76.44
428.958	79.44
429.181	82.44
429.403	80.44
429.625	88.44
429.847	89.44
430.069	75.44
430.292	81.44
430.514	86.44
430.736	87.44
430.958	73.44
431.18	80.44
431.402	84.44
431.624	79.44
431.846	85.44
432.068	99.44
432.29	91.44
432.512	101.44
432.734	85.44
432.956	86.44
433.178	110.44
433.4	96.44
433.622	81.44
433.844	79.44
434.066	80.44
434.287	79.44
434.509	91.44
434.731	84.44
434.953	87.44
435.175	89.44
435.397	92.44
435.618	101.44
435.84	101.44
436.062	108.44
436.284	98.44
436.505	94.44
436.727	104.44
436.949	91.44
437.17	85.44
437.392	102.44
437.614	86.44
437.835	100.44
438.057	110.44
438.278	100.44
438.5	95.44
438.721	104.44
438.943	89.44
439.165	99.44
439.386	83.44
439.608	92.44
439.829	117.44
440.05	110.44
440.272	123.44
440.493	90.44
440.715	95.44
440.936	93.44
441.158	90.44
441.379	86.44
441.6	103.44
441.822	96.44
442.043	93.44
442.264	112.44
442.486	95.44
442.707	90.44
442.928	92.44
443.149	112.44
443.371	105.44
443.592	109.44
443.813	107.44
444.034	93.44
444.255	89.44
444.476	85.44
444.698	75.44
444.919	81.44
445.14	126.44
445.361	122.44
445.582	126.44
445.803	129.44
446.024	124.44
446.245	132.44
446.466	97.44
446.687	82.44
446.908	90.44
447.129	90.44
447.35	88.44
447.571	81.44
447.792	81.44
448.013	90.44
448.234	105.44
448.455	91.44
448.675	123.44
448.896	112.44
449.117	103.44
449.338	96.44
449.559	127.44
449.779	117.44
450	93.44
450.221	86.44
450.442	87.44
450.662	81.44
450.883	104.44
451.104	106.44
451.324	88.44
451.545	67.44
451.766	87.44
451.986	84.44
452.207	81.44
452.428	91.44
452.648	91.44
452.869	95.44
453.089	108.44
453.31	103.44
453.53	94.44
453.751	102.44
453.971	91.44
454.192	90.44
454.412	93.44
454.633	90.44
454.853	95.44
455.073	83.44
455.294	81.44
455.514	97.44
455.734	78.44
455.955	85.44
456.175	89.44
456.395	96.44
456.616	76.44
456.836	84.44
457.056	81.44
457.276	73.44
457.497	80.44
457.717	89.44
457.937	83.44
458.157	78.44
458.377	90.44
458.598	98.44
458.818	133.44
459.038	138.44
459.258	104.44
459.478	94.44
459.698	93.44
459.918	78.44
460.138	90.44
460.358	91.44
460.578	84.44
460.798	85.44
461.018	82.44
461.238	81.44
461.458	92.44
461.678	86.44
461.898	97.44
462.118	94.44
462.338	89.44
462.558	84.44
462.777	83.44
462.997	83.44
463.217	83.44
463.437	78.44
463.657	87.44
463.876	88.44
464.096	71.44
464.316	91.44
464.536	96.44
464.755	93.44
464.975	81.44
465.195	151.44
465.414	154.44
465.634	93.44
465.854	97.44
466.073	93.44
466.293	87.44
466.512	93.44
466.732	95.44
466.951	81.44
467.171	82.44
467.391	86.44
467.61	100.44
467.829	85.44
468.049	100.44
468.268	93.44
468.488	86.44
468.707	90.44
468.927	78.44
469.146	85.44
469.365	103.44
469.585	93.44
469.804	101.44
470.023	92.44
470.243	99.44
470.462	88.44
470.681	98.44
470.901	80.44
471.12	85.44
471.339	88.44
471.558	89.44
471.777	91.44
471.997	83.44
472.216	109.44
472.435	158.44
472.654	103.44
472.873	75.44
473.092	93.44
473.311	78.44
473.53	75.44
473.749	93.44
473.968	80.44
474.187	104.44
474.406	98.44
474.625	96.44
474.844	73.44
475.063	80.44
475.282	104.44
475.501	73.44
475.72	85.44
475.939	89.44
476.158	79.44
476.377	77.44
476.596	83.44
476.814	98.44
477.033	91.44
477.252	80.44
477.471	86.44
477.69	98.44
477.908	79.44
478.127	84.44
478.346	85.44
478.564	89.44
478.783	86.44
479.002	83.44
479.22	89.44
479.439	86.44
479.658	85.44
479.876	91.44
480.095	84.44
480.313	92.44
480.532	89.44
480.751	94.44
480.969	116.44
481.188	247.44
481.406	184.44
481.624	98.44
481.843	90.44
482.061	98.44
482.28	82.44
482.498	86.44
482.717	85.44
482.935	82.44
483.153	85.44
483.372	81.44
483.59	79.44
483.808	88.44
484.027	91.44
484.245	91.44
484.463	99.44
484.681	98.44
484.9	100.44
485.118	100.44
485.336	93.44
485.554	99.44
485.772	98.44
485.99	101.44
486.209	109.44
486.427	112.44
486.645	98.44
486.863	93.44
487.081	102.44
487.299	98.44
487.517	103.44
487.735	89.44
487.953	101.44
488.171	88.44
488.389	93.44
488.607	99.44
488.825	87.44
489.043	96.44
489.261	89.44
489.479	86.44
489.696	82.44
489.914	84.44
490.132	90.44
490.35	93.44
490.568	77.44
490.786	81.44
491.003	89.44
491.221	101.44
491.439	98.44
491.657	89.44
491.874	85.44
492.092	82.44
492.31	95.44
492.527	74.44
492.745	91.44
492.963	96.44
493.18	80.44
493.398	68.44
493.615	93.44
493.833	79.44
494.05	92.44
494.268	97.44
494.485	92.44
494.703	89.44
494.92	94.44
495.138	89.44
495.355	97.44
495.573	89.44
495.79	65.44
496.008	96.44
496.225	84.44
496.442	90.44
496.66	97.44
496.877	92.44
497.094	89.44
497.312	93.44
497.529	100.44
497.746	82.44
497.963	93.44
498.181	87.44
498.398	89.44
498.615	104.44
498.832	100.44
499.049	92.44
499.267	102.44
499.484	98.44
499.701	85.44
499.918	76.44
500.135	72.44
500.352	82.44
500.569	86.44
500.786	89.44
501.003	76.44
501.22	89.44
501.437	96.44
501.654	88.44
501.871	101.44
502.088	85.44
502.305	99.44
502.522	103.44
502.739	103.44
502.956	90.44
503.172	92.44
503.389	100.44
503.606	100.44
503.823	97.44
504.04	100.44
504.256	91.44
504.473	101.44
504.69	93.44
504.907	114.44
505.123	77.44
505.34	81.44
505.557	88.44
505.773	84.44
505.99	78.44
506.207	80.44
506.423	78.44
506.64	88.44
506.856	89.44
507.073	88.44
507.289	91.44
507.506	104.44
507.722	103.44
507.939	101.44
508.155	97.44
508.372	103.44
508.588	90.44
508.805	97.44
509.021	101.44
509.238	89.44
509.454	97.44
509.67	104.44
509.887	119.44
510.103	136.44
510.319	185.44
510.536	593.44
510.752	1996.44
510.968	590.44
511.184	146.44
511.401	96.44
511.617	113.44
511.833	75.44
512.049	85.44
512.265	77.44
512.481	94.44
512.698	91.44
512.914	105.44
513.13	91.44
513.346	86.44
513.562	101.44
513.778	105.44
513.994	105.44
514.21	101.44
514.426	106.44
514.642	114.44
514.858	107.44
515.074	157.44
515.29	358.44
515.506	1120.44
515.721	486.44
515.937	139.44
