Data from Circ_2015_H10_HRD10591_00043.txt Node
Date: Wed Jan 03 10:00:31 EST 2024
User: Yrep
Spectrometer: HR+D1059
Trigger mode: 1
Integration Time (sec): 1.000000E-1
Scans to average: 1
Electric dark correction enabled: true
Nonlinearity correction enabled: false
Boxcar width: 0
XAxis mode: Wavelengths
Number of Pixels in Spectrum: 2048
>>>>>Begin Spectral Data<<<<<
223.165	-26.88
223.4	-26.88
223.635	-26.88
223.869	-18.88
224.104	-21.88
224.338	-19.88
224.573	-8.88
224.808	-1.88
225.042	-7.88
225.277	1.12
225.511	4.12
225.746	-2.88
225.98	4.12
226.215	-4.88
226.449	21.12
226.683	26.12
226.918	24.12
227.152	33.12
227.387	40.12
227.621	52.12
227.856	40.12
228.09	16.12
228.324	48.12
228.559	61.12
228.793	61.12
229.027	75.12
229.262	60.12
229.496	60.12
229.73	78.12
229.964	95.12
230.199	76.12
230.433	74.12
230.667	81.12
230.901	80.12
231.136	69.12
231.37	80.12
231.604	87.12
231.838	71.12
232.072	82.12
232.306	87.12
232.541	80.12
232.775	62.12
233.009	75.12
233.243	93.12
233.477	77.12
233.711	82.12
233.945	76.12
234.179	65.12
234.413	69.12
234.647	75.12
234.881	77.12
235.115	82.12
235.349	68.12
235.583	70.12
235.817	81.12
236.051	75.12
236.285	72.12
236.519	82.12
236.753	88.12
236.987	75.12
237.221	90.12
237.455	77.12
237.689	72.12
237.922	78.12
238.156	60.12
238.39	68.12
238.624	65.12
238.858	79.12
239.091	71.12
239.325	85.12
239.559	69.12
239.793	87.12
240.027	69.12
240.26	80.12
240.494	76.12
240.728	72.12
240.961	68.12
241.195	72.12
241.429	86.12
241.662	88.12
241.896	81.12
242.13	71.12
242.363	74.12
242.597	67.12
242.83	86.12
243.064	80.12
243.298	85.12
243.531	79.12
243.765	82.12
243.998	81.12
244.232	69.12
244.465	85.12
244.699	82.12
244.932	72.12
245.166	83.12
245.399	80.12
245.633	76.12
245.866	89.12
246.099	83.12
246.333	86.12
246.566	81.12
246.8	73.12
247.033	65.12
247.266	72.12
247.5	67.12
247.733	76.12
247.966	70.12
248.2	79.12
248.433	72.12
248.666	64.12
248.899	81.12
249.133	89.12
249.366	81.12
249.599	97.12
249.832	67.12
250.066	91.12
250.299	79.12
250.532	79.12
250.765	78.12
250.998	78.12
251.231	72.12
251.465	85.12
251.698	78.12
251.931	68.12
252.164	83.12
252.397	78.12
252.63	69.12
252.863	91.12
253.096	92.12
253.329	89.12
253.562	77.12
253.795	76.12
254.028	84.12
254.261	88.12
254.494	91.12
254.727	99.12
254.96	84.12
255.193	87.12
255.426	75.12
255.659	87.12
255.892	88.12
256.124	96.12
256.357	83.12
256.59	93.12
256.823	88.12
257.056	75.12
257.289	72.12
257.521	77.12
257.754	82.12
257.987	80.12
258.22	83.12
258.452	77.12
258.685	84.12
258.918	81.12
259.151	78.12
259.383	72.12
259.616	79.12
259.849	89.12
260.081	78.12
260.314	78.12
260.547	97.12
260.779	86.12
261.012	77.12
261.244	80.12
261.477	95.12
261.71	81.12
261.942	105.12
262.175	119.12
262.407	98.12
262.64	81.12
262.872	75.12
263.105	88.12
263.337	92.12
263.57	91.12
263.802	85.12
264.035	83.12
264.267	79.12
264.499	70.12
264.732	78.12
264.964	83.12
265.197	86.12
265.429	80.12
265.661	77.12
265.894	67.12
266.126	75.12
266.358	88.12
266.591	94.12
266.823	86.12
267.055	75.12
267.287	84.12
267.52	81.12
267.752	69.12
267.984	85.12
268.216	79.12
268.448	78.12
268.681	90.12
268.913	89.12
269.145	77.12
269.377	82.12
269.609	81.12
269.841	96.12
270.073	58.12
270.306	81.12
270.538	84.12
270.77	73.12
271.002	82.12
271.234	90.12
271.466	96.12
271.698	78.12
271.93	90.12
272.162	81.12
272.394	90.12
272.626	99.12
272.858	89.12
273.09	73.12
273.322	68.12
273.553	90.12
273.785	71.12
274.017	88.12
274.249	85.12
274.481	86.12
274.713	77.12
274.945	82.12
275.176	84.12
275.408	78.12
275.64	71.12
275.872	96.12
276.104	83.12
276.335	83.12
276.567	90.12
276.799	99.12
277.031	80.12
277.262	101.12
277.494	105.12
277.726	88.12
277.957	84.12
278.189	69.12
278.421	84.12
278.652	74.12
278.884	74.12
279.115	77.12
279.347	76.12
279.579	74.12
279.81	87.12
280.042	84.12
280.273	105.12
280.505	93.12
280.736	102.12
280.968	81.12
281.199	93.12
281.431	90.12
281.662	82.12
281.894	93.12
282.125	102.12
282.356	120.12
282.588	119.12
282.819	102.12
283.051	91.12
283.282	97.12
283.513	101.12
283.745	86.12
283.976	74.12
284.207	66.12
284.439	85.12
284.67	95.12
284.901	96.12
285.132	88.12
285.364	83.12
285.595	83.12
285.826	88.12
286.057	72.12
286.288	73.12
286.52	78.12
286.751	87.12
286.982	81.12
287.213	78.12
287.444	84.12
287.675	85.12
287.906	91.12
288.138	84.12
288.369	90.12
288.6	115.12
288.831	75.12
289.062	76.12
289.293	89.12
289.524	100.12
289.755	77.12
289.986	77.12
290.217	88.12
290.448	84.12
290.679	93.12
290.91	81.12
291.141	77.12
291.371	85.12
291.602	81.12
291.833	76.12
292.064	97.12
292.295	73.12
292.526	75.12
292.757	84.12
292.987	95.12
293.218	86.12
293.449	89.12
293.68	89.12
293.91	89.12
294.141	85.12
294.372	89.12
294.603	96.12
294.833	89.12
295.064	93.12
295.295	76.12
295.525	84.12
295.756	91.12
295.987	103.12
296.217	137.12
296.448	116.12
296.679	85.12
296.909	91.12
297.14	87.12
297.37	93.12
297.601	88.12
297.831	92.12
298.062	89.12
298.292	92.12
298.523	79.12
298.753	89.12
298.984	82.12
299.214	86.12
299.445	103.12
299.675	80.12
299.905	91.12
300.136	93.12
300.366	84.12
300.597	83.12
300.827	91.12
301.057	90.12
301.288	89.12
301.518	80.12
301.748	85.12
301.979	92.12
302.209	82.12
302.439	96.12
302.669	93.12
302.9	88.12
303.13	104.12
303.36	98.12
303.59	90.12
303.82	84.12
304.051	99.12
304.281	95.12
304.511	88.12
304.741	87.12
304.971	90.12
305.201	93.12
305.431	95.12
305.661	94.12
305.891	76.12
306.121	83.12
306.352	90.12
306.582	96.12
306.812	100.12
307.042	96.12
307.272	93.12
307.502	96.12
307.731	107.12
307.961	100.12
308.191	91.12
308.421	85.12
308.651	100.12
308.881	79.12
309.111	80.12
309.341	90.12
309.571	78.12
309.8	88.12
310.03	92.12
310.26	100.12
310.49	86.12
310.72	85.12
310.949	85.12
311.179	102.12
311.409	95.12
311.639	92.12
311.868	85.12
312.098	87.12
312.328	91.12
312.557	94.12
312.787	91.12
313.017	97.12
313.246	88.12
313.476	90.12
313.706	75.12
313.935	87.12
314.165	107.12
314.394	102.12
314.624	94.12
314.853	102.12
315.083	93.12
315.312	92.12
315.542	96.12
315.771	106.12
316.001	97.12
316.23	97.12
316.46	99.12
316.689	93.12
316.919	92.12
317.148	93.12
317.377	102.12
317.607	103.12
317.836	89.12
318.065	86.12
318.295	90.12
318.524	85.12
318.753	91.12
318.983	92.12
319.212	93.12
319.441	86.12
319.67	96.12
319.9	81.12
320.129	106.12
320.358	91.12
320.587	100.12
320.816	94.12
321.046	95.12
321.275	99.12
321.504	84.12
321.733	101.12
321.962	94.12
322.191	104.12
322.42	100.12
322.649	104.12
322.878	108.12
323.108	116.12
323.337	116.12
323.566	129.12
323.795	158.12
324.024	205.12
324.253	397.12
324.482	794.12
324.71	1609.12
324.939	2146.12
325.168	827.12
325.397	233.12
325.626	130.12
325.855	130.12
326.084	130.12
326.313	129.12
326.542	154.12
326.77	232.12
326.999	467.12
327.228	935.12
327.457	1707.12
327.686	1343.12
327.914	363.12
328.143	211.12
328.372	173.12
328.6	130.12
328.829	114.12
329.058	124.12
329.287	114.12
329.515	115.12
329.744	117.12
329.972	138.12
330.201	171.12
330.43	210.12
330.658	153.12
330.887	124.12
331.115	115.12
331.344	103.12
331.572	111.12
331.801	104.12
332.03	107.12
332.258	96.12
332.486	83.12
332.715	95.12
332.943	91.12
333.172	104.12
333.4	101.12
333.629	105.12
333.857	122.12
334.085	149.12
334.314	163.12
334.542	244.12
334.771	221.12
334.999	130.12
335.227	86.12
335.455	96.12
335.684	97.12
335.912	112.12
336.14	96.12
336.369	101.12
336.597	101.12
336.825	98.12
337.053	97.12
337.281	93.12
337.51	90.12
337.738	84.12
337.966	81.12
338.194	98.12
338.422	97.12
338.65	81.12
338.878	91.12
339.106	88.12
339.334	86.12
339.562	85.12
339.79	92.12
340.018	109.12
340.246	104.12
340.474	85.12
340.702	99.12
340.93	78.12
341.158	90.12
341.386	83.12
341.614	98.12
341.842	99.12
342.07	91.12
342.298	79.12
342.526	85.12
342.754	92.12
342.981	96.12
343.209	84.12
343.437	97.12
343.665	99.12
343.893	96.12
344.12	87.12
344.348	89.12
344.576	94.12
344.804	76.12
345.031	104.12
345.259	99.12
345.487	84.12
345.714	93.12
345.942	91.12
346.17	101.12
346.397	95.12
346.625	92.12
346.853	78.12
347.08	83.12
347.308	84.12
347.535	86.12
347.763	81.12
347.99	97.12
348.218	100.12
348.445	103.12
348.673	102.12
348.9	88.12
349.128	104.12
349.355	89.12
349.583	107.12
349.81	103.12
350.037	89.12
350.265	89.12
350.492	92.12
350.72	100.12
350.947	92.12
351.174	112.12
351.402	106.12
351.629	98.12
351.856	101.12
352.083	116.12
352.311	98.12
352.538	100.12
352.765	100.12
352.992	103.12
353.22	123.12
353.447	92.12
353.674	89.12
353.901	103.12
354.128	113.12
354.355	92.12
354.583	96.12
354.81	97.12
355.037	101.12
355.264	97.12
355.491	88.12
355.718	100.12
355.945	97.12
356.172	91.12
356.399	103.12
356.626	82.12
356.853	82.12
357.08	102.12
357.307	96.12
357.534	92.12
357.761	103.12
357.988	96.12
358.215	110.12
358.441	94.12
358.668	74.12
358.895	88.12
359.122	82.12
359.349	90.12
359.576	100.12
359.802	90.12
360.029	113.12
360.256	97.12
360.483	96.12
360.709	86.12
360.936	89.12
361.163	98.12
361.39	101.12
361.616	77.12
361.843	84.12
362.07	82.12
362.296	93.12
362.523	82.12
362.749	85.12
362.976	89.12
363.203	97.12
363.429	102.12
363.656	89.12
363.882	79.12
364.109	102.12
364.335	82.12
364.562	94.12
364.788	68.12
365.015	98.12
365.241	97.12
365.468	116.12
365.694	103.12
365.92	86.12
366.147	89.12
366.373	77.12
366.599	83.12
366.826	85.12
367.052	81.12
367.278	85.12
367.505	92.12
367.731	86.12
367.957	82.12
368.184	87.12
368.41	100.12
368.636	113.12
368.862	113.12
369.089	117.12
369.315	92.12
369.541	109.12
369.767	86.12
369.993	82.12
370.219	87.12
370.445	86.12
370.672	89.12
370.898	88.12
371.124	82.12
371.35	96.12
371.576	97.12
371.802	86.12
372.028	92.12
372.254	80.12
372.48	93.12
372.706	85.12
372.932	90.12
373.158	101.12
373.384	83.12
373.61	93.12
373.835	106.12
374.061	103.12
374.287	88.12
374.513	91.12
374.739	100.12
374.965	92.12
375.191	88.12
375.416	80.12
375.642	88.12
375.868	99.12
376.094	93.12
376.319	81.12
376.545	75.12
376.771	84.12
376.997	87.12
377.222	96.12
377.448	82.12
377.674	97.12
377.899	93.12
378.125	101.12
378.35	101.12
378.576	92.12
378.802	78.12
379.027	103.12
379.253	91.12
379.478	98.12
379.704	86.12
379.929	88.12
380.155	89.12
380.38	91.12
380.606	100.12
380.831	96.12
381.057	84.12
381.282	107.12
381.507	101.12
381.733	82.12
381.958	96.12
382.184	100.12
382.409	104.12
382.634	104.12
382.86	104.12
383.085	105.12
383.31	104.12
383.535	101.12
383.761	98.12
383.986	109.12
384.211	81.12
384.436	102.12
384.662	100.12
384.887	97.12
385.112	101.12
385.337	104.12
385.562	102.12
385.787	110.12
386.013	106.12
386.238	126.12
386.463	99.12
386.688	114.12
386.913	120.12
387.138	102.12
387.363	105.12
387.588	119.12
387.813	106.12
388.038	101.12
388.263	125.12
388.488	124.12
388.713	95.12
388.938	76.12
389.163	98.12
389.387	98.12
389.612	98.12
389.837	114.12
390.062	98.12
390.287	82.12
390.512	82.12
390.736	89.12
390.961	93.12
391.186	82.12
391.411	81.12
391.636	89.12
391.86	92.12
392.085	85.12
392.31	96.12
392.534	89.12
392.759	90.12
392.984	76.12
393.208	89.12
393.433	99.12
393.658	88.12
393.882	89.12
394.107	104.12
394.331	99.12
394.556	81.12
394.78	97.12
395.005	82.12
395.229	92.12
395.454	80.12
395.678	84.12
395.903	97.12
396.127	90.12
396.352	85.12
396.576	84.12
396.801	78.12
397.025	101.12
397.249	97.12
397.474	98.12
397.698	89.12
397.922	91.12
398.147	87.12
398.371	93.12
398.595	86.12
398.82	89.12
399.044	74.12
399.268	79.12
399.492	90.12
399.717	93.12
399.941	84.12
400.165	99.12
400.389	99.12
400.613	83.12
400.837	86.12
401.062	83.12
401.286	77.12
401.51	89.12
401.734	94.12
401.958	101.12
402.182	114.12
402.406	154.12
402.63	101.12
402.854	77.12
403.078	89.12
403.302	93.12
403.526	92.12
403.75	90.12
403.974	87.12
404.198	105.12
404.422	99.12
404.645	90.12
404.869	84.12
405.093	91.12
405.317	103.12
405.541	94.12
405.765	97.12
405.988	118.12
406.212	167.12
406.436	228.12
406.66	145.12
406.883	98.12
407.107	97.12
407.331	88.12
407.555	78.12
407.778	105.12
408.002	100.12
408.226	89.12
408.449	83.12
408.673	86.12
408.896	97.12
409.12	102.12
409.344	93.12
409.567	92.12
409.791	94.12
410.014	99.12
410.238	101.12
410.461	93.12
410.685	118.12
410.908	105.12
411.132	105.12
411.355	99.12
411.578	91.12
411.802	97.12
412.025	86.12
412.249	89.12
412.472	101.12
412.695	117.12
412.919	89.12
413.142	91.12
413.365	93.12
413.589	96.12
413.812	96.12
414.035	90.12
414.258	78.12
414.482	84.12
414.705	93.12
414.928	93.12
415.151	85.12
415.374	102.12
415.597	99.12
415.821	108.12
416.044	83.12
416.267	86.12
416.49	84.12
416.713	74.12
416.936	94.12
417.159	89.12
417.382	97.12
417.605	101.12
417.828	88.12
418.051	99.12
418.274	84.12
418.497	73.12
418.72	84.12
418.943	78.12
419.166	84.12
419.389	92.12
419.611	97.12
419.834	91.12
420.057	96.12
420.28	84.12
420.503	77.12
420.726	89.12
420.948	81.12
421.171	103.12
421.394	97.12
421.617	106.12
421.839	72.12
422.062	96.12
422.285	93.12
422.507	87.12
422.73	121.12
422.953	92.12
423.175	84.12
423.398	91.12
423.621	99.12
423.843	85.12
424.066	86.12
424.288	77.12
424.511	93.12
424.733	105.12
424.956	102.12
425.178	100.12
425.401	91.12
425.623	96.12
425.846	89.12
426.068	77.12
426.291	92.12
426.513	99.12
426.735	84.12
426.958	90.12
427.18	112.12
427.402	139.12
427.625	157.12
427.847	140.12
428.069	114.12
428.292	91.12
428.514	93.12
428.736	96.12
428.958	101.12
429.181	94.12
429.403	79.12
429.625	95.12
429.847	94.12
430.069	93.12
430.292	99.12
430.514	83.12
430.736	77.12
430.958	87.12
431.18	97.12
431.402	77.12
431.624	77.12
431.846	101.12
432.068	90.12
432.29	87.12
432.512	85.12
432.734	94.12
432.956	98.12
433.178	90.12
433.4	77.12
433.622	98.12
433.844	87.12
434.066	93.12
434.287	90.12
434.509	82.12
434.731	84.12
434.953	85.12
435.175	88.12
435.397	94.12
435.618	110.12
435.84	97.12
436.062	128.12
436.284	106.12
436.505	102.12
436.727	103.12
436.949	83.12
437.17	99.12
437.392	92.12
437.614	92.12
437.835	120.12
438.057	118.12
438.278	106.12
438.5	113.12
438.721	121.12
438.943	91.12
439.165	84.12
439.386	75.12
439.608	74.12
439.829	102.12
440.05	120.12
440.272	132.12
440.493	104.12
440.715	79.12
440.936	81.12
441.158	79.12
441.379	92.12
441.6	97.12
441.822	94.12
442.043	102.12
442.264	100.12
442.486	90.12
442.707	85.12
442.928	84.12
443.149	128.12
443.371	109.12
443.592	106.12
443.813	100.12
444.034	91.12
444.255	77.12
444.476	97.12
444.698	89.12
444.919	77.12
445.14	116.12
445.361	121.12
445.582	110.12
445.803	134.12
446.024	123.12
446.245	134.12
446.466	117.12
446.687	90.12
446.908	86.12
447.129	84.12
447.35	78.12
447.571	83.12
447.792	100.12
448.013	100.12
448.234	100.12
448.455	94.12
448.675	104.12
448.896	108.12
449.117	93.12
449.338	104.12
449.559	122.12
449.779	132.12
450	94.12
450.221	90.12
450.442	89.12
450.662	100.12
450.883	95.12
451.104	115.12
451.324	90.12
451.545	79.12
451.766	84.12
451.986	98.12
452.207	82.12
452.428	85.12
452.648	83.12
452.869	96.12
453.089	101.12
453.31	106.12
453.53	88.12
453.751	75.12
453.971	107.12
454.192	106.12
454.412	86.12
454.633	86.12
454.853	69.12
455.073	78.12
455.294	93.12
455.514	105.12
455.734	87.12
455.955	90.12
456.175	85.12
456.395	77.12
456.616	80.12
456.836	81.12
457.056	76.12
457.276	78.12
457.497	90.12
457.717	73.12
457.937	94.12
458.157	102.12
458.377	93.12
458.598	106.12
458.818	129.12
459.038	158.12
459.258	109.12
459.478	99.12
459.698	90.12
459.918	84.12
460.138	86.12
460.358	90.12
460.578	82.12
460.798	99.12
461.018	96.12
461.238	91.12
461.458	68.12
461.678	75.12
461.898	91.12
462.118	86.12
462.338	83.12
462.558	79.12
462.777	79.12
462.997	90.12
463.217	92.12
463.437	104.12
463.657	95.12
463.876	87.12
464.096	89.12
464.316	91.12
464.536	94.12
464.755	100.12
464.975	98.12
465.195	158.12
465.414	146.12
465.634	93.12
465.854	82.12
466.073	83.12
466.293	99.12
466.512	88.12
466.732	81.12
466.951	92.12
467.171	90.12
467.391	89.12
467.61	92.12
467.829	91.12
468.049	142.12
468.268	142.12
468.488	95.12
468.707	92.12
468.927	85.12
469.146	89.12
469.365	75.12
469.585	90.12
469.804	73.12
470.023	100.12
470.243	88.12
470.462	99.12
470.681	99.12
470.901	80.12
471.12	89.12
471.339	85.12
471.558	97.12
471.777	76.12
471.997	108.12
472.216	183.12
472.435	290.12
472.654	116.12
472.873	90.12
473.092	94.12
473.311	91.12
473.53	71.12
473.749	93.12
473.968	91.12
474.187	97.12
474.406	97.12
474.625	69.12
474.844	91.12
475.063	88.12
475.282	84.12
475.501	104.12
475.72	85.12
475.939	86.12
476.158	77.12
476.377	92.12
476.596	81.12
476.814	87.12
477.033	86.12
477.252	88.12
477.471	77.12
477.69	86.12
477.908	92.12
478.127	105.12
478.346	84.12
478.564	85.12
478.783	85.12
479.002	97.12
479.22	93.12
479.439	84.12
479.658	95.12
479.876	85.12
480.095	108.12
480.313	85.12
480.532	94.12
480.751	107.12
480.969	173.12
481.188	452.12
481.406	299.12
481.624	110.12
481.843	101.12
482.061	98.12
482.28	68.12
482.498	102.12
482.717	96.12
482.935	85.12
483.153	96.12
483.372	97.12
483.59	93.12
483.808	82.12
484.027	89.12
484.245	85.12
484.463	87.12
484.681	88.12
484.9	89.12
485.118	98.12
485.336	83.12
485.554	89.12
485.772	97.12
485.99	112.12
486.209	92.12
486.427	96.12
486.645	93.12
486.863	111.12
487.081	101.12
487.299	106.12
487.517	87.12
487.735	101.12
487.953	94.12
488.171	87.12
488.389	96.12
488.607	106.12
488.825	87.12
489.043	82.12
489.261	109.12
489.479	109.12
489.696	97.12
489.914	91.12
490.132	87.12
490.35	83.12
490.568	85.12
490.786	92.12
491.003	89.12
491.221	85.12
491.439	93.12
491.657	92.12
491.874	102.12
492.092	76.12
492.31	89.12
492.527	76.12
492.745	89.12
492.963	89.12
493.18	81.12
493.398	93.12
493.615	108.12
493.833	92.12
494.05	87.12
494.268	95.12
494.485	93.12
494.703	85.12
494.92	78.12
495.138	101.12
495.355	97.12
495.573	84.12
495.79	88.12
496.008	97.12
496.225	88.12
496.442	85.12
496.66	96.12
496.877	83.12
497.094	84.12
497.312	91.12
497.529	88.12
497.746	86.12
497.963	99.12
498.181	86.12
498.398	85.12
498.615	108.12
498.832	107.12
499.049	100.12
499.267	92.12
499.484	94.12
499.701	81.12
499.918	98.12
500.135	99.12
500.352	77.12
500.569	91.12
500.786	102.12
501.003	93.12
501.22	103.12
501.437	77.12
501.654	88.12
501.871	97.12
502.088	100.12
502.305	91.12
502.522	89.12
502.739	84.12
502.956	87.12
503.172	85.12
503.389	101.12
503.606	82.12
503.823	93.12
504.04	85.12
504.256	92.12
504.473	83.12
504.69	94.12
504.907	92.12
505.123	93.12
505.34	75.12
505.557	87.12
505.773	93.12
505.99	88.12
506.207	93.12
506.423	78.12
506.64	101.12
506.856	78.12
507.073	97.12
507.289	82.12
507.506	85.12
507.722	96.12
507.939	90.12
508.155	102.12
508.372	83.12
508.588	99.12
508.805	96.12
509.021	92.12
509.238	102.12
509.454	85.12
509.67	111.12
509.887	106.12
510.103	136.12
510.319	186.12
510.536	679.12
510.752	2226.12
510.968	666.12
511.184	156.12
511.401	101.12
511.617	91.12
511.833	83.12
512.049	95.12
512.265	95.12
512.481	76.12
512.698	101.12
512.914	97.12
513.13	89.12
513.346	91.12
513.562	99.12
513.778	78.12
513.994	106.12
514.21	97.12
514.426	115.12
514.642	112.12
514.858	124.12
515.074	154.12
515.29	406.12
515.506	1313.12
515.721	499.12
