Data from Circ_2015_H10_HRD10591_00087.txt Node
Date: Wed Jan 03 10:00:40 EST 2024
User: Yrep
Spectrometer: HR+D1059
Trigger mode: 1
Integration Time (sec): 1.000000E-1
Scans to average: 1
Electric dark correction enabled: true
Nonlinearity correction enabled: false
Boxcar width: 0
XAxis mode: Wavelengths
Number of Pixels in Spectrum: 2048
>>>>>Begin Spectral Data<<<<<
223.165	-20.94
223.4	-20.94
223.635	-20.94
223.869	-19.94
224.104	-20.94
224.338	-13.94
224.573	-1.94
224.808	-14.94
225.042	-4.94
225.277	-5.94
225.511	-14.94
225.746	0.06
225.98	18.06
226.215	24.06
226.449	14.06
226.683	21.06
226.918	15.06
227.152	26.06
227.387	33.06
227.621	37.06
227.856	31.06
228.09	47.06
228.324	39.06
228.559	66.06
228.793	68.06
229.027	54.06
229.262	82.06
229.496	71.06
229.73	82.06
229.964	71.06
230.199	87.06
230.433	79.06
230.667	82.06
230.901	72.06
231.136	71.06
231.37	63.06
231.604	85.06
231.838	79.06
232.072	79.06
232.306	89.06
232.541	88.06
232.775	91.06
233.009	68.06
233.243	73.06
233.477	86.06
233.711	74.06
233.945	75.06
234.179	64.06
234.413	69.06
234.647	63.06
234.881	75.06
235.115	68.06
235.349	84.06
235.583	73.06
235.817	81.06
236.051	80.06
236.285	59.06
236.519	70.06
236.753	73.06
236.987	64.06
237.221	75.06
237.455	61.06
237.689	78.06
237.922	77.06
238.156	88.06
238.39	77.06
238.624	66.06
238.858	80.06
239.091	76.06
239.325	83.06
239.559	68.06
239.793	68.06
240.027	81.06
240.26	64.06
240.494	75.06
240.728	82.06
240.961	70.06
241.195	62.06
241.429	65.06
241.662	69.06
241.896	84.06
242.13	78.06
242.363	64.06
242.597	68.06
242.83	73.06
243.064	66.06
243.298	61.06
243.531	70.06
243.765	79.06
243.998	86.06
244.232	64.06
244.465	75.06
244.699	83.06
244.932	72.06
245.166	68.06
245.399	60.06
245.633	79.06
245.866	81.06
246.099	79.06
246.333	82.06
246.566	82.06
246.8	71.06
247.033	75.06
247.266	70.06
247.5	84.06
247.733	76.06
247.966	77.06
248.2	74.06
248.433	66.06
248.666	79.06
248.899	86.06
249.133	83.06
249.366	102.06
249.599	91.06
249.832	80.06
250.066	68.06
250.299	75.06
250.532	73.06
250.765	82.06
250.998	83.06
251.231	95.06
251.465	79.06
251.698	80.06
251.931	101.06
252.164	68.06
252.397	76.06
252.63	86.06
252.863	80.06
253.096	71.06
253.329	87.06
253.562	75.06
253.795	73.06
254.028	87.06
254.261	74.06
254.494	74.06
254.727	75.06
254.96	71.06
255.193	79.06
255.426	76.06
255.659	71.06
255.892	95.06
256.124	83.06
256.357	82.06
256.59	83.06
256.823	71.06
257.056	94.06
257.289	87.06
257.521	76.06
257.754	77.06
257.987	81.06
258.22	90.06
258.452	86.06
258.685	83.06
258.918	90.06
259.151	86.06
259.383	79.06
259.616	90.06
259.849	79.06
260.081	80.06
260.314	96.06
260.547	88.06
260.779	81.06
261.012	90.06
261.244	85.06
261.477	75.06
261.71	88.06
261.942	96.06
262.175	102.06
262.407	87.06
262.64	84.06
262.872	86.06
263.105	83.06
263.337	91.06
263.57	86.06
263.802	94.06
264.035	76.06
264.267	89.06
264.499	71.06
264.732	71.06
264.964	89.06
265.197	79.06
265.429	83.06
265.661	90.06
265.894	81.06
266.126	104.06
266.358	87.06
266.591	80.06
266.823	72.06
267.055	80.06
267.287	74.06
267.52	84.06
267.752	91.06
267.984	78.06
268.216	74.06
268.448	89.06
268.681	80.06
268.913	74.06
269.145	80.06
269.377	91.06
269.609	81.06
269.841	81.06
270.073	76.06
270.306	87.06
270.538	91.06
270.77	93.06
271.002	85.06
271.234	87.06
271.466	89.06
271.698	92.06
271.93	110.06
272.162	83.06
272.394	91.06
272.626	88.06
272.858	105.06
273.09	86.06
273.322	86.06
273.553	79.06
273.785	78.06
274.017	79.06
274.249	82.06
274.481	90.06
274.713	85.06
274.945	82.06
275.176	84.06
275.408	86.06
275.64	97.06
275.872	86.06
276.104	94.06
276.335	80.06
276.567	98.06
276.799	87.06
277.031	107.06
277.262	98.06
277.494	95.06
277.726	85.06
277.957	92.06
278.189	82.06
278.421	66.06
278.652	83.06
278.884	80.06
279.115	102.06
279.347	81.06
279.579	74.06
279.81	79.06
280.042	84.06
280.273	102.06
280.505	93.06
280.736	83.06
280.968	90.06
281.199	79.06
281.431	91.06
281.662	72.06
281.894	76.06
282.125	93.06
282.356	117.06
282.588	115.06
282.819	125.06
283.051	87.06
283.282	86.06
283.513	80.06
283.745	90.06
283.976	84.06
284.207	92.06
284.439	87.06
284.67	89.06
284.901	83.06
285.132	83.06
285.364	87.06
285.595	84.06
285.826	75.06
286.057	91.06
286.288	80.06
286.52	81.06
286.751	87.06
286.982	93.06
287.213	90.06
287.444	80.06
287.675	86.06
287.906	84.06
288.138	91.06
288.369	97.06
288.6	80.06
288.831	74.06
289.062	91.06
289.293	87.06
289.524	86.06
289.755	91.06
289.986	78.06
290.217	83.06
290.448	91.06
290.679	92.06
290.91	101.06
291.141	90.06
291.371	85.06
291.602	72.06
291.833	95.06
292.064	95.06
292.295	84.06
292.526	90.06
292.757	82.06
292.987	82.06
293.218	90.06
293.449	94.06
293.68	69.06
293.91	92.06
294.141	79.06
294.372	86.06
294.603	93.06
294.833	85.06
295.064	76.06
295.295	87.06
295.525	79.06
295.756	97.06
295.987	105.06
296.217	121.06
296.448	112.06
296.679	92.06
296.909	82.06
297.14	82.06
297.37	79.06
297.601	88.06
297.831	84.06
298.062	80.06
298.292	83.06
298.523	74.06
298.753	84.06
298.984	82.06
299.214	96.06
299.445	92.06
299.675	88.06
299.905	87.06
300.136	87.06
300.366	86.06
300.597	86.06
300.827	91.06
301.057	94.06
301.288	90.06
301.518	87.06
301.748	87.06
301.979	110.06
302.209	107.06
302.439	98.06
302.669	95.06
302.9	76.06
303.13	84.06
303.36	90.06
303.59	94.06
303.82	119.06
304.051	79.06
304.281	90.06
304.511	92.06
304.741	90.06
304.971	98.06
305.201	79.06
305.431	76.06
305.661	94.06
305.891	77.06
306.121	90.06
306.352	92.06
306.582	98.06
306.812	89.06
307.042	80.06
307.272	99.06
307.502	97.06
307.731	94.06
307.961	99.06
308.191	104.06
308.421	100.06
308.651	93.06
308.881	96.06
309.111	82.06
309.341	94.06
309.571	97.06
309.8	99.06
310.03	70.06
310.26	86.06
310.49	78.06
310.72	108.06
310.949	92.06
311.179	93.06
311.409	83.06
311.639	97.06
311.868	98.06
312.098	99.06
312.328	102.06
312.557	103.06
312.787	93.06
313.017	101.06
313.246	84.06
313.476	86.06
313.706	84.06
313.935	93.06
314.165	100.06
314.394	92.06
314.624	89.06
314.853	85.06
315.083	75.06
315.312	84.06
315.542	82.06
315.771	79.06
316.001	85.06
316.23	89.06
316.46	87.06
316.689	81.06
316.919	98.06
317.148	98.06
317.377	95.06
317.607	92.06
317.836	91.06
318.065	95.06
318.295	103.06
318.524	94.06
318.753	88.06
318.983	87.06
319.212	99.06
319.441	102.06
319.67	92.06
319.9	97.06
320.129	89.06
320.358	96.06
320.587	89.06
320.816	87.06
321.046	103.06
321.275	88.06
321.504	99.06
321.733	77.06
321.962	99.06
322.191	95.06
322.42	94.06
322.649	98.06
322.878	103.06
323.108	107.06
323.337	133.06
323.566	123.06
323.795	140.06
324.024	185.06
324.253	363.06
324.482	790.06
324.71	1604.06
324.939	2126.06
325.168	766.06
325.397	220.06
325.626	136.06
325.855	123.06
326.084	123.06
326.313	131.06
326.542	162.06
326.77	214.06
326.999	460.06
327.228	911.06
327.457	1680.06
327.686	1339.06
327.914	380.06
328.143	219.06
328.372	227.06
328.6	175.06
328.829	120.06
329.058	116.06
329.287	116.06
329.515	114.06
329.744	125.06
329.972	178.06
330.201	259.06
330.43	343.06
330.658	202.06
330.887	160.06
331.115	120.06
331.344	107.06
331.572	99.06
331.801	111.06
332.03	99.06
332.258	105.06
332.486	84.06
332.715	86.06
332.943	90.06
333.172	96.06
333.4	94.06
333.629	117.06
333.857	128.06
334.085	167.06
334.314	251.06
334.542	401.06
334.771	386.06
334.999	144.06
335.227	96.06
335.455	86.06
335.684	92.06
335.912	99.06
336.14	88.06
336.369	99.06
336.597	94.06
336.825	99.06
337.053	84.06
337.281	96.06
337.51	76.06
337.738	73.06
337.966	85.06
338.194	80.06
338.422	99.06
338.65	94.06
338.878	92.06
339.106	94.06
339.334	73.06
339.562	79.06
339.79	85.06
340.018	99.06
340.246	94.06
340.474	100.06
340.702	90.06
340.93	85.06
341.158	81.06
341.386	89.06
341.614	90.06
341.842	106.06
342.07	100.06
342.298	80.06
342.526	84.06
342.754	96.06
342.981	93.06
343.209	85.06
343.437	95.06
343.665	105.06
343.893	94.06
344.12	86.06
344.348	77.06
344.576	97.06
344.804	95.06
345.031	106.06
345.259	98.06
345.487	81.06
345.714	87.06
345.942	96.06
346.17	88.06
346.397	86.06
346.625	77.06
346.853	97.06
347.08	90.06
347.308	86.06
347.535	94.06
347.763	105.06
347.99	97.06
348.218	91.06
348.445	96.06
348.673	97.06
348.9	94.06
349.128	101.06
349.355	87.06
349.583	87.06
349.81	89.06
350.037	85.06
350.265	111.06
350.492	100.06
350.72	95.06
350.947	93.06
351.174	105.06
351.402	100.06
351.629	105.06
351.856	94.06
352.083	99.06
352.311	89.06
352.538	103.06
352.765	112.06
352.992	106.06
353.22	93.06
353.447	95.06
353.674	97.06
353.901	99.06
354.128	102.06
354.355	90.06
354.583	87.06
354.81	89.06
355.037	91.06
355.264	91.06
355.491	87.06
355.718	103.06
355.945	90.06
356.172	85.06
356.399	87.06
356.626	78.06
356.853	95.06
357.08	95.06
357.307	89.06
357.534	89.06
357.761	97.06
357.988	95.06
358.215	101.06
358.441	93.06
358.668	78.06
358.895	90.06
359.122	87.06
359.349	88.06
359.576	91.06
359.802	104.06
360.029	94.06
360.256	102.06
360.483	94.06
360.709	84.06
360.936	77.06
361.163	82.06
361.39	88.06
361.616	92.06
361.843	95.06
362.07	89.06
362.296	85.06
362.523	85.06
362.749	90.06
362.976	91.06
363.203	87.06
363.429	84.06
363.656	95.06
363.882	81.06
364.109	80.06
364.335	82.06
364.562	89.06
364.788	72.06
365.015	83.06
365.241	91.06
365.468	108.06
365.694	112.06
365.92	94.06
366.147	87.06
366.373	89.06
366.599	93.06
366.826	83.06
367.052	84.06
367.278	91.06
367.505	84.06
367.731	94.06
367.957	78.06
368.184	100.06
368.41	89.06
368.636	101.06
368.862	111.06
369.089	91.06
369.315	95.06
369.541	85.06
369.767	104.06
369.993	90.06
370.219	81.06
370.445	84.06
370.672	74.06
370.898	76.06
371.124	91.06
371.35	97.06
371.576	72.06
371.802	76.06
372.028	75.06
372.254	91.06
372.48	83.06
372.706	93.06
372.932	82.06
373.158	95.06
373.384	88.06
373.61	94.06
373.835	90.06
374.061	85.06
374.287	83.06
374.513	92.06
374.739	92.06
374.965	83.06
375.191	90.06
375.416	74.06
375.642	90.06
375.868	89.06
376.094	85.06
376.319	79.06
376.545	81.06
376.771	91.06
376.997	91.06
377.222	86.06
377.448	106.06
377.674	98.06
377.899	88.06
378.125	87.06
378.35	93.06
378.576	81.06
378.802	86.06
379.027	102.06
379.253	104.06
379.478	89.06
379.704	86.06
379.929	88.06
380.155	87.06
380.38	87.06
380.606	87.06
380.831	97.06
381.057	101.06
381.282	85.06
381.507	85.06
381.733	89.06
381.958	89.06
382.184	107.06
382.409	95.06
382.634	103.06
382.86	82.06
383.085	105.06
383.31	88.06
383.535	89.06
383.761	89.06
383.986	101.06
384.211	93.06
384.436	84.06
384.662	97.06
384.887	107.06
385.112	101.06
385.337	99.06
385.562	96.06
385.787	85.06
386.013	112.06
386.238	127.06
386.463	99.06
386.688	100.06
386.913	99.06
387.138	97.06
387.363	84.06
387.588	91.06
387.813	94.06
388.038	116.06
388.263	104.06
388.488	100.06
388.713	106.06
388.938	94.06
389.163	104.06
389.387	105.06
389.612	91.06
389.837	90.06
390.062	100.06
390.287	104.06
390.512	106.06
390.736	107.06
390.961	89.06
391.186	82.06
391.411	90.06
391.636	79.06
391.86	75.06
392.085	87.06
392.31	85.06
392.534	81.06
392.759	89.06
392.984	90.06
393.208	92.06
393.433	92.06
393.658	74.06
393.882	88.06
394.107	87.06
394.331	84.06
394.556	93.06
394.78	87.06
395.005	83.06
395.229	81.06
395.454	89.06
395.678	83.06
395.903	91.06
396.127	73.06
396.352	81.06
396.576	86.06
396.801	79.06
397.025	84.06
397.249	76.06
397.474	95.06
397.698	86.06
397.922	89.06
398.147	99.06
398.371	96.06
398.595	84.06
398.82	74.06
399.044	82.06
399.268	87.06
399.492	73.06
399.717	88.06
399.941	73.06
400.165	93.06
400.389	88.06
400.613	80.06
400.837	83.06
401.062	89.06
401.286	88.06
401.51	85.06
401.734	86.06
401.958	78.06
402.182	103.06
402.406	142.06
402.63	98.06
402.854	87.06
403.078	103.06
403.302	75.06
403.526	76.06
403.75	83.06
403.974	81.06
404.198	90.06
404.422	86.06
404.645	84.06
404.869	91.06
405.093	90.06
405.317	106.06
405.541	109.06
405.765	116.06
405.988	113.06
406.212	143.06
406.436	178.06
406.66	136.06
406.883	98.06
407.107	98.06
407.331	92.06
407.555	94.06
407.778	90.06
408.002	79.06
408.226	88.06
408.449	76.06
408.673	81.06
408.896	86.06
409.12	89.06
409.344	84.06
409.567	88.06
409.791	91.06
410.014	96.06
410.238	78.06
410.461	84.06
410.685	102.06
410.908	110.06
411.132	105.06
411.355	102.06
411.578	87.06
411.802	81.06
412.025	105.06
412.249	88.06
412.472	92.06
412.695	100.06
412.919	79.06
413.142	93.06
413.365	95.06
413.589	102.06
413.812	83.06
414.035	81.06
414.258	88.06
414.482	82.06
414.705	75.06
414.928	91.06
415.151	86.06
415.374	86.06
415.597	91.06
415.821	78.06
416.044	103.06
416.267	80.06
416.49	78.06
416.713	80.06
416.936	95.06
417.159	82.06
417.382	74.06
417.605	88.06
417.828	81.06
418.051	86.06
418.274	87.06
418.497	74.06
418.72	91.06
418.943	92.06
419.166	82.06
419.389	86.06
419.611	97.06
419.834	89.06
420.057	90.06
420.28	81.06
420.503	76.06
420.726	88.06
420.948	90.06
421.171	98.06
421.394	86.06
421.617	85.06
421.839	90.06
422.062	65.06
422.285	87.06
422.507	101.06
422.73	84.06
422.953	98.06
423.175	89.06
423.398	79.06
423.621	94.06
423.843	90.06
424.066	79.06
424.288	71.06
424.511	79.06
424.733	97.06
424.956	108.06
425.178	92.06
425.401	97.06
425.623	90.06
425.846	88.06
426.068	82.06
426.291	90.06
426.513	81.06
426.735	96.06
426.958	87.06
427.18	103.06
427.402	135.06
427.625	163.06
427.847	163.06
428.069	145.06
428.292	103.06
428.514	95.06
428.736	91.06
428.958	76.06
429.181	88.06
429.403	81.06
429.625	82.06
429.847	71.06
430.069	95.06
430.292	89.06
430.514	82.06
430.736	80.06
430.958	85.06
431.18	69.06
431.402	87.06
431.624	79.06
431.846	70.06
432.068	81.06
432.29	79.06
432.512	82.06
432.734	77.06
432.956	86.06
433.178	88.06
433.4	94.06
433.622	91.06
433.844	88.06
434.066	96.06
434.287	90.06
434.509	84.06
434.731	89.06
434.953	87.06
435.175	73.06
435.397	78.06
435.618	79.06
435.84	106.06
436.062	126.06
436.284	100.06
436.505	106.06
436.727	94.06
436.949	97.06
437.17	97.06
437.392	83.06
437.614	83.06
437.835	84.06
438.057	91.06
438.278	109.06
438.5	89.06
438.721	109.06
438.943	99.06
439.165	71.06
439.386	82.06
439.608	90.06
439.829	100.06
440.05	120.06
440.272	137.06
440.493	98.06
440.715	80.06
440.936	86.06
441.158	81.06
441.379	88.06
441.6	85.06
441.822	83.06
442.043	91.06
442.264	101.06
442.486	87.06
442.707	83.06
442.928	89.06
443.149	124.06
443.371	114.06
443.592	92.06
443.813	92.06
444.034	104.06
444.255	107.06
444.476	81.06
444.698	74.06
444.919	90.06
445.14	124.06
445.361	124.06
445.582	114.06
445.803	133.06
446.024	136.06
446.245	124.06
446.466	111.06
446.687	76.06
446.908	87.06
447.129	94.06
447.35	84.06
447.571	90.06
447.792	90.06
448.013	83.06
448.234	99.06
448.455	103.06
448.675	112.06
448.896	114.06
449.117	99.06
449.338	95.06
449.559	118.06
449.779	138.06
450	95.06
450.221	83.06
450.442	85.06
450.662	96.06
450.883	101.06
451.104	115.06
451.324	102.06
451.545	92.06
451.766	89.06
451.986	68.06
452.207	84.06
452.428	99.06
452.648	86.06
452.869	99.06
453.089	94.06
453.31	104.06
453.53	89.06
453.751	81.06
453.971	96.06
454.192	105.06
454.412	95.06
454.633	101.06
454.853	91.06
455.073	78.06
455.294	87.06
455.514	95.06
455.734	94.06
455.955	80.06
456.175	70.06
456.395	70.06
456.616	88.06
456.836	88.06
457.056	78.06
457.276	81.06
457.497	69.06
457.717	70.06
457.937	83.06
458.157	81.06
458.377	84.06
458.598	90.06
458.818	131.06
459.038	146.06
459.258	103.06
459.478	99.06
459.698	83.06
459.918	76.06
460.138	82.06
460.358	94.06
460.578	92.06
460.798	85.06
461.018	88.06
461.238	82.06
461.458	81.06
461.678	97.06
461.898	83.06
462.118	79.06
462.338	81.06
462.558	79.06
462.777	97.06
462.997	81.06
463.217	79.06
463.437	74.06
463.657	80.06
463.876	77.06
464.096	92.06
464.316	85.06
464.536	102.06
464.755	87.06
464.975	86.06
465.195	129.06
465.414	139.06
465.634	94.06
465.854	77.06
466.073	78.06
466.293	99.06
466.512	98.06
466.732	81.06
466.951	91.06
467.171	90.06
467.391	85.06
467.61	89.06
467.829	103.06
468.049	170.06
468.268	215.06
468.488	106.06
468.707	100.06
468.927	91.06
469.146	75.06
469.365	96.06
469.585	90.06
469.804	103.06
470.023	85.06
470.243	102.06
470.462	78.06
470.681	99.06
470.901	91.06
471.12	84.06
471.339	84.06
471.558	85.06
471.777	102.06
471.997	121.06
472.216	294.06
472.435	558.06
472.654	190.06
472.873	95.06
473.092	80.06
473.311	69.06
473.53	75.06
473.749	98.06
473.968	93.06
474.187	101.06
474.406	76.06
474.625	92.06
474.844	98.06
475.063	83.06
475.282	98.06
475.501	83.06
475.72	85.06
475.939	85.06
476.158	90.06
476.377	92.06
476.596	99.06
476.814	96.06
477.033	87.06
477.252	91.06
477.471	83.06
477.69	78.06
477.908	92.06
478.127	97.06
478.346	82.06
478.564	90.06
478.783	90.06
479.002	73.06
479.22	93.06
479.439	96.06
479.658	114.06
479.876	90.06
480.095	96.06
480.313	91.06
480.532	112.06
480.751	145.06
480.969	289.06
481.188	922.06
481.406	597.06
481.624	145.06
481.843	83.06
482.061	84.06
482.28	92.06
482.498	73.06
482.717	98.06
482.935	90.06
483.153	98.06
483.372	81.06
483.59	88.06
483.808	79.06
484.027	101.06
484.245	97.06
484.463	85.06
484.681	97.06
484.9	86.06
485.118	102.06
485.336	93.06
485.554	83.06
485.772	90.06
485.99	96.06
486.209	113.06
486.427	100.06
486.645	90.06
486.863	118.06
487.081	91.06
487.299	100.06
487.517	90.06
487.735	83.06
487.953	91.06
488.171	86.06
488.389	76.06
488.607	98.06
488.825	85.06
489.043	84.06
489.261	79.06
489.479	85.06
489.696	95.06
489.914	75.06
490.132	81.06
490.35	88.06
490.568	97.06
490.786	84.06
491.003	82.06
491.221	82.06
491.439	89.06
491.657	94.06
491.874	65.06
492.092	80.06
492.31	83.06
492.527	90.06
492.745	85.06
492.963	84.06
493.18	88.06
493.398	80.06
493.615	100.06
493.833	106.06
494.05	83.06
494.268	95.06
494.485	105.06
494.703	93.06
494.92	98.06
495.138	91.06
495.355	85.06
495.573	92.06
495.79	87.06
496.008	92.06
496.225	73.06
496.442	87.06
496.66	97.06
496.877	100.06
497.094	105.06
497.312	83.06
497.529	86.06
497.746	86.06
497.963	89.06
498.181	81.06
498.398	85.06
498.615	99.06
498.832	99.06
499.049	98.06
499.267	95.06
499.484	86.06
499.701	88.06
499.918	89.06
500.135	90.06
500.352	92.06
500.569	83.06
500.786	91.06
501.003	97.06
501.22	87.06
501.437	89.06
501.654	73.06
501.871	106.06
502.088	93.06
502.305	98.06
502.522	82.06
502.739	86.06
502.956	93.06
503.172	103.06
503.389	94.06
503.606	100.06
503.823	99.06
504.04	82.06
504.256	99.06
504.473	78.06
504.69	78.06
504.907	87.06
505.123	93.06
505.34	97.06
505.557	98.06
505.773	88.06
505.99	81.06
506.207	85.06
506.423	92.06
506.64	76.06
506.856	101.06
507.073	91.06
507.289	97.06
507.506	94.06
507.722	107.06
507.939	104.06
508.155	94.06
508.372	97.06
508.588	86.06
508.805	100.06
509.021	108.06
509.238	95.06
509.454	95.06
509.67	93.06
509.887	98.06
510.103	122.06
510.319	199.06
510.536	588.06
510.752	1877.06
510.968	556.06
511.184	139.06
511.401	105.06
511.617	99.06
511.833	102.06
512.049	91.06
512.265	90.06
512.481	83.06
512.698	87.06
512.914	99.06
513.13	94.06
513.346	95.06
513.562	94.06
513.778	91.06
513.994	92.06
514.21	97.06
514.426	107.06
514.642	123.06
514.858	138.06
515.074	153.06
515.29	368.06
515.506	1137.06
515.721	458.06
515.937	130.06
516.153	94.06
516.369	86.06
516.585	90.06
