Data from Circ_2015_H10_HRD10591_00020.txt Node
Date: Wed Jan 03 10:00:26 EST 2024
User: Yrep
Spectrometer: HR+D1059
Trigger mode: 1
Integration Time (sec): 1.000000E-1
Scans to average: 1
Electric dark correction enabled: true
Nonlinearity correction enabled: false
Boxcar width: 0
XAxis mode: Wavelengths
Number of Pixels in Spectrum: 2048
>>>>>Begin Spectral Data<<<<<
223.165	-20.38
223.4	-20.38
223.635	-20.38
223.869	-6.38
224.104	-30.38
224.338	-14.38
224.573	-28.38
224.808	-9.38
225.042	-0.38
225.277	-11.38
225.511	6.62
225.746	2.62
225.98	2.62
226.215	18.62
226.449	9.62
226.683	17.62
226.918	22.62
227.152	40.62
227.387	29.62
227.621	35.62
227.856	38.62
228.09	50.62
228.324	56.62
228.559	60.62
228.793	68.62
229.027	67.62
229.262	70.62
229.496	56.62
229.73	79.62
229.964	80.62
230.199	70.62
230.433	78.62
230.667	89.62
230.901	77.62
231.136	75.62
231.37	86.62
231.604	97.62
231.838	74.62
232.072	76.62
232.306	86.62
232.541	84.62
232.775	90.62
233.009	86.62
233.243	78.62
233.477	78.62
233.711	76.62
233.945	77.62
234.179	69.62
234.413	90.62
234.647	79.62
234.881	77.62
235.115	82.62
235.349	77.62
235.583	85.62
235.817	70.62
236.051	86.62
236.285	74.62
236.519	88.62
236.753	69.62
236.987	79.62
237.221	68.62
237.455	87.62
237.689	75.62
237.922	83.62
238.156	69.62
238.39	69.62
238.624	75.62
238.858	77.62
239.091	90.62
239.325	81.62
239.559	78.62
239.793	68.62
240.027	74.62
240.26	78.62
240.494	70.62
240.728	82.62
240.961	86.62
241.195	81.62
241.429	88.62
241.662	70.62
241.896	74.62
242.13	87.62
242.363	73.62
242.597	81.62
242.83	66.62
243.064	70.62
243.298	73.62
243.531	89.62
243.765	65.62
243.998	71.62
244.232	77.62
244.465	78.62
244.699	71.62
244.932	77.62
245.166	73.62
245.399	70.62
245.633	83.62
245.866	72.62
246.099	84.62
246.333	79.62
246.566	79.62
246.8	68.62
247.033	65.62
247.266	82.62
247.5	89.62
247.733	78.62
247.966	65.62
248.2	77.62
248.433	78.62
248.666	80.62
248.899	102.62
249.133	79.62
249.366	90.62
249.599	86.62
249.832	70.62
250.066	72.62
250.299	73.62
250.532	79.62
250.765	82.62
250.998	69.62
251.231	75.62
251.465	75.62
251.698	67.62
251.931	82.62
252.164	73.62
252.397	69.62
252.63	77.62
252.863	64.62
253.096	72.62
253.329	79.62
253.562	88.62
253.795	79.62
254.028	98.62
254.261	75.62
254.494	76.62
254.727	94.62
254.96	90.62
255.193	89.62
255.426	89.62
255.659	81.62
255.892	98.62
256.124	75.62
256.357	85.62
256.59	70.62
256.823	79.62
257.056	86.62
257.289	82.62
257.521	78.62
257.754	92.62
257.987	77.62
258.22	84.62
258.452	95.62
258.685	76.62
258.918	84.62
259.151	72.62
259.383	85.62
259.616	78.62
259.849	76.62
260.081	86.62
260.314	93.62
260.547	76.62
260.779	93.62
261.012	90.62
261.244	82.62
261.477	90.62
261.71	100.62
261.942	91.62
262.175	109.62
262.407	97.62
262.64	77.62
262.872	81.62
263.105	79.62
263.337	84.62
263.57	67.62
263.802	83.62
264.035	85.62
264.267	83.62
264.499	78.62
264.732	79.62
264.964	91.62
265.197	84.62
265.429	82.62
265.661	93.62
265.894	86.62
266.126	84.62
266.358	79.62
266.591	90.62
266.823	94.62
267.055	80.62
267.287	80.62
267.52	83.62
267.752	82.62
267.984	76.62
268.216	70.62
268.448	80.62
268.681	84.62
268.913	79.62
269.145	82.62
269.377	105.62
269.609	89.62
269.841	78.62
270.073	90.62
270.306	90.62
270.538	81.62
270.77	79.62
271.002	93.62
271.234	87.62
271.466	92.62
271.698	90.62
271.93	88.62
272.162	86.62
272.394	91.62
272.626	73.62
272.858	85.62
273.09	86.62
273.322	87.62
273.553	78.62
273.785	79.62
274.017	81.62
274.249	78.62
274.481	96.62
274.713	94.62
274.945	98.62
275.176	80.62
275.408	84.62
275.64	83.62
275.872	95.62
276.104	84.62
276.335	87.62
276.567	97.62
276.799	98.62
277.031	97.62
277.262	77.62
277.494	75.62
277.726	79.62
277.957	78.62
278.189	82.62
278.421	87.62
278.652	83.62
278.884	95.62
279.115	81.62
279.347	87.62
279.579	71.62
279.81	97.62
280.042	78.62
280.273	93.62
280.505	95.62
280.736	84.62
280.968	90.62
281.199	85.62
281.431	103.62
281.662	90.62
281.894	95.62
282.125	89.62
282.356	129.62
282.588	123.62
282.819	115.62
283.051	86.62
283.282	103.62
283.513	87.62
283.745	97.62
283.976	91.62
284.207	93.62
284.439	87.62
284.67	105.62
284.901	99.62
285.132	94.62
285.364	73.62
285.595	82.62
285.826	88.62
286.057	83.62
286.288	94.62
286.52	73.62
286.751	85.62
286.982	90.62
287.213	83.62
287.444	73.62
287.675	81.62
287.906	83.62
288.138	88.62
288.369	97.62
288.6	86.62
288.831	87.62
289.062	97.62
289.293	90.62
289.524	77.62
289.755	84.62
289.986	81.62
290.217	93.62
290.448	94.62
290.679	82.62
290.91	83.62
291.141	93.62
291.371	85.62
291.602	88.62
291.833	80.62
292.064	86.62
292.295	82.62
292.526	95.62
292.757	93.62
292.987	92.62
293.218	91.62
293.449	91.62
293.68	93.62
293.91	88.62
294.141	102.62
294.372	109.62
294.603	98.62
294.833	94.62
295.064	90.62
295.295	89.62
295.525	84.62
295.756	107.62
295.987	101.62
296.217	118.62
296.448	106.62
296.679	92.62
296.909	84.62
297.14	91.62
297.37	92.62
297.601	83.62
297.831	93.62
298.062	103.62
298.292	85.62
298.523	90.62
298.753	94.62
298.984	104.62
299.214	96.62
299.445	84.62
299.675	94.62
299.905	114.62
300.136	100.62
300.366	94.62
300.597	105.62
300.827	87.62
301.057	104.62
301.288	108.62
301.518	84.62
301.748	86.62
301.979	118.62
302.209	108.62
302.439	73.62
302.669	93.62
302.9	90.62
303.13	96.62
303.36	100.62
303.59	98.62
303.82	108.62
304.051	86.62
304.281	94.62
304.511	83.62
304.741	107.62
304.971	96.62
305.201	99.62
305.431	87.62
305.661	88.62
305.891	110.62
306.121	95.62
306.352	101.62
306.582	93.62
306.812	100.62
307.042	79.62
307.272	90.62
307.502	92.62
307.731	92.62
307.961	94.62
308.191	81.62
308.421	93.62
308.651	93.62
308.881	93.62
309.111	92.62
309.341	94.62
309.571	95.62
309.8	104.62
310.03	89.62
310.26	98.62
310.49	101.62
310.72	100.62
310.949	111.62
311.179	93.62
311.409	94.62
311.639	89.62
311.868	94.62
312.098	85.62
312.328	97.62
312.557	102.62
312.787	107.62
313.017	98.62
313.246	99.62
313.476	101.62
313.706	101.62
313.935	103.62
314.165	89.62
314.394	100.62
314.624	105.62
314.853	99.62
315.083	107.62
315.312	92.62
315.542	99.62
315.771	99.62
316.001	97.62
316.23	85.62
316.46	85.62
316.689	99.62
316.919	89.62
317.148	95.62
317.377	115.62
317.607	91.62
317.836	74.62
318.065	90.62
318.295	88.62
318.524	81.62
318.753	87.62
318.983	87.62
319.212	90.62
319.441	103.62
319.67	93.62
319.9	90.62
320.129	96.62
320.358	95.62
320.587	93.62
320.816	87.62
321.046	80.62
321.275	95.62
321.504	115.62
321.733	109.62
321.962	97.62
322.191	99.62
322.42	106.62
322.649	96.62
322.878	107.62
323.108	97.62
323.337	114.62
323.566	131.62
323.795	148.62
324.024	182.62
324.253	351.62
324.482	750.62
324.71	1505.62
324.939	1941.62
325.168	745.62
325.397	238.62
325.626	126.62
325.855	124.62
326.084	113.62
326.313	125.62
326.542	166.62
326.77	204.62
326.999	415.62
327.228	851.62
327.457	1530.62
327.686	1216.62
327.914	355.62
328.143	201.62
328.372	162.62
328.6	118.62
328.829	110.62
329.058	118.62
329.287	123.62
329.515	105.62
329.744	103.62
329.972	105.62
330.201	116.62
330.43	151.62
330.658	120.62
330.887	122.62
331.115	109.62
331.344	94.62
331.572	105.62
331.801	107.62
332.03	99.62
332.258	88.62
332.486	92.62
332.715	82.62
332.943	94.62
333.172	102.62
333.4	86.62
333.629	101.62
333.857	115.62
334.085	129.62
334.314	128.62
334.542	157.62
334.771	161.62
334.999	103.62
335.227	96.62
335.455	89.62
335.684	94.62
335.912	114.62
336.14	96.62
336.369	102.62
336.597	104.62
336.825	113.62
337.053	112.62
337.281	90.62
337.51	90.62
337.738	92.62
337.966	87.62
338.194	82.62
338.422	98.62
338.65	89.62
338.878	94.62
339.106	92.62
339.334	87.62
339.562	85.62
339.79	91.62
340.018	87.62
340.246	88.62
340.474	85.62
340.702	91.62
340.93	86.62
341.158	80.62
341.386	97.62
341.614	109.62
341.842	86.62
342.07	103.62
342.298	88.62
342.526	107.62
342.754	89.62
342.981	100.62
343.209	77.62
343.437	109.62
343.665	85.62
343.893	86.62
344.12	99.62
344.348	88.62
344.576	70.62
344.804	94.62
345.031	112.62
345.259	96.62
345.487	94.62
345.714	93.62
345.942	87.62
346.17	88.62
346.397	92.62
346.625	91.62
346.853	75.62
347.08	75.62
347.308	102.62
347.535	94.62
347.763	108.62
347.99	99.62
348.218	100.62
348.445	89.62
348.673	99.62
348.9	101.62
349.128	94.62
349.355	86.62
349.583	97.62
349.81	87.62
350.037	90.62
350.265	95.62
350.492	94.62
350.72	89.62
350.947	105.62
351.174	95.62
351.402	115.62
351.629	80.62
351.856	95.62
352.083	85.62
352.311	100.62
352.538	102.62
352.765	106.62
352.992	109.62
353.22	115.62
353.447	102.62
353.674	112.62
353.901	103.62
354.128	93.62
354.355	87.62
354.583	78.62
354.81	92.62
355.037	94.62
355.264	90.62
355.491	87.62
355.718	104.62
355.945	107.62
356.172	93.62
356.399	104.62
356.626	96.62
356.853	113.62
357.08	90.62
357.307	87.62
357.534	87.62
357.761	94.62
357.988	97.62
358.215	105.62
358.441	102.62
358.668	105.62
358.895	96.62
359.122	90.62
359.349	101.62
359.576	92.62
359.802	107.62
360.029	100.62
360.256	105.62
360.483	95.62
360.709	87.62
360.936	95.62
361.163	85.62
361.39	99.62
361.616	100.62
361.843	94.62
362.07	80.62
362.296	91.62
362.523	90.62
362.749	95.62
362.976	89.62
363.203	86.62
363.429	97.62
363.656	97.62
363.882	83.62
364.109	83.62
364.335	70.62
364.562	82.62
364.788	91.62
365.015	94.62
365.241	102.62
365.468	93.62
365.694	93.62
365.92	106.62
366.147	93.62
366.373	89.62
366.599	88.62
366.826	90.62
367.052	94.62
367.278	94.62
367.505	82.62
367.731	96.62
367.957	88.62
368.184	95.62
368.41	85.62
368.636	97.62
368.862	119.62
369.089	116.62
369.315	97.62
369.541	80.62
369.767	86.62
369.993	91.62
370.219	86.62
370.445	79.62
370.672	98.62
370.898	90.62
371.124	82.62
371.35	82.62
371.576	94.62
371.802	93.62
372.028	88.62
372.254	83.62
372.48	81.62
372.706	81.62
372.932	96.62
373.158	90.62
373.384	93.62
373.61	86.62
373.835	97.62
374.061	81.62
374.287	92.62
374.513	107.62
374.739	98.62
374.965	92.62
375.191	98.62
375.416	105.62
375.642	99.62
375.868	84.62
376.094	90.62
376.319	86.62
376.545	97.62
376.771	89.62
376.997	90.62
377.222	94.62
377.448	92.62
377.674	98.62
377.899	84.62
378.125	86.62
378.35	99.62
378.576	97.62
378.802	87.62
379.027	90.62
379.253	99.62
379.478	89.62
379.704	82.62
379.929	84.62
380.155	98.62
380.38	99.62
380.606	86.62
380.831	95.62
381.057	103.62
381.282	94.62
381.507	85.62
381.733	91.62
381.958	89.62
382.184	94.62
382.409	103.62
382.634	110.62
382.86	115.62
383.085	113.62
383.31	94.62
383.535	100.62
383.761	113.62
383.986	84.62
384.211	87.62
384.436	96.62
384.662	117.62
384.887	99.62
385.112	108.62
385.337	130.62
385.562	101.62
385.787	122.62
386.013	131.62
386.238	113.62
386.463	106.62
386.688	110.62
386.913	120.62
387.138	114.62
387.363	101.62
387.588	96.62
387.813	106.62
388.038	107.62
388.263	115.62
388.488	127.62
388.713	97.62
388.938	92.62
389.163	92.62
389.387	94.62
389.612	95.62
389.837	108.62
390.062	90.62
390.287	88.62
390.512	95.62
390.736	88.62
390.961	99.62
391.186	98.62
391.411	99.62
391.636	90.62
391.86	72.62
392.085	98.62
392.31	87.62
392.534	100.62
392.759	87.62
392.984	91.62
393.208	100.62
393.433	107.62
393.658	109.62
393.882	73.62
394.107	86.62
394.331	90.62
394.556	83.62
394.78	97.62
395.005	75.62
395.229	87.62
395.454	94.62
395.678	82.62
395.903	96.62
396.127	82.62
396.352	94.62
396.576	92.62
396.801	85.62
397.025	91.62
397.249	90.62
397.474	75.62
397.698	88.62
397.922	101.62
398.147	88.62
398.371	93.62
398.595	103.62
398.82	76.62
399.044	82.62
399.268	88.62
399.492	89.62
399.717	102.62
399.941	92.62
400.165	92.62
400.389	86.62
400.613	96.62
400.837	90.62
401.062	94.62
401.286	92.62
401.51	91.62
401.734	90.62
401.958	103.62
402.182	120.62
402.406	155.62
402.63	103.62
402.854	95.62
403.078	91.62
403.302	87.62
403.526	88.62
403.75	88.62
403.974	87.62
404.198	93.62
404.422	82.62
404.645	82.62
404.869	91.62
405.093	92.62
405.317	98.62
405.541	109.62
405.765	93.62
405.988	97.62
406.212	154.62
406.436	211.62
406.66	131.62
406.883	93.62
407.107	106.62
407.331	84.62
407.555	92.62
407.778	100.62
408.002	102.62
408.226	84.62
408.449	87.62
408.673	81.62
408.896	87.62
409.12	87.62
409.344	93.62
409.567	100.62
409.791	95.62
410.014	99.62
410.238	94.62
410.461	92.62
410.685	82.62
410.908	80.62
411.132	91.62
411.355	112.62
411.578	90.62
411.802	90.62
412.025	101.62
412.249	97.62
412.472	92.62
412.695	94.62
412.919	92.62
413.142	93.62
413.365	95.62
413.589	92.62
413.812	83.62
414.035	80.62
414.258	79.62
414.482	103.62
414.705	94.62
414.928	104.62
415.151	97.62
415.374	91.62
415.597	82.62
415.821	84.62
416.044	76.62
416.267	89.62
416.49	84.62
416.713	92.62
416.936	77.62
417.159	97.62
417.382	105.62
417.605	88.62
417.828	95.62
418.051	92.62
418.274	93.62
418.497	87.62
418.72	100.62
418.943	88.62
419.166	92.62
419.389	90.62
419.611	89.62
419.834	96.62
420.057	74.62
420.28	84.62
420.503	84.62
420.726	93.62
420.948	93.62
421.171	100.62
421.394	93.62
421.617	86.62
421.839	91.62
422.062	91.62
422.285	78.62
422.507	98.62
422.73	105.62
422.953	102.62
423.175	98.62
423.398	83.62
423.621	84.62
423.843	86.62
424.066	93.62
424.288	100.62
424.511	95.62
424.733	92.62
424.956	106.62
425.178	107.62
425.401	105.62
425.623	97.62
425.846	94.62
426.068	99.62
426.291	92.62
426.513	81.62
426.735	90.62
426.958	98.62
427.18	93.62
427.402	134.62
427.625	143.62
427.847	120.62
428.069	113.62
428.292	88.62
428.514	93.62
428.736	88.62
428.958	78.62
429.181	87.62
429.403	87.62
429.625	94.62
429.847	97.62
430.069	102.62
430.292	75.62
430.514	78.62
430.736	69.62
430.958	84.62
431.18	79.62
431.402	109.62
431.624	91.62
431.846	89.62
432.068	85.62
432.29	94.62
432.512	88.62
432.734	78.62
432.956	100.62
433.178	92.62
433.4	95.62
433.622	88.62
433.844	84.62
434.066	85.62
434.287	89.62
434.509	95.62
434.731	93.62
434.953	99.62
435.175	91.62
435.397	99.62
435.618	87.62
435.84	112.62
436.062	110.62
436.284	107.62
436.505	102.62
436.727	101.62
436.949	86.62
437.17	84.62
437.392	92.62
437.614	90.62
437.835	95.62
438.057	116.62
438.278	105.62
438.5	95.62
438.721	94.62
438.943	102.62
439.165	87.62
439.386	71.62
439.608	90.62
439.829	100.62
440.05	116.62
440.272	130.62
440.493	109.62
440.715	77.62
440.936	78.62
441.158	100.62
441.379	83.62
441.6	95.62
441.822	98.62
442.043	86.62
442.264	91.62
442.486	91.62
442.707	98.62
442.928	86.62
443.149	122.62
443.371	125.62
443.592	95.62
443.813	103.62
444.034	105.62
444.255	90.62
444.476	80.62
444.698	72.62
444.919	89.62
445.14	138.62
445.361	107.62
445.582	130.62
445.803	129.62
446.024	123.62
446.245	122.62
446.466	106.62
446.687	80.62
446.908	89.62
447.129	85.62
447.35	80.62
447.571	76.62
447.792	87.62
448.013	90.62
448.234	94.62
448.455	96.62
448.675	127.62
448.896	103.62
449.117	109.62
449.338	70.62
449.559	130.62
449.779	119.62
450	99.62
450.221	79.62
450.442	79.62
450.662	104.62
450.883	106.62
451.104	92.62
451.324	97.62
451.545	87.62
451.766	95.62
451.986	78.62
452.207	79.62
452.428	102.62
452.648	102.62
452.869	108.62
453.089	107.62
453.31	136.62
453.53	86.62
453.751	82.62
453.971	82.62
454.192	100.62
454.412	87.62
454.633	81.62
454.853	81.62
455.073	95.62
455.294	89.62
455.514	93.62
455.734	81.62
455.955	95.62
456.175	100.62
456.395	89.62
456.616	103.62
456.836	78.62
457.056	93.62
457.276	96.62
457.497	106.62
457.717	94.62
457.937	86.62
458.157	92.62
458.377	100.62
458.598	96.62
458.818	126.62
459.038	154.62
459.258	110.62
459.478	85.62
459.698	89.62
459.918	83.62
460.138	105.62
460.358	85.62
460.578	80.62
460.798	83.62
461.018	81.62
461.238	82.62
461.458	92.62
461.678	76.62
461.898	91.62
462.118	93.62
462.338	85.62
462.558	77.62
462.777	98.62
462.997	83.62
463.217	97.62
463.437	90.62
463.657	69.62
463.876	84.62
464.096	102.62
464.316	81.62
464.536	88.62
464.755	88.62
464.975	108.62
465.195	143.62
465.414	155.62
465.634	85.62
465.854	97.62
466.073	98.62
466.293	101.62
466.512	89.62
466.732	91.62
466.951	85.62
467.171	92.62
467.391	84.62
467.61	103.62
467.829	103.62
468.049	106.62
468.268	118.62
468.488	75.62
468.707	97.62
468.927	89.62
469.146	78.62
469.365	91.62
469.585	85.62
469.804	79.62
470.023	99.62
470.243	82.62
470.462	117.62
470.681	107.62
470.901	77.62
471.12	94.62
471.339	94.62
471.558	81.62
471.777	84.62
471.997	93.62
472.216	142.62
472.435	171.62
472.654	106.62
472.873	86.62
473.092	90.62
473.311	88.62
473.53	85.62
473.749	77.62
473.968	92.62
474.187	95.62
474.406	100.62
474.625	91.62
474.844	85.62
475.063	89.62
475.282	88.62
475.501	81.62
475.72	83.62
475.939	90.62
476.158	102.62
476.377	92.62
476.596	94.62
476.814	92.62
477.033	97.62
477.252	102.62
477.471	87.62
477.69	91.62
477.908	85.62
478.127	91.62
478.346	89.62
478.564	94.62
478.783	102.62
479.002	99.62
479.22	91.62
479.439	101.62
479.658	98.62
479.876	95.62
480.095	101.62
480.313	89.62
480.532	79.62
480.751	102.62
480.969	118.62
481.188	271.62
481.406	218.62
481.624	105.62
481.843	97.62
482.061	79.62
482.28	91.62
482.498	77.62
482.717	86.62
482.935	98.62
483.153	87.62
483.372	89.62
483.59	91.62
483.808	84.62
484.027	86.62
484.245	98.62
484.463	102.62
484.681	89.62
484.9	99.62
485.118	96.62
485.336	90.62
485.554	107.62
485.772	99.62
485.99	93.62
486.209	99.62
486.427	92.62
486.645	102.62
486.863	122.62
487.081	97.62
487.299	101.62
487.517	102.62
487.735	97.62
487.953	98.62
488.171	95.62
488.389	114.62
488.607	94.62
488.825	87.62
489.043	78.62
489.261	94.62
489.479	93.62
489.696	97.62
489.914	76.62
490.132	95.62
490.35	87.62
490.568	86.62
490.786	84.62
491.003	78.62
491.221	84.62
491.439	86.62
491.657	84.62
491.874	86.62
492.092	91.62
492.31	89.62
492.527	92.62
492.745	100.62
492.963	88.62
493.18	100.62
493.398	90.62
493.615	89.62
493.833	83.62
494.05	98.62
494.268	95.62
494.485	93.62
494.703	98.62
494.92	93.62
495.138	90.62
495.355	88.62
495.573	93.62
495.79	104.62
496.008	98.62
496.225	93.62
496.442	87.62
496.66	84.62
496.877	95.62
497.094	99.62
497.312	91.62
497.529	79.62
497.746	81.62
497.963	93.62
498.181	95.62
498.398	105.62
498.615	101.62
498.832	106.62
499.049	89.62
499.267	88.62
499.484	89.62
499.701	78.62
499.918	88.62
500.135	79.62
500.352	105.62
500.569	89.62
500.786	84.62
501.003	97.62
501.22	97.62
501.437	100.62
501.654	99.62
501.871	101.62
502.088	94.62
502.305	89.62
502.522	84.62
502.739	80.62
502.956	95.62
503.172	93.62
503.389	89.62
503.606	97.62
503.823	96.62
504.04	91.62
504.256	107.62
504.473	90.62
504.69	97.62
504.907	96.62
505.123	86.62
505.34	85.62
505.557	94.62
505.773	95.62
505.99	73.62
506.207	81.62
506.423	108.62
506.64	111.62
506.856	101.62
507.073	100.62
507.289	90.62
507.506	95.62
507.722	124.62
507.939	109.62
508.155	102.62
508.372	94.62
508.588	97.62
508.805	91.62
509.021	99.62
509.238	97.62
509.454	90.62
509.67	84.62
509.887	108.62
510.103	114.62
510.319	190.62
510.536	648.62
510.752	2038.62
510.968	618.62
511.184	147.62
511.401	108.62
511.617	117.62
511.833	115.62
512.049	88.62
512.265	97.62
512.481	81.62
512.698	95.62
512.914	90.62
513.13	90.62
513.346	102.62
513.562	111.62
513.778	103.62
513.994	80.62
514.21	113.62
514.426	110.62
514.642	133.62
514.858	124.62
515.074	149.62
515.29	356.62
515.506	1154.62
515.721	473.62
