Data from Circ_2015_H10_HRD10591_00023.txt Node
Date: Wed Jan 03 10:00:27 EST 2024
User: Yrep
Spectrometer: HR+D1059
Trigger mode: 1
Integration Time (sec): 1.000000E-1
Scans to average: 1
Electric dark correction enabled: true
Nonlinearity correction enabled: false
Boxcar width: 0
XAxis mode: Wavelengths
Number of Pixels in Spectrum: 2048
>>>>>Begin Spectral Data<<<<<
223.165	-26.25
223.4	-26.25
223.635	-26.25
223.869	-12.25
224.104	-13.25
224.338	-17.25
224.573	-18.25
224.808	-24.25
225.042	-2.25
225.277	-3.25
225.511	2.75
225.746	12.75
225.98	0.75
226.215	-8.25
226.449	13.75
226.683	29.75
226.918	28.75
227.152	36.75
227.387	33.75
227.621	54.75
227.856	37.75
228.09	47.75
228.324	41.75
228.559	55.75
228.793	60.75
229.027	73.75
229.262	64.75
229.496	63.75
229.73	69.75
229.964	76.75
230.199	76.75
230.433	75.75
230.667	74.75
230.901	67.75
231.136	73.75
231.37	81.75
231.604	76.75
231.838	81.75
232.072	77.75
232.306	78.75
232.541	72.75
232.775	83.75
233.009	61.75
233.243	86.75
233.477	83.75
233.711	76.75
233.945	85.75
234.179	78.75
234.413	80.75
234.647	82.75
234.881	83.75
235.115	79.75
235.349	59.75
235.583	82.75
235.817	72.75
236.051	76.75
236.285	77.75
236.519	75.75
236.753	87.75
236.987	82.75
237.221	85.75
237.455	95.75
237.689	73.75
237.922	86.75
238.156	80.75
238.39	63.75
238.624	57.75
238.858	76.75
239.091	82.75
239.325	84.75
239.559	73.75
239.793	63.75
240.027	84.75
240.26	76.75
240.494	65.75
240.728	76.75
240.961	84.75
241.195	72.75
241.429	83.75
241.662	76.75
241.896	82.75
242.13	83.75
242.363	81.75
242.597	72.75
242.83	73.75
243.064	82.75
243.298	84.75
243.531	64.75
243.765	73.75
243.998	77.75
244.232	89.75
244.465	73.75
244.699	84.75
244.932	93.75
245.166	102.75
245.399	82.75
245.633	79.75
245.866	80.75
246.099	61.75
246.333	69.75
246.566	84.75
246.8	71.75
247.033	83.75
247.266	71.75
247.5	71.75
247.733	73.75
247.966	85.75
248.2	76.75
248.433	86.75
248.666	70.75
248.899	90.75
249.133	75.75
249.366	99.75
249.599	96.75
249.832	85.75
250.066	70.75
250.299	73.75
250.532	82.75
250.765	80.75
250.998	87.75
251.231	84.75
251.465	85.75
251.698	84.75
251.931	82.75
252.164	90.75
252.397	76.75
252.63	89.75
252.863	77.75
253.096	77.75
253.329	77.75
253.562	89.75
253.795	77.75
254.028	73.75
254.261	84.75
254.494	95.75
254.727	88.75
254.96	75.75
255.193	90.75
255.426	67.75
255.659	65.75
255.892	83.75
256.124	72.75
256.357	76.75
256.59	79.75
256.823	86.75
257.056	86.75
257.289	80.75
257.521	77.75
257.754	63.75
257.987	76.75
258.22	74.75
258.452	77.75
258.685	82.75
258.918	83.75
259.151	84.75
259.383	76.75
259.616	78.75
259.849	75.75
260.081	73.75
260.314	79.75
260.547	83.75
260.779	88.75
261.012	91.75
261.244	74.75
261.477	84.75
261.71	91.75
261.942	89.75
262.175	122.75
262.407	83.75
262.64	83.75
262.872	74.75
263.105	91.75
263.337	79.75
263.57	92.75
263.802	83.75
264.035	91.75
264.267	80.75
264.499	94.75
264.732	77.75
264.964	72.75
265.197	83.75
265.429	74.75
265.661	96.75
265.894	88.75
266.126	77.75
266.358	93.75
266.591	70.75
266.823	94.75
267.055	75.75
267.287	76.75
267.52	77.75
267.752	87.75
267.984	76.75
268.216	75.75
268.448	82.75
268.681	80.75
268.913	69.75
269.145	77.75
269.377	75.75
269.609	93.75
269.841	74.75
270.073	74.75
270.306	83.75
270.538	80.75
270.77	80.75
271.002	87.75
271.234	80.75
271.466	90.75
271.698	88.75
271.93	68.75
272.162	82.75
272.394	87.75
272.626	81.75
272.858	79.75
273.09	86.75
273.322	77.75
273.553	77.75
273.785	77.75
274.017	75.75
274.249	82.75
274.481	83.75
274.713	88.75
274.945	94.75
275.176	89.75
275.408	86.75
275.64	79.75
275.872	90.75
276.104	79.75
276.335	82.75
276.567	83.75
276.799	101.75
277.031	87.75
277.262	98.75
277.494	85.75
277.726	86.75
277.957	85.75
278.189	82.75
278.421	73.75
278.652	67.75
278.884	72.75
279.115	87.75
279.347	90.75
279.579	79.75
279.81	93.75
280.042	93.75
280.273	86.75
280.505	81.75
280.736	80.75
280.968	87.75
281.199	79.75
281.431	90.75
281.662	89.75
281.894	79.75
282.125	89.75
282.356	104.75
282.588	120.75
282.819	90.75
283.051	92.75
283.282	81.75
283.513	69.75
283.745	79.75
283.976	77.75
284.207	79.75
284.439	89.75
284.67	86.75
284.901	83.75
285.132	103.75
285.364	92.75
285.595	85.75
285.826	86.75
286.057	89.75
286.288	92.75
286.52	83.75
286.751	84.75
286.982	91.75
287.213	78.75
287.444	85.75
287.675	91.75
287.906	90.75
288.138	102.75
288.369	89.75
288.6	91.75
288.831	88.75
289.062	101.75
289.293	83.75
289.524	88.75
289.755	76.75
289.986	75.75
290.217	91.75
290.448	81.75
290.679	80.75
290.91	85.75
291.141	91.75
291.371	69.75
291.602	83.75
291.833	73.75
292.064	99.75
292.295	75.75
292.526	81.75
292.757	79.75
292.987	100.75
293.218	84.75
293.449	93.75
293.68	90.75
293.91	88.75
294.141	91.75
294.372	84.75
294.603	92.75
294.833	86.75
295.064	90.75
295.295	81.75
295.525	83.75
295.756	102.75
295.987	102.75
296.217	127.75
296.448	104.75
296.679	83.75
296.909	84.75
297.14	95.75
297.37	83.75
297.601	84.75
297.831	84.75
298.062	84.75
298.292	87.75
298.523	105.75
298.753	95.75
298.984	89.75
299.214	82.75
299.445	87.75
299.675	86.75
299.905	88.75
300.136	81.75
300.366	81.75
300.597	86.75
300.827	92.75
301.057	90.75
301.288	99.75
301.518	82.75
301.748	95.75
301.979	103.75
302.209	88.75
302.439	98.75
302.669	76.75
302.9	92.75
303.13	85.75
303.36	97.75
303.59	98.75
303.82	91.75
304.051	98.75
304.281	86.75
304.511	101.75
304.741	93.75
304.971	83.75
305.201	95.75
305.431	81.75
305.661	84.75
305.891	82.75
306.121	92.75
306.352	102.75
306.582	98.75
306.812	80.75
307.042	92.75
307.272	100.75
307.502	93.75
307.731	104.75
307.961	91.75
308.191	75.75
308.421	95.75
308.651	97.75
308.881	92.75
309.111	86.75
309.341	99.75
309.571	97.75
309.8	77.75
310.03	94.75
310.26	101.75
310.49	95.75
310.72	102.75
310.949	92.75
311.179	87.75
311.409	89.75
311.639	89.75
311.868	83.75
312.098	99.75
312.328	89.75
312.557	93.75
312.787	92.75
313.017	98.75
313.246	95.75
313.476	89.75
313.706	95.75
313.935	89.75
314.165	91.75
314.394	92.75
314.624	90.75
314.853	85.75
315.083	88.75
315.312	84.75
315.542	93.75
315.771	92.75
316.001	95.75
316.23	88.75
316.46	97.75
316.689	96.75
316.919	90.75
317.148	95.75
317.377	84.75
317.607	99.75
317.836	86.75
318.065	86.75
318.295	90.75
318.524	82.75
318.753	90.75
318.983	102.75
319.212	95.75
319.441	106.75
319.67	100.75
319.9	87.75
320.129	85.75
320.358	91.75
320.587	87.75
320.816	77.75
321.046	91.75
321.275	106.75
321.504	93.75
321.733	96.75
321.962	91.75
322.191	102.75
322.42	87.75
322.649	101.75
322.878	116.75
323.108	128.75
323.337	107.75
323.566	122.75
323.795	145.75
324.024	187.75
324.253	331.75
324.482	729.75
324.71	1457.75
324.939	1981.75
325.168	741.75
325.397	236.75
325.626	139.75
325.855	125.75
326.084	135.75
326.313	133.75
326.542	136.75
326.77	223.75
326.999	414.75
327.228	826.75
327.457	1516.75
327.686	1245.75
327.914	357.75
328.143	172.75
328.372	159.75
328.6	125.75
328.829	110.75
329.058	115.75
329.287	126.75
329.515	129.75
329.744	93.75
329.972	121.75
330.201	145.75
330.43	154.75
330.658	142.75
330.887	114.75
331.115	108.75
331.344	89.75
331.572	96.75
331.801	95.75
332.03	115.75
332.258	109.75
332.486	88.75
332.715	85.75
332.943	97.75
333.172	92.75
333.4	97.75
333.629	94.75
333.857	106.75
334.085	124.75
334.314	128.75
334.542	172.75
334.771	169.75
334.999	104.75
335.227	89.75
335.455	99.75
335.684	98.75
335.912	93.75
336.14	102.75
336.369	106.75
336.597	105.75
336.825	93.75
337.053	85.75
337.281	75.75
337.51	90.75
337.738	92.75
337.966	95.75
338.194	91.75
338.422	95.75
338.65	74.75
338.878	101.75
339.106	91.75
339.334	84.75
339.562	88.75
339.79	83.75
340.018	90.75
340.246	80.75
340.474	95.75
340.702	84.75
340.93	84.75
341.158	90.75
341.386	99.75
341.614	101.75
341.842	93.75
342.07	74.75
342.298	78.75
342.526	82.75
342.754	80.75
342.981	100.75
343.209	96.75
343.437	88.75
343.665	78.75
343.893	95.75
344.12	85.75
344.348	95.75
344.576	82.75
344.804	85.75
345.031	90.75
345.259	82.75
345.487	84.75
345.714	82.75
345.942	76.75
346.17	84.75
346.397	89.75
346.625	95.75
346.853	89.75
347.08	91.75
347.308	98.75
347.535	92.75
347.763	98.75
347.99	83.75
348.218	93.75
348.445	93.75
348.673	101.75
348.9	111.75
349.128	89.75
349.355	97.75
349.583	113.75
349.81	87.75
350.037	76.75
350.265	83.75
350.492	81.75
350.72	82.75
350.947	92.75
351.174	93.75
351.402	95.75
351.629	84.75
351.856	102.75
352.083	102.75
352.311	99.75
352.538	109.75
352.765	112.75
352.992	119.75
353.22	109.75
353.447	105.75
353.674	108.75
353.901	92.75
354.128	103.75
354.355	103.75
354.583	95.75
354.81	93.75
355.037	106.75
355.264	108.75
355.491	91.75
355.718	95.75
355.945	91.75
356.172	89.75
356.399	92.75
356.626	97.75
356.853	108.75
357.08	96.75
357.307	93.75
357.534	72.75
357.761	103.75
357.988	99.75
358.215	91.75
358.441	88.75
358.668	103.75
358.895	87.75
359.122	93.75
359.349	97.75
359.576	83.75
359.802	98.75
360.029	92.75
360.256	114.75
360.483	100.75
360.709	90.75
360.936	100.75
361.163	101.75
361.39	102.75
361.616	90.75
361.843	91.75
362.07	87.75
362.296	95.75
362.523	101.75
362.749	89.75
362.976	93.75
363.203	101.75
363.429	90.75
363.656	88.75
363.882	90.75
364.109	97.75
364.335	96.75
364.562	86.75
364.788	82.75
365.015	92.75
365.241	97.75
365.468	89.75
365.694	107.75
365.92	82.75
366.147	90.75
366.373	75.75
366.599	73.75
366.826	99.75
367.052	88.75
367.278	85.75
367.505	76.75
367.731	97.75
367.957	95.75
368.184	89.75
368.41	81.75
368.636	100.75
368.862	99.75
369.089	90.75
369.315	75.75
369.541	83.75
369.767	85.75
369.993	88.75
370.219	87.75
370.445	94.75
370.672	83.75
370.898	93.75
371.124	95.75
371.35	77.75
371.576	89.75
371.802	101.75
372.028	88.75
372.254	90.75
372.48	86.75
372.706	102.75
372.932	79.75
373.158	83.75
373.384	96.75
373.61	82.75
373.835	91.75
374.061	78.75
374.287	82.75
374.513	81.75
374.739	84.75
374.965	96.75
375.191	84.75
375.416	84.75
375.642	82.75
375.868	83.75
376.094	96.75
376.319	81.75
376.545	91.75
376.771	84.75
376.997	87.75
377.222	89.75
377.448	96.75
377.674	91.75
377.899	98.75
378.125	85.75
378.35	105.75
378.576	97.75
378.802	87.75
379.027	97.75
379.253	91.75
379.478	102.75
379.704	85.75
379.929	84.75
380.155	97.75
380.38	80.75
380.606	100.75
380.831	96.75
381.057	101.75
381.282	93.75
381.507	96.75
381.733	95.75
381.958	88.75
382.184	108.75
382.409	97.75
382.634	107.75
382.86	92.75
383.085	106.75
383.31	106.75
383.535	99.75
383.761	100.75
383.986	103.75
384.211	100.75
384.436	108.75
384.662	105.75
384.887	127.75
385.112	119.75
385.337	111.75
385.562	121.75
385.787	113.75
386.013	128.75
386.238	121.75
386.463	125.75
386.688	109.75
386.913	100.75
387.138	113.75
387.363	108.75
387.588	104.75
387.813	110.75
388.038	109.75
388.263	118.75
388.488	123.75
388.713	90.75
388.938	86.75
389.163	95.75
389.387	84.75
389.612	106.75
389.837	100.75
390.062	87.75
390.287	82.75
390.512	82.75
390.736	108.75
390.961	65.75
391.186	102.75
391.411	77.75
391.636	97.75
391.86	89.75
392.085	77.75
392.31	76.75
392.534	87.75
392.759	97.75
392.984	75.75
393.208	100.75
393.433	109.75
393.658	113.75
393.882	77.75
394.107	88.75
394.331	86.75
394.556	74.75
394.78	89.75
395.005	91.75
395.229	83.75
395.454	102.75
395.678	82.75
395.903	85.75
396.127	93.75
396.352	94.75
396.576	94.75
396.801	85.75
397.025	90.75
397.249	87.75
397.474	87.75
397.698	91.75
397.922	105.75
398.147	82.75
398.371	93.75
398.595	81.75
398.82	77.75
399.044	89.75
399.268	79.75
399.492	92.75
399.717	86.75
399.941	87.75
400.165	89.75
400.389	66.75
400.613	78.75
400.837	84.75
401.062	87.75
401.286	91.75
401.51	85.75
401.734	86.75
401.958	91.75
402.182	111.75
402.406	143.75
402.63	102.75
402.854	82.75
403.078	85.75
403.302	82.75
403.526	82.75
403.75	78.75
403.974	89.75
404.198	76.75
404.422	92.75
404.645	93.75
404.869	71.75
405.093	107.75
405.317	93.75
405.541	96.75
405.765	119.75
405.988	102.75
406.212	122.75
406.436	212.75
406.66	136.75
406.883	89.75
407.107	81.75
407.331	88.75
407.555	96.75
407.778	95.75
408.002	69.75
408.226	84.75
408.449	79.75
408.673	89.75
408.896	84.75
409.12	106.75
409.344	96.75
409.567	86.75
409.791	84.75
410.014	101.75
410.238	89.75
410.461	80.75
410.685	91.75
410.908	112.75
411.132	98.75
411.355	87.75
411.578	80.75
411.802	76.75
412.025	93.75
412.249	90.75
412.472	98.75
412.695	109.75
412.919	107.75
413.142	87.75
413.365	96.75
413.589	82.75
413.812	94.75
414.035	89.75
414.258	86.75
414.482	96.75
414.705	87.75
414.928	91.75
415.151	77.75
415.374	88.75
415.597	85.75
415.821	88.75
416.044	94.75
416.267	82.75
416.49	83.75
416.713	96.75
416.936	77.75
417.159	83.75
417.382	83.75
417.605	75.75
417.828	97.75
418.051	100.75
418.274	79.75
418.497	88.75
418.72	81.75
418.943	82.75
419.166	84.75
419.389	90.75
419.611	84.75
419.834	93.75
420.057	83.75
420.28	88.75
420.503	94.75
420.726	77.75
420.948	83.75
421.171	84.75
421.394	97.75
421.617	94.75
421.839	92.75
422.062	99.75
422.285	85.75
422.507	84.75
422.73	96.75
422.953	95.75
423.175	96.75
423.398	95.75
423.621	91.75
423.843	74.75
424.066	82.75
424.288	92.75
424.511	76.75
424.733	84.75
424.956	100.75
425.178	102.75
425.401	107.75
425.623	96.75
425.846	93.75
426.068	90.75
426.291	91.75
426.513	97.75
426.735	97.75
426.958	96.75
427.18	104.75
427.402	123.75
427.625	156.75
427.847	135.75
428.069	105.75
428.292	96.75
428.514	82.75
428.736	89.75
428.958	84.75
429.181	70.75
429.403	87.75
429.625	78.75
429.847	81.75
430.069	86.75
430.292	92.75
430.514	93.75
430.736	72.75
430.958	87.75
431.18	85.75
431.402	71.75
431.624	76.75
431.846	82.75
432.068	96.75
432.29	83.75
432.512	78.75
432.734	90.75
432.956	98.75
433.178	98.75
433.4	87.75
433.622	86.75
433.844	98.75
434.066	103.75
434.287	94.75
434.509	100.75
434.731	87.75
434.953	92.75
435.175	91.75
435.397	93.75
435.618	91.75
435.84	102.75
436.062	117.75
436.284	104.75
436.505	114.75
436.727	104.75
436.949	87.75
437.17	89.75
437.392	80.75
437.614	95.75
437.835	97.75
438.057	107.75
438.278	100.75
438.5	115.75
438.721	129.75
438.943	97.75
439.165	77.75
439.386	86.75
439.608	85.75
439.829	92.75
440.05	118.75
440.272	129.75
440.493	95.75
440.715	83.75
440.936	94.75
441.158	80.75
441.379	79.75
441.6	94.75
441.822	86.75
442.043	94.75
442.264	91.75
442.486	89.75
442.707	91.75
442.928	83.75
443.149	105.75
443.371	119.75
443.592	105.75
443.813	111.75
444.034	97.75
444.255	104.75
444.476	77.75
444.698	98.75
444.919	81.75
445.14	120.75
445.361	112.75
445.582	105.75
445.803	129.75
446.024	125.75
446.245	130.75
446.466	97.75
446.687	89.75
446.908	82.75
447.129	100.75
447.35	79.75
447.571	82.75
447.792	76.75
448.013	86.75
448.234	96.75
448.455	97.75
448.675	112.75
448.896	123.75
449.117	94.75
449.338	107.75
449.559	120.75
449.779	123.75
450	87.75
450.221	85.75
450.442	83.75
450.662	86.75
450.883	101.75
451.104	100.75
451.324	91.75
451.545	89.75
451.766	88.75
451.986	95.75
452.207	100.75
452.428	90.75
452.648	97.75
452.869	101.75
453.089	113.75
453.31	106.75
453.53	85.75
453.751	92.75
453.971	103.75
454.192	98.75
454.412	88.75
454.633	88.75
454.853	85.75
455.073	96.75
455.294	95.75
455.514	90.75
455.734	81.75
455.955	91.75
456.175	75.75
456.395	85.75
456.616	83.75
456.836	86.75
457.056	77.75
457.276	80.75
457.497	77.75
457.717	77.75
457.937	92.75
458.157	98.75
458.377	99.75
458.598	107.75
458.818	138.75
459.038	133.75
459.258	111.75
459.478	85.75
459.698	98.75
459.918	85.75
460.138	83.75
460.358	83.75
460.578	71.75
460.798	85.75
461.018	77.75
461.238	92.75
461.458	76.75
461.678	95.75
461.898	88.75
462.118	100.75
462.338	85.75
462.558	83.75
462.777	93.75
462.997	87.75
463.217	71.75
463.437	93.75
463.657	92.75
463.876	80.75
464.096	95.75
464.316	85.75
464.536	96.75
464.755	101.75
464.975	106.75
465.195	144.75
465.414	143.75
465.634	100.75
465.854	86.75
466.073	101.75
466.293	89.75
466.512	85.75
466.732	88.75
466.951	81.75
467.171	88.75
467.391	98.75
467.61	83.75
467.829	91.75
468.049	118.75
468.268	105.75
468.488	82.75
468.707	90.75
468.927	88.75
469.146	81.75
469.365	88.75
469.585	89.75
469.804	103.75
470.023	101.75
470.243	98.75
470.462	91.75
470.681	117.75
470.901	104.75
471.12	88.75
471.339	88.75
471.558	83.75
471.777	91.75
471.997	91.75
472.216	126.75
472.435	203.75
472.654	128.75
472.873	89.75
473.092	76.75
473.311	85.75
473.53	80.75
473.749	77.75
473.968	86.75
474.187	102.75
474.406	90.75
474.625	82.75
474.844	85.75
475.063	84.75
475.282	84.75
475.501	83.75
475.72	87.75
475.939	93.75
476.158	84.75
476.377	99.75
476.596	91.75
476.814	91.75
477.033	96.75
477.252	80.75
477.471	95.75
477.69	94.75
477.908	98.75
478.127	88.75
478.346	82.75
478.564	84.75
478.783	85.75
479.002	93.75
479.22	77.75
479.439	90.75
479.658	99.75
479.876	84.75
480.095	80.75
480.313	80.75
480.532	82.75
480.751	102.75
480.969	134.75
481.188	318.75
481.406	235.75
481.624	111.75
481.843	92.75
482.061	98.75
482.28	82.75
482.498	95.75
482.717	79.75
482.935	81.75
483.153	90.75
483.372	85.75
483.59	90.75
483.808	74.75
484.027	96.75
484.245	84.75
484.463	76.75
484.681	88.75
484.9	91.75
485.118	84.75
485.336	108.75
485.554	98.75
485.772	102.75
485.99	99.75
486.209	97.75
486.427	99.75
486.645	112.75
486.863	97.75
487.081	96.75
487.299	92.75
487.517	101.75
487.735	89.75
487.953	93.75
488.171	97.75
488.389	98.75
488.607	91.75
488.825	98.75
489.043	91.75
489.261	84.75
489.479	72.75
489.696	86.75
489.914	76.75
490.132	103.75
490.35	81.75
490.568	73.75
490.786	78.75
491.003	98.75
491.221	96.75
491.439	98.75
491.657	107.75
491.874	94.75
492.092	83.75
492.31	93.75
492.527	79.75
492.745	80.75
492.963	98.75
493.18	88.75
493.398	88.75
493.615	100.75
493.833	89.75
494.05	90.75
494.268	88.75
494.485	91.75
494.703	79.75
494.92	97.75
495.138	80.75
495.355	81.75
495.573	90.75
495.79	89.75
496.008	89.75
496.225	91.75
496.442	95.75
496.66	99.75
496.877	101.75
497.094	95.75
497.312	84.75
497.529	88.75
497.746	100.75
497.963	92.75
498.181	97.75
498.398	93.75
498.615	99.75
498.832	105.75
499.049	86.75
499.267	77.75
499.484	84.75
499.701	89.75
499.918	100.75
500.135	92.75
500.352	90.75
500.569	93.75
500.786	86.75
501.003	82.75
501.22	72.75
501.437	86.75
501.654	87.75
501.871	90.75
502.088	80.75
502.305	83.75
502.522	81.75
502.739	82.75
502.956	94.75
503.172	92.75
503.389	99.75
503.606	103.75
503.823	84.75
504.04	97.75
504.256	111.75
504.473	92.75
504.69	92.75
504.907	76.75
505.123	82.75
505.34	83.75
505.557	93.75
505.773	91.75
505.99	79.75
506.207	88.75
506.423	96.75
506.64	76.75
506.856	92.75
507.073	92.75
507.289	92.75
507.506	89.75
507.722	116.75
507.939	97.75
508.155	97.75
508.372	81.75
508.588	91.75
508.805	97.75
509.021	84.75
509.238	95.75
509.454	105.75
509.67	82.75
509.887	100.75
510.103	114.75
510.319	199.75
510.536	667.75
510.752	2123.75
510.968	646.75
511.184	140.75
511.401	107.75
511.617	100.75
511.833	90.75
512.049	96.75
512.265	102.75
512.481	101.75
512.698	90.75
512.914	101.75
513.13	88.75
513.346	91.75
513.562	89.75
513.778	87.75
513.994	99.75
514.21	104.75
514.426	123.75
514.642	121.75
514.858	117.75
515.074	132.75
515.29	371.75
515.506	1224.75
515.721	483.75
515.937	145.75
516.153	96.75
516.369	95.75
