Data from Circ_2015_H10_HRD10591_00064.txt Node
Date: Wed Jan 03 10:00:35 EST 2024
User: Yrep
Spectrometer: HR+D1059
Trigger mode: 1
Integration Time (sec): 1.000000E-1
Scans to average: 1
Electric dark correction enabled: true
Nonlinearity correction enabled: false
Boxcar width: 0
XAxis mode: Wavelengths
Number of Pixels in Spectrum: 2048
>>>>>Begin Spectral Data<<<<<
223.165	-10.88
223.4	-10.88
223.635	-10.88
223.869	-14.88
224.104	-20.88
224.338	1.12
224.573	-11.88
224.808	-16.88
225.042	-6.88
225.277	-12.88
225.511	-14.88
225.746	9.12
225.98	11.12
226.215	5.12
226.449	11.12
226.683	17.12
226.918	23.12
227.152	32.12
227.387	25.12
227.621	50.12
227.856	34.12
228.09	37.12
228.324	57.12
228.559	55.12
228.793	57.12
229.027	72.12
229.262	47.12
229.496	50.12
229.73	66.12
229.964	90.12
230.199	66.12
230.433	56.12
230.667	75.12
230.901	91.12
231.136	78.12
231.37	65.12
231.604	85.12
231.838	78.12
232.072	71.12
232.306	78.12
232.541	81.12
232.775	73.12
233.009	81.12
233.243	85.12
233.477	81.12
233.711	82.12
233.945	90.12
234.179	81.12
234.413	97.12
234.647	94.12
234.881	63.12
235.115	75.12
235.349	73.12
235.583	81.12
235.817	80.12
236.051	79.12
236.285	62.12
236.519	72.12
236.753	79.12
236.987	78.12
237.221	98.12
237.455	79.12
237.689	69.12
237.922	75.12
238.156	62.12
238.39	87.12
238.624	74.12
238.858	72.12
239.091	87.12
239.325	73.12
239.559	90.12
239.793	72.12
240.027	80.12
240.26	73.12
240.494	75.12
240.728	72.12
240.961	70.12
241.195	77.12
241.429	74.12
241.662	73.12
241.896	84.12
242.13	74.12
242.363	78.12
242.597	83.12
242.83	73.12
243.064	71.12
243.298	81.12
243.531	70.12
243.765	83.12
243.998	90.12
244.232	87.12
244.465	80.12
244.699	78.12
244.932	77.12
245.166	54.12
245.399	86.12
245.633	74.12
245.866	57.12
246.099	67.12
246.333	84.12
246.566	67.12
246.8	86.12
247.033	94.12
247.266	75.12
247.5	78.12
247.733	81.12
247.966	83.12
248.2	94.12
248.433	90.12
248.666	71.12
248.899	77.12
249.133	70.12
249.366	71.12
249.599	101.12
249.832	78.12
250.066	81.12
250.299	65.12
250.532	77.12
250.765	79.12
250.998	72.12
251.231	76.12
251.465	82.12
251.698	68.12
251.931	70.12
252.164	69.12
252.397	74.12
252.63	79.12
252.863	71.12
253.096	77.12
253.329	79.12
253.562	68.12
253.795	81.12
254.028	84.12
254.261	80.12
254.494	79.12
254.727	82.12
254.96	70.12
255.193	69.12
255.426	79.12
255.659	85.12
255.892	67.12
256.124	87.12
256.357	84.12
256.59	92.12
256.823	76.12
257.056	87.12
257.289	77.12
257.521	64.12
257.754	77.12
257.987	73.12
258.22	74.12
258.452	87.12
258.685	75.12
258.918	83.12
259.151	71.12
259.383	81.12
259.616	71.12
259.849	74.12
260.081	79.12
260.314	75.12
260.547	78.12
260.779	86.12
261.012	90.12
261.244	82.12
261.477	74.12
261.71	77.12
261.942	93.12
262.175	102.12
262.407	76.12
262.64	83.12
262.872	84.12
263.105	75.12
263.337	85.12
263.57	75.12
263.802	88.12
264.035	74.12
264.267	82.12
264.499	80.12
264.732	78.12
264.964	75.12
265.197	84.12
265.429	88.12
265.661	81.12
265.894	79.12
266.126	89.12
266.358	90.12
266.591	72.12
266.823	73.12
267.055	73.12
267.287	64.12
267.52	76.12
267.752	82.12
267.984	87.12
268.216	75.12
268.448	79.12
268.681	82.12
268.913	81.12
269.145	87.12
269.377	89.12
269.609	71.12
269.841	79.12
270.073	86.12
270.306	89.12
270.538	94.12
270.77	82.12
271.002	75.12
271.234	83.12
271.466	85.12
271.698	81.12
271.93	88.12
272.162	78.12
272.394	76.12
272.626	80.12
272.858	81.12
273.09	83.12
273.322	86.12
273.553	87.12
273.785	87.12
274.017	97.12
274.249	89.12
274.481	78.12
274.713	65.12
274.945	86.12
275.176	82.12
275.408	79.12
275.64	91.12
275.872	68.12
276.104	79.12
276.335	89.12
276.567	92.12
276.799	98.12
277.031	110.12
277.262	82.12
277.494	93.12
277.726	93.12
277.957	79.12
278.189	77.12
278.421	88.12
278.652	72.12
278.884	78.12
279.115	80.12
279.347	88.12
279.579	91.12
279.81	97.12
280.042	91.12
280.273	97.12
280.505	106.12
280.736	80.12
280.968	71.12
281.199	73.12
281.431	85.12
281.662	82.12
281.894	87.12
282.125	89.12
282.356	103.12
282.588	124.12
282.819	89.12
283.051	84.12
283.282	85.12
283.513	86.12
283.745	88.12
283.976	74.12
284.207	78.12
284.439	95.12
284.67	79.12
284.901	75.12
285.132	70.12
285.364	78.12
285.595	72.12
285.826	93.12
286.057	84.12
286.288	91.12
286.52	88.12
286.751	88.12
286.982	87.12
287.213	72.12
287.444	78.12
287.675	85.12
287.906	88.12
288.138	86.12
288.369	90.12
288.6	91.12
288.831	94.12
289.062	78.12
289.293	84.12
289.524	81.12
289.755	78.12
289.986	89.12
290.217	79.12
290.448	82.12
290.679	85.12
290.91	71.12
291.141	72.12
291.371	81.12
291.602	72.12
291.833	91.12
292.064	93.12
292.295	88.12
292.526	91.12
292.757	87.12
292.987	81.12
293.218	73.12
293.449	77.12
293.68	78.12
293.91	79.12
294.141	94.12
294.372	93.12
294.603	78.12
294.833	86.12
295.064	82.12
295.295	79.12
295.525	96.12
295.756	86.12
295.987	106.12
296.217	124.12
296.448	101.12
296.679	89.12
296.909	92.12
297.14	81.12
297.37	76.12
297.601	69.12
297.831	82.12
298.062	88.12
298.292	87.12
298.523	74.12
298.753	83.12
298.984	75.12
299.214	81.12
299.445	84.12
299.675	85.12
299.905	95.12
300.136	91.12
300.366	74.12
300.597	100.12
300.827	77.12
301.057	89.12
301.288	85.12
301.518	87.12
301.748	96.12
301.979	101.12
302.209	85.12
302.439	91.12
302.669	89.12
302.9	86.12
303.13	83.12
303.36	95.12
303.59	81.12
303.82	93.12
304.051	85.12
304.281	88.12
304.511	88.12
304.741	90.12
304.971	89.12
305.201	72.12
305.431	76.12
305.661	95.12
305.891	105.12
306.121	84.12
306.352	106.12
306.582	88.12
306.812	94.12
307.042	73.12
307.272	103.12
307.502	95.12
307.731	92.12
307.961	95.12
308.191	85.12
308.421	85.12
308.651	78.12
308.881	79.12
309.111	103.12
309.341	89.12
309.571	112.12
309.8	86.12
310.03	95.12
310.26	90.12
310.49	99.12
310.72	98.12
310.949	102.12
311.179	97.12
311.409	87.12
311.639	78.12
311.868	86.12
312.098	89.12
312.328	86.12
312.557	102.12
312.787	99.12
313.017	88.12
313.246	95.12
313.476	92.12
313.706	96.12
313.935	77.12
314.165	87.12
314.394	98.12
314.624	78.12
314.853	88.12
315.083	81.12
315.312	95.12
315.542	97.12
315.771	92.12
316.001	98.12
316.23	86.12
316.46	75.12
316.689	89.12
316.919	96.12
317.148	88.12
317.377	85.12
317.607	88.12
317.836	75.12
318.065	98.12
318.295	97.12
318.524	82.12
318.753	84.12
318.983	112.12
319.212	91.12
319.441	115.12
319.67	94.12
319.9	81.12
320.129	94.12
320.358	93.12
320.587	89.12
320.816	90.12
321.046	95.12
321.275	90.12
321.504	98.12
321.733	90.12
321.962	74.12
322.191	89.12
322.42	97.12
322.649	98.12
322.878	111.12
323.108	130.12
323.337	127.12
323.566	124.12
323.795	146.12
324.024	171.12
324.253	343.12
324.482	719.12
324.71	1501.12
324.939	2002.12
325.168	706.12
325.397	218.12
325.626	140.12
325.855	121.12
326.084	109.12
326.313	131.12
326.542	137.12
326.77	194.12
326.999	416.12
327.228	867.12
327.457	1526.12
327.686	1247.12
327.914	347.12
328.143	194.12
328.372	180.12
328.6	143.12
328.829	128.12
329.058	112.12
329.287	126.12
329.515	102.12
329.744	102.12
329.972	143.12
330.201	197.12
330.43	239.12
330.658	142.12
330.887	138.12
331.115	118.12
331.344	90.12
331.572	102.12
331.801	93.12
332.03	89.12
332.258	85.12
332.486	91.12
332.715	90.12
332.943	83.12
333.172	77.12
333.4	113.12
333.629	111.12
333.857	123.12
334.085	140.12
334.314	178.12
334.542	271.12
334.771	275.12
334.999	142.12
335.227	91.12
335.455	89.12
335.684	101.12
335.912	86.12
336.14	82.12
336.369	105.12
336.597	89.12
336.825	107.12
337.053	75.12
337.281	98.12
337.51	105.12
337.738	85.12
337.966	88.12
338.194	94.12
338.422	88.12
338.65	88.12
338.878	88.12
339.106	85.12
339.334	91.12
339.562	83.12
339.79	68.12
340.018	84.12
340.246	84.12
340.474	80.12
340.702	78.12
340.93	78.12
341.158	91.12
341.386	83.12
341.614	91.12
341.842	84.12
342.07	81.12
342.298	69.12
342.526	85.12
342.754	73.12
342.981	98.12
343.209	88.12
343.437	102.12
343.665	96.12
343.893	95.12
344.12	99.12
344.348	86.12
344.576	83.12
344.804	83.12
345.031	98.12
345.259	86.12
345.487	89.12
345.714	88.12
345.942	81.12
346.17	89.12
346.397	86.12
346.625	90.12
346.853	88.12
347.08	90.12
347.308	98.12
347.535	96.12
347.763	97.12
347.99	87.12
348.218	85.12
348.445	89.12
348.673	95.12
348.9	84.12
349.128	89.12
349.355	83.12
349.583	92.12
349.81	86.12
350.037	84.12
350.265	84.12
350.492	89.12
350.72	98.12
350.947	96.12
351.174	100.12
351.402	82.12
351.629	99.12
351.856	90.12
352.083	110.12
352.311	87.12
352.538	110.12
352.765	75.12
352.992	106.12
353.22	123.12
353.447	115.12
353.674	99.12
353.901	95.12
354.128	90.12
354.355	97.12
354.583	83.12
354.81	96.12
355.037	86.12
355.264	87.12
355.491	83.12
355.718	73.12
355.945	85.12
356.172	73.12
356.399	95.12
356.626	90.12
356.853	77.12
357.08	96.12
357.307	83.12
357.534	82.12
357.761	97.12
357.988	85.12
358.215	85.12
358.441	96.12
358.668	88.12
358.895	101.12
359.122	89.12
359.349	92.12
359.576	85.12
359.802	86.12
360.029	97.12
360.256	98.12
360.483	91.12
360.709	80.12
360.936	78.12
361.163	88.12
361.39	98.12
361.616	99.12
361.843	91.12
362.07	98.12
362.296	95.12
362.523	78.12
362.749	72.12
362.976	85.12
363.203	91.12
363.429	91.12
363.656	90.12
363.882	90.12
364.109	93.12
364.335	96.12
364.562	76.12
364.788	86.12
365.015	89.12
365.241	100.12
365.468	98.12
365.694	99.12
365.92	94.12
366.147	91.12
366.373	79.12
366.599	96.12
366.826	93.12
367.052	90.12
367.278	86.12
367.505	85.12
367.731	91.12
367.957	88.12
368.184	94.12
368.41	95.12
368.636	107.12
368.862	110.12
369.089	97.12
369.315	96.12
369.541	87.12
369.767	92.12
369.993	86.12
370.219	87.12
370.445	97.12
370.672	104.12
370.898	94.12
371.124	76.12
371.35	85.12
371.576	97.12
371.802	87.12
372.028	89.12
372.254	89.12
372.48	75.12
372.706	77.12
372.932	84.12
373.158	71.12
373.384	89.12
373.61	93.12
373.835	81.12
374.061	84.12
374.287	89.12
374.513	82.12
374.739	78.12
374.965	96.12
375.191	77.12
375.416	78.12
375.642	89.12
375.868	79.12
376.094	81.12
376.319	83.12
376.545	82.12
376.771	78.12
376.997	74.12
377.222	83.12
377.448	77.12
377.674	93.12
377.899	95.12
378.125	92.12
378.35	88.12
378.576	82.12
378.802	101.12
379.027	97.12
379.253	94.12
379.478	81.12
379.704	100.12
379.929	91.12
380.155	89.12
380.38	89.12
380.606	94.12
380.831	73.12
381.057	99.12
381.282	96.12
381.507	97.12
381.733	101.12
381.958	95.12
382.184	94.12
382.409	95.12
382.634	91.12
382.86	94.12
383.085	85.12
383.31	92.12
383.535	95.12
383.761	93.12
383.986	90.12
384.211	85.12
384.436	97.12
384.662	96.12
384.887	95.12
385.112	106.12
385.337	96.12
385.562	106.12
385.787	96.12
386.013	105.12
386.238	103.12
386.463	96.12
386.688	107.12
386.913	103.12
387.138	102.12
387.363	102.12
387.588	95.12
387.813	95.12
388.038	110.12
388.263	104.12
388.488	87.12
388.713	92.12
388.938	79.12
389.163	82.12
389.387	93.12
389.612	86.12
389.837	90.12
390.062	87.12
390.287	82.12
390.512	94.12
390.736	96.12
390.961	92.12
391.186	101.12
391.411	86.12
391.636	81.12
391.86	73.12
392.085	83.12
392.31	83.12
392.534	81.12
392.759	86.12
392.984	96.12
393.208	82.12
393.433	94.12
393.658	91.12
393.882	92.12
394.107	88.12
394.331	74.12
394.556	69.12
394.78	84.12
395.005	81.12
395.229	87.12
395.454	86.12
395.678	87.12
395.903	79.12
396.127	90.12
396.352	83.12
396.576	81.12
396.801	91.12
397.025	89.12
397.249	67.12
397.474	69.12
397.698	89.12
397.922	88.12
398.147	77.12
398.371	94.12
398.595	79.12
398.82	72.12
399.044	75.12
399.268	81.12
399.492	78.12
399.717	83.12
399.941	85.12
400.165	54.12
400.389	79.12
400.613	74.12
400.837	77.12
401.062	85.12
401.286	92.12
401.51	75.12
401.734	81.12
401.958	99.12
402.182	109.12
402.406	132.12
402.63	109.12
402.854	79.12
403.078	87.12
403.302	84.12
403.526	71.12
403.75	83.12
403.974	75.12
404.198	79.12
404.422	81.12
404.645	82.12
404.869	90.12
405.093	86.12
405.317	105.12
405.541	96.12
405.765	93.12
405.988	96.12
406.212	126.12
406.436	189.12
406.66	132.12
406.883	93.12
407.107	81.12
407.331	94.12
407.555	89.12
407.778	72.12
408.002	88.12
408.226	83.12
408.449	98.12
408.673	96.12
408.896	98.12
409.12	97.12
409.344	81.12
409.567	87.12
409.791	102.12
410.014	90.12
410.238	77.12
410.461	109.12
410.685	97.12
410.908	98.12
411.132	82.12
411.355	95.12
411.578	101.12
411.802	98.12
412.025	86.12
412.249	94.12
412.472	99.12
412.695	99.12
412.919	95.12
413.142	82.12
413.365	71.12
413.589	89.12
413.812	79.12
414.035	91.12
414.258	85.12
414.482	80.12
414.705	94.12
414.928	66.12
415.151	82.12
415.374	86.12
415.597	93.12
415.821	83.12
416.044	77.12
416.267	91.12
416.49	80.12
416.713	80.12
416.936	92.12
417.159	97.12
417.382	73.12
417.605	74.12
417.828	102.12
418.051	104.12
418.274	74.12
418.497	90.12
418.72	75.12
418.943	77.12
419.166	100.12
419.389	78.12
419.611	82.12
419.834	89.12
420.057	80.12
420.28	87.12
420.503	82.12
420.726	86.12
420.948	75.12
421.171	78.12
421.394	73.12
421.617	87.12
421.839	80.12
422.062	75.12
422.285	87.12
422.507	93.12
422.73	83.12
422.953	80.12
423.175	72.12
423.398	93.12
423.621	82.12
423.843	89.12
424.066	90.12
424.288	79.12
424.511	86.12
424.733	91.12
424.956	101.12
425.178	94.12
425.401	78.12
425.623	88.12
425.846	95.12
426.068	94.12
426.291	91.12
426.513	82.12
426.735	84.12
426.958	101.12
427.18	86.12
427.402	121.12
427.625	164.12
427.847	136.12
428.069	116.12
428.292	92.12
428.514	91.12
428.736	83.12
428.958	95.12
429.181	81.12
429.403	84.12
429.625	90.12
429.847	94.12
430.069	88.12
430.292	102.12
430.514	71.12
430.736	73.12
430.958	71.12
431.18	88.12
431.402	85.12
431.624	82.12
431.846	84.12
432.068	82.12
432.29	81.12
432.512	83.12
432.734	85.12
432.956	93.12
433.178	79.12
433.4	99.12
433.622	81.12
433.844	82.12
434.066	78.12
434.287	93.12
434.509	82.12
434.731	100.12
434.953	83.12
435.175	81.12
435.397	82.12
435.618	78.12
435.84	99.12
436.062	113.12
436.284	98.12
436.505	78.12
436.727	100.12
436.949	83.12
437.17	84.12
437.392	79.12
437.614	80.12
437.835	85.12
438.057	111.12
438.278	108.12
438.5	95.12
438.721	118.12
438.943	104.12
439.165	100.12
439.386	83.12
439.608	81.12
439.829	94.12
440.05	92.12
440.272	124.12
440.493	86.12
440.715	85.12
440.936	80.12
441.158	74.12
441.379	77.12
441.6	78.12
441.822	99.12
442.043	80.12
442.264	94.12
442.486	92.12
442.707	95.12
442.928	90.12
443.149	117.12
443.371	117.12
443.592	99.12
443.813	117.12
444.034	83.12
444.255	85.12
444.476	80.12
444.698	71.12
444.919	80.12
445.14	105.12
445.361	104.12
445.582	90.12
445.803	111.12
446.024	113.12
446.245	125.12
446.466	93.12
446.687	99.12
446.908	90.12
447.129	86.12
447.35	75.12
447.571	93.12
447.792	85.12
448.013	82.12
448.234	87.12
448.455	98.12
448.675	105.12
448.896	110.12
449.117	120.12
449.338	105.12
449.559	113.12
449.779	129.12
450	79.12
450.221	88.12
450.442	97.12
450.662	90.12
450.883	97.12
451.104	99.12
451.324	88.12
451.545	88.12
451.766	78.12
451.986	87.12
452.207	90.12
452.428	86.12
452.648	95.12
452.869	93.12
453.089	87.12
453.31	100.12
453.53	78.12
453.751	85.12
453.971	99.12
454.192	99.12
454.412	94.12
454.633	86.12
454.853	78.12
455.073	85.12
455.294	83.12
455.514	91.12
455.734	79.12
455.955	81.12
456.175	89.12
456.395	85.12
456.616	79.12
456.836	80.12
457.056	81.12
457.276	91.12
457.497	92.12
457.717	97.12
457.937	92.12
458.157	83.12
458.377	82.12
458.598	101.12
458.818	128.12
459.038	137.12
459.258	99.12
459.478	88.12
459.698	63.12
459.918	75.12
460.138	84.12
460.358	77.12
460.578	70.12
460.798	80.12
461.018	63.12
461.238	87.12
461.458	85.12
461.678	82.12
461.898	80.12
462.118	82.12
462.338	98.12
462.558	77.12
462.777	82.12
462.997	76.12
463.217	86.12
463.437	85.12
463.657	80.12
463.876	83.12
464.096	81.12
464.316	84.12
464.536	80.12
464.755	89.12
464.975	96.12
465.195	151.12
465.414	142.12
465.634	94.12
465.854	72.12
466.073	86.12
466.293	72.12
466.512	87.12
466.732	81.12
466.951	83.12
467.171	78.12
467.391	91.12
467.61	94.12
467.829	109.12
468.049	139.12
468.268	159.12
468.488	97.12
468.707	78.12
468.927	78.12
469.146	96.12
469.365	86.12
469.585	75.12
469.804	96.12
470.023	92.12
470.243	93.12
470.462	77.12
470.681	89.12
470.901	89.12
471.12	75.12
471.339	65.12
471.558	99.12
471.777	80.12
471.997	116.12
472.216	203.12
472.435	353.12
472.654	129.12
472.873	97.12
473.092	78.12
473.311	91.12
473.53	97.12
473.749	79.12
473.968	89.12
474.187	100.12
474.406	90.12
474.625	84.12
474.844	94.12
475.063	80.12
475.282	81.12
475.501	83.12
475.72	95.12
475.939	80.12
476.158	104.12
476.377	78.12
476.596	85.12
476.814	95.12
477.033	89.12
477.252	88.12
477.471	90.12
477.69	94.12
477.908	79.12
478.127	104.12
478.346	83.12
478.564	89.12
478.783	100.12
479.002	87.12
479.22	80.12
479.439	101.12
479.658	85.12
479.876	89.12
480.095	81.12
480.313	77.12
480.532	108.12
480.751	99.12
480.969	214.12
481.188	625.12
481.406	394.12
481.624	127.12
481.843	89.12
482.061	84.12
482.28	88.12
482.498	81.12
482.717	102.12
482.935	78.12
483.153	87.12
483.372	85.12
483.59	80.12
483.808	90.12
484.027	78.12
484.245	74.12
484.463	93.12
484.681	93.12
484.9	81.12
485.118	88.12
485.336	104.12
485.554	113.12
485.772	103.12
485.99	99.12
486.209	111.12
486.427	107.12
486.645	106.12
486.863	109.12
487.081	96.12
487.299	98.12
487.517	87.12
487.735	100.12
487.953	92.12
488.171	81.12
488.389	86.12
488.607	91.12
488.825	90.12
489.043	85.12
489.261	74.12
489.479	82.12
489.696	93.12
489.914	88.12
490.132	74.12
490.35	94.12
490.568	67.12
490.786	81.12
491.003	78.12
491.221	82.12
491.439	94.12
491.657	97.12
491.874	83.12
492.092	93.12
492.31	82.12
492.527	83.12
492.745	93.12
492.963	79.12
493.18	75.12
493.398	94.12
493.615	88.12
493.833	83.12
494.05	79.12
494.268	87.12
494.485	92.12
494.703	90.12
494.92	87.12
495.138	84.12
495.355	88.12
495.573	100.12
495.79	88.12
496.008	83.12
496.225	74.12
496.442	78.12
496.66	80.12
496.877	91.12
497.094	93.12
497.312	86.12
497.529	90.12
497.746	104.12
497.963	94.12
498.181	75.12
498.398	82.12
498.615	100.12
498.832	96.12
499.049	87.12
499.267	79.12
499.484	88.12
499.701	94.12
499.918	95.12
500.135	86.12
500.352	93.12
500.569	82.12
500.786	106.12
501.003	96.12
501.22	95.12
501.437	89.12
501.654	88.12
501.871	93.12
502.088	81.12
502.305	85.12
502.522	83.12
502.739	89.12
502.956	92.12
503.172	83.12
503.389	90.12
503.606	91.12
503.823	109.12
504.04	74.12
504.256	75.12
504.473	83.12
504.69	95.12
504.907	82.12
505.123	89.12
505.34	87.12
505.557	84.12
505.773	101.12
505.99	67.12
506.207	89.12
506.423	85.12
506.64	92.12
506.856	95.12
507.073	101.12
507.289	76.12
507.506	79.12
507.722	88.12
507.939	105.12
508.155	86.12
508.372	98.12
508.588	81.12
508.805	85.12
509.021	91.12
509.238	94.12
509.454	89.12
509.67	89.12
509.887	91.12
510.103	111.12
510.319	189.12
510.536	613.12
510.752	2027.12
510.968	617.12
511.184	145.12
511.401	95.12
511.617	93.12
511.833	86.12
512.049	89.12
512.265	72.12
512.481	91.12
512.698	83.12
512.914	88.12
513.13	78.12
513.346	80.12
513.562	89.12
513.778	84.12
513.994	93.12
514.21	96.12
514.426	107.12
514.642	118.12
514.858	125.12
515.074	133.12
515.29	338.12
515.506	1155.12
515.721	470.12
515.937	143.12
516.153	110.12
516.369	97.12
516.585	104.12
516.801	92.12
517.016	98.12
517.232	97.12
