Data from Circ_2015_H10_HRD10591_00048.txt Node
Date: Wed Jan 03 10:00:32 EST 2024
User: Yrep
Spectrometer: HR+D1059
Trigger mode: 1
Integration Time (sec): 1.000000E-1
Scans to average: 1
Electric dark correction enabled: true
Nonlinearity correction enabled: false
Boxcar width: 0
XAxis mode: Wavelengths
Number of Pixels in Spectrum: 2048
>>>>>Begin Spectral Data<<<<<
223.165	-11.81
223.4	-11.81
223.635	-11.81
223.869	-11.81
224.104	-38.81
224.338	-18.81
224.573	-3.81
224.808	-5.81
225.042	4.19
225.277	1.19
225.511	-2.81
225.746	12.19
225.98	5.19
226.215	-0.81
226.449	13.19
226.683	9.19
226.918	30.19
227.152	19.19
227.387	37.19
227.621	33.19
227.856	36.19
228.09	46.19
228.324	50.19
228.559	59.19
228.793	52.19
229.027	44.19
229.262	67.19
229.496	82.19
229.73	72.19
229.964	72.19
230.199	63.19
230.433	69.19
230.667	74.19
230.901	72.19
231.136	72.19
231.37	70.19
231.604	83.19
231.838	64.19
232.072	92.19
232.306	77.19
232.541	73.19
232.775	76.19
233.009	80.19
233.243	91.19
233.477	79.19
233.711	85.19
233.945	71.19
234.179	71.19
234.413	79.19
234.647	81.19
234.881	62.19
235.115	76.19
235.349	73.19
235.583	82.19
235.817	70.19
236.051	80.19
236.285	66.19
236.519	72.19
236.753	68.19
236.987	76.19
237.221	90.19
237.455	84.19
237.689	70.19
237.922	82.19
238.156	71.19
238.39	69.19
238.624	72.19
238.858	67.19
239.091	86.19
239.325	86.19
239.559	82.19
239.793	75.19
240.027	67.19
240.26	59.19
240.494	71.19
240.728	75.19
240.961	75.19
241.195	69.19
241.429	62.19
241.662	67.19
241.896	66.19
242.13	74.19
242.363	73.19
242.597	74.19
242.83	83.19
243.064	76.19
243.298	69.19
243.531	82.19
243.765	62.19
243.998	88.19
244.232	75.19
244.465	87.19
244.699	65.19
244.932	80.19
245.166	85.19
245.399	84.19
245.633	76.19
245.866	75.19
246.099	74.19
246.333	70.19
246.566	66.19
246.8	85.19
247.033	81.19
247.266	85.19
247.5	88.19
247.733	82.19
247.966	78.19
248.2	86.19
248.433	77.19
248.666	72.19
248.899	89.19
249.133	83.19
249.366	90.19
249.599	77.19
249.832	71.19
250.066	78.19
250.299	76.19
250.532	79.19
250.765	70.19
250.998	78.19
251.231	82.19
251.465	86.19
251.698	68.19
251.931	73.19
252.164	74.19
252.397	74.19
252.63	82.19
252.863	79.19
253.096	84.19
253.329	76.19
253.562	75.19
253.795	81.19
254.028	80.19
254.261	84.19
254.494	66.19
254.727	73.19
254.96	70.19
255.193	82.19
255.426	81.19
255.659	68.19
255.892	73.19
256.124	71.19
256.357	72.19
256.59	98.19
256.823	96.19
257.056	83.19
257.289	78.19
257.521	72.19
257.754	85.19
257.987	68.19
258.22	79.19
258.452	74.19
258.685	81.19
258.918	87.19
259.151	79.19
259.383	91.19
259.616	82.19
259.849	91.19
260.081	72.19
260.314	90.19
260.547	72.19
260.779	64.19
261.012	78.19
261.244	82.19
261.477	82.19
261.71	95.19
261.942	95.19
262.175	101.19
262.407	90.19
262.64	90.19
262.872	75.19
263.105	70.19
263.337	73.19
263.57	81.19
263.802	81.19
264.035	79.19
264.267	81.19
264.499	91.19
264.732	88.19
264.964	81.19
265.197	78.19
265.429	88.19
265.661	74.19
265.894	71.19
266.126	81.19
266.358	77.19
266.591	70.19
266.823	67.19
267.055	90.19
267.287	71.19
267.52	80.19
267.752	81.19
267.984	83.19
268.216	74.19
268.448	77.19
268.681	101.19
268.913	93.19
269.145	86.19
269.377	74.19
269.609	80.19
269.841	92.19
270.073	80.19
270.306	86.19
270.538	95.19
270.77	85.19
271.002	94.19
271.234	80.19
271.466	91.19
271.698	81.19
271.93	80.19
272.162	84.19
272.394	81.19
272.626	97.19
272.858	83.19
273.09	81.19
273.322	69.19
273.553	82.19
273.785	91.19
274.017	85.19
274.249	84.19
274.481	82.19
274.713	94.19
274.945	74.19
275.176	98.19
275.408	90.19
275.64	85.19
275.872	89.19
276.104	91.19
276.335	84.19
276.567	105.19
276.799	102.19
277.031	104.19
277.262	100.19
277.494	91.19
277.726	95.19
277.957	94.19
278.189	75.19
278.421	78.19
278.652	84.19
278.884	104.19
279.115	83.19
279.347	89.19
279.579	87.19
279.81	90.19
280.042	76.19
280.273	75.19
280.505	80.19
280.736	81.19
280.968	85.19
281.199	90.19
281.431	81.19
281.662	92.19
281.894	93.19
282.125	92.19
282.356	129.19
282.588	130.19
282.819	105.19
283.051	92.19
283.282	81.19
283.513	91.19
283.745	78.19
283.976	77.19
284.207	94.19
284.439	85.19
284.67	90.19
284.901	95.19
285.132	80.19
285.364	84.19
285.595	79.19
285.826	73.19
286.057	88.19
286.288	83.19
286.52	80.19
286.751	81.19
286.982	83.19
287.213	66.19
287.444	78.19
287.675	75.19
287.906	90.19
288.138	74.19
288.369	86.19
288.6	75.19
288.831	75.19
289.062	85.19
289.293	69.19
289.524	84.19
289.755	75.19
289.986	79.19
290.217	79.19
290.448	73.19
290.679	81.19
290.91	86.19
291.141	100.19
291.371	55.19
291.602	96.19
291.833	80.19
292.064	87.19
292.295	83.19
292.526	76.19
292.757	87.19
292.987	88.19
293.218	105.19
293.449	85.19
293.68	89.19
293.91	87.19
294.141	72.19
294.372	91.19
294.603	83.19
294.833	98.19
295.064	89.19
295.295	91.19
295.525	82.19
295.756	95.19
295.987	105.19
296.217	148.19
296.448	126.19
296.679	100.19
296.909	79.19
297.14	102.19
297.37	84.19
297.601	102.19
297.831	95.19
298.062	95.19
298.292	85.19
298.523	82.19
298.753	85.19
298.984	76.19
299.214	70.19
299.445	83.19
299.675	90.19
299.905	93.19
300.136	94.19
300.366	82.19
300.597	87.19
300.827	99.19
301.057	107.19
301.288	113.19
301.518	94.19
301.748	92.19
301.979	87.19
302.209	94.19
302.439	102.19
302.669	94.19
302.9	86.19
303.13	94.19
303.36	91.19
303.59	102.19
303.82	90.19
304.051	92.19
304.281	80.19
304.511	80.19
304.741	83.19
304.971	70.19
305.201	91.19
305.431	84.19
305.661	86.19
305.891	91.19
306.121	90.19
306.352	104.19
306.582	95.19
306.812	103.19
307.042	87.19
307.272	91.19
307.502	111.19
307.731	97.19
307.961	75.19
308.191	83.19
308.421	98.19
308.651	88.19
308.881	96.19
309.111	104.19
309.341	90.19
309.571	103.19
309.8	103.19
310.03	90.19
310.26	96.19
310.49	94.19
310.72	93.19
310.949	94.19
311.179	88.19
311.409	88.19
311.639	97.19
311.868	97.19
312.098	84.19
312.328	93.19
312.557	109.19
312.787	107.19
313.017	103.19
313.246	91.19
313.476	85.19
313.706	89.19
313.935	90.19
314.165	81.19
314.394	90.19
314.624	106.19
314.853	91.19
315.083	77.19
315.312	89.19
315.542	87.19
315.771	89.19
316.001	83.19
316.23	85.19
316.46	95.19
316.689	94.19
316.919	97.19
317.148	98.19
317.377	87.19
317.607	99.19
317.836	93.19
318.065	84.19
318.295	83.19
318.524	76.19
318.753	97.19
318.983	94.19
319.212	87.19
319.441	112.19
319.67	94.19
319.9	78.19
320.129	91.19
320.358	95.19
320.587	100.19
320.816	81.19
321.046	103.19
321.275	110.19
321.504	104.19
321.733	93.19
321.962	98.19
322.191	100.19
322.42	106.19
322.649	106.19
322.878	103.19
323.108	94.19
323.337	107.19
323.566	124.19
323.795	152.19
324.024	205.19
324.253	396.19
324.482	822.19
324.71	1725.19
324.939	2319.19
325.168	843.19
325.397	249.19
325.626	148.19
325.855	130.19
326.084	128.19
326.313	125.19
326.542	141.19
326.77	225.19
326.999	478.19
327.228	972.19
327.457	1760.19
327.686	1404.19
327.914	388.19
328.143	207.19
328.372	172.19
328.6	158.19
328.829	126.19
329.058	107.19
329.287	137.19
329.515	104.19
329.744	114.19
329.972	141.19
330.201	176.19
330.43	218.19
330.658	151.19
330.887	131.19
331.115	105.19
331.344	107.19
331.572	89.19
331.801	113.19
332.03	112.19
332.258	88.19
332.486	88.19
332.715	92.19
332.943	97.19
333.172	95.19
333.4	96.19
333.629	106.19
333.857	121.19
334.085	135.19
334.314	174.19
334.542	257.19
334.771	249.19
334.999	124.19
335.227	97.19
335.455	84.19
335.684	89.19
335.912	102.19
336.14	101.19
336.369	100.19
336.597	95.19
336.825	88.19
337.053	82.19
337.281	82.19
337.51	84.19
337.738	85.19
337.966	95.19
338.194	95.19
338.422	91.19
338.65	82.19
338.878	82.19
339.106	81.19
339.334	84.19
339.562	86.19
339.79	101.19
340.018	88.19
340.246	85.19
340.474	95.19
340.702	84.19
340.93	78.19
341.158	89.19
341.386	101.19
341.614	84.19
341.842	88.19
342.07	81.19
342.298	87.19
342.526	106.19
342.754	84.19
342.981	98.19
343.209	74.19
343.437	101.19
343.665	84.19
343.893	92.19
344.12	86.19
344.348	99.19
344.576	88.19
344.804	101.19
345.031	88.19
345.259	82.19
345.487	94.19
345.714	96.19
345.942	110.19
346.17	94.19
346.397	80.19
346.625	88.19
346.853	92.19
347.08	89.19
347.308	99.19
347.535	87.19
347.763	102.19
347.99	102.19
348.218	100.19
348.445	91.19
348.673	98.19
348.9	89.19
349.128	85.19
349.355	88.19
349.583	102.19
349.81	99.19
350.037	76.19
350.265	86.19
350.492	95.19
350.72	97.19
350.947	107.19
351.174	96.19
351.402	92.19
351.629	107.19
351.856	98.19
352.083	100.19
352.311	106.19
352.538	93.19
352.765	100.19
352.992	116.19
353.22	102.19
353.447	101.19
353.674	115.19
353.901	89.19
354.128	92.19
354.355	95.19
354.583	98.19
354.81	84.19
355.037	106.19
355.264	89.19
355.491	110.19
355.718	94.19
355.945	81.19
356.172	91.19
356.399	111.19
356.626	84.19
356.853	98.19
357.08	81.19
357.307	82.19
357.534	84.19
357.761	98.19
357.988	101.19
358.215	93.19
358.441	88.19
358.668	98.19
358.895	94.19
359.122	89.19
359.349	100.19
359.576	83.19
359.802	101.19
360.029	107.19
360.256	107.19
360.483	94.19
360.709	94.19
360.936	89.19
361.163	85.19
361.39	87.19
361.616	102.19
361.843	84.19
362.07	83.19
362.296	88.19
362.523	101.19
362.749	86.19
362.976	88.19
363.203	76.19
363.429	82.19
363.656	102.19
363.882	88.19
364.109	92.19
364.335	99.19
364.562	97.19
364.788	86.19
365.015	93.19
365.241	108.19
365.468	95.19
365.694	99.19
365.92	99.19
366.147	86.19
366.373	87.19
366.599	85.19
366.826	86.19
367.052	84.19
367.278	83.19
367.505	98.19
367.731	86.19
367.957	68.19
368.184	82.19
368.41	92.19
368.636	97.19
368.862	117.19
369.089	94.19
369.315	93.19
369.541	95.19
369.767	92.19
369.993	96.19
370.219	89.19
370.445	95.19
370.672	75.19
370.898	79.19
371.124	76.19
371.35	80.19
371.576	67.19
371.802	101.19
372.028	76.19
372.254	75.19
372.48	84.19
372.706	89.19
372.932	76.19
373.158	75.19
373.384	97.19
373.61	96.19
373.835	95.19
374.061	75.19
374.287	80.19
374.513	89.19
374.739	86.19
374.965	88.19
375.191	82.19
375.416	82.19
375.642	80.19
375.868	88.19
376.094	79.19
376.319	73.19
376.545	78.19
376.771	85.19
376.997	89.19
377.222	90.19
377.448	89.19
377.674	80.19
377.899	82.19
378.125	85.19
378.35	90.19
378.576	88.19
378.802	95.19
379.027	103.19
379.253	84.19
379.478	103.19
379.704	85.19
379.929	96.19
380.155	72.19
380.38	91.19
380.606	90.19
380.831	90.19
381.057	92.19
381.282	80.19
381.507	95.19
381.733	82.19
381.958	96.19
382.184	92.19
382.409	100.19
382.634	107.19
382.86	102.19
383.085	103.19
383.31	95.19
383.535	108.19
383.761	103.19
383.986	98.19
384.211	98.19
384.436	79.19
384.662	85.19
384.887	113.19
385.112	115.19
385.337	97.19
385.562	88.19
385.787	94.19
386.013	95.19
386.238	110.19
386.463	103.19
386.688	122.19
386.913	106.19
387.138	102.19
387.363	96.19
387.588	88.19
387.813	94.19
388.038	126.19
388.263	114.19
388.488	108.19
388.713	94.19
388.938	90.19
389.163	92.19
389.387	86.19
389.612	104.19
389.837	103.19
390.062	90.19
390.287	86.19
390.512	97.19
390.736	90.19
390.961	81.19
391.186	85.19
391.411	84.19
391.636	75.19
391.86	97.19
392.085	79.19
392.31	89.19
392.534	96.19
392.759	83.19
392.984	90.19
393.208	91.19
393.433	101.19
393.658	99.19
393.882	71.19
394.107	81.19
394.331	83.19
394.556	81.19
394.78	93.19
395.005	88.19
395.229	78.19
395.454	92.19
395.678	74.19
395.903	91.19
396.127	89.19
396.352	91.19
396.576	94.19
396.801	99.19
397.025	86.19
397.249	86.19
397.474	90.19
397.698	91.19
397.922	81.19
398.147	86.19
398.371	94.19
398.595	80.19
398.82	80.19
399.044	68.19
399.268	81.19
399.492	76.19
399.717	80.19
399.941	79.19
400.165	82.19
400.389	97.19
400.613	85.19
400.837	74.19
401.062	85.19
401.286	94.19
401.51	85.19
401.734	80.19
401.958	82.19
402.182	115.19
402.406	142.19
402.63	107.19
402.854	79.19
403.078	88.19
403.302	71.19
403.526	67.19
403.75	87.19
403.974	93.19
404.198	103.19
404.422	72.19
404.645	79.19
404.869	101.19
405.093	91.19
405.317	97.19
405.541	112.19
405.765	94.19
405.988	112.19
406.212	161.19
406.436	224.19
406.66	151.19
406.883	98.19
407.107	89.19
407.331	91.19
407.555	95.19
407.778	93.19
408.002	91.19
408.226	94.19
408.449	83.19
408.673	87.19
408.896	88.19
409.12	94.19
409.344	80.19
409.567	90.19
409.791	99.19
410.014	80.19
410.238	81.19
410.461	78.19
410.685	97.19
410.908	98.19
411.132	99.19
411.355	89.19
411.578	99.19
411.802	82.19
412.025	81.19
412.249	95.19
412.472	99.19
412.695	105.19
412.919	84.19
413.142	85.19
413.365	95.19
413.589	79.19
413.812	88.19
414.035	92.19
414.258	82.19
414.482	79.19
414.705	83.19
414.928	77.19
415.151	80.19
415.374	84.19
415.597	90.19
415.821	71.19
416.044	78.19
416.267	91.19
416.49	98.19
416.713	107.19
416.936	97.19
417.159	85.19
417.382	96.19
417.605	98.19
417.828	104.19
418.051	89.19
418.274	76.19
418.497	79.19
418.72	94.19
418.943	94.19
419.166	100.19
419.389	101.19
419.611	108.19
419.834	75.19
420.057	83.19
420.28	94.19
420.503	82.19
420.726	80.19
420.948	85.19
421.171	83.19
421.394	86.19
421.617	90.19
421.839	67.19
422.062	96.19
422.285	79.19
422.507	74.19
422.73	96.19
422.953	93.19
423.175	89.19
423.398	90.19
423.621	87.19
423.843	83.19
424.066	58.19
424.288	77.19
424.511	77.19
424.733	105.19
424.956	104.19
425.178	98.19
425.401	96.19
425.623	105.19
425.846	81.19
426.068	93.19
426.291	81.19
426.513	90.19
426.735	82.19
426.958	83.19
427.18	95.19
427.402	145.19
427.625	145.19
427.847	137.19
428.069	135.19
428.292	84.19
428.514	80.19
428.736	84.19
428.958	93.19
429.181	85.19
429.403	89.19
429.625	70.19
429.847	96.19
430.069	93.19
430.292	88.19
430.514	78.19
430.736	85.19
430.958	82.19
431.18	88.19
431.402	96.19
431.624	90.19
431.846	89.19
432.068	94.19
432.29	85.19
432.512	82.19
432.734	91.19
432.956	99.19
433.178	91.19
433.4	84.19
433.622	80.19
433.844	77.19
434.066	84.19
434.287	96.19
434.509	82.19
434.731	77.19
434.953	73.19
435.175	79.19
435.397	86.19
435.618	86.19
435.84	93.19
436.062	133.19
436.284	112.19
436.505	99.19
436.727	94.19
436.949	93.19
437.17	82.19
437.392	90.19
437.614	83.19
437.835	108.19
438.057	113.19
438.278	117.19
438.5	105.19
438.721	124.19
438.943	92.19
439.165	86.19
439.386	76.19
439.608	83.19
439.829	113.19
440.05	113.19
440.272	137.19
440.493	86.19
440.715	87.19
440.936	74.19
441.158	71.19
441.379	90.19
441.6	85.19
441.822	92.19
442.043	93.19
442.264	106.19
442.486	81.19
442.707	103.19
442.928	92.19
443.149	120.19
443.371	112.19
443.592	91.19
443.813	106.19
444.034	90.19
444.255	84.19
444.476	89.19
444.698	81.19
444.919	98.19
445.14	126.19
445.361	113.19
445.582	129.19
445.803	131.19
446.024	137.19
446.245	131.19
446.466	105.19
446.687	94.19
446.908	79.19
447.129	88.19
447.35	92.19
447.571	79.19
447.792	89.19
448.013	84.19
448.234	105.19
448.455	103.19
448.675	112.19
448.896	115.19
449.117	98.19
449.338	85.19
449.559	119.19
449.779	132.19
450	84.19
450.221	87.19
450.442	98.19
450.662	92.19
450.883	93.19
451.104	126.19
451.324	95.19
451.545	84.19
451.766	81.19
451.986	72.19
452.207	90.19
452.428	87.19
452.648	85.19
452.869	112.19
453.089	108.19
453.31	111.19
453.53	95.19
453.751	84.19
453.971	107.19
454.192	100.19
454.412	79.19
454.633	86.19
454.853	78.19
455.073	70.19
455.294	90.19
455.514	83.19
455.734	77.19
455.955	91.19
456.175	77.19
456.395	72.19
456.616	100.19
456.836	94.19
457.056	82.19
457.276	92.19
457.497	83.19
457.717	85.19
457.937	79.19
458.157	70.19
458.377	82.19
458.598	102.19
458.818	145.19
459.038	152.19
459.258	108.19
459.478	74.19
459.698	94.19
459.918	76.19
460.138	84.19
460.358	75.19
460.578	82.19
460.798	88.19
461.018	87.19
461.238	91.19
461.458	80.19
461.678	77.19
461.898	73.19
462.118	82.19
462.338	77.19
462.558	81.19
462.777	83.19
462.997	92.19
463.217	91.19
463.437	87.19
463.657	84.19
463.876	73.19
464.096	81.19
464.316	83.19
464.536	90.19
464.755	79.19
464.975	87.19
465.195	145.19
465.414	155.19
465.634	100.19
465.854	81.19
466.073	89.19
466.293	85.19
466.512	80.19
466.732	95.19
466.951	102.19
467.171	110.19
467.391	89.19
467.61	80.19
467.829	102.19
468.049	128.19
468.268	152.19
468.488	103.19
468.707	82.19
468.927	75.19
469.146	92.19
469.365	81.19
469.585	85.19
469.804	79.19
470.023	81.19
470.243	85.19
470.462	98.19
470.681	118.19
470.901	100.19
471.12	85.19
471.339	87.19
471.558	98.19
471.777	86.19
471.997	114.19
472.216	188.19
472.435	318.19
472.654	156.19
472.873	102.19
473.092	90.19
473.311	74.19
473.53	79.19
473.749	92.19
473.968	94.19
474.187	93.19
474.406	87.19
474.625	92.19
474.844	83.19
475.063	67.19
475.282	78.19
475.501	94.19
475.72	90.19
475.939	91.19
476.158	85.19
476.377	86.19
476.596	81.19
476.814	70.19
477.033	88.19
477.252	78.19
477.471	83.19
477.69	90.19
477.908	98.19
478.127	79.19
478.346	82.19
478.564	91.19
478.783	89.19
479.002	90.19
479.22	83.19
479.439	107.19
479.658	118.19
479.876	100.19
480.095	90.19
480.313	100.19
480.532	98.19
480.751	114.19
480.969	185.19
481.188	559.19
481.406	376.19
481.624	116.19
481.843	89.19
482.061	91.19
482.28	91.19
482.498	83.19
482.717	91.19
482.935	92.19
483.153	90.19
483.372	86.19
483.59	95.19
483.808	97.19
484.027	78.19
484.245	82.19
484.463	88.19
484.681	97.19
484.9	87.19
485.118	92.19
485.336	90.19
485.554	90.19
485.772	98.19
485.99	98.19
486.209	92.19
486.427	105.19
486.645	104.19
486.863	104.19
487.081	100.19
487.299	98.19
487.517	94.19
487.735	89.19
487.953	93.19
488.171	93.19
488.389	98.19
488.607	86.19
488.825	87.19
489.043	89.19
489.261	86.19
489.479	78.19
489.696	92.19
489.914	82.19
490.132	98.19
490.35	80.19
490.568	70.19
490.786	87.19
491.003	89.19
491.221	103.19
491.439	81.19
491.657	85.19
491.874	89.19
492.092	87.19
492.31	86.19
492.527	79.19
492.745	90.19
492.963	87.19
493.18	88.19
493.398	93.19
493.615	91.19
493.833	97.19
494.05	90.19
494.268	100.19
494.485	94.19
494.703	97.19
494.92	91.19
495.138	80.19
495.355	89.19
495.573	95.19
495.79	87.19
496.008	105.19
496.225	94.19
496.442	79.19
496.66	92.19
496.877	91.19
497.094	82.19
497.312	80.19
497.529	109.19
497.746	83.19
497.963	84.19
498.181	98.19
498.398	99.19
498.615	100.19
498.832	95.19
499.049	88.19
499.267	78.19
499.484	97.19
499.701	82.19
499.918	96.19
500.135	87.19
500.352	98.19
500.569	75.19
500.786	83.19
501.003	75.19
501.22	113.19
501.437	87.19
501.654	86.19
501.871	88.19
502.088	79.19
502.305	93.19
502.522	92.19
502.739	97.19
502.956	80.19
503.172	91.19
503.389	92.19
503.606	94.19
503.823	95.19
504.04	87.19
504.256	98.19
504.473	84.19
504.69	91.19
504.907	104.19
505.123	96.19
505.34	83.19
505.557	91.19
505.773	95.19
505.99	81.19
506.207	70.19
506.423	88.19
506.64	91.19
506.856	91.19
507.073	85.19
507.289	97.19
507.506	86.19
507.722	101.19
507.939	111.19
508.155	91.19
508.372	91.19
508.588	98.19
508.805	99.19
509.021	89.19
509.238	95.19
509.454	81.19
509.67	93.19
509.887	106.19
510.103	131.19
510.319	206.19
510.536	703.19
510.752	2358.19
510.968	686.19
511.184	155.19
511.401	112.19
511.617	106.19
511.833	100.19
512.049	95.19
512.265	88.19
512.481	101.19
512.698	100.19
512.914	91.19
513.13	95.19
513.346	90.19
513.562	87.19
513.778	86.19
513.994	91.19
514.21	102.19
514.426	119.19
514.642	125.19
514.858	128.19
515.074	151.19
515.29	420.19
515.506	1423.19
515.721	560.19
515.937	152.19
516.153	110.19
516.369	88.19
