Data from Circ_2015_H10_HRD10591_00080.txt Node
Date: Wed Jan 03 10:00:38 EST 2024
User: Yrep
Spectrometer: HR+D1059
Trigger mode: 1
Integration Time (sec): 1.000000E-1
Scans to average: 1
Electric dark correction enabled: true
Nonlinearity correction enabled: false
Boxcar width: 0
XAxis mode: Wavelengths
Number of Pixels in Spectrum: 2048
>>>>>Begin Spectral Data<<<<<
223.165	-14.56
223.4	-14.56
223.635	-14.56
223.869	-22.56
224.104	-11.56
224.338	-24.56
224.573	-14.56
224.808	-13.56
225.042	0.44
225.277	-12.56
225.511	-17.56
225.746	-3.56
225.98	14.44
226.215	23.44
226.449	17.44
226.683	27.44
226.918	31.44
227.152	20.44
227.387	41.44
227.621	41.44
227.856	26.44
228.09	51.44
228.324	44.44
228.559	51.44
228.793	61.44
229.027	63.44
229.262	69.44
229.496	69.44
229.73	78.44
229.964	83.44
230.199	87.44
230.433	55.44
230.667	69.44
230.901	78.44
231.136	55.44
231.37	85.44
231.604	74.44
231.838	83.44
232.072	89.44
232.306	85.44
232.541	87.44
232.775	77.44
233.009	83.44
233.243	75.44
233.477	65.44
233.711	74.44
233.945	83.44
234.179	77.44
234.413	77.44
234.647	76.44
234.881	76.44
235.115	76.44
235.349	76.44
235.583	66.44
235.817	77.44
236.051	77.44
236.285	71.44
236.519	90.44
236.753	80.44
236.987	82.44
237.221	78.44
237.455	89.44
237.689	86.44
237.922	73.44
238.156	70.44
238.39	81.44
238.624	73.44
238.858	76.44
239.091	63.44
239.325	75.44
239.559	84.44
239.793	65.44
240.027	93.44
240.26	80.44
240.494	71.44
240.728	70.44
240.961	77.44
241.195	90.44
241.429	76.44
241.662	81.44
241.896	79.44
242.13	65.44
242.363	70.44
242.597	79.44
242.83	81.44
243.064	75.44
243.298	86.44
243.531	57.44
243.765	71.44
243.998	92.44
244.232	75.44
244.465	77.44
244.699	84.44
244.932	65.44
245.166	69.44
245.399	81.44
245.633	103.44
245.866	70.44
246.099	71.44
246.333	65.44
246.566	85.44
246.8	79.44
247.033	85.44
247.266	79.44
247.5	69.44
247.733	72.44
247.966	94.44
248.2	76.44
248.433	87.44
248.666	76.44
248.899	87.44
249.133	80.44
249.366	84.44
249.599	87.44
249.832	71.44
250.066	89.44
250.299	76.44
250.532	78.44
250.765	78.44
250.998	86.44
251.231	79.44
251.465	78.44
251.698	67.44
251.931	73.44
252.164	98.44
252.397	77.44
252.63	65.44
252.863	90.44
253.096	89.44
253.329	84.44
253.562	82.44
253.795	73.44
254.028	77.44
254.261	81.44
254.494	88.44
254.727	81.44
254.96	78.44
255.193	86.44
255.426	85.44
255.659	85.44
255.892	90.44
256.124	74.44
256.357	79.44
256.59	84.44
256.823	76.44
257.056	73.44
257.289	82.44
257.521	79.44
257.754	82.44
257.987	68.44
258.22	79.44
258.452	79.44
258.685	75.44
258.918	76.44
259.151	78.44
259.383	84.44
259.616	86.44
259.849	74.44
260.081	82.44
260.314	78.44
260.547	78.44
260.779	84.44
261.012	79.44
261.244	76.44
261.477	79.44
261.71	99.44
261.942	95.44
262.175	98.44
262.407	93.44
262.64	76.44
262.872	79.44
263.105	86.44
263.337	98.44
263.57	93.44
263.802	97.44
264.035	89.44
264.267	84.44
264.499	85.44
264.732	85.44
264.964	90.44
265.197	87.44
265.429	94.44
265.661	90.44
265.894	86.44
266.126	94.44
266.358	76.44
266.591	92.44
266.823	77.44
267.055	82.44
267.287	81.44
267.52	84.44
267.752	79.44
267.984	90.44
268.216	79.44
268.448	79.44
268.681	70.44
268.913	92.44
269.145	91.44
269.377	84.44
269.609	79.44
269.841	70.44
270.073	74.44
270.306	93.44
270.538	79.44
270.77	84.44
271.002	89.44
271.234	91.44
271.466	75.44
271.698	81.44
271.93	78.44
272.162	88.44
272.394	99.44
272.626	70.44
272.858	82.44
273.09	88.44
273.322	88.44
273.553	83.44
273.785	79.44
274.017	86.44
274.249	84.44
274.481	81.44
274.713	87.44
274.945	91.44
275.176	94.44
275.408	78.44
275.64	73.44
275.872	76.44
276.104	93.44
276.335	93.44
276.567	99.44
276.799	108.44
277.031	107.44
277.262	105.44
277.494	84.44
277.726	84.44
277.957	83.44
278.189	82.44
278.421	79.44
278.652	78.44
278.884	93.44
279.115	86.44
279.347	82.44
279.579	93.44
279.81	82.44
280.042	88.44
280.273	91.44
280.505	89.44
280.736	89.44
280.968	88.44
281.199	85.44
281.431	90.44
281.662	92.44
281.894	88.44
282.125	93.44
282.356	99.44
282.588	125.44
282.819	104.44
283.051	107.44
283.282	86.44
283.513	79.44
283.745	78.44
283.976	82.44
284.207	75.44
284.439	84.44
284.67	96.44
284.901	79.44
285.132	72.44
285.364	90.44
285.595	91.44
285.826	78.44
286.057	90.44
286.288	84.44
286.52	89.44
286.751	78.44
286.982	96.44
287.213	85.44
287.444	94.44
287.675	94.44
287.906	88.44
288.138	97.44
288.369	93.44
288.6	78.44
288.831	82.44
289.062	103.44
289.293	90.44
289.524	87.44
289.755	74.44
289.986	95.44
290.217	92.44
290.448	79.44
290.679	85.44
290.91	82.44
291.141	98.44
291.371	92.44
291.602	106.44
291.833	87.44
292.064	90.44
292.295	83.44
292.526	108.44
292.757	90.44
292.987	91.44
293.218	99.44
293.449	67.44
293.68	70.44
293.91	89.44
294.141	99.44
294.372	77.44
294.603	91.44
294.833	84.44
295.064	78.44
295.295	83.44
295.525	96.44
295.756	95.44
295.987	108.44
296.217	120.44
296.448	106.44
296.679	82.44
296.909	94.44
297.14	88.44
297.37	82.44
297.601	92.44
297.831	96.44
298.062	94.44
298.292	97.44
298.523	85.44
298.753	79.44
298.984	92.44
299.214	92.44
299.445	86.44
299.675	98.44
299.905	87.44
300.136	85.44
300.366	87.44
300.597	93.44
300.827	92.44
301.057	84.44
301.288	101.44
301.518	90.44
301.748	90.44
301.979	106.44
302.209	87.44
302.439	82.44
302.669	89.44
302.9	85.44
303.13	89.44
303.36	87.44
303.59	87.44
303.82	106.44
304.051	94.44
304.281	93.44
304.511	88.44
304.741	95.44
304.971	90.44
305.201	81.44
305.431	90.44
305.661	102.44
305.891	90.44
306.121	89.44
306.352	106.44
306.582	110.44
306.812	89.44
307.042	94.44
307.272	103.44
307.502	107.44
307.731	105.44
307.961	87.44
308.191	84.44
308.421	99.44
308.651	89.44
308.881	98.44
309.111	93.44
309.341	89.44
309.571	92.44
309.8	89.44
310.03	85.44
310.26	102.44
310.49	88.44
310.72	93.44
310.949	95.44
311.179	101.44
311.409	95.44
311.639	101.44
311.868	93.44
312.098	77.44
312.328	83.44
312.557	84.44
312.787	84.44
313.017	109.44
313.246	95.44
313.476	90.44
313.706	88.44
313.935	105.44
314.165	88.44
314.394	105.44
314.624	91.44
314.853	90.44
315.083	92.44
315.312	87.44
315.542	102.44
315.771	73.44
316.001	92.44
316.23	86.44
316.46	88.44
316.689	90.44
316.919	97.44
317.148	80.44
317.377	86.44
317.607	94.44
317.836	100.44
318.065	95.44
318.295	102.44
318.524	92.44
318.753	109.44
318.983	104.44
319.212	91.44
319.441	104.44
319.67	98.44
319.9	97.44
320.129	103.44
320.358	99.44
320.587	87.44
320.816	105.44
321.046	103.44
321.275	96.44
321.504	89.44
321.733	101.44
321.962	92.44
322.191	92.44
322.42	115.44
322.649	109.44
322.878	107.44
323.108	103.44
323.337	115.44
323.566	116.44
323.795	139.44
324.024	185.44
324.253	352.44
324.482	767.44
324.71	1560.44
324.939	2043.44
325.168	747.44
325.397	235.44
325.626	143.44
325.855	119.44
326.084	122.44
326.313	134.44
326.542	154.44
326.77	206.44
326.999	422.44
327.228	865.44
327.457	1606.44
327.686	1271.44
327.914	365.44
328.143	227.44
328.372	213.44
328.6	159.44
328.829	109.44
329.058	123.44
329.287	135.44
329.515	98.44
329.744	117.44
329.972	161.44
330.201	239.44
330.43	299.44
330.658	199.44
330.887	149.44
331.115	114.44
331.344	121.44
331.572	102.44
331.801	95.44
332.03	96.44
332.258	113.44
332.486	97.44
332.715	99.44
332.943	98.44
333.172	93.44
333.4	105.44
333.629	106.44
333.857	110.44
334.085	160.44
334.314	240.44
334.542	351.44
334.771	348.44
334.999	136.44
335.227	109.44
335.455	89.44
335.684	100.44
335.912	101.44
336.14	97.44
336.369	104.44
336.597	105.44
336.825	99.44
337.053	100.44
337.281	93.44
337.51	93.44
337.738	108.44
337.966	78.44
338.194	91.44
338.422	96.44
338.65	84.44
338.878	86.44
339.106	92.44
339.334	82.44
339.562	89.44
339.79	98.44
340.018	93.44
340.246	90.44
340.474	90.44
340.702	92.44
340.93	78.44
341.158	92.44
341.386	91.44
341.614	97.44
341.842	98.44
342.07	108.44
342.298	79.44
342.526	91.44
342.754	86.44
342.981	93.44
343.209	94.44
343.437	104.44
343.665	93.44
343.893	107.44
344.12	89.44
344.348	81.44
344.576	78.44
344.804	98.44
345.031	91.44
345.259	102.44
345.487	92.44
345.714	95.44
345.942	98.44
346.17	78.44
346.397	91.44
346.625	83.44
346.853	92.44
347.08	91.44
347.308	87.44
347.535	87.44
347.763	98.44
347.99	91.44
348.218	99.44
348.445	101.44
348.673	98.44
348.9	95.44
349.128	108.44
349.355	109.44
349.583	94.44
349.81	90.44
350.037	91.44
350.265	106.44
350.492	100.44
350.72	87.44
350.947	110.44
351.174	108.44
351.402	104.44
351.629	116.44
351.856	100.44
352.083	106.44
352.311	90.44
352.538	105.44
352.765	111.44
352.992	110.44
353.22	99.44
353.447	99.44
353.674	102.44
353.901	102.44
354.128	95.44
354.355	83.44
354.583	99.44
354.81	105.44
355.037	98.44
355.264	96.44
355.491	101.44
355.718	97.44
355.945	85.44
356.172	93.44
356.399	83.44
356.626	92.44
356.853	101.44
357.08	87.44
357.307	95.44
357.534	92.44
357.761	93.44
357.988	93.44
358.215	93.44
358.441	77.44
358.668	100.44
358.895	80.44
359.122	91.44
359.349	85.44
359.576	94.44
359.802	93.44
360.029	108.44
360.256	87.44
360.483	93.44
360.709	89.44
360.936	93.44
361.163	106.44
361.39	90.44
361.616	98.44
361.843	91.44
362.07	88.44
362.296	104.44
362.523	86.44
362.749	90.44
362.976	105.44
363.203	101.44
363.429	92.44
363.656	98.44
363.882	71.44
364.109	101.44
364.335	82.44
364.562	87.44
364.788	89.44
365.015	100.44
365.241	91.44
365.468	107.44
365.694	79.44
365.92	105.44
366.147	91.44
366.373	82.44
366.599	88.44
366.826	88.44
367.052	90.44
367.278	91.44
367.505	92.44
367.731	90.44
367.957	74.44
368.184	97.44
368.41	92.44
368.636	94.44
368.862	123.44
369.089	112.44
369.315	92.44
369.541	92.44
369.767	91.44
369.993	87.44
370.219	91.44
370.445	75.44
370.672	95.44
370.898	84.44
371.124	87.44
371.35	76.44
371.576	86.44
371.802	71.44
372.028	75.44
372.254	94.44
372.48	82.44
372.706	102.44
372.932	80.44
373.158	104.44
373.384	92.44
373.61	84.44
373.835	85.44
374.061	86.44
374.287	97.44
374.513	94.44
374.739	92.44
374.965	86.44
375.191	83.44
375.416	81.44
375.642	100.44
375.868	93.44
376.094	90.44
376.319	93.44
376.545	95.44
376.771	87.44
376.997	87.44
377.222	92.44
377.448	99.44
377.674	77.44
377.899	79.44
378.125	79.44
378.35	90.44
378.576	93.44
378.802	97.44
379.027	94.44
379.253	99.44
379.478	79.44
379.704	108.44
379.929	93.44
380.155	87.44
380.38	89.44
380.606	99.44
380.831	97.44
381.057	102.44
381.282	96.44
381.507	104.44
381.733	100.44
381.958	106.44
382.184	87.44
382.409	116.44
382.634	103.44
382.86	89.44
383.085	91.44
383.31	104.44
383.535	96.44
383.761	99.44
383.986	93.44
384.211	106.44
384.436	97.44
384.662	93.44
384.887	105.44
385.112	103.44
385.337	106.44
385.562	94.44
385.787	101.44
386.013	98.44
386.238	98.44
386.463	106.44
386.688	95.44
386.913	107.44
387.138	104.44
387.363	98.44
387.588	101.44
387.813	105.44
388.038	111.44
388.263	111.44
388.488	103.44
388.713	96.44
388.938	88.44
389.163	92.44
389.387	94.44
389.612	82.44
389.837	91.44
390.062	93.44
390.287	90.44
390.512	90.44
390.736	99.44
390.961	101.44
391.186	91.44
391.411	97.44
391.636	99.44
391.86	93.44
392.085	92.44
392.31	81.44
392.534	86.44
392.759	100.44
392.984	96.44
393.208	77.44
393.433	82.44
393.658	88.44
393.882	91.44
394.107	87.44
394.331	94.44
394.556	79.44
394.78	98.44
395.005	100.44
395.229	97.44
395.454	101.44
395.678	83.44
395.903	99.44
396.127	79.44
396.352	93.44
396.576	88.44
396.801	79.44
397.025	85.44
397.249	81.44
397.474	90.44
397.698	78.44
397.922	89.44
398.147	85.44
398.371	101.44
398.595	93.44
398.82	86.44
399.044	85.44
399.268	71.44
399.492	95.44
399.717	85.44
399.941	77.44
400.165	87.44
400.389	83.44
400.613	78.44
400.837	90.44
401.062	87.44
401.286	103.44
401.51	97.44
401.734	91.44
401.958	95.44
402.182	110.44
402.406	129.44
402.63	103.44
402.854	92.44
403.078	94.44
403.302	86.44
403.526	77.44
403.75	101.44
403.974	92.44
404.198	94.44
404.422	85.44
404.645	85.44
404.869	90.44
405.093	102.44
405.317	108.44
405.541	106.44
405.765	96.44
405.988	113.44
406.212	153.44
406.436	183.44
406.66	133.44
406.883	103.44
407.107	109.44
407.331	97.44
407.555	98.44
407.778	99.44
408.002	90.44
408.226	80.44
408.449	94.44
408.673	78.44
408.896	96.44
409.12	110.44
409.344	91.44
409.567	81.44
409.791	81.44
410.014	104.44
410.238	99.44
410.461	106.44
410.685	98.44
410.908	83.44
411.132	98.44
411.355	93.44
411.578	94.44
411.802	81.44
412.025	96.44
412.249	94.44
412.472	83.44
412.695	111.44
412.919	103.44
413.142	88.44
413.365	100.44
413.589	96.44
413.812	89.44
414.035	96.44
414.258	100.44
414.482	84.44
414.705	98.44
414.928	117.44
415.151	92.44
415.374	99.44
415.597	91.44
415.821	93.44
416.044	86.44
416.267	90.44
416.49	81.44
416.713	87.44
416.936	94.44
417.159	97.44
417.382	89.44
417.605	76.44
417.828	86.44
418.051	82.44
418.274	83.44
418.497	89.44
418.72	92.44
418.943	76.44
419.166	94.44
419.389	103.44
419.611	90.44
419.834	78.44
420.057	91.44
420.28	86.44
420.503	99.44
420.726	88.44
420.948	106.44
421.171	88.44
421.394	88.44
421.617	86.44
421.839	85.44
422.062	83.44
422.285	91.44
422.507	94.44
422.73	100.44
422.953	89.44
423.175	95.44
423.398	86.44
423.621	82.44
423.843	90.44
424.066	92.44
424.288	85.44
424.511	87.44
424.733	90.44
424.956	103.44
425.178	100.44
425.401	94.44
425.623	89.44
425.846	85.44
426.068	100.44
426.291	94.44
426.513	93.44
426.735	106.44
426.958	77.44
427.18	106.44
427.402	133.44
427.625	162.44
427.847	155.44
428.069	143.44
428.292	108.44
428.514	88.44
428.736	91.44
428.958	90.44
429.181	100.44
429.403	91.44
429.625	77.44
429.847	83.44
430.069	114.44
430.292	88.44
430.514	90.44
430.736	81.44
430.958	111.44
431.18	92.44
431.402	93.44
431.624	93.44
431.846	94.44
432.068	86.44
432.29	85.44
432.512	93.44
432.734	88.44
432.956	89.44
433.178	92.44
433.4	95.44
433.622	86.44
433.844	85.44
434.066	89.44
434.287	85.44
434.509	83.44
434.731	91.44
434.953	85.44
435.175	76.44
435.397	91.44
435.618	91.44
435.84	103.44
436.062	110.44
436.284	107.44
436.505	103.44
436.727	116.44
436.949	95.44
437.17	88.44
437.392	84.44
437.614	84.44
437.835	100.44
438.057	111.44
438.278	93.44
438.5	105.44
438.721	119.44
438.943	118.44
439.165	93.44
439.386	90.44
439.608	98.44
439.829	95.44
440.05	104.44
440.272	143.44
440.493	89.44
440.715	96.44
440.936	98.44
441.158	89.44
441.379	96.44
441.6	97.44
441.822	90.44
442.043	92.44
442.264	109.44
442.486	97.44
442.707	86.44
442.928	92.44
443.149	126.44
443.371	124.44
443.592	115.44
443.813	115.44
444.034	86.44
444.255	93.44
444.476	95.44
444.698	76.44
444.919	85.44
445.14	110.44
445.361	119.44
445.582	107.44
445.803	129.44
446.024	131.44
446.245	141.44
446.466	104.44
446.687	83.44
446.908	98.44
447.129	75.44
447.35	93.44
447.571	94.44
447.792	105.44
448.013	92.44
448.234	100.44
448.455	92.44
448.675	102.44
448.896	120.44
449.117	98.44
449.338	100.44
449.559	117.44
449.779	131.44
450	90.44
450.221	83.44
450.442	82.44
450.662	108.44
450.883	79.44
451.104	108.44
451.324	93.44
451.545	83.44
451.766	86.44
451.986	82.44
452.207	92.44
452.428	86.44
452.648	89.44
452.869	101.44
453.089	93.44
453.31	92.44
453.53	94.44
453.751	90.44
453.971	102.44
454.192	89.44
454.412	95.44
454.633	85.44
454.853	97.44
455.073	84.44
455.294	95.44
455.514	102.44
455.734	94.44
455.955	87.44
456.175	85.44
456.395	82.44
456.616	90.44
456.836	80.44
457.056	91.44
457.276	92.44
457.497	82.44
457.717	92.44
457.937	80.44
458.157	86.44
458.377	88.44
458.598	99.44
458.818	143.44
459.038	150.44
459.258	108.44
459.478	106.44
459.698	82.44
459.918	85.44
460.138	82.44
460.358	86.44
460.578	87.44
460.798	99.44
461.018	96.44
461.238	96.44
461.458	94.44
461.678	85.44
461.898	93.44
462.118	87.44
462.338	100.44
462.558	82.44
462.777	87.44
462.997	94.44
463.217	89.44
463.437	92.44
463.657	87.44
463.876	98.44
464.096	90.44
464.316	93.44
464.536	88.44
464.755	90.44
464.975	94.44
465.195	140.44
465.414	132.44
465.634	105.44
465.854	88.44
466.073	76.44
466.293	89.44
466.512	93.44
466.732	84.44
466.951	88.44
467.171	86.44
467.391	78.44
467.61	95.44
467.829	101.44
468.049	163.44
468.268	195.44
468.488	86.44
468.707	106.44
468.927	97.44
469.146	90.44
469.365	90.44
469.585	82.44
469.804	107.44
470.023	92.44
470.243	90.44
470.462	101.44
470.681	114.44
470.901	84.44
471.12	76.44
471.339	95.44
471.558	91.44
471.777	88.44
471.997	110.44
472.216	260.44
472.435	457.44
472.654	171.44
472.873	99.44
473.092	82.44
473.311	93.44
473.53	89.44
473.749	76.44
473.968	91.44
474.187	97.44
474.406	90.44
474.625	92.44
474.844	101.44
475.063	99.44
475.282	85.44
475.501	79.44
475.72	96.44
475.939	86.44
476.158	98.44
476.377	97.44
476.596	88.44
476.814	81.44
477.033	91.44
477.252	92.44
477.471	95.44
477.69	95.44
477.908	105.44
478.127	91.44
478.346	79.44
478.564	96.44
478.783	97.44
479.002	91.44
479.22	88.44
479.439	98.44
479.658	91.44
479.876	79.44
480.095	87.44
480.313	101.44
480.532	92.44
480.751	122.44
480.969	266.44
481.188	792.44
481.406	515.44
481.624	147.44
481.843	106.44
482.061	86.44
482.28	79.44
482.498	84.44
482.717	76.44
482.935	102.44
483.153	84.44
483.372	88.44
483.59	89.44
483.808	91.44
484.027	99.44
484.245	98.44
484.463	84.44
484.681	101.44
484.9	85.44
485.118	102.44
485.336	85.44
485.554	92.44
485.772	79.44
485.99	87.44
486.209	95.44
486.427	90.44
486.645	100.44
486.863	110.44
487.081	117.44
487.299	110.44
487.517	98.44
487.735	102.44
487.953	86.44
488.171	100.44
488.389	92.44
488.607	86.44
488.825	90.44
489.043	83.44
489.261	92.44
489.479	88.44
489.696	75.44
489.914	82.44
490.132	92.44
490.35	95.44
490.568	91.44
490.786	84.44
491.003	93.44
491.221	91.44
491.439	92.44
491.657	96.44
491.874	91.44
492.092	87.44
492.31	92.44
492.527	79.44
492.745	85.44
492.963	91.44
493.18	92.44
493.398	97.44
493.615	100.44
493.833	84.44
494.05	92.44
494.268	98.44
494.485	92.44
494.703	102.44
494.92	92.44
495.138	89.44
495.355	82.44
495.573	88.44
495.79	89.44
496.008	106.44
496.225	85.44
496.442	94.44
496.66	101.44
496.877	93.44
497.094	86.44
497.312	85.44
497.529	88.44
497.746	94.44
497.963	95.44
498.181	86.44
498.398	89.44
498.615	105.44
498.832	94.44
499.049	94.44
499.267	87.44
499.484	70.44
499.701	83.44
499.918	87.44
500.135	89.44
500.352	93.44
500.569	75.44
500.786	94.44
501.003	83.44
501.22	108.44
501.437	92.44
501.654	92.44
501.871	101.44
502.088	102.44
502.305	93.44
502.522	89.44
502.739	88.44
502.956	77.44
503.172	78.44
503.389	107.44
503.606	114.44
503.823	112.44
504.04	93.44
504.256	100.44
504.473	93.44
504.69	75.44
504.907	80.44
505.123	101.44
505.34	94.44
505.557	86.44
505.773	92.44
505.99	77.44
506.207	101.44
506.423	85.44
506.64	92.44
506.856	111.44
507.073	85.44
507.289	83.44
507.506	94.44
507.722	107.44
507.939	103.44
508.155	97.44
508.372	86.44
508.588	88.44
508.805	97.44
509.021	73.44
509.238	96.44
509.454	109.44
509.67	105.44
509.887	113.44
510.103	127.44
510.319	173.44
510.536	575.44
510.752	1919.44
510.968	551.44
511.184	134.44
511.401	93.44
511.617	93.44
511.833	96.44
512.049	83.44
512.265	106.44
512.481	99.44
512.698	98.44
512.914	99.44
513.13	89.44
513.346	88.44
513.562	92.44
513.778	97.44
513.994	86.44
514.21	97.44
514.426	107.44
514.642	118.44
514.858	119.44
515.074	154.44
515.29	343.44
515.506	1135.44
515.721	459.44
