Data from Circ_2015_H10_HRD10591_00045.txt Node
Date: Wed Jan 03 10:00:31 EST 2024
User: Yrep
Spectrometer: HR+D1059
Trigger mode: 1
Integration Time (sec): 1.000000E-1
Scans to average: 1
Electric dark correction enabled: true
Nonlinearity correction enabled: false
Boxcar width: 0
XAxis mode: Wavelengths
Number of Pixels in Spectrum: 2048
>>>>>Begin Spectral Data<<<<<
223.165	-30.44
223.4	-30.44
223.635	-30.44
223.869	-24.44
224.104	-20.44
224.338	-8.44
224.573	-11.44
224.808	-5.44
225.042	-6.44
225.277	-2.44
225.511	-1.44
225.746	13.56
225.98	-3.44
226.215	8.56
226.449	12.56
226.683	15.56
226.918	25.56
227.152	38.56
227.387	33.56
227.621	41.56
227.856	40.56
228.09	50.56
228.324	45.56
228.559	68.56
228.793	170.56
229.027	451.56
229.262	501.56
229.496	615.56
229.73	794.56
229.964	816.56
230.199	520.56
230.433	463.56
230.667	465.56
230.901	448.56
231.136	442.56
231.37	446.56
231.604	411.56
231.838	425.56
232.072	439.56
232.306	464.56
232.541	463.56
232.775	449.56
233.009	439.56
233.243	458.56
233.477	484.56
233.711	482.56
233.945	490.56
234.179	513.56
234.413	493.56
234.647	514.56
234.881	504.56
235.115	520.56
235.349	532.56
235.583	535.56
235.817	584.56
236.051	599.56
236.285	600.56
236.519	605.56
236.753	718.56
236.987	913.56
237.221	1366.56
237.455	1486.56
237.689	881.56
237.922	727.56
238.156	702.56
238.39	662.56
238.624	640.56
238.858	633.56
239.091	664.56
239.325	665.56
239.559	686.56
239.793	700.56
240.027	777.56
240.26	893.56
240.494	946.56
240.728	920.56
240.961	888.56
241.195	769.56
241.429	759.56
241.662	751.56
241.896	744.56
242.13	773.56
242.363	747.56
242.597	796.56
242.83	823.56
243.064	806.56
243.298	838.56
243.531	824.56
243.765	817.56
243.998	825.56
244.232	824.56
244.465	880.56
244.699	871.56
244.932	878.56
245.166	872.56
245.399	892.56
245.633	900.56
245.866	922.56
246.099	889.56
246.333	930.56
246.566	951.56
246.8	962.56
247.033	1023.56
247.266	1026.56
247.5	1093.56
247.733	1129.56
247.966	1118.56
248.2	1120.56
248.433	1121.56
248.666	1215.56
248.899	1308.56
249.133	1442.56
249.366	1444.56
249.599	1338.56
249.832	1250.56
250.066	1313.56
250.299	1524.56
250.532	1793.56
250.765	1867.56
250.998	1864.56
251.231	1637.56
251.465	1502.56
251.698	1412.56
251.931	1366.56
252.164	1358.56
252.397	1399.56
252.63	1427.56
252.863	1512.56
253.096	1633.56
253.329	1673.56
253.562	1573.56
253.795	1537.56
254.028	1504.56
254.261	1581.56
254.494	1799.56
254.727	2120.56
254.96	2203.56
255.193	1950.56
255.426	1834.56
255.659	1930.56
255.892	2348.56
256.124	2793.56
256.357	2450.56
256.59	1969.56
256.823	1749.56
257.056	1657.56
257.289	1655.56
257.521	1589.56
257.754	1592.56
257.987	1554.56
258.22	1551.56
258.452	1532.56
258.685	1563.56
258.918	1576.56
259.151	1595.56
259.383	1652.56
259.616	1676.56
259.849	1735.56
260.081	1859.56
260.314	2037.56
260.547	1937.56
260.779	1789.56
261.012	1741.56
261.244	1661.56
261.477	1637.56
261.71	1657.56
261.942	1724.56
262.175	1796.56
262.407	1652.56
262.64	1634.56
262.872	1613.56
263.105	1598.56
263.337	1617.56
263.57	1638.56
263.802	1658.56
264.035	1626.56
264.267	1636.56
264.499	1644.56
264.732	1673.56
264.964	1633.56
265.197	1628.56
265.429	1665.56
265.661	1674.56
265.894	1679.56
266.126	1716.56
266.358	1728.56
266.591	1754.56
266.823	1787.56
267.055	1801.56
267.287	1825.56
267.52	1795.56
267.752	1780.56
267.984	1818.56
268.216	1851.56
268.448	1889.56
268.681	1926.56
268.913	2115.56
269.145	2280.56
269.377	2309.56
269.609	2219.56
269.841	2193.56
270.073	2303.56
270.306	2577.56
270.538	2703.56
270.77	2561.56
271.002	2426.56
271.234	2408.56
271.466	2575.56
271.698	2696.56
271.93	2644.56
272.162	2650.56
272.394	2530.56
272.626	2402.56
272.858	2348.56
273.09	2240.56
273.322	2190.56
273.553	2150.56
273.785	2176.56
274.017	2150.56
274.249	2174.56
274.481	2189.56
274.713	2218.56
274.945	2268.56
275.176	2256.56
275.408	2220.56
275.64	2285.56
275.872	2261.56
276.104	2255.56
276.335	2310.56
276.567	2393.56
276.799	2608.56
277.031	2861.56
277.262	2949.56
277.494	2765.56
277.726	2565.56
277.957	2491.56
278.189	2452.56
278.421	2374.56
278.652	2396.56
278.884	2344.56
279.115	2368.56
279.347	2385.56
279.579	2406.56
279.81	2392.56
280.042	2451.56
280.273	2545.56
280.505	2487.56
280.736	2454.56
280.968	2454.56
281.199	2440.56
281.431	2451.56
281.662	2417.56
281.894	2470.56
282.125	2507.56
282.356	2646.56
282.588	2803.56
282.819	2676.56
283.051	2516.56
283.282	2513.56
283.513	2551.56
283.745	2585.56
283.976	2586.56
284.207	2583.56
284.439	2606.56
284.67	2560.56
284.901	2581.56
285.132	2562.56
285.364	2603.56
285.595	2579.56
285.826	2606.56
286.057	2616.56
286.288	2635.56
286.52	2616.56
286.751	2610.56
286.982	2669.56
287.213	2707.56
287.444	2715.56
287.675	2754.56
287.906	2847.56
288.138	2923.56
288.369	2872.56
288.6	2872.56
288.831	2821.56
289.062	2735.56
289.293	2720.56
289.524	2757.56
289.755	2736.56
289.986	2728.56
290.217	2697.56
290.448	2731.56
290.679	2750.56
290.91	2727.56
291.141	2692.56
291.371	2755.56
291.602	2762.56
291.833	2729.56
292.064	2752.56
292.295	2761.56
292.526	2775.56
292.757	2734.56
292.987	2760.56
293.218	2769.56
293.449	2778.56
293.68	2730.56
293.91	2794.56
294.141	2766.56
294.372	2756.56
294.603	2783.56
294.833	2794.56
295.064	2865.56
295.295	2888.56
295.525	2838.56
295.756	2934.56
295.987	3032.56
296.217	3110.56
296.448	3116.56
296.679	2926.56
296.909	2936.56
297.14	2939.56
297.37	2906.56
297.601	3002.56
297.831	3002.56
298.062	2974.56
298.292	2990.56
298.523	3053.56
298.753	3044.56
298.984	3053.56
299.214	2999.56
299.445	3040.56
299.675	3051.56
299.905	3108.56
300.136	3076.56
300.366	3060.56
300.597	3074.56
300.827	3196.56
301.057	3290.56
301.288	3312.56
301.518	3286.56
301.748	3304.56
301.979	3332.56
302.209	3348.56
302.439	3318.56
302.669	3252.56
302.9	3241.56
303.13	3245.56
303.36	3274.56
303.59	3288.56
303.82	3332.56
304.051	3332.56
304.281	3266.56
304.511	3213.56
304.741	3255.56
304.971	3184.56
305.201	3149.56
305.431	3169.56
305.661	3222.56
305.891	3218.56
306.121	3215.56
306.352	3294.56
306.582	3253.56
306.812	3162.56
307.042	3171.56
307.272	3286.56
307.502	3244.56
307.731	3311.56
307.961	3277.56
308.191	3248.56
308.421	3196.56
308.651	3249.56
308.881	3272.56
309.111	3313.56
309.341	3238.56
309.571	3340.56
309.8	3397.56
310.03	3485.56
310.26	3578.56
310.49	3536.56
310.72	3687.56
310.949	3688.56
311.179	3679.56
311.409	3634.56
311.639	3602.56
311.868	3554.56
312.098	3606.56
312.328	3729.56
312.557	3825.56
312.787	3936.56
313.017	3796.56
313.246	3674.56
313.476	3598.56
313.706	3711.56
313.935	3750.56
314.165	3916.56
314.394	3921.56
314.624	3846.56
314.853	3765.56
315.083	3695.56
315.312	3654.56
315.542	3677.56
315.771	3620.56
316.001	3592.56
316.23	3528.56
316.46	3658.56
316.689	3667.56
316.919	3705.56
317.148	3696.56
317.377	3681.56
317.607	3693.56
317.836	3668.56
318.065	3608.56
318.295	3599.56
318.524	3646.56
318.753	3606.56
318.983	3607.56
319.212	3672.56
319.441	3696.56
319.67	3702.56
319.9	3651.56
320.129	3675.56
320.358	3688.56
320.587	3720.56
320.816	3759.56
321.046	3788.56
321.275	3788.56
321.504	3769.56
321.733	3818.56
321.962	3874.56
322.191	3986.56
322.42	4087.56
322.649	4177.56
322.878	4277.56
323.108	4294.56
323.337	4562.56
323.566	4698.56
323.795	5023.56
324.024	5526.56
324.253	7648.56
324.482	11547.56
324.71	15602.56
324.939	15602.56
325.168	13400.56
325.397	6580.56
325.626	5212.56
325.855	4866.56
326.084	4809.56
326.313	4806.56
326.542	5034.56
326.77	5724.56
326.999	7331.56
327.228	10984.56
327.457	14902.56
327.686	14156.56
327.914	7825.56
328.143	6616.56
328.372	6507.56
328.6	5857.56
328.829	5543.56
329.058	5794.56
329.287	5742.56
329.515	5453.56
329.744	5653.56
329.972	6185.56
330.201	7325.56
330.43	8008.56
330.658	6856.56
330.887	6431.56
331.115	5698.56
331.344	5231.56
331.572	5097.56
331.801	5102.56
332.03	5182.56
332.258	5137.56
332.486	5120.56
332.715	5195.56
332.943	5390.56
333.172	5598.56
333.4	5846.56
333.629	6135.56
333.857	6653.56
334.085	7226.56
334.314	8380.56
334.542	9718.56
334.771	9091.56
334.999	6666.56
335.227	5888.56
335.455	5495.56
335.684	5199.56
335.912	5213.56
336.14	5048.56
336.369	5046.56
336.597	5069.56
336.825	4954.56
337.053	4887.56
337.281	4769.56
337.51	4606.56
337.738	4708.56
337.966	4630.56
338.194	4641.56
338.422	4550.56
338.65	4501.56
338.878	4516.56
339.106	4469.56
339.334	4514.56
339.562	4468.56
339.79	4294.56
340.018	4373.56
340.246	4353.56
340.474	4400.56
340.702	4392.56
340.93	4282.56
341.158	4303.56
341.386	4351.56
341.614	4347.56
341.842	4314.56
342.07	4288.56
342.298	4247.56
342.526	4157.56
342.754	4234.56
342.981	4242.56
343.209	4328.56
343.437	4589.56
343.665	4810.56
343.893	5016.56
344.12	5072.56
344.348	4858.56
344.576	4714.56
344.804	4597.56
345.031	4519.56
345.259	4498.56
345.487	4298.56
345.714	4271.56
345.942	4175.56
346.17	4156.56
346.397	4132.56
346.625	4168.56
346.853	4100.56
347.08	4078.56
347.308	4182.56
347.535	4167.56
347.763	4256.56
347.99	4222.56
348.218	4246.56
348.445	4276.56
348.673	4176.56
348.9	4036.56
349.128	4004.56
349.355	3996.56
349.583	4038.56
349.81	4056.56
350.037	3934.56
350.265	3959.56
350.492	3929.56
350.72	3920.56
350.947	4033.56
351.174	4075.56
351.402	4166.56
351.629	4108.56
351.856	4144.56
352.083	4141.56
352.311	4146.56
352.538	4199.56
352.765	4130.56
352.992	4086.56
353.22	4059.56
353.447	3992.56
353.674	3940.56
353.901	3936.56
354.128	3858.56
354.355	3953.56
354.583	3888.56
354.81	3913.56
355.037	3867.56
355.264	3829.56
355.491	3865.56
355.718	3863.56
355.945	3882.56
356.172	3857.56
356.399	3880.56
356.626	3906.56
356.853	3884.56
357.08	3866.56
357.307	3826.56
357.534	3925.56
357.761	3866.56
357.988	3905.56
358.215	3852.56
358.441	3908.56
358.668	3929.56
358.895	3999.56
359.122	3928.56
359.349	4066.56
359.576	4251.56
359.802	4383.56
360.029	4540.56
360.256	4524.56
360.483	4390.56
360.709	4144.56
360.936	4104.56
361.163	4088.56
361.39	4104.56
361.616	4202.56
361.843	4026.56
362.07	4105.56
362.296	4136.56
362.523	4117.56
362.749	4048.56
362.976	4055.56
363.203	3936.56
363.429	3989.56
363.656	4010.56
363.882	3984.56
364.109	3950.56
364.335	3934.56
364.562	3993.56
364.788	3965.56
365.015	3973.56
365.241	3952.56
365.468	4030.56
365.694	4010.56
365.92	4022.56
366.147	3991.56
366.373	3935.56
366.599	3929.56
366.826	3941.56
367.052	3955.56
367.278	4033.56
367.505	3990.56
367.731	4028.56
367.957	4043.56
368.184	4038.56
368.41	4123.56
368.636	4148.56
368.862	4163.56
369.089	4088.56
369.315	4042.56
369.541	4077.56
369.767	4033.56
369.993	4141.56
370.219	4136.56
370.445	4162.56
370.672	4133.56
370.898	4159.56
371.124	4246.56
371.35	4236.56
371.576	4186.56
371.802	4206.56
372.028	4192.56
372.254	4152.56
372.48	4248.56
372.706	4366.56
372.932	4392.56
373.158	4290.56
373.384	4256.56
373.61	4299.56
373.835	4248.56
374.061	4258.56
374.287	4385.56
374.513	4433.56
374.739	4508.56
374.965	4632.56
375.191	4614.56
375.416	4502.56
375.642	4396.56
375.868	4424.56
376.094	4297.56
376.319	4298.56
376.545	4256.56
376.771	4221.56
376.997	4287.56
377.222	4208.56
377.448	4226.56
377.674	4203.56
377.899	4184.56
378.125	4129.56
378.35	4198.56
378.576	4142.56
378.802	4200.56
379.027	4170.56
379.253	4151.56
379.478	4181.56
379.704	4197.56
379.929	4179.56
380.155	4178.56
380.38	4227.56
380.606	4251.56
380.831	4228.56
381.057	4220.56
381.282	4199.56
381.507	4241.56
381.733	4310.56
381.958	4356.56
382.184	4325.56
382.409	4441.56
382.634	4437.56
382.86	4440.56
383.085	4520.56
383.31	4534.56
383.535	4612.56
383.761	4681.56
383.986	4734.56
384.211	4829.56
384.436	4939.56
384.662	4985.56
384.887	4993.56
385.112	5016.56
385.337	5069.56
385.562	5083.56
385.787	5138.56
386.013	5175.56
386.238	5223.56
386.463	5218.56
386.688	5178.56
386.913	5034.56
387.138	5084.56
387.363	5032.56
387.588	4973.56
387.813	5030.56
388.038	5022.56
388.263	5049.56
388.488	5010.56
388.713	5001.56
388.938	5007.56
389.163	4987.56
389.387	5023.56
389.612	4864.56
389.837	4953.56
390.062	4907.56
390.287	4989.56
390.512	4976.56
390.736	5062.56
390.961	5158.56
391.186	5195.56
391.411	5302.56
391.636	5451.56
391.86	5575.56
392.085	5627.56
392.31	5477.56
392.534	5420.56
392.759	5307.56
392.984	5232.56
393.208	5230.56
393.433	5268.56
393.658	5205.56
393.882	5183.56
394.107	5188.56
394.331	5272.56
394.556	5281.56
394.78	5350.56
395.005	5402.56
395.229	5378.56
395.454	5562.56
395.678	5684.56
395.903	5704.56
396.127	5771.56
396.352	5556.56
396.576	5365.56
396.801	5280.56
397.025	5429.56
397.249	5534.56
397.474	5704.56
397.698	5680.56
397.922	5849.56
398.147	5854.56
398.371	5986.56
398.595	6132.56
398.82	6456.56
399.044	6916.56
399.268	7654.56
399.492	8651.56
399.717	9347.56
399.941	9069.56
400.165	8584.56
400.389	7837.56
400.613	6952.56
400.837	6687.56
401.062	6476.56
401.286	6365.56
401.51	6300.56
401.734	6316.56
401.958	6429.56
402.182	6632.56
402.406	6663.56
402.63	6737.56
402.854	6903.56
403.078	6907.56
403.302	7043.56
403.526	7218.56
403.75	7199.56
403.974	7285.56
404.198	7304.56
404.422	7430.56
404.645	7478.56
404.869	7543.56
405.093	7910.56
405.317	8438.56
405.541	8380.56
405.765	7500.56
405.988	7263.56
406.212	7364.56
406.436	7500.56
406.66	7597.56
406.883	7624.56
407.107	8118.56
407.331	8677.56
407.555	9249.56
407.778	8897.56
408.002	8135.56
408.226	7626.56
408.449	7677.56
408.673	7444.56
408.896	7612.56
409.12	7879.56
409.344	7384.56
409.567	6908.56
409.791	7005.56
410.014	6913.56
410.238	6930.56
410.461	6852.56
410.685	6866.56
410.908	6985.56
411.132	7221.56
411.355	7316.56
411.578	6965.56
411.802	6720.56
412.025	6809.56
412.249	7096.56
412.472	7510.56
412.695	7996.56
412.919	7385.56
413.142	6904.56
413.365	6756.56
413.589	6536.56
413.812	6431.56
414.035	6300.56
414.258	6341.56
414.482	6331.56
414.705	6442.56
414.928	6291.56
415.151	6315.56
415.374	6300.56
415.597	6176.56
415.821	6142.56
416.044	6177.56
416.267	6160.56
416.49	6087.56
416.713	6045.56
416.936	6154.56
417.159	6190.56
417.382	6316.56
417.605	6369.56
417.828	6485.56
418.051	6594.56
418.274	6384.56
418.497	6298.56
418.72	6399.56
418.943	6398.56
419.166	6808.56
419.389	7177.56
419.611	7126.56
419.834	6956.56
420.057	6965.56
420.28	7151.56
420.503	6934.56
420.726	6663.56
420.948	6809.56
421.171	7073.56
421.394	6917.56
421.617	6536.56
421.839	6375.56
422.062	6527.56
422.285	6725.56
422.507	7370.56
422.73	7898.56
422.953	7164.56
423.175	6808.56
423.398	6842.56
423.621	6862.56
423.843	7035.56
424.066	6957.56
424.288	7021.56
424.511	7175.56
424.733	7668.56
424.956	8183.56
425.178	7684.56
425.401	7745.56
425.623	7702.56
425.846	6598.56
426.068	6498.56
426.291	6380.56
426.513	6411.56
426.735	6541.56
426.958	7010.56
427.18	7923.56
427.402	9201.56
427.625	9444.56
427.847	8242.56
428.069	7769.56
428.292	6711.56
428.514	6065.56
428.736	5847.56
428.958	5863.56
429.181	5645.56
429.403	5692.56
429.625	5900.56
429.847	6230.56
430.069	6813.56
430.292	6246.56
430.514	5642.56
430.736	5677.56
430.958	5610.56
431.18	5533.56
431.402	5571.56
431.624	5582.56
431.846	5585.56
432.068	5573.56
432.29	5659.56
432.512	5574.56
432.734	5692.56
432.956	5674.56
433.178	5690.56
433.4	5724.56
433.622	5577.56
433.844	5595.56
434.066	5645.56
434.287	5732.56
434.509	5992.56
434.731	6149.56
434.953	6353.56
435.175	6477.56
435.397	6587.56
435.618	6450.56
435.84	6923.56
436.062	7890.56
436.284	7785.56
436.505	6405.56
436.727	6120.56
436.949	5793.56
437.17	5797.56
437.392	5697.56
437.614	5887.56
437.835	6324.56
438.057	7313.56
438.278	8017.56
438.5	7928.56
438.721	8862.56
438.943	7558.56
439.165	6298.56
439.386	6094.56
439.608	6200.56
439.829	6267.56
440.05	6615.56
440.272	7040.56
440.493	6428.56
440.715	5979.56
440.936	5916.56
441.158	6011.56
441.379	6108.56
441.6	6384.56
441.822	6659.56
442.043	7215.56
442.264	7983.56
442.486	7758.56
442.707	6736.56
442.928	6552.56
443.149	6835.56
443.371	7074.56
443.592	7554.56
443.813	8664.56
444.034	8669.56
444.255	7309.56
444.476	7115.56
444.698	7308.56
444.919	7519.56
445.14	7250.56
445.361	7060.56
445.582	7340.56
445.803	8105.56
446.024	8748.56
446.245	8431.56
446.466	7397.56
446.687	6252.56
446.908	5918.56
447.129	5672.56
447.35	5577.56
447.571	5505.56
447.792	5381.56
448.013	5452.56
448.234	5720.56
448.455	6503.56
448.675	7856.56
448.896	8248.56
449.117	6767.56
449.338	6938.56
449.559	8334.56
449.779	8572.56
450	6362.56
450.221	5598.56
450.442	5427.56
450.662	5352.56
450.883	5458.56
451.104	5616.56
451.324	5384.56
451.545	5196.56
451.766	5126.56
451.986	4997.56
452.207	4904.56
452.428	4882.56
452.648	5036.56
452.869	5023.56
453.089	5104.56
453.31	5073.56
453.53	4947.56
453.751	4952.56
453.971	4935.56
454.192	5135.56
454.412	4894.56
454.633	4782.56
454.853	4780.56
455.073	4829.56
455.294	5290.56
455.514	5872.56
455.734	5335.56
455.955	4729.56
456.175	4565.56
456.395	4603.56
456.616	4510.56
456.836	4518.56
457.056	4552.56
457.276	4445.56
457.497	4612.56
457.717	4680.56
457.937	4656.56
458.157	4721.56
458.377	4916.56
458.598	5188.56
458.818	5932.56
459.038	6747.56
459.258	6617.56
459.478	5857.56
459.698	5686.56
459.918	5707.56
460.138	5894.56
460.358	6121.56
460.578	6125.56
460.798	6229.56
461.018	6245.56
461.238	6097.56
461.458	6081.56
461.678	6049.56
461.898	6193.56
462.118	6233.56
462.338	6469.56
462.558	6614.56
462.777	6994.56
462.997	7552.56
463.217	7884.56
463.437	7749.56
463.657	7127.56
463.876	6957.56
464.096	7002.56
464.316	6985.56
464.536	7101.56
464.755	6866.56
464.975	6708.56
465.195	6980.56
465.414	6951.56
465.634	6150.56
465.854	5757.56
466.073	5541.56
466.293	5440.56
466.512	5246.56
466.732	5101.56
466.951	5094.56
467.171	5137.56
467.391	5225.56
467.61	5292.56
467.829	5374.56
468.049	5518.56
468.268	5784.56
468.488	5231.56
468.707	5060.56
468.927	5079.56
469.146	4952.56
469.365	5011.56
469.585	5023.56
469.804	5167.56
470.023	5481.56
470.243	5372.56
470.462	5462.56
470.681	5605.56
470.901	5429.56
471.12	5300.56
471.339	5264.56
471.558	5278.56
471.777	5210.56
471.997	5227.56
472.216	5964.56
472.435	7432.56
472.654	6335.56
472.873	5446.56
473.092	5254.56
473.311	5108.56
473.53	5052.56
473.749	5207.56
473.968	5724.56
474.187	6864.56
474.406	6318.56
474.625	5296.56
474.844	5001.56
475.063	5020.56
475.282	5055.56
475.501	5008.56
475.72	5057.56
475.939	5092.56
476.158	5137.56
476.377	5179.56
476.596	5142.56
476.814	5249.56
477.033	5328.56
477.252	5485.56
477.471	5418.56
477.69	5535.56
477.908	5690.56
478.127	5890.56
478.346	5848.56
478.564	6014.56
478.783	6123.56
479.002	6232.56
479.22	6237.56
479.439	6386.56
479.658	6426.56
479.876	6625.56
480.095	6767.56
480.313	7245.56
480.532	7134.56
480.751	7196.56
480.969	7905.56
481.188	10607.56
481.406	10591.56
481.624	7890.56
481.843	6976.56
482.061	6572.56
482.28	6332.56
482.498	6123.56
482.717	6094.56
482.935	5966.56
483.153	5926.56
483.372	5935.56
483.59	5850.56
483.808	5865.56
484.027	5902.56
484.245	5980.56
484.463	5961.56
484.681	6011.56
484.9	6071.56
485.118	6135.56
485.336	6178.56
485.554	6186.56
485.772	6237.56
485.99	6117.56
486.209	6260.56
486.427	6354.56
486.645	6344.56
486.863	6483.56
487.081	6344.56
487.299	6356.56
487.517	6247.56
487.735	6297.56
487.953	6298.56
