Data from Circ_2015_H10_HRD10591_00053.txt Node
Date: Wed Jan 03 10:00:33 EST 2024
User: Yrep
Spectrometer: HR+D1059
Trigger mode: 1
Integration Time (sec): 1.000000E-1
Scans to average: 1
Electric dark correction enabled: true
Nonlinearity correction enabled: false
Boxcar width: 0
XAxis mode: Wavelengths
Number of Pixels in Spectrum: 2048
>>>>>Begin Spectral Data<<<<<
223.165	-26.25
223.4	-26.25
223.635	-26.25
223.869	-16.25
224.104	-22.25
224.338	-4.25
224.573	-21.25
224.808	-5.25
225.042	-12.25
225.277	-6.25
225.511	-9.25
225.746	9.75
225.98	5.75
226.215	6.75
226.449	18.75
226.683	28.75
226.918	27.75
227.152	25.75
227.387	35.75
227.621	49.75
227.856	35.75
228.09	43.75
228.324	49.75
228.559	66.75
228.793	35.75
229.027	54.75
229.262	51.75
229.496	74.75
229.73	73.75
229.964	63.75
230.199	71.75
230.433	52.75
230.667	67.75
230.901	56.75
231.136	82.75
231.37	78.75
231.604	80.75
231.838	69.75
232.072	85.75
232.306	87.75
232.541	69.75
232.775	84.75
233.009	78.75
233.243	72.75
233.477	74.75
233.711	82.75
233.945	70.75
234.179	81.75
234.413	70.75
234.647	86.75
234.881	80.75
235.115	83.75
235.349	69.75
235.583	79.75
235.817	87.75
236.051	63.75
236.285	71.75
236.519	90.75
236.753	63.75
236.987	67.75
237.221	79.75
237.455	83.75
237.689	85.75
237.922	81.75
238.156	67.75
238.39	67.75
238.624	68.75
238.858	75.75
239.091	88.75
239.325	86.75
239.559	79.75
239.793	79.75
240.027	78.75
240.26	70.75
240.494	72.75
240.728	75.75
240.961	69.75
241.195	81.75
241.429	77.75
241.662	69.75
241.896	60.75
242.13	63.75
242.363	86.75
242.597	74.75
242.83	69.75
243.064	72.75
243.298	72.75
243.531	63.75
243.765	67.75
243.998	64.75
244.232	82.75
244.465	88.75
244.699	85.75
244.932	65.75
245.166	62.75
245.399	87.75
245.633	69.75
245.866	65.75
246.099	70.75
246.333	71.75
246.566	81.75
246.8	73.75
247.033	74.75
247.266	75.75
247.5	69.75
247.733	79.75
247.966	59.75
248.2	75.75
248.433	79.75
248.666	79.75
248.899	78.75
249.133	74.75
249.366	72.75
249.599	96.75
249.832	71.75
250.066	67.75
250.299	89.75
250.532	75.75
250.765	87.75
250.998	78.75
251.231	79.75
251.465	61.75
251.698	92.75
251.931	88.75
252.164	85.75
252.397	63.75
252.63	62.75
252.863	67.75
253.096	84.75
253.329	74.75
253.562	65.75
253.795	85.75
254.028	74.75
254.261	76.75
254.494	61.75
254.727	80.75
254.96	87.75
255.193	84.75
255.426	83.75
255.659	73.75
255.892	71.75
256.124	82.75
256.357	91.75
256.59	61.75
256.823	82.75
257.056	84.75
257.289	79.75
257.521	71.75
257.754	90.75
257.987	88.75
258.22	72.75
258.452	76.75
258.685	87.75
258.918	92.75
259.151	76.75
259.383	81.75
259.616	90.75
259.849	80.75
260.081	65.75
260.314	73.75
260.547	91.75
260.779	72.75
261.012	75.75
261.244	84.75
261.477	80.75
261.71	90.75
261.942	106.75
262.175	88.75
262.407	79.75
262.64	86.75
262.872	62.75
263.105	72.75
263.337	74.75
263.57	85.75
263.802	82.75
264.035	73.75
264.267	79.75
264.499	80.75
264.732	85.75
264.964	74.75
265.197	76.75
265.429	73.75
265.661	78.75
265.894	70.75
266.126	80.75
266.358	61.75
266.591	69.75
266.823	74.75
267.055	84.75
267.287	86.75
267.52	78.75
267.752	68.75
267.984	64.75
268.216	80.75
268.448	90.75
268.681	78.75
268.913	80.75
269.145	75.75
269.377	89.75
269.609	102.75
269.841	71.75
270.073	73.75
270.306	70.75
270.538	86.75
270.77	88.75
271.002	85.75
271.234	86.75
271.466	90.75
271.698	91.75
271.93	83.75
272.162	69.75
272.394	82.75
272.626	89.75
272.858	80.75
273.09	96.75
273.322	86.75
273.553	92.75
273.785	85.75
274.017	78.75
274.249	75.75
274.481	67.75
274.713	83.75
274.945	94.75
275.176	78.75
275.408	83.75
275.64	63.75
275.872	94.75
276.104	92.75
276.335	63.75
276.567	86.75
276.799	99.75
277.031	84.75
277.262	97.75
277.494	85.75
277.726	93.75
277.957	79.75
278.189	74.75
278.421	81.75
278.652	100.75
278.884	79.75
279.115	79.75
279.347	82.75
279.579	91.75
279.81	75.75
280.042	88.75
280.273	83.75
280.505	78.75
280.736	99.75
280.968	92.75
281.199	88.75
281.431	86.75
281.662	107.75
281.894	85.75
282.125	82.75
282.356	97.75
282.588	138.75
282.819	109.75
283.051	81.75
283.282	79.75
283.513	96.75
283.745	90.75
283.976	79.75
284.207	76.75
284.439	97.75
284.67	80.75
284.901	72.75
285.132	85.75
285.364	80.75
285.595	74.75
285.826	78.75
286.057	79.75
286.288	67.75
286.52	73.75
286.751	80.75
286.982	93.75
287.213	74.75
287.444	85.75
287.675	81.75
287.906	85.75
288.138	86.75
288.369	104.75
288.6	89.75
288.831	75.75
289.062	85.75
289.293	78.75
289.524	80.75
289.755	70.75
289.986	91.75
290.217	80.75
290.448	96.75
290.679	87.75
290.91	80.75
291.141	73.75
291.371	96.75
291.602	78.75
291.833	74.75
292.064	61.75
292.295	87.75
292.526	85.75
292.757	90.75
292.987	91.75
293.218	87.75
293.449	89.75
293.68	73.75
293.91	81.75
294.141	90.75
294.372	88.75
294.603	79.75
294.833	72.75
295.064	79.75
295.295	87.75
295.525	104.75
295.756	98.75
295.987	96.75
296.217	122.75
296.448	97.75
296.679	85.75
296.909	82.75
297.14	74.75
297.37	96.75
297.601	77.75
297.831	88.75
298.062	79.75
298.292	98.75
298.523	91.75
298.753	83.75
298.984	100.75
299.214	90.75
299.445	83.75
299.675	86.75
299.905	88.75
300.136	75.75
300.366	94.75
300.597	78.75
300.827	82.75
301.057	97.75
301.288	102.75
301.518	90.75
301.748	77.75
301.979	85.75
302.209	73.75
302.439	79.75
302.669	80.75
302.9	71.75
303.13	73.75
303.36	89.75
303.59	104.75
303.82	86.75
304.051	86.75
304.281	82.75
304.511	75.75
304.741	93.75
304.971	86.75
305.201	92.75
305.431	79.75
305.661	85.75
305.891	76.75
306.121	91.75
306.352	82.75
306.582	88.75
306.812	76.75
307.042	104.75
307.272	104.75
307.502	99.75
307.731	86.75
307.961	85.75
308.191	78.75
308.421	101.75
308.651	80.75
308.881	83.75
309.111	91.75
309.341	98.75
309.571	97.75
309.8	82.75
310.03	102.75
310.26	96.75
310.49	87.75
310.72	105.75
310.949	104.75
311.179	96.75
311.409	79.75
311.639	80.75
311.868	76.75
312.098	93.75
312.328	77.75
312.557	80.75
312.787	91.75
313.017	90.75
313.246	81.75
313.476	82.75
313.706	82.75
313.935	82.75
314.165	95.75
314.394	102.75
314.624	100.75
314.853	93.75
315.083	104.75
315.312	88.75
315.542	100.75
315.771	90.75
316.001	90.75
316.23	90.75
316.46	77.75
316.689	75.75
316.919	85.75
317.148	87.75
317.377	83.75
317.607	85.75
317.836	75.75
318.065	67.75
318.295	93.75
318.524	84.75
318.753	88.75
318.983	89.75
319.212	96.75
319.441	101.75
319.67	107.75
319.9	86.75
320.129	79.75
320.358	91.75
320.587	81.75
320.816	86.75
321.046	109.75
321.275	83.75
321.504	83.75
321.733	83.75
321.962	87.75
322.191	88.75
322.42	98.75
322.649	105.75
322.878	97.75
323.108	104.75
323.337	118.75
323.566	112.75
323.795	146.75
324.024	200.75
324.253	393.75
324.482	805.75
324.71	1683.75
324.939	2276.75
325.168	817.75
325.397	241.75
325.626	155.75
325.855	115.75
326.084	125.75
326.313	134.75
326.542	139.75
326.77	240.75
326.999	456.75
327.228	978.75
327.457	1726.75
327.686	1419.75
327.914	370.75
328.143	201.75
328.372	193.75
328.6	142.75
328.829	118.75
329.058	126.75
329.287	111.75
329.515	128.75
329.744	113.75
329.972	145.75
330.201	192.75
330.43	224.75
330.658	176.75
330.887	144.75
331.115	116.75
331.344	98.75
331.572	93.75
331.801	94.75
332.03	111.75
332.258	104.75
332.486	90.75
332.715	100.75
332.943	79.75
333.172	98.75
333.4	90.75
333.629	116.75
333.857	109.75
334.085	138.75
334.314	188.75
334.542	280.75
334.771	253.75
334.999	142.75
335.227	95.75
335.455	106.75
335.684	97.75
335.912	99.75
336.14	104.75
336.369	103.75
336.597	98.75
336.825	94.75
337.053	92.75
337.281	95.75
337.51	99.75
337.738	102.75
337.966	87.75
338.194	91.75
338.422	85.75
338.65	90.75
338.878	99.75
339.106	74.75
339.334	74.75
339.562	99.75
339.79	98.75
340.018	97.75
340.246	73.75
340.474	85.75
340.702	91.75
340.93	88.75
341.158	94.75
341.386	88.75
341.614	99.75
341.842	100.75
342.07	98.75
342.298	78.75
342.526	93.75
342.754	85.75
342.981	104.75
343.209	80.75
343.437	89.75
343.665	91.75
343.893	78.75
344.12	92.75
344.348	100.75
344.576	87.75
344.804	91.75
345.031	88.75
345.259	88.75
345.487	96.75
345.714	101.75
345.942	80.75
346.17	100.75
346.397	96.75
346.625	89.75
346.853	79.75
347.08	85.75
347.308	96.75
347.535	98.75
347.763	95.75
347.99	91.75
348.218	102.75
348.445	102.75
348.673	97.75
348.9	95.75
349.128	106.75
349.355	94.75
349.583	95.75
349.81	89.75
350.037	93.75
350.265	85.75
350.492	92.75
350.72	86.75
350.947	86.75
351.174	100.75
351.402	108.75
351.629	95.75
351.856	91.75
352.083	93.75
352.311	91.75
352.538	100.75
352.765	80.75
352.992	123.75
353.22	98.75
353.447	98.75
353.674	91.75
353.901	114.75
354.128	108.75
354.355	87.75
354.583	101.75
354.81	100.75
355.037	88.75
355.264	103.75
355.491	89.75
355.718	104.75
355.945	97.75
356.172	87.75
356.399	97.75
356.626	88.75
356.853	75.75
357.08	90.75
357.307	93.75
357.534	107.75
357.761	75.75
357.988	103.75
358.215	93.75
358.441	85.75
358.668	93.75
358.895	82.75
359.122	91.75
359.349	79.75
359.576	95.75
359.802	96.75
360.029	119.75
360.256	105.75
360.483	95.75
360.709	91.75
360.936	92.75
361.163	89.75
361.39	88.75
361.616	90.75
361.843	93.75
362.07	97.75
362.296	93.75
362.523	91.75
362.749	95.75
362.976	102.75
363.203	98.75
363.429	82.75
363.656	83.75
363.882	88.75
364.109	81.75
364.335	84.75
364.562	92.75
364.788	87.75
365.015	91.75
365.241	96.75
365.468	96.75
365.694	91.75
365.92	82.75
366.147	82.75
366.373	95.75
366.599	99.75
366.826	78.75
367.052	96.75
367.278	77.75
367.505	87.75
367.731	96.75
367.957	83.75
368.184	79.75
368.41	96.75
368.636	87.75
368.862	110.75
369.089	106.75
369.315	101.75
369.541	94.75
369.767	98.75
369.993	83.75
370.219	82.75
370.445	91.75
370.672	87.75
370.898	91.75
371.124	98.75
371.35	98.75
371.576	82.75
371.802	82.75
372.028	78.75
372.254	83.75
372.48	88.75
372.706	91.75
372.932	89.75
373.158	73.75
373.384	101.75
373.61	90.75
373.835	86.75
374.061	88.75
374.287	95.75
374.513	102.75
374.739	95.75
374.965	93.75
375.191	79.75
375.416	94.75
375.642	96.75
375.868	81.75
376.094	91.75
376.319	84.75
376.545	87.75
376.771	78.75
376.997	88.75
377.222	87.75
377.448	93.75
377.674	86.75
377.899	90.75
378.125	100.75
378.35	95.75
378.576	83.75
378.802	88.75
379.027	85.75
379.253	83.75
379.478	101.75
379.704	90.75
379.929	92.75
380.155	99.75
380.38	97.75
380.606	84.75
380.831	92.75
381.057	112.75
381.282	96.75
381.507	84.75
381.733	79.75
381.958	78.75
382.184	86.75
382.409	92.75
382.634	88.75
382.86	93.75
383.085	91.75
383.31	97.75
383.535	97.75
383.761	106.75
383.986	113.75
384.211	94.75
384.436	94.75
384.662	112.75
384.887	94.75
385.112	121.75
385.337	98.75
385.562	120.75
385.787	111.75
386.013	103.75
386.238	118.75
386.463	112.75
386.688	109.75
386.913	89.75
387.138	98.75
387.363	105.75
387.588	111.75
387.813	98.75
388.038	107.75
388.263	112.75
388.488	111.75
388.713	90.75
388.938	93.75
389.163	98.75
389.387	95.75
389.612	81.75
389.837	91.75
390.062	94.75
390.287	82.75
390.512	86.75
390.736	93.75
390.961	80.75
391.186	100.75
391.411	86.75
391.636	78.75
391.86	95.75
392.085	88.75
392.31	102.75
392.534	84.75
392.759	86.75
392.984	88.75
393.208	72.75
393.433	99.75
393.658	92.75
393.882	89.75
394.107	74.75
394.331	94.75
394.556	85.75
394.78	94.75
395.005	85.75
395.229	70.75
395.454	84.75
395.678	72.75
395.903	85.75
396.127	83.75
396.352	88.75
396.576	84.75
396.801	94.75
397.025	85.75
397.249	77.75
397.474	80.75
397.698	79.75
397.922	74.75
398.147	66.75
398.371	86.75
398.595	76.75
398.82	69.75
399.044	78.75
399.268	73.75
399.492	88.75
399.717	98.75
399.941	80.75
400.165	97.75
400.389	86.75
400.613	86.75
400.837	75.75
401.062	91.75
401.286	86.75
401.51	88.75
401.734	98.75
401.958	93.75
402.182	110.75
402.406	159.75
402.63	116.75
402.854	89.75
403.078	88.75
403.302	90.75
403.526	86.75
403.75	91.75
403.974	88.75
404.198	64.75
404.422	92.75
404.645	84.75
404.869	94.75
405.093	97.75
405.317	95.75
405.541	98.75
405.765	110.75
405.988	123.75
406.212	155.75
406.436	203.75
406.66	126.75
406.883	105.75
407.107	102.75
407.331	93.75
407.555	93.75
407.778	99.75
408.002	89.75
408.226	89.75
408.449	86.75
408.673	93.75
408.896	90.75
409.12	92.75
409.344	90.75
409.567	81.75
409.791	88.75
410.014	105.75
410.238	100.75
410.461	90.75
410.685	99.75
410.908	91.75
411.132	104.75
411.355	82.75
411.578	79.75
411.802	92.75
412.025	82.75
412.249	85.75
412.472	79.75
412.695	115.75
412.919	103.75
413.142	95.75
413.365	88.75
413.589	89.75
413.812	74.75
414.035	92.75
414.258	79.75
414.482	81.75
414.705	87.75
414.928	86.75
415.151	75.75
415.374	96.75
415.597	98.75
415.821	103.75
416.044	88.75
416.267	103.75
416.49	77.75
416.713	97.75
416.936	89.75
417.159	89.75
417.382	94.75
417.605	83.75
417.828	85.75
418.051	85.75
418.274	84.75
418.497	74.75
418.72	83.75
418.943	83.75
419.166	84.75
419.389	97.75
419.611	89.75
419.834	83.75
420.057	75.75
420.28	92.75
420.503	73.75
420.726	87.75
420.948	69.75
421.171	88.75
421.394	99.75
421.617	85.75
421.839	83.75
422.062	95.75
422.285	93.75
422.507	89.75
422.73	98.75
422.953	92.75
423.175	85.75
423.398	81.75
423.621	86.75
423.843	90.75
424.066	82.75
424.288	79.75
424.511	86.75
424.733	94.75
424.956	105.75
425.178	99.75
425.401	83.75
425.623	83.75
425.846	96.75
426.068	72.75
426.291	71.75
426.513	84.75
426.735	79.75
426.958	113.75
427.18	122.75
427.402	125.75
427.625	145.75
427.847	131.75
428.069	124.75
428.292	95.75
428.514	89.75
428.736	71.75
428.958	85.75
429.181	74.75
429.403	82.75
429.625	81.75
429.847	82.75
430.069	98.75
430.292	93.75
430.514	75.75
430.736	94.75
430.958	69.75
431.18	80.75
431.402	90.75
431.624	88.75
431.846	81.75
432.068	75.75
432.29	82.75
432.512	83.75
432.734	87.75
432.956	85.75
433.178	93.75
433.4	97.75
433.622	78.75
433.844	101.75
434.066	97.75
434.287	76.75
434.509	100.75
434.731	87.75
434.953	79.75
435.175	74.75
435.397	83.75
435.618	80.75
435.84	111.75
436.062	119.75
436.284	116.75
436.505	91.75
436.727	94.75
436.949	77.75
437.17	82.75
437.392	88.75
437.614	81.75
437.835	89.75
438.057	109.75
438.278	103.75
438.5	99.75
438.721	111.75
438.943	109.75
439.165	103.75
439.386	88.75
439.608	82.75
439.829	106.75
440.05	123.75
440.272	132.75
440.493	86.75
440.715	88.75
440.936	78.75
441.158	75.75
441.379	77.75
441.6	93.75
441.822	91.75
442.043	90.75
442.264	83.75
442.486	91.75
442.707	90.75
442.928	97.75
443.149	121.75
443.371	122.75
443.592	115.75
443.813	110.75
444.034	96.75
444.255	113.75
444.476	90.75
444.698	93.75
444.919	86.75
445.14	103.75
445.361	126.75
445.582	106.75
445.803	110.75
446.024	130.75
446.245	134.75
446.466	108.75
446.687	82.75
446.908	89.75
447.129	88.75
447.35	67.75
447.571	95.75
447.792	91.75
448.013	91.75
448.234	106.75
448.455	93.75
448.675	99.75
448.896	119.75
449.117	91.75
449.338	87.75
449.559	136.75
449.779	121.75
450	99.75
450.221	73.75
450.442	91.75
450.662	88.75
450.883	101.75
451.104	115.75
451.324	96.75
451.545	80.75
451.766	84.75
451.986	79.75
452.207	91.75
452.428	87.75
452.648	99.75
452.869	113.75
453.089	103.75
453.31	111.75
453.53	96.75
453.751	81.75
453.971	89.75
454.192	97.75
454.412	86.75
454.633	88.75
454.853	75.75
455.073	80.75
455.294	71.75
455.514	83.75
455.734	88.75
455.955	89.75
456.175	83.75
456.395	85.75
456.616	74.75
456.836	86.75
457.056	84.75
457.276	81.75
457.497	94.75
457.717	84.75
457.937	87.75
458.157	95.75
458.377	83.75
458.598	105.75
458.818	150.75
459.038	146.75
459.258	89.75
459.478	80.75
459.698	89.75
459.918	80.75
460.138	94.75
460.358	89.75
460.578	89.75
460.798	87.75
461.018	85.75
461.238	86.75
461.458	82.75
461.678	80.75
461.898	86.75
462.118	81.75
462.338	73.75
462.558	75.75
462.777	84.75
462.997	84.75
463.217	100.75
463.437	86.75
463.657	88.75
463.876	83.75
464.096	88.75
464.316	86.75
464.536	79.75
464.755	88.75
464.975	100.75
465.195	151.75
465.414	166.75
465.634	79.75
465.854	77.75
466.073	87.75
466.293	93.75
466.512	90.75
466.732	98.75
466.951	70.75
467.171	88.75
467.391	86.75
467.61	90.75
467.829	93.75
468.049	139.75
468.268	158.75
468.488	103.75
468.707	101.75
468.927	89.75
469.146	85.75
469.365	86.75
469.585	80.75
469.804	84.75
470.023	99.75
470.243	81.75
470.462	92.75
470.681	113.75
470.901	93.75
471.12	79.75
471.339	88.75
471.558	82.75
471.777	87.75
471.997	111.75
472.216	218.75
472.435	350.75
472.654	151.75
472.873	88.75
473.092	83.75
473.311	75.75
473.53	93.75
473.749	79.75
473.968	86.75
474.187	114.75
474.406	94.75
474.625	89.75
474.844	76.75
475.063	69.75
475.282	78.75
475.501	67.75
475.72	82.75
475.939	84.75
476.158	91.75
476.377	79.75
476.596	87.75
476.814	89.75
477.033	88.75
477.252	88.75
477.471	83.75
477.69	77.75
477.908	74.75
478.127	86.75
478.346	78.75
478.564	76.75
478.783	85.75
479.002	86.75
479.22	94.75
479.439	93.75
479.658	95.75
479.876	100.75
480.095	95.75
480.313	74.75
480.532	88.75
480.751	111.75
480.969	204.75
481.188	561.75
481.406	349.75
481.624	130.75
481.843	84.75
482.061	82.75
482.28	90.75
482.498	76.75
482.717	93.75
482.935	87.75
483.153	75.75
483.372	106.75
483.59	79.75
483.808	85.75
484.027	93.75
484.245	91.75
484.463	82.75
484.681	87.75
484.9	94.75
485.118	82.75
485.336	90.75
485.554	90.75
485.772	100.75
485.99	114.75
486.209	103.75
486.427	93.75
486.645	95.75
486.863	104.75
487.081	92.75
487.299	84.75
487.517	84.75
487.735	96.75
487.953	79.75
488.171	103.75
488.389	88.75
488.607	79.75
488.825	77.75
489.043	94.75
489.261	90.75
489.479	88.75
489.696	89.75
489.914	89.75
490.132	78.75
490.35	81.75
490.568	90.75
490.786	88.75
491.003	80.75
491.221	87.75
491.439	83.75
491.657	91.75
491.874	92.75
492.092	74.75
492.31	84.75
492.527	94.75
492.745	79.75
492.963	80.75
493.18	83.75
493.398	79.75
493.615	86.75
493.833	90.75
494.05	82.75
494.268	78.75
494.485	86.75
494.703	91.75
494.92	97.75
495.138	88.75
495.355	77.75
495.573	77.75
495.79	87.75
496.008	86.75
496.225	79.75
496.442	77.75
496.66	97.75
496.877	90.75
497.094	110.75
497.312	91.75
497.529	93.75
497.746	84.75
497.963	72.75
498.181	81.75
498.398	88.75
498.615	110.75
498.832	87.75
499.049	85.75
499.267	80.75
499.484	94.75
499.701	91.75
499.918	98.75
500.135	91.75
500.352	76.75
500.569	74.75
500.786	86.75
501.003	83.75
501.22	89.75
501.437	87.75
501.654	82.75
501.871	99.75
502.088	96.75
502.305	93.75
502.522	95.75
502.739	77.75
502.956	88.75
503.172	72.75
503.389	86.75
503.606	87.75
503.823	78.75
504.04	89.75
504.256	81.75
504.473	91.75
504.69	87.75
504.907	78.75
505.123	75.75
505.34	82.75
505.557	74.75
505.773	100.75
505.99	90.75
506.207	79.75
506.423	75.75
506.64	88.75
506.856	93.75
507.073	99.75
507.289	78.75
507.506	93.75
507.722	116.75
507.939	102.75
508.155	98.75
508.372	82.75
508.588	78.75
508.805	90.75
509.021	85.75
509.238	99.75
509.454	100.75
509.67	88.75
509.887	102.75
510.103	103.75
510.319	196.75
510.536	690.75
510.752	2186.75
510.968	655.75
511.184	162.75
511.401	111.75
511.617	111.75
511.833	98.75
512.049	88.75
512.265	100.75
512.481	86.75
512.698	88.75
512.914	89.75
513.13	81.75
513.346	82.75
513.562	91.75
513.778	96.75
513.994	94.75
514.21	90.75
514.426	117.75
514.642	123.75
514.858	121.75
515.074	158.75
515.29	392.75
515.506	1271.75
515.721	497.75
515.937	161.75
516.153	96.75
516.369	91.75
516.585	69.75
516.801	91.75
