Data from Circ_2015_H10_HRD10591_00099.txt Node
Date: Wed Jan 03 10:00:42 EST 2024
User: Yrep
Spectrometer: HR+D1059
Trigger mode: 1
Integration Time (sec): 1.000000E-1
Scans to average: 1
Electric dark correction enabled: true
Nonlinearity correction enabled: false
Boxcar width: 0
XAxis mode: Wavelengths
Number of Pixels in Spectrum: 2048
>>>>>Begin Spectral Data<<<<<
223.165	-14.06
223.4	-14.06
223.635	-14.06
223.869	-22.06
224.104	-27.06
224.338	-7.06
224.573	-3.06
224.808	-4.06
225.042	-4.06
225.277	-4.06
225.511	-7.06
225.746	8.94
225.98	2.94
226.215	7.94
226.449	20.94
226.683	14.94
226.918	14.94
227.152	21.94
227.387	31.94
227.621	47.94
227.856	58.94
228.09	38.94
228.324	51.94
228.559	53.94
228.793	58.94
229.027	72.94
229.262	69.94
229.496	72.94
229.73	79.94
229.964	75.94
230.199	79.94
230.433	86.94
230.667	76.94
230.901	70.94
231.136	69.94
231.37	71.94
231.604	78.94
231.838	75.94
232.072	81.94
232.306	90.94
232.541	79.94
232.775	85.94
233.009	87.94
233.243	74.94
233.477	74.94
233.711	86.94
233.945	77.94
234.179	80.94
234.413	83.94
234.647	84.94
234.881	84.94
235.115	77.94
235.349	76.94
235.583	74.94
235.817	67.94
236.051	78.94
236.285	70.94
236.519	75.94
236.753	76.94
236.987	80.94
237.221	89.94
237.455	82.94
237.689	84.94
237.922	86.94
238.156	93.94
238.39	62.94
238.624	84.94
238.858	74.94
239.091	72.94
239.325	76.94
239.559	77.94
239.793	71.94
240.027	76.94
240.26	71.94
240.494	76.94
240.728	71.94
240.961	62.94
241.195	76.94
241.429	79.94
241.662	91.94
241.896	87.94
242.13	87.94
242.363	81.94
242.597	82.94
242.83	84.94
243.064	70.94
243.298	81.94
243.531	74.94
243.765	71.94
243.998	74.94
244.232	68.94
244.465	75.94
244.699	74.94
244.932	74.94
245.166	89.94
245.399	82.94
245.633	78.94
245.866	73.94
246.099	87.94
246.333	91.94
246.566	77.94
246.8	77.94
247.033	85.94
247.266	94.94
247.5	74.94
247.733	83.94
247.966	84.94
248.2	73.94
248.433	86.94
248.666	86.94
248.899	71.94
249.133	76.94
249.366	94.94
249.599	90.94
249.832	83.94
250.066	81.94
250.299	90.94
250.532	84.94
250.765	76.94
250.998	77.94
251.231	70.94
251.465	83.94
251.698	89.94
251.931	84.94
252.164	80.94
252.397	72.94
252.63	94.94
252.863	80.94
253.096	87.94
253.329	84.94
253.562	76.94
253.795	86.94
254.028	90.94
254.261	73.94
254.494	82.94
254.727	80.94
254.96	83.94
255.193	74.94
255.426	93.94
255.659	75.94
255.892	85.94
256.124	66.94
256.357	93.94
256.59	91.94
256.823	79.94
257.056	71.94
257.289	85.94
257.521	83.94
257.754	94.94
257.987	86.94
258.22	69.94
258.452	89.94
258.685	88.94
258.918	74.94
259.151	79.94
259.383	78.94
259.616	74.94
259.849	76.94
260.081	72.94
260.314	84.94
260.547	75.94
260.779	78.94
261.012	85.94
261.244	89.94
261.477	79.94
261.71	89.94
261.942	106.94
262.175	106.94
262.407	95.94
262.64	85.94
262.872	81.94
263.105	72.94
263.337	87.94
263.57	94.94
263.802	95.94
264.035	85.94
264.267	92.94
264.499	76.94
264.732	74.94
264.964	63.94
265.197	84.94
265.429	76.94
265.661	83.94
265.894	85.94
266.126	75.94
266.358	75.94
266.591	76.94
266.823	76.94
267.055	82.94
267.287	98.94
267.52	84.94
267.752	93.94
267.984	95.94
268.216	88.94
268.448	73.94
268.681	79.94
268.913	90.94
269.145	98.94
269.377	66.94
269.609	90.94
269.841	74.94
270.073	85.94
270.306	79.94
270.538	80.94
270.77	79.94
271.002	79.94
271.234	79.94
271.466	100.94
271.698	85.94
271.93	79.94
272.162	99.94
272.394	92.94
272.626	93.94
272.858	73.94
273.09	75.94
273.322	74.94
273.553	80.94
273.785	86.94
274.017	78.94
274.249	73.94
274.481	87.94
274.713	96.94
274.945	76.94
275.176	91.94
275.408	87.94
275.64	99.94
275.872	104.94
276.104	88.94
276.335	84.94
276.567	91.94
276.799	111.94
277.031	100.94
277.262	110.94
277.494	88.94
277.726	87.94
277.957	93.94
278.189	93.94
278.421	76.94
278.652	98.94
278.884	83.94
279.115	87.94
279.347	94.94
279.579	87.94
279.81	86.94
280.042	104.94
280.273	109.94
280.505	93.94
280.736	91.94
280.968	86.94
281.199	86.94
281.431	87.94
281.662	96.94
281.894	79.94
282.125	90.94
282.356	102.94
282.588	110.94
282.819	105.94
283.051	97.94
283.282	100.94
283.513	92.94
283.745	99.94
283.976	82.94
284.207	84.94
284.439	76.94
284.67	95.94
284.901	102.94
285.132	91.94
285.364	85.94
285.595	78.94
285.826	91.94
286.057	103.94
286.288	80.94
286.52	86.94
286.751	91.94
286.982	93.94
287.213	87.94
287.444	85.94
287.675	100.94
287.906	78.94
288.138	88.94
288.369	90.94
288.6	93.94
288.831	78.94
289.062	86.94
289.293	87.94
289.524	88.94
289.755	78.94
289.986	80.94
290.217	82.94
290.448	76.94
290.679	74.94
290.91	89.94
291.141	86.94
291.371	78.94
291.602	90.94
291.833	91.94
292.064	79.94
292.295	85.94
292.526	79.94
292.757	90.94
292.987	81.94
293.218	85.94
293.449	93.94
293.68	89.94
293.91	84.94
294.141	90.94
294.372	100.94
294.603	89.94
294.833	98.94
295.064	94.94
295.295	82.94
295.525	81.94
295.756	108.94
295.987	104.94
296.217	114.94
296.448	129.94
296.679	88.94
296.909	92.94
297.14	87.94
297.37	91.94
297.601	85.94
297.831	94.94
298.062	77.94
298.292	82.94
298.523	85.94
298.753	93.94
298.984	108.94
299.214	94.94
299.445	87.94
299.675	96.94
299.905	92.94
300.136	104.94
300.366	87.94
300.597	92.94
300.827	105.94
301.057	87.94
301.288	100.94
301.518	88.94
301.748	88.94
301.979	88.94
302.209	93.94
302.439	85.94
302.669	84.94
302.9	91.94
303.13	91.94
303.36	92.94
303.59	93.94
303.82	102.94
304.051	99.94
304.281	89.94
304.511	99.94
304.741	95.94
304.971	91.94
305.201	88.94
305.431	85.94
305.661	99.94
305.891	88.94
306.121	93.94
306.352	95.94
306.582	103.94
306.812	98.94
307.042	102.94
307.272	106.94
307.502	112.94
307.731	103.94
307.961	82.94
308.191	99.94
308.421	81.94
308.651	107.94
308.881	93.94
309.111	101.94
309.341	86.94
309.571	95.94
309.8	91.94
310.03	91.94
310.26	88.94
310.49	92.94
310.72	93.94
310.949	92.94
311.179	92.94
311.409	97.94
311.639	107.94
311.868	102.94
312.098	102.94
312.328	100.94
312.557	99.94
312.787	100.94
313.017	102.94
313.246	97.94
313.476	93.94
313.706	86.94
313.935	93.94
314.165	88.94
314.394	106.94
314.624	73.94
314.853	95.94
315.083	90.94
315.312	92.94
315.542	92.94
315.771	88.94
316.001	95.94
316.23	89.94
316.46	101.94
316.689	112.94
316.919	91.94
317.148	95.94
317.377	98.94
317.607	101.94
317.836	93.94
318.065	84.94
318.295	85.94
318.524	98.94
318.753	100.94
318.983	95.94
319.212	94.94
319.441	102.94
319.67	93.94
319.9	99.94
320.129	103.94
320.358	93.94
320.587	84.94
320.816	87.94
321.046	109.94
321.275	91.94
321.504	97.94
321.733	93.94
321.962	101.94
322.191	105.94
322.42	97.94
322.649	115.94
322.878	111.94
323.108	101.94
323.337	112.94
323.566	120.94
323.795	137.94
324.024	200.94
324.253	356.94
324.482	791.94
324.71	1675.94
324.939	2141.94
325.168	788.94
325.397	245.94
325.626	151.94
325.855	133.94
326.084	120.94
326.313	129.94
326.542	154.94
326.77	229.94
326.999	440.94
327.228	921.94
327.457	1654.94
327.686	1352.94
327.914	376.94
328.143	230.94
328.372	235.94
328.6	156.94
328.829	125.94
329.058	136.94
329.287	117.94
329.515	115.94
329.744	124.94
329.972	163.94
330.201	253.94
330.43	345.94
330.658	189.94
330.887	142.94
331.115	116.94
331.344	112.94
331.572	97.94
331.801	114.94
332.03	110.94
332.258	99.94
332.486	91.94
332.715	93.94
332.943	77.94
333.172	78.94
333.4	99.94
333.629	98.94
333.857	126.94
334.085	158.94
334.314	235.94
334.542	414.94
334.771	365.94
334.999	148.94
335.227	100.94
335.455	105.94
335.684	99.94
335.912	94.94
336.14	97.94
336.369	90.94
336.597	101.94
336.825	96.94
337.053	85.94
337.281	92.94
337.51	82.94
337.738	88.94
337.966	85.94
338.194	99.94
338.422	101.94
338.65	95.94
338.878	108.94
339.106	84.94
339.334	98.94
339.562	92.94
339.79	86.94
340.018	91.94
340.246	98.94
340.474	96.94
340.702	89.94
340.93	96.94
341.158	95.94
341.386	103.94
341.614	87.94
341.842	96.94
342.07	93.94
342.298	92.94
342.526	98.94
342.754	104.94
342.981	89.94
343.209	92.94
343.437	86.94
343.665	98.94
343.893	93.94
344.12	85.94
344.348	96.94
344.576	80.94
344.804	92.94
345.031	101.94
345.259	100.94
345.487	96.94
345.714	93.94
345.942	95.94
346.17	81.94
346.397	96.94
346.625	99.94
346.853	98.94
347.08	85.94
347.308	95.94
347.535	102.94
347.763	89.94
347.99	96.94
348.218	107.94
348.445	95.94
348.673	100.94
348.9	98.94
349.128	94.94
349.355	99.94
349.583	88.94
349.81	93.94
350.037	98.94
350.265	88.94
350.492	94.94
350.72	108.94
350.947	99.94
351.174	108.94
351.402	108.94
351.629	107.94
351.856	106.94
352.083	86.94
352.311	94.94
352.538	97.94
352.765	96.94
352.992	104.94
353.22	97.94
353.447	109.94
353.674	93.94
353.901	102.94
354.128	108.94
354.355	89.94
354.583	105.94
354.81	111.94
355.037	105.94
355.264	92.94
355.491	105.94
355.718	84.94
355.945	111.94
356.172	106.94
356.399	83.94
356.626	88.94
356.853	92.94
357.08	96.94
357.307	98.94
357.534	86.94
357.761	99.94
357.988	97.94
358.215	95.94
358.441	87.94
358.668	94.94
358.895	75.94
359.122	90.94
359.349	80.94
359.576	94.94
359.802	95.94
360.029	101.94
360.256	100.94
360.483	84.94
360.709	67.94
360.936	92.94
361.163	87.94
361.39	99.94
361.616	90.94
361.843	103.94
362.07	106.94
362.296	91.94
362.523	84.94
362.749	106.94
362.976	86.94
363.203	79.94
363.429	86.94
363.656	82.94
363.882	87.94
364.109	87.94
364.335	82.94
364.562	86.94
364.788	88.94
365.015	102.94
365.241	95.94
365.468	104.94
365.694	99.94
365.92	106.94
366.147	82.94
366.373	95.94
366.599	91.94
366.826	84.94
367.052	89.94
367.278	91.94
367.505	77.94
367.731	96.94
367.957	107.94
368.184	86.94
368.41	98.94
368.636	93.94
368.862	115.94
369.089	104.94
369.315	99.94
369.541	84.94
369.767	84.94
369.993	96.94
370.219	88.94
370.445	88.94
370.672	84.94
370.898	99.94
371.124	85.94
371.35	96.94
371.576	84.94
371.802	87.94
372.028	80.94
372.254	97.94
372.48	87.94
372.706	101.94
372.932	86.94
373.158	92.94
373.384	92.94
373.61	88.94
373.835	83.94
374.061	79.94
374.287	87.94
374.513	82.94
374.739	91.94
374.965	96.94
375.191	108.94
375.416	85.94
375.642	82.94
375.868	103.94
376.094	88.94
376.319	103.94
376.545	81.94
376.771	86.94
376.997	86.94
377.222	84.94
377.448	92.94
377.674	87.94
377.899	86.94
378.125	91.94
378.35	85.94
378.576	95.94
378.802	87.94
379.027	104.94
379.253	99.94
379.478	101.94
379.704	94.94
379.929	96.94
380.155	84.94
380.38	89.94
380.606	95.94
380.831	91.94
381.057	100.94
381.282	108.94
381.507	90.94
381.733	105.94
381.958	86.94
382.184	87.94
382.409	107.94
382.634	113.94
382.86	84.94
383.085	97.94
383.31	102.94
383.535	93.94
383.761	94.94
383.986	91.94
384.211	89.94
384.436	106.94
384.662	85.94
384.887	107.94
385.112	89.94
385.337	98.94
385.562	93.94
385.787	105.94
386.013	102.94
386.238	100.94
386.463	105.94
386.688	98.94
386.913	100.94
387.138	108.94
387.363	91.94
387.588	102.94
387.813	103.94
388.038	102.94
388.263	98.94
388.488	111.94
388.713	92.94
388.938	110.94
389.163	88.94
389.387	101.94
389.612	108.94
389.837	85.94
390.062	88.94
390.287	94.94
390.512	97.94
390.736	88.94
390.961	91.94
391.186	95.94
391.411	94.94
391.636	94.94
391.86	101.94
392.085	89.94
392.31	80.94
392.534	103.94
392.759	84.94
392.984	90.94
393.208	90.94
393.433	82.94
393.658	78.94
393.882	83.94
394.107	85.94
394.331	68.94
394.556	110.94
394.78	100.94
395.005	93.94
395.229	95.94
395.454	83.94
395.678	76.94
395.903	86.94
396.127	97.94
396.352	85.94
396.576	80.94
396.801	82.94
397.025	98.94
397.249	92.94
397.474	95.94
397.698	85.94
397.922	83.94
398.147	89.94
398.371	104.94
398.595	83.94
398.82	79.94
399.044	84.94
399.268	91.94
399.492	92.94
399.717	84.94
399.941	81.94
400.165	97.94
400.389	95.94
400.613	92.94
400.837	84.94
401.062	78.94
401.286	78.94
401.51	83.94
401.734	85.94
401.958	101.94
402.182	118.94
402.406	139.94
402.63	100.94
402.854	92.94
403.078	87.94
403.302	93.94
403.526	82.94
403.75	75.94
403.974	87.94
404.198	101.94
404.422	88.94
404.645	92.94
404.869	98.94
405.093	100.94
405.317	118.94
405.541	95.94
405.765	87.94
405.988	93.94
406.212	156.94
406.436	194.94
406.66	124.94
406.883	93.94
407.107	85.94
407.331	95.94
407.555	98.94
407.778	80.94
408.002	94.94
408.226	83.94
408.449	79.94
408.673	96.94
408.896	83.94
409.12	99.94
409.344	94.94
409.567	93.94
409.791	83.94
410.014	94.94
410.238	90.94
410.461	97.94
410.685	90.94
410.908	89.94
411.132	107.94
411.355	107.94
411.578	96.94
411.802	83.94
412.025	102.94
412.249	96.94
412.472	100.94
412.695	106.94
412.919	87.94
413.142	85.94
413.365	100.94
413.589	94.94
413.812	90.94
414.035	93.94
414.258	110.94
414.482	89.94
414.705	91.94
414.928	90.94
415.151	80.94
415.374	93.94
415.597	96.94
415.821	85.94
416.044	75.94
416.267	90.94
416.49	90.94
416.713	84.94
416.936	81.94
417.159	95.94
417.382	87.94
417.605	90.94
417.828	101.94
418.051	98.94
418.274	90.94
418.497	96.94
418.72	92.94
418.943	89.94
419.166	89.94
419.389	88.94
419.611	90.94
419.834	105.94
420.057	108.94
420.28	77.94
420.503	85.94
420.726	88.94
420.948	79.94
421.171	91.94
421.394	101.94
421.617	91.94
421.839	96.94
422.062	102.94
422.285	91.94
422.507	86.94
422.73	94.94
422.953	96.94
423.175	79.94
423.398	76.94
423.621	101.94
423.843	92.94
424.066	83.94
424.288	77.94
424.511	79.94
424.733	112.94
424.956	95.94
425.178	83.94
425.401	92.94
425.623	93.94
425.846	86.94
426.068	87.94
426.291	89.94
426.513	92.94
426.735	92.94
426.958	91.94
427.18	107.94
427.402	135.94
427.625	152.94
427.847	133.94
428.069	142.94
428.292	87.94
428.514	84.94
428.736	77.94
428.958	86.94
429.181	78.94
429.403	74.94
429.625	81.94
429.847	76.94
430.069	100.94
430.292	79.94
430.514	86.94
430.736	84.94
430.958	76.94
431.18	87.94
431.402	87.94
431.624	76.94
431.846	102.94
432.068	84.94
432.29	79.94
432.512	88.94
432.734	86.94
432.956	92.94
433.178	105.94
433.4	96.94
433.622	92.94
433.844	93.94
434.066	75.94
434.287	86.94
434.509	96.94
434.731	84.94
434.953	86.94
435.175	91.94
435.397	95.94
435.618	95.94
435.84	103.94
436.062	103.94
436.284	111.94
436.505	92.94
436.727	99.94
436.949	101.94
437.17	92.94
437.392	79.94
437.614	84.94
437.835	98.94
438.057	108.94
438.278	97.94
438.5	98.94
438.721	112.94
438.943	88.94
439.165	96.94
439.386	86.94
439.608	90.94
439.829	86.94
440.05	117.94
440.272	142.94
440.493	103.94
440.715	76.94
440.936	81.94
441.158	85.94
441.379	85.94
441.6	95.94
441.822	105.94
442.043	93.94
442.264	110.94
442.486	96.94
442.707	106.94
442.928	110.94
443.149	129.94
443.371	111.94
443.592	120.94
443.813	114.94
444.034	105.94
444.255	91.94
444.476	88.94
444.698	95.94
444.919	92.94
445.14	129.94
445.361	118.94
445.582	116.94
445.803	126.94
446.024	128.94
446.245	118.94
446.466	109.94
446.687	79.94
446.908	87.94
447.129	97.94
447.35	84.94
447.571	87.94
447.792	92.94
448.013	102.94
448.234	92.94
448.455	93.94
448.675	110.94
448.896	104.94
449.117	99.94
449.338	98.94
449.559	122.94
449.779	120.94
450	87.94
450.221	96.94
450.442	95.94
450.662	88.94
450.883	94.94
451.104	94.94
451.324	88.94
451.545	87.94
451.766	103.94
451.986	93.94
452.207	95.94
452.428	105.94
452.648	83.94
452.869	103.94
453.089	105.94
453.31	106.94
453.53	103.94
453.751	108.94
453.971	100.94
454.192	99.94
454.412	92.94
454.633	88.94
454.853	83.94
455.073	82.94
455.294	80.94
455.514	100.94
455.734	93.94
455.955	85.94
456.175	90.94
456.395	86.94
456.616	93.94
456.836	84.94
457.056	86.94
457.276	89.94
457.497	93.94
457.717	91.94
457.937	96.94
458.157	91.94
458.377	94.94
458.598	89.94
458.818	131.94
459.038	162.94
459.258	109.94
459.478	86.94
459.698	86.94
459.918	94.94
460.138	74.94
460.358	80.94
460.578	102.94
460.798	103.94
461.018	104.94
461.238	95.94
461.458	89.94
461.678	89.94
461.898	88.94
462.118	102.94
462.338	90.94
462.558	91.94
462.777	93.94
462.997	87.94
463.217	95.94
463.437	110.94
463.657	94.94
463.876	99.94
464.096	98.94
464.316	91.94
464.536	95.94
464.755	84.94
464.975	111.94
465.195	143.94
465.414	151.94
465.634	92.94
465.854	92.94
466.073	82.94
466.293	87.94
466.512	80.94
466.732	91.94
466.951	98.94
467.171	78.94
467.391	107.94
467.61	110.94
467.829	116.94
468.049	178.94
468.268	222.94
468.488	121.94
468.707	97.94
468.927	84.94
469.146	112.94
469.365	87.94
469.585	83.94
469.804	98.94
470.023	90.94
470.243	94.94
470.462	110.94
470.681	122.94
470.901	99.94
471.12	87.94
471.339	102.94
471.558	91.94
471.777	100.94
471.997	143.94
472.216	292.94
472.435	519.94
472.654	175.94
472.873	99.94
473.092	88.94
473.311	106.94
473.53	95.94
473.749	78.94
473.968	81.94
474.187	94.94
474.406	98.94
474.625	88.94
474.844	94.94
475.063	98.94
475.282	90.94
475.501	78.94
475.72	84.94
475.939	84.94
476.158	83.94
476.377	98.94
476.596	87.94
476.814	85.94
477.033	90.94
477.252	92.94
477.471	85.94
477.69	107.94
477.908	93.94
478.127	96.94
478.346	103.94
478.564	73.94
478.783	110.94
479.002	103.94
479.22	97.94
479.439	93.94
479.658	94.94
479.876	100.94
480.095	91.94
480.313	95.94
480.532	111.94
480.751	127.94
480.969	286.94
481.188	925.94
481.406	586.94
481.624	152.94
481.843	88.94
482.061	91.94
482.28	72.94
482.498	86.94
482.717	87.94
482.935	94.94
483.153	93.94
483.372	79.94
483.59	91.94
483.808	99.94
484.027	86.94
484.245	90.94
484.463	87.94
484.681	101.94
484.9	80.94
485.118	91.94
485.336	98.94
485.554	75.94
485.772	97.94
485.99	103.94
486.209	106.94
486.427	102.94
486.645	116.94
486.863	97.94
487.081	94.94
487.299	104.94
487.517	103.94
487.735	88.94
487.953	99.94
488.171	90.94
488.389	87.94
488.607	96.94
488.825	88.94
489.043	93.94
489.261	87.94
489.479	97.94
489.696	90.94
489.914	91.94
490.132	87.94
490.35	98.94
490.568	88.94
490.786	92.94
491.003	73.94
491.221	89.94
491.439	74.94
491.657	99.94
491.874	93.94
492.092	78.94
492.31	90.94
492.527	93.94
492.745	83.94
492.963	93.94
493.18	84.94
493.398	94.94
493.615	116.94
493.833	88.94
494.05	93.94
494.268	79.94
494.485	97.94
494.703	99.94
494.92	95.94
495.138	92.94
495.355	112.94
495.573	90.94
495.79	96.94
496.008	106.94
496.225	96.94
496.442	93.94
496.66	86.94
496.877	88.94
497.094	117.94
497.312	85.94
497.529	89.94
497.746	83.94
497.963	95.94
498.181	96.94
498.398	103.94
498.615	121.94
498.832	95.94
499.049	93.94
499.267	91.94
499.484	95.94
499.701	90.94
499.918	110.94
500.135	99.94
500.352	94.94
500.569	87.94
500.786	101.94
501.003	99.94
501.22	95.94
501.437	98.94
501.654	82.94
501.871	94.94
502.088	94.94
502.305	102.94
502.522	95.94
502.739	98.94
502.956	104.94
503.172	85.94
503.389	101.94
503.606	112.94
503.823	104.94
504.04	92.94
504.256	91.94
504.473	78.94
504.69	68.94
504.907	96.94
505.123	86.94
505.34	83.94
505.557	91.94
505.773	93.94
505.99	90.94
506.207	99.94
506.423	89.94
506.64	86.94
506.856	85.94
507.073	86.94
507.289	102.94
507.506	90.94
507.722	103.94
507.939	105.94
508.155	103.94
508.372	97.94
508.588	99.94
508.805	97.94
509.021	97.94
509.238	95.94
509.454	104.94
509.67	98.94
509.887	99.94
510.103	120.94
510.319	182.94
510.536	616.94
510.752	1986.94
510.968	575.94
511.184	148.94
511.401	108.94
511.617	103.94
511.833	82.94
512.049	81.94
512.265	87.94
512.481	88.94
512.698	111.94
512.914	84.94
513.13	94.94
513.346	91.94
513.562	80.94
513.778	98.94
513.994	94.94
514.21	101.94
514.426	110.94
514.642	134.94
514.858	103.94
515.074	150.94
515.29	344.94
515.506	1160.94
515.721	470.94
