Data from Circ_2015_H10_HRD10591_00038.txt Node
Date: Wed Jan 03 10:00:30 EST 2024
User: Yrep
Spectrometer: HR+D1059
Trigger mode: 1
Integration Time (sec): 1.000000E-1
Scans to average: 1
Electric dark correction enabled: true
Nonlinearity correction enabled: false
Boxcar width: 0
XAxis mode: Wavelengths
Number of Pixels in Spectrum: 2048
>>>>>Begin Spectral Data<<<<<
223.165	-7.19
223.4	-7.19
223.635	-7.19
223.869	-31.19
224.104	-27.19
224.338	-12.19
224.573	-9.19
224.808	-16.19
225.042	-6.19
225.277	-6.19
225.511	5.81
225.746	2.81
225.98	-8.19
226.215	19.81
226.449	23.81
226.683	23.81
226.918	23.81
227.152	23.81
227.387	32.81
227.621	32.81
227.856	34.81
228.09	37.81
228.324	53.81
228.559	49.81
228.793	61.81
229.027	67.81
229.262	66.81
229.496	67.81
229.73	62.81
229.964	68.81
230.199	80.81
230.433	73.81
230.667	85.81
230.901	88.81
231.136	79.81
231.37	87.81
231.604	84.81
231.838	78.81
232.072	56.81
232.306	68.81
232.541	88.81
232.775	85.81
233.009	67.81
233.243	87.81
233.477	76.81
233.711	84.81
233.945	79.81
234.179	86.81
234.413	87.81
234.647	73.81
234.881	76.81
235.115	78.81
235.349	96.81
235.583	65.81
235.817	82.81
236.051	70.81
236.285	69.81
236.519	73.81
236.753	83.81
236.987	76.81
237.221	83.81
237.455	86.81
237.689	81.81
237.922	75.81
238.156	72.81
238.39	81.81
238.624	74.81
238.858	62.81
239.091	68.81
239.325	82.81
239.559	76.81
239.793	83.81
240.027	77.81
240.26	72.81
240.494	89.81
240.728	76.81
240.961	72.81
241.195	77.81
241.429	81.81
241.662	63.81
241.896	63.81
242.13	68.81
242.363	80.81
242.597	68.81
242.83	78.81
243.064	72.81
243.298	89.81
243.531	88.81
243.765	82.81
243.998	83.81
244.232	74.81
244.465	84.81
244.699	71.81
244.932	87.81
245.166	82.81
245.399	72.81
245.633	73.81
245.866	63.81
246.099	79.81
246.333	76.81
246.566	62.81
246.8	79.81
247.033	74.81
247.266	81.81
247.5	67.81
247.733	79.81
247.966	76.81
248.2	77.81
248.433	81.81
248.666	67.81
248.899	78.81
249.133	92.81
249.366	98.81
249.599	97.81
249.832	88.81
250.066	80.81
250.299	89.81
250.532	75.81
250.765	75.81
250.998	73.81
251.231	80.81
251.465	81.81
251.698	79.81
251.931	90.81
252.164	75.81
252.397	76.81
252.63	79.81
252.863	79.81
253.096	67.81
253.329	80.81
253.562	91.81
253.795	81.81
254.028	78.81
254.261	76.81
254.494	82.81
254.727	68.81
254.96	81.81
255.193	87.81
255.426	64.81
255.659	98.81
255.892	88.81
256.124	88.81
256.357	82.81
256.59	81.81
256.823	77.81
257.056	80.81
257.289	63.81
257.521	76.81
257.754	93.81
257.987	80.81
258.22	84.81
258.452	64.81
258.685	83.81
258.918	77.81
259.151	66.81
259.383	83.81
259.616	72.81
259.849	80.81
260.081	88.81
260.314	78.81
260.547	91.81
260.779	93.81
261.012	84.81
261.244	76.81
261.477	83.81
261.71	65.81
261.942	101.81
262.175	97.81
262.407	89.81
262.64	60.81
262.872	76.81
263.105	73.81
263.337	87.81
263.57	63.81
263.802	77.81
264.035	90.81
264.267	97.81
264.499	83.81
264.732	80.81
264.964	78.81
265.197	82.81
265.429	80.81
265.661	74.81
265.894	82.81
266.126	81.81
266.358	77.81
266.591	85.81
266.823	71.81
267.055	74.81
267.287	81.81
267.52	85.81
267.752	76.81
267.984	84.81
268.216	86.81
268.448	91.81
268.681	77.81
268.913	60.81
269.145	89.81
269.377	73.81
269.609	79.81
269.841	84.81
270.073	84.81
270.306	75.81
270.538	74.81
270.77	92.81
271.002	79.81
271.234	80.81
271.466	83.81
271.698	85.81
271.93	73.81
272.162	74.81
272.394	85.81
272.626	83.81
272.858	92.81
273.09	82.81
273.322	89.81
273.553	87.81
273.785	81.81
274.017	90.81
274.249	80.81
274.481	89.81
274.713	84.81
274.945	95.81
275.176	77.81
275.408	79.81
275.64	81.81
275.872	77.81
276.104	75.81
276.335	91.81
276.567	97.81
276.799	97.81
277.031	92.81
277.262	96.81
277.494	77.81
277.726	90.81
277.957	69.81
278.189	80.81
278.421	95.81
278.652	95.81
278.884	92.81
279.115	96.81
279.347	97.81
279.579	91.81
279.81	96.81
280.042	97.81
280.273	103.81
280.505	99.81
280.736	88.81
280.968	81.81
281.199	92.81
281.431	84.81
281.662	82.81
281.894	93.81
282.125	100.81
282.356	121.81
282.588	133.81
282.819	111.81
283.051	91.81
283.282	84.81
283.513	82.81
283.745	81.81
283.976	95.81
284.207	80.81
284.439	95.81
284.67	69.81
284.901	89.81
285.132	88.81
285.364	89.81
285.595	95.81
285.826	81.81
286.057	82.81
286.288	99.81
286.52	94.81
286.751	75.81
286.982	81.81
287.213	80.81
287.444	88.81
287.675	91.81
287.906	87.81
288.138	79.81
288.369	94.81
288.6	97.81
288.831	84.81
289.062	89.81
289.293	85.81
289.524	81.81
289.755	89.81
289.986	92.81
290.217	90.81
290.448	87.81
290.679	75.81
290.91	90.81
291.141	82.81
291.371	84.81
291.602	77.81
291.833	79.81
292.064	85.81
292.295	87.81
292.526	101.81
292.757	90.81
292.987	83.81
293.218	74.81
293.449	74.81
293.68	84.81
293.91	92.81
294.141	74.81
294.372	85.81
294.603	92.81
294.833	81.81
295.064	82.81
295.295	82.81
295.525	92.81
295.756	90.81
295.987	105.81
296.217	127.81
296.448	113.81
296.679	79.81
296.909	91.81
297.14	91.81
297.37	96.81
297.601	96.81
297.831	83.81
298.062	101.81
298.292	97.81
298.523	90.81
298.753	91.81
298.984	91.81
299.214	89.81
299.445	86.81
299.675	88.81
299.905	95.81
300.136	84.81
300.366	99.81
300.597	81.81
300.827	93.81
301.057	96.81
301.288	90.81
301.518	79.81
301.748	84.81
301.979	82.81
302.209	90.81
302.439	97.81
302.669	87.81
302.9	79.81
303.13	90.81
303.36	90.81
303.59	98.81
303.82	96.81
304.051	102.81
304.281	86.81
304.511	82.81
304.741	81.81
304.971	99.81
305.201	86.81
305.431	89.81
305.661	89.81
305.891	83.81
306.121	96.81
306.352	105.81
306.582	109.81
306.812	90.81
307.042	103.81
307.272	94.81
307.502	99.81
307.731	91.81
307.961	103.81
308.191	89.81
308.421	92.81
308.651	94.81
308.881	87.81
309.111	89.81
309.341	92.81
309.571	93.81
309.8	95.81
310.03	99.81
310.26	107.81
310.49	90.81
310.72	91.81
310.949	95.81
311.179	100.81
311.409	88.81
311.639	85.81
311.868	95.81
312.098	83.81
312.328	90.81
312.557	93.81
312.787	113.81
313.017	92.81
313.246	86.81
313.476	88.81
313.706	83.81
313.935	90.81
314.165	93.81
314.394	94.81
314.624	95.81
314.853	92.81
315.083	94.81
315.312	93.81
315.542	90.81
315.771	91.81
316.001	100.81
316.23	83.81
316.46	96.81
316.689	90.81
316.919	90.81
317.148	102.81
317.377	90.81
317.607	90.81
317.836	73.81
318.065	83.81
318.295	89.81
318.524	87.81
318.753	87.81
318.983	84.81
319.212	92.81
319.441	96.81
319.67	110.81
319.9	96.81
320.129	85.81
320.358	93.81
320.587	85.81
320.816	103.81
321.046	102.81
321.275	94.81
321.504	88.81
321.733	91.81
321.962	103.81
322.191	94.81
322.42	111.81
322.649	102.81
322.878	95.81
323.108	116.81
323.337	104.81
323.566	127.81
323.795	141.81
324.024	188.81
324.253	397.81
324.482	784.81
324.71	1522.81
324.939	2089.81
325.168	798.81
325.397	234.81
325.626	142.81
325.855	121.81
326.084	133.81
326.313	132.81
326.542	132.81
326.77	216.81
326.999	439.81
327.228	863.81
327.457	1614.81
327.686	1283.81
327.914	363.81
328.143	203.81
328.372	165.81
328.6	144.81
328.829	117.81
329.058	121.81
329.287	126.81
329.515	119.81
329.744	104.81
329.972	129.81
330.201	171.81
330.43	178.81
330.658	153.81
330.887	118.81
331.115	107.81
331.344	105.81
331.572	104.81
331.801	87.81
332.03	107.81
332.258	106.81
332.486	102.81
332.715	88.81
332.943	92.81
333.172	102.81
333.4	90.81
333.629	109.81
333.857	110.81
334.085	111.81
334.314	169.81
334.542	223.81
334.771	232.81
334.999	133.81
335.227	86.81
335.455	96.81
335.684	108.81
335.912	103.81
336.14	93.81
336.369	102.81
336.597	91.81
336.825	84.81
337.053	85.81
337.281	85.81
337.51	95.81
337.738	83.81
337.966	87.81
338.194	83.81
338.422	95.81
338.65	92.81
338.878	83.81
339.106	85.81
339.334	77.81
339.562	87.81
339.79	92.81
340.018	92.81
340.246	93.81
340.474	99.81
340.702	86.81
340.93	91.81
341.158	95.81
341.386	93.81
341.614	90.81
341.842	92.81
342.07	94.81
342.298	84.81
342.526	92.81
342.754	83.81
342.981	77.81
343.209	93.81
343.437	87.81
343.665	89.81
343.893	89.81
344.12	97.81
344.348	82.81
344.576	74.81
344.804	90.81
345.031	96.81
345.259	97.81
345.487	109.81
345.714	82.81
345.942	80.81
346.17	95.81
346.397	84.81
346.625	81.81
346.853	101.81
347.08	94.81
347.308	85.81
347.535	94.81
347.763	85.81
347.99	101.81
348.218	93.81
348.445	96.81
348.673	80.81
348.9	97.81
349.128	105.81
349.355	83.81
349.583	97.81
349.81	99.81
350.037	89.81
350.265	100.81
350.492	86.81
350.72	87.81
350.947	104.81
351.174	91.81
351.402	96.81
351.629	92.81
351.856	90.81
352.083	99.81
352.311	94.81
352.538	100.81
352.765	106.81
352.992	107.81
353.22	112.81
353.447	108.81
353.674	101.81
353.901	81.81
354.128	87.81
354.355	84.81
354.583	90.81
354.81	106.81
355.037	91.81
355.264	83.81
355.491	98.81
355.718	93.81
355.945	94.81
356.172	91.81
356.399	93.81
356.626	98.81
356.853	90.81
357.08	90.81
357.307	95.81
357.534	83.81
357.761	99.81
357.988	89.81
358.215	105.81
358.441	92.81
358.668	90.81
358.895	90.81
359.122	90.81
359.349	89.81
359.576	97.81
359.802	95.81
360.029	104.81
360.256	105.81
360.483	115.81
360.709	71.81
360.936	87.81
361.163	81.81
361.39	81.81
361.616	84.81
361.843	90.81
362.07	94.81
362.296	88.81
362.523	89.81
362.749	88.81
362.976	88.81
363.203	94.81
363.429	103.81
363.656	82.81
363.882	100.81
364.109	95.81
364.335	93.81
364.562	70.81
364.788	73.81
365.015	81.81
365.241	87.81
365.468	93.81
365.694	97.81
365.92	105.81
366.147	95.81
366.373	74.81
366.599	85.81
366.826	81.81
367.052	91.81
367.278	87.81
367.505	94.81
367.731	84.81
367.957	88.81
368.184	89.81
368.41	99.81
368.636	87.81
368.862	102.81
369.089	109.81
369.315	102.81
369.541	94.81
369.767	84.81
369.993	81.81
370.219	92.81
370.445	86.81
370.672	97.81
370.898	84.81
371.124	91.81
371.35	79.81
371.576	82.81
371.802	95.81
372.028	73.81
372.254	87.81
372.48	85.81
372.706	80.81
372.932	83.81
373.158	92.81
373.384	90.81
373.61	89.81
373.835	81.81
374.061	85.81
374.287	91.81
374.513	83.81
374.739	86.81
374.965	70.81
375.191	92.81
375.416	91.81
375.642	87.81
375.868	89.81
376.094	87.81
376.319	82.81
376.545	78.81
376.771	93.81
376.997	84.81
377.222	96.81
377.448	77.81
377.674	86.81
377.899	93.81
378.125	97.81
378.35	85.81
378.576	85.81
378.802	84.81
379.027	93.81
379.253	100.81
379.478	87.81
379.704	93.81
379.929	86.81
380.155	81.81
380.38	97.81
380.606	100.81
380.831	77.81
381.057	85.81
381.282	99.81
381.507	90.81
381.733	92.81
381.958	92.81
382.184	96.81
382.409	93.81
382.634	111.81
382.86	121.81
383.085	104.81
383.31	102.81
383.535	99.81
383.761	104.81
383.986	95.81
384.211	96.81
384.436	96.81
384.662	103.81
384.887	113.81
385.112	104.81
385.337	107.81
385.562	98.81
385.787	94.81
386.013	112.81
386.238	123.81
386.463	95.81
386.688	106.81
386.913	101.81
387.138	89.81
387.363	106.81
387.588	100.81
387.813	84.81
388.038	102.81
388.263	113.81
388.488	105.81
388.713	99.81
388.938	99.81
389.163	92.81
389.387	75.81
389.612	83.81
389.837	93.81
390.062	78.81
390.287	84.81
390.512	92.81
390.736	88.81
390.961	85.81
391.186	86.81
391.411	77.81
391.636	85.81
391.86	94.81
392.085	86.81
392.31	84.81
392.534	90.81
392.759	88.81
392.984	82.81
393.208	99.81
393.433	108.81
393.658	100.81
393.882	98.81
394.107	85.81
394.331	92.81
394.556	87.81
394.78	89.81
395.005	94.81
395.229	85.81
395.454	85.81
395.678	96.81
395.903	81.81
396.127	89.81
396.352	89.81
396.576	84.81
396.801	97.81
397.025	87.81
397.249	76.81
397.474	81.81
397.698	82.81
397.922	89.81
398.147	93.81
398.371	96.81
398.595	85.81
398.82	92.81
399.044	90.81
399.268	92.81
399.492	78.81
399.717	83.81
399.941	100.81
400.165	87.81
400.389	102.81
400.613	88.81
400.837	91.81
401.062	87.81
401.286	81.81
401.51	91.81
401.734	85.81
401.958	88.81
402.182	123.81
402.406	143.81
402.63	100.81
402.854	74.81
403.078	74.81
403.302	79.81
403.526	85.81
403.75	72.81
403.974	99.81
404.198	87.81
404.422	88.81
404.645	79.81
404.869	83.81
405.093	83.81
405.317	100.81
405.541	95.81
405.765	95.81
405.988	107.81
406.212	148.81
406.436	192.81
406.66	143.81
406.883	113.81
407.107	97.81
407.331	90.81
407.555	103.81
407.778	87.81
408.002	99.81
408.226	92.81
408.449	91.81
408.673	82.81
408.896	91.81
409.12	81.81
409.344	89.81
409.567	84.81
409.791	94.81
410.014	93.81
410.238	85.81
410.461	96.81
410.685	86.81
410.908	98.81
411.132	103.81
411.355	88.81
411.578	91.81
411.802	76.81
412.025	96.81
412.249	96.81
412.472	85.81
412.695	102.81
412.919	112.81
413.142	77.81
413.365	91.81
413.589	84.81
413.812	93.81
414.035	81.81
414.258	90.81
414.482	96.81
414.705	94.81
414.928	84.81
415.151	111.81
415.374	100.81
415.597	94.81
415.821	88.81
416.044	88.81
416.267	90.81
416.49	77.81
416.713	85.81
416.936	85.81
417.159	84.81
417.382	97.81
417.605	92.81
417.828	73.81
418.051	87.81
418.274	77.81
418.497	95.81
418.72	72.81
418.943	70.81
419.166	90.81
419.389	89.81
419.611	85.81
419.834	89.81
420.057	87.81
420.28	93.81
420.503	89.81
420.726	95.81
420.948	79.81
421.171	87.81
421.394	94.81
421.617	95.81
421.839	80.81
422.062	86.81
422.285	93.81
422.507	93.81
422.73	104.81
422.953	101.81
423.175	91.81
423.398	83.81
423.621	78.81
423.843	91.81
424.066	83.81
424.288	85.81
424.511	82.81
424.733	99.81
424.956	118.81
425.178	93.81
425.401	93.81
425.623	84.81
425.846	92.81
426.068	101.81
426.291	92.81
426.513	84.81
426.735	96.81
426.958	84.81
427.18	96.81
427.402	121.81
427.625	145.81
427.847	136.81
428.069	122.81
428.292	94.81
428.514	77.81
428.736	89.81
428.958	87.81
429.181	87.81
429.403	95.81
429.625	85.81
429.847	93.81
430.069	89.81
430.292	83.81
430.514	107.81
430.736	84.81
430.958	74.81
431.18	84.81
431.402	85.81
431.624	71.81
431.846	92.81
432.068	82.81
432.29	84.81
432.512	101.81
432.734	93.81
432.956	77.81
433.178	99.81
433.4	108.81
433.622	88.81
433.844	100.81
434.066	105.81
434.287	99.81
434.509	83.81
434.731	85.81
434.953	87.81
435.175	78.81
435.397	78.81
435.618	85.81
435.84	97.81
436.062	124.81
436.284	105.81
436.505	103.81
436.727	98.81
436.949	94.81
437.17	84.81
437.392	95.81
437.614	92.81
437.835	95.81
438.057	95.81
438.278	101.81
438.5	89.81
438.721	108.81
438.943	97.81
439.165	81.81
439.386	86.81
439.608	89.81
439.829	103.81
440.05	122.81
440.272	109.81
440.493	95.81
440.715	84.81
440.936	91.81
441.158	81.81
441.379	80.81
441.6	101.81
441.822	96.81
442.043	85.81
442.264	106.81
442.486	105.81
442.707	93.81
442.928	97.81
443.149	113.81
443.371	128.81
443.592	116.81
443.813	125.81
444.034	105.81
444.255	78.81
444.476	75.81
444.698	74.81
444.919	86.81
445.14	135.81
445.361	108.81
445.582	108.81
445.803	128.81
446.024	115.81
446.245	115.81
446.466	121.81
446.687	85.81
446.908	93.81
447.129	101.81
447.35	78.81
447.571	89.81
447.792	90.81
448.013	91.81
448.234	94.81
448.455	103.81
448.675	98.81
448.896	116.81
449.117	100.81
449.338	85.81
449.559	124.81
449.779	133.81
450	103.81
450.221	79.81
450.442	91.81
450.662	90.81
450.883	104.81
451.104	124.81
451.324	99.81
451.545	91.81
451.766	99.81
451.986	84.81
452.207	98.81
452.428	80.81
452.648	98.81
452.869	100.81
453.089	105.81
453.31	119.81
453.53	93.81
453.751	93.81
453.971	108.81
454.192	113.81
454.412	87.81
454.633	91.81
454.853	92.81
455.073	84.81
455.294	98.81
455.514	89.81
455.734	99.81
455.955	86.81
456.175	88.81
456.395	83.81
456.616	90.81
456.836	85.81
457.056	85.81
457.276	89.81
457.497	97.81
457.717	81.81
457.937	87.81
458.157	82.81
458.377	88.81
458.598	104.81
458.818	137.81
459.038	140.81
459.258	123.81
459.478	93.81
459.698	89.81
459.918	82.81
460.138	83.81
460.358	96.81
460.578	98.81
460.798	91.81
461.018	86.81
461.238	82.81
461.458	100.81
461.678	83.81
461.898	79.81
462.118	95.81
462.338	82.81
462.558	80.81
462.777	101.81
462.997	91.81
463.217	76.81
463.437	96.81
463.657	83.81
463.876	80.81
464.096	79.81
464.316	90.81
464.536	95.81
464.755	97.81
464.975	104.81
465.195	140.81
465.414	140.81
465.634	101.81
465.854	97.81
466.073	81.81
466.293	89.81
466.512	83.81
466.732	88.81
466.951	89.81
467.171	91.81
467.391	91.81
467.61	92.81
467.829	114.81
468.049	128.81
468.268	153.81
468.488	101.81
468.707	77.81
468.927	81.81
469.146	77.81
469.365	89.81
469.585	93.81
469.804	106.81
470.023	87.81
470.243	91.81
470.462	89.81
470.681	82.81
470.901	83.81
471.12	72.81
471.339	81.81
471.558	91.81
471.777	85.81
471.997	101.81
472.216	191.81
472.435	263.81
472.654	131.81
472.873	96.81
473.092	88.81
473.311	74.81
473.53	88.81
473.749	87.81
473.968	96.81
474.187	113.81
474.406	83.81
474.625	87.81
474.844	83.81
475.063	87.81
475.282	92.81
475.501	83.81
475.72	86.81
475.939	75.81
476.158	83.81
476.377	83.81
476.596	75.81
476.814	80.81
477.033	81.81
477.252	87.81
477.471	89.81
477.69	96.81
477.908	83.81
478.127	90.81
478.346	91.81
478.564	82.81
478.783	75.81
479.002	86.81
479.22	91.81
479.439	97.81
479.658	103.81
479.876	100.81
480.095	90.81
480.313	92.81
480.532	100.81
480.751	103.81
480.969	176.81
481.188	443.81
481.406	300.81
481.624	105.81
481.843	87.81
482.061	84.81
482.28	77.81
482.498	81.81
482.717	94.81
482.935	90.81
483.153	84.81
483.372	87.81
483.59	90.81
483.808	82.81
484.027	78.81
484.245	76.81
484.463	86.81
484.681	83.81
484.9	92.81
485.118	86.81
485.336	87.81
485.554	109.81
485.772	98.81
485.99	94.81
486.209	96.81
486.427	113.81
486.645	105.81
486.863	108.81
487.081	96.81
487.299	113.81
487.517	85.81
487.735	93.81
487.953	92.81
488.171	88.81
488.389	105.81
488.607	93.81
488.825	96.81
489.043	106.81
489.261	82.81
489.479	91.81
489.696	100.81
489.914	88.81
490.132	88.81
490.35	81.81
490.568	81.81
490.786	83.81
491.003	88.81
491.221	89.81
491.439	95.81
491.657	86.81
491.874	83.81
492.092	93.81
492.31	87.81
492.527	88.81
492.745	84.81
492.963	96.81
493.18	88.81
493.398	85.81
493.615	92.81
493.833	92.81
494.05	76.81
494.268	86.81
494.485	91.81
494.703	97.81
494.92	86.81
495.138	86.81
495.355	87.81
495.573	90.81
495.79	101.81
496.008	84.81
496.225	80.81
496.442	100.81
496.66	81.81
496.877	95.81
497.094	98.81
497.312	88.81
497.529	90.81
497.746	88.81
497.963	92.81
498.181	91.81
498.398	102.81
498.615	113.81
498.832	86.81
499.049	104.81
499.267	87.81
499.484	82.81
499.701	79.81
499.918	80.81
500.135	87.81
500.352	102.81
500.569	89.81
500.786	89.81
501.003	85.81
501.22	97.81
501.437	81.81
501.654	98.81
501.871	95.81
502.088	90.81
502.305	100.81
502.522	92.81
502.739	87.81
502.956	95.81
503.172	98.81
503.389	96.81
503.606	97.81
503.823	101.81
504.04	83.81
504.256	74.81
504.473	84.81
504.69	77.81
504.907	95.81
505.123	99.81
505.34	81.81
505.557	87.81
505.773	93.81
505.99	91.81
506.207	88.81
506.423	94.81
506.64	95.81
506.856	91.81
507.073	83.81
507.289	97.81
507.506	81.81
507.722	92.81
507.939	111.81
508.155	87.81
508.372	94.81
508.588	74.81
508.805	85.81
509.021	82.81
509.238	88.81
509.454	95.81
509.67	91.81
509.887	101.81
510.103	124.81
510.319	197.81
510.536	672.81
510.752	2244.81
510.968	653.81
511.184	145.81
511.401	100.81
511.617	99.81
511.833	98.81
512.049	88.81
512.265	89.81
512.481	85.81
512.698	88.81
512.914	97.81
513.13	83.81
513.346	92.81
513.562	86.81
513.778	93.81
513.994	86.81
514.21	93.81
514.426	97.81
514.642	112.81
514.858	107.81
515.074	148.81
515.29	379.81
515.506	1295.81
515.721	506.81
515.937	140.81
516.153	107.81
516.369	89.81
516.585	83.81
