Data from Circ_2015_H10_HRD10591_00024.txt Node
Date: Wed Jan 03 10:00:27 EST 2024
User: Yrep
Spectrometer: HR+D1059
Trigger mode: 1
Integration Time (sec): 1.000000E-1
Scans to average: 1
Electric dark correction enabled: true
Nonlinearity correction enabled: false
Boxcar width: 0
XAxis mode: Wavelengths
Number of Pixels in Spectrum: 2048
>>>>>Begin Spectral Data<<<<<
223.165	-15.5
223.4	-15.5
223.635	-15.5
223.869	-16.5
224.104	-15.5
224.338	-14.5
224.573	-15.5
224.808	-10.5
225.042	-7.5
225.277	-5.5
225.511	-9.5
225.746	-1.5
225.98	-4.5
226.215	11.5
226.449	31.5
226.683	13.5
226.918	34.5
227.152	25.5
227.387	37.5
227.621	33.5
227.856	44.5
228.09	50.5
228.324	67.5
228.559	54.5
228.793	58.5
229.027	66.5
229.262	65.5
229.496	70.5
229.73	85.5
229.964	87.5
230.199	85.5
230.433	69.5
230.667	88.5
230.901	76.5
231.136	85.5
231.37	77.5
231.604	91.5
231.838	86.5
232.072	84.5
232.306	93.5
232.541	69.5
232.775	76.5
233.009	89.5
233.243	75.5
233.477	83.5
233.711	75.5
233.945	77.5
234.179	76.5
234.413	91.5
234.647	86.5
234.881	78.5
235.115	81.5
235.349	70.5
235.583	77.5
235.817	62.5
236.051	74.5
236.285	86.5
236.519	75.5
236.753	89.5
236.987	84.5
237.221	72.5
237.455	73.5
237.689	79.5
237.922	79.5
238.156	75.5
238.39	78.5
238.624	88.5
238.858	78.5
239.091	79.5
239.325	74.5
239.559	71.5
239.793	86.5
240.027	82.5
240.26	87.5
240.494	81.5
240.728	71.5
240.961	76.5
241.195	88.5
241.429	72.5
241.662	72.5
241.896	77.5
242.13	64.5
242.363	64.5
242.597	63.5
242.83	71.5
243.064	90.5
243.298	69.5
243.531	95.5
243.765	83.5
243.998	83.5
244.232	79.5
244.465	87.5
244.699	101.5
244.932	78.5
245.166	79.5
245.399	91.5
245.633	85.5
245.866	83.5
246.099	66.5
246.333	89.5
246.566	76.5
246.8	81.5
247.033	85.5
247.266	76.5
247.5	74.5
247.733	79.5
247.966	84.5
248.2	80.5
248.433	78.5
248.666	80.5
248.899	77.5
249.133	77.5
249.366	80.5
249.599	103.5
249.832	83.5
250.066	96.5
250.299	70.5
250.532	78.5
250.765	70.5
250.998	80.5
251.231	93.5
251.465	102.5
251.698	83.5
251.931	79.5
252.164	85.5
252.397	74.5
252.63	73.5
252.863	76.5
253.096	93.5
253.329	85.5
253.562	84.5
253.795	87.5
254.028	82.5
254.261	86.5
254.494	82.5
254.727	80.5
254.96	82.5
255.193	65.5
255.426	82.5
255.659	77.5
255.892	94.5
256.124	69.5
256.357	82.5
256.59	69.5
256.823	89.5
257.056	74.5
257.289	77.5
257.521	84.5
257.754	82.5
257.987	86.5
258.22	80.5
258.452	78.5
258.685	80.5
258.918	81.5
259.151	77.5
259.383	97.5
259.616	99.5
259.849	66.5
260.081	97.5
260.314	71.5
260.547	84.5
260.779	94.5
261.012	85.5
261.244	75.5
261.477	93.5
261.71	92.5
261.942	87.5
262.175	98.5
262.407	82.5
262.64	76.5
262.872	69.5
263.105	79.5
263.337	70.5
263.57	71.5
263.802	88.5
264.035	78.5
264.267	83.5
264.499	80.5
264.732	86.5
264.964	69.5
265.197	80.5
265.429	71.5
265.661	82.5
265.894	97.5
266.126	83.5
266.358	86.5
266.591	86.5
266.823	79.5
267.055	85.5
267.287	93.5
267.52	95.5
267.752	86.5
267.984	83.5
268.216	78.5
268.448	87.5
268.681	85.5
268.913	82.5
269.145	83.5
269.377	83.5
269.609	80.5
269.841	91.5
270.073	92.5
270.306	85.5
270.538	101.5
270.77	91.5
271.002	102.5
271.234	67.5
271.466	84.5
271.698	85.5
271.93	71.5
272.162	93.5
272.394	84.5
272.626	80.5
272.858	80.5
273.09	90.5
273.322	94.5
273.553	90.5
273.785	85.5
274.017	87.5
274.249	76.5
274.481	94.5
274.713	96.5
274.945	96.5
275.176	87.5
275.408	87.5
275.64	92.5
275.872	86.5
276.104	91.5
276.335	97.5
276.567	89.5
276.799	89.5
277.031	100.5
277.262	94.5
277.494	89.5
277.726	83.5
277.957	86.5
278.189	77.5
278.421	95.5
278.652	101.5
278.884	83.5
279.115	103.5
279.347	96.5
279.579	103.5
279.81	92.5
280.042	79.5
280.273	94.5
280.505	88.5
280.736	90.5
280.968	94.5
281.199	70.5
281.431	82.5
281.662	80.5
281.894	86.5
282.125	105.5
282.356	114.5
282.588	138.5
282.819	104.5
283.051	93.5
283.282	91.5
283.513	94.5
283.745	96.5
283.976	89.5
284.207	84.5
284.439	70.5
284.67	85.5
284.901	90.5
285.132	83.5
285.364	92.5
285.595	80.5
285.826	83.5
286.057	96.5
286.288	95.5
286.52	90.5
286.751	73.5
286.982	90.5
287.213	84.5
287.444	109.5
287.675	83.5
287.906	79.5
288.138	93.5
288.369	93.5
288.6	100.5
288.831	94.5
289.062	93.5
289.293	80.5
289.524	101.5
289.755	84.5
289.986	83.5
290.217	79.5
290.448	82.5
290.679	79.5
290.91	92.5
291.141	75.5
291.371	84.5
291.602	85.5
291.833	87.5
292.064	79.5
292.295	85.5
292.526	82.5
292.757	90.5
292.987	85.5
293.218	85.5
293.449	87.5
293.68	93.5
293.91	83.5
294.141	88.5
294.372	87.5
294.603	76.5
294.833	95.5
295.064	99.5
295.295	89.5
295.525	101.5
295.756	100.5
295.987	116.5
296.217	129.5
296.448	119.5
296.679	102.5
296.909	88.5
297.14	93.5
297.37	82.5
297.601	80.5
297.831	91.5
298.062	88.5
298.292	89.5
298.523	90.5
298.753	86.5
298.984	79.5
299.214	72.5
299.445	86.5
299.675	86.5
299.905	97.5
300.136	95.5
300.366	87.5
300.597	106.5
300.827	109.5
301.057	96.5
301.288	97.5
301.518	106.5
301.748	95.5
301.979	104.5
302.209	93.5
302.439	87.5
302.669	105.5
302.9	77.5
303.13	79.5
303.36	105.5
303.59	102.5
303.82	93.5
304.051	102.5
304.281	92.5
304.511	99.5
304.741	90.5
304.971	85.5
305.201	87.5
305.431	72.5
305.661	73.5
305.891	97.5
306.121	96.5
306.352	95.5
306.582	91.5
306.812	85.5
307.042	97.5
307.272	88.5
307.502	100.5
307.731	105.5
307.961	97.5
308.191	89.5
308.421	87.5
308.651	85.5
308.881	88.5
309.111	94.5
309.341	101.5
309.571	103.5
309.8	97.5
310.03	104.5
310.26	100.5
310.49	94.5
310.72	108.5
310.949	100.5
311.179	92.5
311.409	88.5
311.639	75.5
311.868	94.5
312.098	100.5
312.328	101.5
312.557	105.5
312.787	106.5
313.017	102.5
313.246	100.5
313.476	82.5
313.706	100.5
313.935	109.5
314.165	97.5
314.394	101.5
314.624	94.5
314.853	96.5
315.083	94.5
315.312	90.5
315.542	96.5
315.771	97.5
316.001	105.5
316.23	89.5
316.46	89.5
316.689	88.5
316.919	98.5
317.148	101.5
317.377	95.5
317.607	102.5
317.836	108.5
318.065	95.5
318.295	99.5
318.524	104.5
318.753	88.5
318.983	96.5
319.212	101.5
319.441	119.5
319.67	101.5
319.9	99.5
320.129	95.5
320.358	102.5
320.587	98.5
320.816	100.5
321.046	108.5
321.275	105.5
321.504	90.5
321.733	91.5
321.962	109.5
322.191	117.5
322.42	98.5
322.649	95.5
322.878	111.5
323.108	108.5
323.337	116.5
323.566	121.5
323.795	160.5
324.024	211.5
324.253	381.5
324.482	772.5
324.71	1630.5
324.939	2159.5
325.168	805.5
325.397	245.5
325.626	138.5
325.855	135.5
326.084	143.5
326.313	127.5
326.542	147.5
326.77	233.5
326.999	455.5
327.228	958.5
327.457	1689.5
327.686	1343.5
327.914	367.5
328.143	202.5
328.372	162.5
328.6	134.5
328.829	112.5
329.058	126.5
329.287	114.5
329.515	126.5
329.744	110.5
329.972	115.5
330.201	135.5
330.43	160.5
330.658	126.5
330.887	131.5
331.115	124.5
331.344	100.5
331.572	106.5
331.801	104.5
332.03	85.5
332.258	98.5
332.486	105.5
332.715	98.5
332.943	104.5
333.172	103.5
333.4	97.5
333.629	114.5
333.857	113.5
334.085	118.5
334.314	144.5
334.542	193.5
334.771	174.5
334.999	110.5
335.227	108.5
335.455	105.5
335.684	102.5
335.912	91.5
336.14	95.5
336.369	93.5
336.597	85.5
336.825	86.5
337.053	98.5
337.281	87.5
337.51	77.5
337.738	81.5
337.966	101.5
338.194	103.5
338.422	90.5
338.65	107.5
338.878	97.5
339.106	97.5
339.334	74.5
339.562	90.5
339.79	97.5
340.018	90.5
340.246	87.5
340.474	89.5
340.702	101.5
340.93	90.5
341.158	92.5
341.386	98.5
341.614	83.5
341.842	96.5
342.07	100.5
342.298	93.5
342.526	92.5
342.754	94.5
342.981	91.5
343.209	98.5
343.437	103.5
343.665	90.5
343.893	81.5
344.12	94.5
344.348	78.5
344.576	91.5
344.804	93.5
345.031	101.5
345.259	98.5
345.487	95.5
345.714	89.5
345.942	110.5
346.17	83.5
346.397	95.5
346.625	99.5
346.853	99.5
347.08	102.5
347.308	109.5
347.535	92.5
347.763	103.5
347.99	96.5
348.218	90.5
348.445	114.5
348.673	88.5
348.9	89.5
349.128	99.5
349.355	95.5
349.583	114.5
349.81	104.5
350.037	90.5
350.265	88.5
350.492	104.5
350.72	84.5
350.947	114.5
351.174	113.5
351.402	109.5
351.629	111.5
351.856	93.5
352.083	102.5
352.311	99.5
352.538	111.5
352.765	108.5
352.992	112.5
353.22	101.5
353.447	108.5
353.674	93.5
353.901	103.5
354.128	112.5
354.355	92.5
354.583	89.5
354.81	110.5
355.037	94.5
355.264	101.5
355.491	92.5
355.718	108.5
355.945	98.5
356.172	95.5
356.399	95.5
356.626	103.5
356.853	107.5
357.08	104.5
357.307	97.5
357.534	87.5
357.761	104.5
357.988	102.5
358.215	105.5
358.441	96.5
358.668	111.5
358.895	88.5
359.122	93.5
359.349	90.5
359.576	89.5
359.802	106.5
360.029	103.5
360.256	107.5
360.483	127.5
360.709	106.5
360.936	90.5
361.163	88.5
361.39	98.5
361.616	71.5
361.843	88.5
362.07	89.5
362.296	82.5
362.523	100.5
362.749	88.5
362.976	94.5
363.203	102.5
363.429	91.5
363.656	94.5
363.882	90.5
364.109	109.5
364.335	100.5
364.562	99.5
364.788	93.5
365.015	100.5
365.241	100.5
365.468	112.5
365.694	96.5
365.92	97.5
366.147	78.5
366.373	102.5
366.599	93.5
366.826	96.5
367.052	95.5
367.278	87.5
367.505	95.5
367.731	89.5
367.957	88.5
368.184	96.5
368.41	99.5
368.636	96.5
368.862	124.5
369.089	104.5
369.315	92.5
369.541	90.5
369.767	94.5
369.993	91.5
370.219	102.5
370.445	102.5
370.672	96.5
370.898	98.5
371.124	105.5
371.35	82.5
371.576	93.5
371.802	91.5
372.028	103.5
372.254	101.5
372.48	89.5
372.706	91.5
372.932	78.5
373.158	101.5
373.384	93.5
373.61	82.5
373.835	94.5
374.061	98.5
374.287	93.5
374.513	105.5
374.739	90.5
374.965	80.5
375.191	90.5
375.416	83.5
375.642	92.5
375.868	86.5
376.094	106.5
376.319	100.5
376.545	108.5
376.771	91.5
376.997	91.5
377.222	87.5
377.448	89.5
377.674	93.5
377.899	99.5
378.125	112.5
378.35	86.5
378.576	109.5
378.802	100.5
379.027	99.5
379.253	104.5
379.478	80.5
379.704	84.5
379.929	96.5
380.155	93.5
380.38	100.5
380.606	96.5
380.831	96.5
381.057	96.5
381.282	102.5
381.507	97.5
381.733	108.5
381.958	105.5
382.184	109.5
382.409	118.5
382.634	105.5
382.86	102.5
383.085	100.5
383.31	121.5
383.535	99.5
383.761	99.5
383.986	100.5
384.211	105.5
384.436	116.5
384.662	118.5
384.887	112.5
385.112	106.5
385.337	103.5
385.562	108.5
385.787	129.5
386.013	106.5
386.238	103.5
386.463	103.5
386.688	108.5
386.913	103.5
387.138	116.5
387.363	110.5
387.588	115.5
387.813	105.5
388.038	106.5
388.263	123.5
388.488	114.5
388.713	104.5
388.938	90.5
389.163	89.5
389.387	100.5
389.612	105.5
389.837	96.5
390.062	95.5
390.287	89.5
390.512	85.5
390.736	91.5
390.961	83.5
391.186	94.5
391.411	106.5
391.636	95.5
391.86	87.5
392.085	87.5
392.31	75.5
392.534	93.5
392.759	83.5
392.984	99.5
393.208	98.5
393.433	104.5
393.658	102.5
393.882	98.5
394.107	79.5
394.331	88.5
394.556	90.5
394.78	95.5
395.005	100.5
395.229	86.5
395.454	91.5
395.678	84.5
395.903	95.5
396.127	82.5
396.352	99.5
396.576	89.5
396.801	87.5
397.025	89.5
397.249	93.5
397.474	80.5
397.698	81.5
397.922	94.5
398.147	81.5
398.371	90.5
398.595	90.5
398.82	90.5
399.044	90.5
399.268	92.5
399.492	92.5
399.717	91.5
399.941	91.5
400.165	77.5
400.389	90.5
400.613	91.5
400.837	83.5
401.062	77.5
401.286	101.5
401.51	84.5
401.734	94.5
401.958	91.5
402.182	130.5
402.406	144.5
402.63	110.5
402.854	93.5
403.078	102.5
403.302	89.5
403.526	89.5
403.75	95.5
403.974	76.5
404.198	84.5
404.422	90.5
404.645	85.5
404.869	93.5
405.093	100.5
405.317	107.5
405.541	116.5
405.765	96.5
405.988	117.5
406.212	159.5
406.436	196.5
406.66	132.5
406.883	89.5
407.107	97.5
407.331	92.5
407.555	107.5
407.778	95.5
408.002	93.5
408.226	98.5
408.449	96.5
408.673	82.5
408.896	100.5
409.12	96.5
409.344	88.5
409.567	89.5
409.791	90.5
410.014	91.5
410.238	93.5
410.461	95.5
410.685	99.5
410.908	105.5
411.132	100.5
411.355	96.5
411.578	99.5
411.802	85.5
412.025	93.5
412.249	99.5
412.472	103.5
412.695	94.5
412.919	92.5
413.142	93.5
413.365	88.5
413.589	84.5
413.812	100.5
414.035	94.5
414.258	102.5
414.482	104.5
414.705	100.5
414.928	106.5
415.151	95.5
415.374	92.5
415.597	81.5
415.821	88.5
416.044	108.5
416.267	90.5
416.49	100.5
416.713	91.5
416.936	97.5
417.159	88.5
417.382	87.5
417.605	94.5
417.828	91.5
418.051	87.5
418.274	91.5
418.497	86.5
418.72	84.5
418.943	90.5
419.166	80.5
419.389	93.5
419.611	99.5
419.834	87.5
420.057	86.5
420.28	89.5
420.503	94.5
420.726	96.5
420.948	79.5
421.171	87.5
421.394	95.5
421.617	97.5
421.839	89.5
422.062	94.5
422.285	92.5
422.507	85.5
422.73	124.5
422.953	102.5
423.175	90.5
423.398	87.5
423.621	90.5
423.843	102.5
424.066	102.5
424.288	78.5
424.511	83.5
424.733	97.5
424.956	92.5
425.178	81.5
425.401	86.5
425.623	94.5
425.846	99.5
426.068	96.5
426.291	95.5
426.513	102.5
426.735	85.5
426.958	98.5
427.18	94.5
427.402	130.5
427.625	156.5
427.847	132.5
428.069	107.5
428.292	99.5
428.514	86.5
428.736	83.5
428.958	67.5
429.181	102.5
429.403	87.5
429.625	83.5
429.847	87.5
430.069	108.5
430.292	90.5
430.514	83.5
430.736	84.5
430.958	86.5
431.18	100.5
431.402	93.5
431.624	99.5
431.846	83.5
432.068	96.5
432.29	88.5
432.512	88.5
432.734	87.5
432.956	91.5
433.178	103.5
433.4	102.5
433.622	88.5
433.844	86.5
434.066	96.5
434.287	99.5
434.509	79.5
434.731	87.5
434.953	92.5
435.175	90.5
435.397	86.5
435.618	90.5
435.84	106.5
436.062	103.5
436.284	122.5
436.505	91.5
436.727	105.5
436.949	111.5
437.17	87.5
437.392	80.5
437.614	93.5
437.835	108.5
438.057	115.5
438.278	112.5
438.5	108.5
438.721	109.5
438.943	92.5
439.165	93.5
439.386	87.5
439.608	100.5
439.829	103.5
440.05	114.5
440.272	120.5
440.493	95.5
440.715	77.5
440.936	94.5
441.158	79.5
441.379	94.5
441.6	90.5
441.822	97.5
442.043	92.5
442.264	100.5
442.486	100.5
442.707	109.5
442.928	101.5
443.149	130.5
443.371	110.5
443.592	119.5
443.813	116.5
444.034	115.5
444.255	81.5
444.476	82.5
444.698	98.5
444.919	95.5
445.14	130.5
445.361	116.5
445.582	109.5
445.803	126.5
446.024	148.5
446.245	128.5
446.466	130.5
446.687	96.5
446.908	78.5
447.129	86.5
447.35	94.5
447.571	102.5
447.792	91.5
448.013	112.5
448.234	115.5
448.455	107.5
448.675	101.5
448.896	104.5
449.117	100.5
449.338	102.5
449.559	121.5
449.779	138.5
450	83.5
450.221	86.5
450.442	86.5
450.662	86.5
450.883	95.5
451.104	107.5
451.324	86.5
451.545	107.5
451.766	67.5
451.986	74.5
452.207	109.5
452.428	97.5
452.648	104.5
452.869	108.5
453.089	98.5
453.31	99.5
453.53	92.5
453.751	93.5
453.971	85.5
454.192	93.5
454.412	87.5
454.633	74.5
454.853	84.5
455.073	102.5
455.294	90.5
455.514	92.5
455.734	99.5
455.955	93.5
456.175	88.5
456.395	87.5
456.616	78.5
456.836	74.5
457.056	88.5
457.276	86.5
457.497	93.5
457.717	90.5
457.937	85.5
458.157	95.5
458.377	105.5
458.598	110.5
458.818	136.5
459.038	149.5
459.258	95.5
459.478	90.5
459.698	86.5
459.918	84.5
460.138	79.5
460.358	90.5
460.578	86.5
460.798	99.5
461.018	75.5
461.238	85.5
461.458	91.5
461.678	74.5
461.898	73.5
462.118	78.5
462.338	102.5
462.558	91.5
462.777	70.5
462.997	93.5
463.217	90.5
463.437	104.5
463.657	92.5
463.876	90.5
464.096	98.5
464.316	101.5
464.536	96.5
464.755	99.5
464.975	114.5
465.195	144.5
465.414	144.5
465.634	92.5
465.854	82.5
466.073	80.5
466.293	81.5
466.512	82.5
466.732	80.5
466.951	95.5
467.171	91.5
467.391	79.5
467.61	104.5
467.829	99.5
468.049	115.5
468.268	128.5
468.488	88.5
468.707	73.5
468.927	85.5
469.146	86.5
469.365	88.5
469.585	95.5
469.804	88.5
470.023	98.5
470.243	102.5
470.462	105.5
470.681	104.5
470.901	107.5
471.12	88.5
471.339	95.5
471.558	85.5
471.777	86.5
471.997	104.5
472.216	139.5
472.435	189.5
472.654	108.5
472.873	90.5
473.092	80.5
473.311	89.5
473.53	95.5
473.749	87.5
473.968	98.5
474.187	96.5
474.406	107.5
474.625	114.5
474.844	89.5
475.063	91.5
475.282	93.5
475.501	98.5
475.72	85.5
475.939	78.5
476.158	102.5
476.377	84.5
476.596	87.5
476.814	88.5
477.033	87.5
477.252	98.5
477.471	89.5
477.69	91.5
477.908	94.5
478.127	84.5
478.346	74.5
478.564	88.5
478.783	98.5
479.002	104.5
479.22	81.5
479.439	95.5
479.658	104.5
479.876	95.5
480.095	70.5
480.313	94.5
480.532	103.5
480.751	89.5
480.969	125.5
481.188	296.5
481.406	213.5
481.624	103.5
481.843	85.5
482.061	94.5
482.28	101.5
482.498	93.5
482.717	87.5
482.935	88.5
483.153	86.5
483.372	78.5
483.59	99.5
483.808	99.5
484.027	88.5
484.245	95.5
484.463	80.5
484.681	101.5
484.9	93.5
485.118	100.5
485.336	97.5
485.554	89.5
485.772	100.5
485.99	110.5
486.209	106.5
486.427	96.5
486.645	100.5
486.863	90.5
487.081	99.5
487.299	87.5
487.517	88.5
487.735	92.5
487.953	97.5
488.171	98.5
488.389	100.5
488.607	104.5
488.825	90.5
489.043	77.5
489.261	86.5
489.479	94.5
489.696	91.5
489.914	94.5
490.132	87.5
490.35	94.5
490.568	99.5
490.786	111.5
491.003	79.5
491.221	78.5
491.439	88.5
491.657	93.5
491.874	96.5
492.092	87.5
492.31	86.5
492.527	110.5
492.745	84.5
492.963	91.5
493.18	87.5
493.398	94.5
493.615	106.5
493.833	116.5
494.05	88.5
494.268	93.5
494.485	101.5
494.703	95.5
494.92	89.5
495.138	89.5
495.355	96.5
495.573	76.5
495.79	80.5
496.008	83.5
496.225	72.5
496.442	92.5
496.66	92.5
496.877	87.5
497.094	102.5
497.312	90.5
497.529	99.5
497.746	94.5
497.963	102.5
498.181	79.5
498.398	98.5
498.615	94.5
498.832	100.5
499.049	83.5
499.267	86.5
499.484	81.5
499.701	85.5
499.918	100.5
500.135	83.5
500.352	87.5
500.569	88.5
500.786	86.5
501.003	74.5
501.22	86.5
501.437	86.5
501.654	106.5
501.871	91.5
502.088	98.5
502.305	93.5
502.522	95.5
502.739	79.5
502.956	99.5
503.172	95.5
503.389	101.5
503.606	93.5
503.823	95.5
504.04	94.5
504.256	95.5
504.473	103.5
504.69	80.5
504.907	91.5
505.123	87.5
505.34	87.5
505.557	75.5
505.773	95.5
505.99	88.5
506.207	88.5
506.423	90.5
506.64	82.5
506.856	90.5
507.073	99.5
507.289	107.5
507.506	93.5
507.722	95.5
507.939	105.5
508.155	89.5
508.372	79.5
508.588	102.5
508.805	99.5
509.021	84.5
509.238	99.5
509.454	88.5
509.67	101.5
509.887	96.5
510.103	119.5
510.319	195.5
510.536	659.5
510.752	2116.5
510.968	629.5
511.184	157.5
511.401	96.5
511.617	91.5
511.833	96.5
512.049	89.5
512.265	89.5
512.481	93.5
512.698	101.5
512.914	92.5
513.13	91.5
513.346	101.5
513.562	100.5
513.778	86.5
513.994	109.5
514.21	86.5
514.426	107.5
514.642	121.5
514.858	137.5
515.074	143.5
515.29	367.5
515.506	1213.5
515.721	491.5
515.937	150.5
516.153	107.5
516.369	91.5
516.585	93.5
516.801	85.5
517.016	103.5
517.232	84.5
517.448	94.5
517.664	102.5
517.879	95.5
518.095	108.5
518.311	85.5
518.527	96.5
518.742	87.5
518.958	85.5
519.173	89.5
519.389	98.5
519.605	90.5
519.82	99.5
520.036	93.5
520.251	111.5
520.467	110.5
520.682	91.5
520.898	104.5
521.113	98.5
521.329	112.5
521.544	181.5
521.76	458.5
521.975	1997.5
522.19	1274.5
522.406	283.5
522.621	127.5
522.836	98.5
523.052	100.5
523.267	91.5
523.482	97.5
523.698	101.5
523.913	130.5
524.128	120.5
524.343	102.5
524.559	102.5
524.774	104.5
524.989	101.5
525.204	109.5
525.419	98.5
525.634	93.5
525.849	92.5
526.064	108.5
526.28	93.5
526.495	84.5
526.71	80.5
526.925	89.5
527.14	93.5
527.355	83.5
527.57	86.5
527.785	94.5
527.999	108.5
528.214	99.5
528.429	83.5
528.644	89.5
528.859	88.5
529.074	102.5
529.289	103.5
529.503	168.5
529.718	115.5
529.933	87.5
530.148	83.5
530.363	102.5
530.577	86.5
530.792	90.5
531.007	83.5
531.221	99.5
531.436	87.5
531.651	98.5
531.865	98.5
532.08	84.5
532.295	91.5
532.509	82.5
532.724	96.5
532.938	103.5
533.153	104.5
533.367	89.5
533.582	103.5
533.796	105.5
534.011	90.5
534.225	92.5
