Data from Circ_2015_H10_HRD10591_00047.txt Node
Date: Wed Jan 03 10:00:32 EST 2024
User: Yrep
Spectrometer: HR+D1059
Trigger mode: 1
Integration Time (sec): 1.000000E-1
Scans to average: 1
Electric dark correction enabled: true
Nonlinearity correction enabled: false
Boxcar width: 0
XAxis mode: Wavelengths
Number of Pixels in Spectrum: 2048
>>>>>Begin Spectral Data<<<<<
223.165	-18.44
223.4	-18.44
223.635	-18.44
223.869	-17.44
224.104	-14.44
224.338	-25.44
224.573	-12.44
224.808	-21.44
225.042	-11.44
225.277	3.56
225.511	6.56
225.746	16.56
225.98	13.56
226.215	-2.44
226.449	1.56
226.683	10.56
226.918	37.56
227.152	33.56
227.387	31.56
227.621	37.56
227.856	43.56
228.09	47.56
228.324	51.56
228.559	49.56
228.793	50.56
229.027	52.56
229.262	74.56
229.496	84.56
229.73	70.56
229.964	72.56
230.199	72.56
230.433	72.56
230.667	71.56
230.901	69.56
231.136	70.56
231.37	78.56
231.604	86.56
231.838	71.56
232.072	80.56
232.306	66.56
232.541	72.56
232.775	82.56
233.009	80.56
233.243	80.56
233.477	76.56
233.711	65.56
233.945	86.56
234.179	87.56
234.413	80.56
234.647	73.56
234.881	82.56
235.115	89.56
235.349	73.56
235.583	85.56
235.817	73.56
236.051	72.56
236.285	59.56
236.519	77.56
236.753	71.56
236.987	81.56
237.221	85.56
237.455	66.56
237.689	68.56
237.922	88.56
238.156	81.56
238.39	73.56
238.624	69.56
238.858	79.56
239.091	80.56
239.325	65.56
239.559	77.56
239.793	73.56
240.027	81.56
240.26	83.56
240.494	64.56
240.728	83.56
240.961	73.56
241.195	73.56
241.429	71.56
241.662	87.56
241.896	74.56
242.13	61.56
242.363	78.56
242.597	85.56
242.83	70.56
243.064	69.56
243.298	67.56
243.531	64.56
243.765	81.56
243.998	75.56
244.232	75.56
244.465	89.56
244.699	71.56
244.932	86.56
245.166	65.56
245.399	85.56
245.633	77.56
245.866	75.56
246.099	84.56
246.333	92.56
246.566	65.56
246.8	74.56
247.033	76.56
247.266	80.56
247.5	73.56
247.733	74.56
247.966	79.56
248.2	77.56
248.433	77.56
248.666	67.56
248.899	78.56
249.133	71.56
249.366	80.56
249.599	91.56
249.832	89.56
250.066	73.56
250.299	79.56
250.532	79.56
250.765	75.56
250.998	72.56
251.231	68.56
251.465	96.56
251.698	71.56
251.931	76.56
252.164	77.56
252.397	87.56
252.63	82.56
252.863	76.56
253.096	74.56
253.329	79.56
253.562	69.56
253.795	73.56
254.028	57.56
254.261	81.56
254.494	83.56
254.727	79.56
254.96	85.56
255.193	65.56
255.426	74.56
255.659	71.56
255.892	85.56
256.124	79.56
256.357	74.56
256.59	76.56
256.823	71.56
257.056	68.56
257.289	82.56
257.521	89.56
257.754	72.56
257.987	74.56
258.22	82.56
258.452	78.56
258.685	84.56
258.918	83.56
259.151	81.56
259.383	85.56
259.616	83.56
259.849	80.56
260.081	74.56
260.314	85.56
260.547	69.56
260.779	94.56
261.012	97.56
261.244	65.56
261.477	87.56
261.71	86.56
261.942	94.56
262.175	91.56
262.407	75.56
262.64	83.56
262.872	77.56
263.105	90.56
263.337	84.56
263.57	77.56
263.802	66.56
264.035	75.56
264.267	93.56
264.499	77.56
264.732	93.56
264.964	82.56
265.197	80.56
265.429	82.56
265.661	73.56
265.894	88.56
266.126	66.56
266.358	78.56
266.591	71.56
266.823	62.56
267.055	79.56
267.287	96.56
267.52	95.56
267.752	90.56
267.984	72.56
268.216	81.56
268.448	79.56
268.681	80.56
268.913	78.56
269.145	87.56
269.377	91.56
269.609	79.56
269.841	94.56
270.073	78.56
270.306	82.56
270.538	79.56
270.77	84.56
271.002	91.56
271.234	82.56
271.466	98.56
271.698	86.56
271.93	78.56
272.162	62.56
272.394	87.56
272.626	79.56
272.858	78.56
273.09	91.56
273.322	83.56
273.553	72.56
273.785	76.56
274.017	85.56
274.249	77.56
274.481	72.56
274.713	92.56
274.945	85.56
275.176	80.56
275.408	75.56
275.64	92.56
275.872	83.56
276.104	96.56
276.335	94.56
276.567	89.56
276.799	103.56
277.031	96.56
277.262	106.56
277.494	90.56
277.726	74.56
277.957	96.56
278.189	88.56
278.421	79.56
278.652	70.56
278.884	85.56
279.115	82.56
279.347	69.56
279.579	77.56
279.81	86.56
280.042	86.56
280.273	86.56
280.505	95.56
280.736	81.56
280.968	90.56
281.199	78.56
281.431	89.56
281.662	92.56
281.894	83.56
282.125	90.56
282.356	93.56
282.588	134.56
282.819	117.56
283.051	89.56
283.282	84.56
283.513	91.56
283.745	82.56
283.976	82.56
284.207	86.56
284.439	86.56
284.67	78.56
284.901	94.56
285.132	77.56
285.364	81.56
285.595	82.56
285.826	76.56
286.057	96.56
286.288	76.56
286.52	92.56
286.751	75.56
286.982	81.56
287.213	85.56
287.444	80.56
287.675	84.56
287.906	88.56
288.138	91.56
288.369	97.56
288.6	71.56
288.831	74.56
289.062	85.56
289.293	93.56
289.524	83.56
289.755	90.56
289.986	71.56
290.217	83.56
290.448	81.56
290.679	90.56
290.91	93.56
291.141	93.56
291.371	86.56
291.602	82.56
291.833	90.56
292.064	73.56
292.295	79.56
292.526	69.56
292.757	74.56
292.987	83.56
293.218	71.56
293.449	80.56
293.68	68.56
293.91	84.56
294.141	83.56
294.372	79.56
294.603	93.56
294.833	88.56
295.064	86.56
295.295	81.56
295.525	75.56
295.756	90.56
295.987	114.56
296.217	132.56
296.448	97.56
296.679	75.56
296.909	75.56
297.14	79.56
297.37	99.56
297.601	73.56
297.831	77.56
298.062	89.56
298.292	70.56
298.523	89.56
298.753	81.56
298.984	81.56
299.214	71.56
299.445	91.56
299.675	95.56
299.905	89.56
300.136	97.56
300.366	86.56
300.597	76.56
300.827	85.56
301.057	87.56
301.288	101.56
301.518	94.56
301.748	85.56
301.979	105.56
302.209	83.56
302.439	87.56
302.669	82.56
302.9	85.56
303.13	74.56
303.36	100.56
303.59	106.56
303.82	91.56
304.051	88.56
304.281	90.56
304.511	91.56
304.741	80.56
304.971	82.56
305.201	86.56
305.431	92.56
305.661	95.56
305.891	86.56
306.121	93.56
306.352	97.56
306.582	101.56
306.812	99.56
307.042	93.56
307.272	102.56
307.502	89.56
307.731	79.56
307.961	110.56
308.191	85.56
308.421	75.56
308.651	92.56
308.881	93.56
309.111	73.56
309.341	98.56
309.571	82.56
309.8	94.56
310.03	97.56
310.26	87.56
310.49	94.56
310.72	89.56
310.949	87.56
311.179	100.56
311.409	85.56
311.639	84.56
311.868	88.56
312.098	91.56
312.328	95.56
312.557	100.56
312.787	105.56
313.017	85.56
313.246	81.56
313.476	79.56
313.706	90.56
313.935	83.56
314.165	98.56
314.394	89.56
314.624	85.56
314.853	93.56
315.083	85.56
315.312	85.56
315.542	73.56
315.771	88.56
316.001	81.56
316.23	80.56
316.46	96.56
316.689	73.56
316.919	83.56
317.148	106.56
317.377	78.56
317.607	72.56
317.836	81.56
318.065	75.56
318.295	85.56
318.524	90.56
318.753	81.56
318.983	81.56
319.212	105.56
319.441	100.56
319.67	94.56
319.9	95.56
320.129	79.56
320.358	83.56
320.587	91.56
320.816	85.56
321.046	91.56
321.275	96.56
321.504	100.56
321.733	84.56
321.962	98.56
322.191	82.56
322.42	102.56
322.649	107.56
322.878	109.56
323.108	102.56
323.337	114.56
323.566	121.56
323.795	145.56
324.024	187.56
324.253	345.56
324.482	700.56
324.71	1459.56
324.939	1915.56
325.168	714.56
325.397	213.56
325.626	145.56
325.855	129.56
326.084	118.56
326.313	109.56
326.542	144.56
326.77	207.56
326.999	408.56
327.228	831.56
327.457	1417.56
327.686	1181.56
327.914	338.56
328.143	197.56
328.372	173.56
328.6	136.56
328.829	90.56
329.058	114.56
329.287	117.56
329.515	95.56
329.744	106.56
329.972	113.56
330.201	153.56
330.43	211.56
330.658	149.56
330.887	129.56
331.115	126.56
331.344	99.56
331.572	91.56
331.801	84.56
332.03	95.56
332.258	96.56
332.486	86.56
332.715	91.56
332.943	89.56
333.172	82.56
333.4	102.56
333.629	91.56
333.857	115.56
334.085	131.56
334.314	175.56
334.542	247.56
334.771	233.56
334.999	112.56
335.227	99.56
335.455	90.56
335.684	81.56
335.912	88.56
336.14	104.56
336.369	90.56
336.597	93.56
336.825	89.56
337.053	90.56
337.281	81.56
337.51	70.56
337.738	95.56
337.966	89.56
338.194	87.56
338.422	93.56
338.65	79.56
338.878	91.56
339.106	91.56
339.334	86.56
339.562	72.56
339.79	88.56
340.018	91.56
340.246	70.56
340.474	105.56
340.702	74.56
340.93	91.56
341.158	93.56
341.386	88.56
341.614	71.56
341.842	94.56
342.07	77.56
342.298	85.56
342.526	85.56
342.754	85.56
342.981	79.56
343.209	80.56
343.437	89.56
343.665	87.56
343.893	83.56
344.12	94.56
344.348	86.56
344.576	82.56
344.804	91.56
345.031	96.56
345.259	88.56
345.487	73.56
345.714	81.56
345.942	84.56
346.17	72.56
346.397	91.56
346.625	96.56
346.853	93.56
347.08	83.56
347.308	91.56
347.535	79.56
347.763	76.56
347.99	99.56
348.218	104.56
348.445	102.56
348.673	96.56
348.9	86.56
349.128	86.56
349.355	86.56
349.583	86.56
349.81	95.56
350.037	93.56
350.265	103.56
350.492	91.56
350.72	98.56
350.947	92.56
351.174	107.56
351.402	98.56
351.629	96.56
351.856	98.56
352.083	81.56
352.311	94.56
352.538	108.56
352.765	107.56
352.992	107.56
353.22	100.56
353.447	99.56
353.674	90.56
353.901	98.56
354.128	89.56
354.355	88.56
354.583	94.56
354.81	101.56
355.037	99.56
355.264	95.56
355.491	89.56
355.718	87.56
355.945	81.56
356.172	81.56
356.399	95.56
356.626	75.56
356.853	78.56
357.08	90.56
357.307	86.56
357.534	85.56
357.761	89.56
357.988	93.56
358.215	98.56
358.441	73.56
358.668	91.56
358.895	86.56
359.122	80.56
359.349	93.56
359.576	85.56
359.802	88.56
360.029	97.56
360.256	94.56
360.483	102.56
360.709	83.56
360.936	88.56
361.163	84.56
361.39	83.56
361.616	91.56
361.843	79.56
362.07	78.56
362.296	82.56
362.523	75.56
362.749	90.56
362.976	88.56
363.203	84.56
363.429	86.56
363.656	92.56
363.882	67.56
364.109	79.56
364.335	84.56
364.562	88.56
364.788	80.56
365.015	73.56
365.241	99.56
365.468	87.56
365.694	87.56
365.92	81.56
366.147	81.56
366.373	83.56
366.599	88.56
366.826	85.56
367.052	86.56
367.278	88.56
367.505	88.56
367.731	90.56
367.957	90.56
368.184	93.56
368.41	83.56
368.636	86.56
368.862	114.56
369.089	97.56
369.315	93.56
369.541	85.56
369.767	82.56
369.993	81.56
370.219	88.56
370.445	79.56
370.672	77.56
370.898	79.56
371.124	98.56
371.35	74.56
371.576	88.56
371.802	75.56
372.028	70.56
372.254	78.56
372.48	70.56
372.706	81.56
372.932	87.56
373.158	82.56
373.384	81.56
373.61	80.56
373.835	80.56
374.061	95.56
374.287	87.56
374.513	83.56
374.739	84.56
374.965	93.56
375.191	88.56
375.416	90.56
375.642	88.56
375.868	92.56
376.094	89.56
376.319	84.56
376.545	93.56
376.771	91.56
376.997	90.56
377.222	96.56
377.448	95.56
377.674	80.56
377.899	88.56
378.125	93.56
378.35	95.56
378.576	83.56
378.802	91.56
379.027	86.56
379.253	105.56
379.478	85.56
379.704	82.56
379.929	87.56
380.155	82.56
380.38	91.56
380.606	86.56
380.831	103.56
381.057	92.56
381.282	98.56
381.507	96.56
381.733	96.56
381.958	97.56
382.184	98.56
382.409	91.56
382.634	82.56
382.86	100.56
383.085	96.56
383.31	87.56
383.535	87.56
383.761	94.56
383.986	91.56
384.211	92.56
384.436	88.56
384.662	100.56
384.887	111.56
385.112	106.56
385.337	100.56
385.562	94.56
385.787	116.56
386.013	115.56
386.238	101.56
386.463	112.56
386.688	102.56
386.913	109.56
387.138	96.56
387.363	108.56
387.588	94.56
387.813	89.56
388.038	81.56
388.263	115.56
388.488	101.56
388.713	89.56
388.938	88.56
389.163	89.56
389.387	105.56
389.612	82.56
389.837	78.56
390.062	96.56
390.287	81.56
390.512	78.56
390.736	96.56
390.961	88.56
391.186	83.56
391.411	89.56
391.636	86.56
391.86	69.56
392.085	89.56
392.31	86.56
392.534	91.56
392.759	85.56
392.984	78.56
393.208	91.56
393.433	83.56
393.658	72.56
393.882	87.56
394.107	79.56
394.331	79.56
394.556	92.56
394.78	97.56
395.005	89.56
395.229	85.56
395.454	81.56
395.678	82.56
395.903	88.56
396.127	82.56
396.352	75.56
396.576	81.56
396.801	86.56
397.025	82.56
397.249	83.56
397.474	87.56
397.698	70.56
397.922	80.56
398.147	75.56
398.371	93.56
398.595	83.56
398.82	68.56
399.044	89.56
399.268	71.56
399.492	90.56
399.717	73.56
399.941	79.56
400.165	92.56
400.389	81.56
400.613	72.56
400.837	85.56
401.062	92.56
401.286	88.56
401.51	81.56
401.734	88.56
401.958	85.56
402.182	122.56
402.406	143.56
402.63	116.56
402.854	90.56
403.078	74.56
403.302	85.56
403.526	97.56
403.75	75.56
403.974	85.56
404.198	86.56
404.422	96.56
404.645	103.56
404.869	70.56
405.093	87.56
405.317	88.56
405.541	102.56
405.765	93.56
405.988	97.56
406.212	140.56
406.436	203.56
406.66	129.56
406.883	85.56
407.107	77.56
407.331	91.56
407.555	100.56
407.778	99.56
408.002	101.56
408.226	82.56
408.449	81.56
408.673	84.56
408.896	80.56
409.12	69.56
409.344	85.56
409.567	87.56
409.791	78.56
410.014	98.56
410.238	93.56
410.461	82.56
410.685	76.56
410.908	87.56
411.132	111.56
411.355	89.56
411.578	82.56
411.802	81.56
412.025	86.56
412.249	96.56
412.472	81.56
412.695	87.56
412.919	97.56
413.142	87.56
413.365	89.56
413.589	82.56
413.812	88.56
414.035	81.56
414.258	92.56
414.482	83.56
414.705	69.56
414.928	91.56
415.151	84.56
415.374	86.56
415.597	99.56
415.821	76.56
416.044	88.56
416.267	82.56
416.49	84.56
416.713	79.56
416.936	79.56
417.159	77.56
417.382	91.56
417.605	90.56
417.828	90.56
418.051	95.56
418.274	95.56
418.497	64.56
418.72	64.56
418.943	58.56
419.166	79.56
419.389	73.56
419.611	80.56
419.834	89.56
420.057	83.56
420.28	90.56
420.503	86.56
420.726	72.56
420.948	91.56
421.171	85.56
421.394	86.56
421.617	86.56
421.839	77.56
422.062	77.56
422.285	81.56
422.507	90.56
422.73	88.56
422.953	106.56
423.175	91.56
423.398	86.56
423.621	78.56
423.843	97.56
424.066	83.56
424.288	75.56
424.511	89.56
424.733	79.56
424.956	91.56
425.178	94.56
425.401	103.56
425.623	85.56
425.846	90.56
426.068	89.56
426.291	89.56
426.513	74.56
426.735	80.56
426.958	109.56
427.18	92.56
427.402	127.56
427.625	151.56
427.847	129.56
428.069	99.56
428.292	79.56
428.514	78.56
428.736	81.56
428.958	80.56
429.181	96.56
429.403	85.56
429.625	62.56
429.847	87.56
430.069	87.56
430.292	87.56
430.514	82.56
430.736	83.56
430.958	86.56
431.18	88.56
431.402	89.56
431.624	81.56
431.846	86.56
432.068	84.56
432.29	75.56
432.512	90.56
432.734	93.56
432.956	87.56
433.178	100.56
433.4	90.56
433.622	82.56
433.844	86.56
434.066	82.56
434.287	92.56
434.509	78.56
434.731	87.56
434.953	80.56
435.175	86.56
435.397	87.56
435.618	86.56
435.84	94.56
436.062	115.56
436.284	104.56
436.505	95.56
436.727	92.56
436.949	91.56
437.17	89.56
437.392	84.56
437.614	84.56
437.835	88.56
438.057	99.56
438.278	111.56
438.5	88.56
438.721	109.56
438.943	75.56
439.165	91.56
439.386	75.56
439.608	85.56
439.829	73.56
440.05	120.56
440.272	135.56
440.493	101.56
440.715	75.56
440.936	72.56
441.158	83.56
441.379	93.56
441.6	77.56
441.822	79.56
442.043	75.56
442.264	96.56
442.486	90.56
442.707	91.56
442.928	106.56
443.149	109.56
443.371	121.56
443.592	103.56
443.813	92.56
444.034	102.56
444.255	98.56
444.476	88.56
444.698	84.56
444.919	78.56
445.14	125.56
445.361	121.56
445.582	106.56
445.803	121.56
446.024	125.56
446.245	126.56
446.466	93.56
446.687	72.56
446.908	96.56
447.129	70.56
447.35	78.56
447.571	92.56
447.792	89.56
448.013	79.56
448.234	92.56
448.455	91.56
448.675	89.56
448.896	120.56
449.117	94.56
449.338	90.56
449.559	106.56
449.779	122.56
450	82.56
450.221	89.56
450.442	85.56
450.662	79.56
450.883	87.56
451.104	95.56
451.324	89.56
451.545	84.56
451.766	94.56
451.986	75.56
452.207	83.56
452.428	96.56
452.648	99.56
452.869	99.56
453.089	103.56
453.31	99.56
453.53	73.56
453.751	80.56
453.971	101.56
454.192	89.56
454.412	81.56
454.633	77.56
454.853	87.56
455.073	81.56
455.294	81.56
455.514	91.56
455.734	78.56
455.955	76.56
456.175	55.56
456.395	82.56
456.616	70.56
456.836	85.56
457.056	73.56
457.276	86.56
457.497	75.56
457.717	88.56
457.937	74.56
458.157	78.56
458.377	91.56
458.598	100.56
458.818	137.56
459.038	142.56
459.258	106.56
459.478	72.56
459.698	80.56
459.918	88.56
460.138	71.56
460.358	98.56
460.578	85.56
460.798	87.56
461.018	82.56
461.238	83.56
461.458	78.56
461.678	74.56
461.898	75.56
462.118	83.56
462.338	86.56
462.558	71.56
462.777	82.56
462.997	89.56
463.217	90.56
463.437	89.56
463.657	95.56
463.876	73.56
464.096	81.56
464.316	93.56
464.536	87.56
464.755	78.56
464.975	99.56
465.195	138.56
465.414	116.56
465.634	69.56
465.854	85.56
466.073	88.56
466.293	84.56
466.512	85.56
466.732	92.56
466.951	82.56
467.171	89.56
467.391	85.56
467.61	91.56
467.829	94.56
468.049	120.56
468.268	153.56
468.488	94.56
468.707	88.56
468.927	81.56
469.146	94.56
469.365	87.56
469.585	78.56
469.804	86.56
470.023	88.56
470.243	82.56
470.462	110.56
470.681	98.56
470.901	95.56
471.12	87.56
471.339	87.56
471.558	90.56
471.777	102.56
471.997	113.56
472.216	186.56
472.435	279.56
472.654	121.56
472.873	88.56
473.092	87.56
473.311	71.56
473.53	78.56
473.749	93.56
473.968	99.56
474.187	89.56
474.406	83.56
474.625	85.56
474.844	95.56
475.063	80.56
475.282	67.56
475.501	96.56
475.72	88.56
475.939	93.56
476.158	79.56
476.377	85.56
476.596	77.56
476.814	75.56
477.033	91.56
477.252	77.56
477.471	74.56
477.69	83.56
477.908	89.56
478.127	85.56
478.346	85.56
478.564	78.56
478.783	95.56
479.002	89.56
479.22	76.56
479.439	94.56
479.658	102.56
479.876	84.56
480.095	100.56
480.313	87.56
480.532	102.56
480.751	97.56
480.969	192.56
481.188	490.56
481.406	315.56
481.624	125.56
481.843	81.56
482.061	81.56
482.28	91.56
482.498	86.56
482.717	92.56
482.935	79.56
483.153	82.56
483.372	84.56
483.59	75.56
483.808	79.56
484.027	98.56
484.245	94.56
484.463	74.56
484.681	95.56
484.9	79.56
485.118	89.56
485.336	92.56
485.554	74.56
485.772	91.56
485.99	104.56
486.209	87.56
486.427	97.56
486.645	95.56
486.863	106.56
487.081	89.56
487.299	93.56
487.517	91.56
487.735	88.56
487.953	88.56
488.171	90.56
488.389	85.56
488.607	83.56
488.825	85.56
489.043	88.56
489.261	86.56
489.479	70.56
489.696	87.56
489.914	82.56
490.132	71.56
490.35	75.56
490.568	91.56
490.786	95.56
491.003	86.56
491.221	85.56
491.439	100.56
491.657	96.56
491.874	84.56
492.092	80.56
492.31	96.56
492.527	89.56
492.745	85.56
492.963	77.56
493.18	90.56
493.398	97.56
493.615	89.56
493.833	101.56
494.05	94.56
494.268	72.56
494.485	102.56
494.703	86.56
494.92	88.56
495.138	75.56
495.355	78.56
495.573	83.56
495.79	95.56
496.008	92.56
496.225	95.56
496.442	78.56
496.66	82.56
496.877	92.56
497.094	86.56
497.312	93.56
497.529	77.56
497.746	91.56
497.963	81.56
498.181	110.56
498.398	81.56
498.615	96.56
498.832	112.56
499.049	94.56
499.267	83.56
499.484	82.56
499.701	81.56
499.918	87.56
500.135	75.56
500.352	86.56
500.569	82.56
500.786	86.56
501.003	72.56
501.22	81.56
501.437	70.56
501.654	90.56
501.871	99.56
502.088	89.56
502.305	94.56
502.522	91.56
502.739	84.56
502.956	88.56
503.172	84.56
503.389	95.56
503.606	106.56
503.823	80.56
504.04	81.56
504.256	91.56
504.473	84.56
504.69	91.56
504.907	88.56
505.123	85.56
505.34	89.56
505.557	94.56
505.773	76.56
505.99	80.56
506.207	84.56
506.423	90.56
506.64	101.56
506.856	85.56
507.073	70.56
507.289	89.56
507.506	102.56
507.722	100.56
507.939	103.56
508.155	100.56
508.372	88.56
508.588	92.56
508.805	89.56
509.021	81.56
509.238	92.56
509.454	100.56
509.67	88.56
509.887	104.56
510.103	115.56
510.319	180.56
510.536	640.56
510.752	2069.56
510.968	631.56
511.184	146.56
511.401	96.56
511.617	99.56
511.833	109.56
512.049	78.56
512.265	83.56
512.481	81.56
512.698	90.56
512.914	76.56
513.13	86.56
513.346	89.56
513.562	86.56
513.778	96.56
513.994	90.56
514.21	100.56
514.426	100.56
514.642	124.56
514.858	111.56
515.074	141.56
515.29	357.56
515.506	1213.56
515.721	470.56
515.937	146.56
516.153	95.56
516.369	82.56
516.585	91.56
516.801	98.56
517.016	96.56
517.232	89.56
517.448	84.56
