Data from Circ_2015_H10_HRD10591_00084.txt Node
Date: Wed Jan 03 10:00:39 EST 2024
User: Yrep
Spectrometer: HR+D1059
Trigger mode: 1
Integration Time (sec): 1.000000E-1
Scans to average: 1
Electric dark correction enabled: true
Nonlinearity correction enabled: false
Boxcar width: 0
XAxis mode: Wavelengths
Number of Pixels in Spectrum: 2048
>>>>>Begin Spectral Data<<<<<
223.165	-19.38
223.4	-19.38
223.635	-19.38
223.869	-23.38
224.104	-22.38
224.338	-19.38
224.573	-6.38
224.808	-11.38
225.042	-6.38
225.277	-6.38
225.511	-1.38
225.746	-5.38
225.98	20.62
226.215	12.62
226.449	24.62
226.683	19.62
226.918	21.62
227.152	22.62
227.387	44.62
227.621	33.62
227.856	46.62
228.09	46.62
228.324	49.62
228.559	60.62
228.793	54.62
229.027	57.62
229.262	59.62
229.496	79.62
229.73	80.62
229.964	74.62
230.199	71.62
230.433	77.62
230.667	68.62
230.901	81.62
231.136	71.62
231.37	70.62
231.604	86.62
231.838	84.62
232.072	75.62
232.306	76.62
232.541	85.62
232.775	80.62
233.009	84.62
233.243	75.62
233.477	79.62
233.711	85.62
233.945	93.62
234.179	90.62
234.413	82.62
234.647	81.62
234.881	71.62
235.115	62.62
235.349	70.62
235.583	79.62
235.817	77.62
236.051	72.62
236.285	67.62
236.519	77.62
236.753	65.62
236.987	76.62
237.221	73.62
237.455	72.62
237.689	71.62
237.922	75.62
238.156	72.62
238.39	62.62
238.624	77.62
238.858	79.62
239.091	71.62
239.325	73.62
239.559	72.62
239.793	78.62
240.027	86.62
240.26	78.62
240.494	89.62
240.728	71.62
240.961	89.62
241.195	81.62
241.429	59.62
241.662	70.62
241.896	83.62
242.13	73.62
242.363	84.62
242.597	80.62
242.83	71.62
243.064	78.62
243.298	82.62
243.531	87.62
243.765	67.62
243.998	74.62
244.232	87.62
244.465	97.62
244.699	72.62
244.932	79.62
245.166	79.62
245.399	71.62
245.633	69.62
245.866	75.62
246.099	70.62
246.333	78.62
246.566	80.62
246.8	92.62
247.033	63.62
247.266	85.62
247.5	85.62
247.733	73.62
247.966	71.62
248.2	102.62
248.433	79.62
248.666	90.62
248.899	84.62
249.133	73.62
249.366	79.62
249.599	94.62
249.832	75.62
250.066	76.62
250.299	71.62
250.532	87.62
250.765	72.62
250.998	85.62
251.231	88.62
251.465	86.62
251.698	80.62
251.931	84.62
252.164	74.62
252.397	83.62
252.63	81.62
252.863	82.62
253.096	79.62
253.329	81.62
253.562	57.62
253.795	69.62
254.028	81.62
254.261	74.62
254.494	82.62
254.727	90.62
254.96	83.62
255.193	71.62
255.426	81.62
255.659	82.62
255.892	92.62
256.124	86.62
256.357	82.62
256.59	84.62
256.823	95.62
257.056	85.62
257.289	76.62
257.521	85.62
257.754	74.62
257.987	87.62
258.22	75.62
258.452	72.62
258.685	68.62
258.918	86.62
259.151	66.62
259.383	81.62
259.616	75.62
259.849	72.62
260.081	86.62
260.314	80.62
260.547	98.62
260.779	80.62
261.012	89.62
261.244	86.62
261.477	88.62
261.71	81.62
261.942	90.62
262.175	95.62
262.407	83.62
262.64	100.62
262.872	88.62
263.105	89.62
263.337	72.62
263.57	76.62
263.802	76.62
264.035	69.62
264.267	75.62
264.499	81.62
264.732	83.62
264.964	73.62
265.197	80.62
265.429	83.62
265.661	87.62
265.894	98.62
266.126	88.62
266.358	77.62
266.591	76.62
266.823	90.62
267.055	75.62
267.287	57.62
267.52	94.62
267.752	94.62
267.984	74.62
268.216	81.62
268.448	85.62
268.681	83.62
268.913	78.62
269.145	80.62
269.377	76.62
269.609	75.62
269.841	88.62
270.073	86.62
270.306	71.62
270.538	86.62
270.77	96.62
271.002	90.62
271.234	86.62
271.466	85.62
271.698	80.62
271.93	78.62
272.162	90.62
272.394	81.62
272.626	86.62
272.858	87.62
273.09	85.62
273.322	86.62
273.553	81.62
273.785	70.62
274.017	83.62
274.249	76.62
274.481	82.62
274.713	93.62
274.945	83.62
275.176	95.62
275.408	86.62
275.64	93.62
275.872	79.62
276.104	87.62
276.335	82.62
276.567	83.62
276.799	95.62
277.031	104.62
277.262	99.62
277.494	78.62
277.726	91.62
277.957	78.62
278.189	74.62
278.421	92.62
278.652	98.62
278.884	89.62
279.115	84.62
279.347	64.62
279.579	76.62
279.81	108.62
280.042	105.62
280.273	92.62
280.505	92.62
280.736	85.62
280.968	84.62
281.199	74.62
281.431	87.62
281.662	80.62
281.894	66.62
282.125	81.62
282.356	106.62
282.588	132.62
282.819	104.62
283.051	82.62
283.282	86.62
283.513	78.62
283.745	96.62
283.976	87.62
284.207	87.62
284.439	105.62
284.67	91.62
284.901	86.62
285.132	80.62
285.364	81.62
285.595	92.62
285.826	92.62
286.057	84.62
286.288	88.62
286.52	59.62
286.751	75.62
286.982	81.62
287.213	79.62
287.444	90.62
287.675	83.62
287.906	89.62
288.138	94.62
288.369	81.62
288.6	94.62
288.831	84.62
289.062	86.62
289.293	65.62
289.524	75.62
289.755	68.62
289.986	76.62
290.217	86.62
290.448	83.62
290.679	92.62
290.91	81.62
291.141	76.62
291.371	80.62
291.602	86.62
291.833	80.62
292.064	80.62
292.295	86.62
292.526	80.62
292.757	83.62
292.987	79.62
293.218	84.62
293.449	89.62
293.68	78.62
293.91	82.62
294.141	91.62
294.372	87.62
294.603	81.62
294.833	76.62
295.064	72.62
295.295	94.62
295.525	105.62
295.756	96.62
295.987	112.62
296.217	133.62
296.448	131.62
296.679	94.62
296.909	84.62
297.14	95.62
297.37	93.62
297.601	89.62
297.831	78.62
298.062	80.62
298.292	95.62
298.523	93.62
298.753	81.62
298.984	90.62
299.214	91.62
299.445	81.62
299.675	85.62
299.905	87.62
300.136	99.62
300.366	87.62
300.597	93.62
300.827	82.62
301.057	91.62
301.288	87.62
301.518	91.62
301.748	102.62
301.979	94.62
302.209	99.62
302.439	99.62
302.669	88.62
302.9	70.62
303.13	86.62
303.36	97.62
303.59	98.62
303.82	108.62
304.051	92.62
304.281	91.62
304.511	84.62
304.741	87.62
304.971	78.62
305.201	87.62
305.431	79.62
305.661	96.62
305.891	87.62
306.121	88.62
306.352	90.62
306.582	100.62
306.812	87.62
307.042	86.62
307.272	98.62
307.502	101.62
307.731	112.62
307.961	108.62
308.191	93.62
308.421	104.62
308.651	100.62
308.881	97.62
309.111	91.62
309.341	88.62
309.571	88.62
309.8	82.62
310.03	92.62
310.26	99.62
310.49	101.62
310.72	100.62
310.949	91.62
311.179	89.62
311.409	87.62
311.639	79.62
311.868	93.62
312.098	96.62
312.328	94.62
312.557	83.62
312.787	90.62
313.017	106.62
313.246	87.62
313.476	95.62
313.706	99.62
313.935	62.62
314.165	88.62
314.394	90.62
314.624	83.62
314.853	97.62
315.083	89.62
315.312	84.62
315.542	91.62
315.771	89.62
316.001	94.62
316.23	91.62
316.46	90.62
316.689	93.62
316.919	75.62
317.148	90.62
317.377	89.62
317.607	100.62
317.836	106.62
318.065	94.62
318.295	82.62
318.524	94.62
318.753	90.62
318.983	97.62
319.212	94.62
319.441	98.62
319.67	97.62
319.9	97.62
320.129	81.62
320.358	90.62
320.587	99.62
320.816	98.62
321.046	102.62
321.275	112.62
321.504	83.62
321.733	92.62
321.962	106.62
322.191	94.62
322.42	93.62
322.649	104.62
322.878	105.62
323.108	91.62
323.337	111.62
323.566	130.62
323.795	134.62
324.024	180.62
324.253	373.62
324.482	789.62
324.71	1544.62
324.939	2069.62
325.168	759.62
325.397	217.62
325.626	162.62
325.855	117.62
326.084	119.62
326.313	127.62
326.542	142.62
326.77	226.62
326.999	480.62
327.228	879.62
327.457	1594.62
327.686	1286.62
327.914	357.62
328.143	205.62
328.372	209.62
328.6	146.62
328.829	115.62
329.058	113.62
329.287	99.62
329.515	110.62
329.744	123.62
329.972	169.62
330.201	241.62
330.43	284.62
330.658	174.62
330.887	136.62
331.115	114.62
331.344	93.62
331.572	99.62
331.801	104.62
332.03	108.62
332.258	103.62
332.486	82.62
332.715	98.62
332.943	102.62
333.172	99.62
333.4	89.62
333.629	97.62
333.857	128.62
334.085	158.62
334.314	218.62
334.542	360.62
334.771	344.62
334.999	137.62
335.227	105.62
335.455	100.62
335.684	91.62
335.912	103.62
336.14	87.62
336.369	82.62
336.597	82.62
336.825	97.62
337.053	82.62
337.281	93.62
337.51	89.62
337.738	79.62
337.966	83.62
338.194	99.62
338.422	86.62
338.65	75.62
338.878	76.62
339.106	96.62
339.334	92.62
339.562	85.62
339.79	95.62
340.018	77.62
340.246	97.62
340.474	98.62
340.702	84.62
340.93	83.62
341.158	87.62
341.386	96.62
341.614	99.62
341.842	80.62
342.07	94.62
342.298	87.62
342.526	81.62
342.754	92.62
342.981	84.62
343.209	75.62
343.437	102.62
343.665	90.62
343.893	101.62
344.12	94.62
344.348	76.62
344.576	82.62
344.804	67.62
345.031	94.62
345.259	89.62
345.487	89.62
345.714	87.62
345.942	100.62
346.17	89.62
346.397	95.62
346.625	95.62
346.853	90.62
347.08	95.62
347.308	93.62
347.535	94.62
347.763	104.62
347.99	93.62
348.218	94.62
348.445	97.62
348.673	90.62
348.9	88.62
349.128	106.62
349.355	110.62
349.583	98.62
349.81	77.62
350.037	83.62
350.265	100.62
350.492	94.62
350.72	87.62
350.947	101.62
351.174	98.62
351.402	90.62
351.629	93.62
351.856	91.62
352.083	95.62
352.311	92.62
352.538	97.62
352.765	99.62
352.992	107.62
353.22	108.62
353.447	101.62
353.674	101.62
353.901	96.62
354.128	95.62
354.355	81.62
354.583	99.62
354.81	91.62
355.037	101.62
355.264	105.62
355.491	89.62
355.718	90.62
355.945	97.62
356.172	89.62
356.399	80.62
356.626	95.62
356.853	104.62
357.08	92.62
357.307	101.62
357.534	91.62
357.761	88.62
357.988	89.62
358.215	109.62
358.441	82.62
358.668	89.62
358.895	95.62
359.122	97.62
359.349	82.62
359.576	83.62
359.802	117.62
360.029	91.62
360.256	95.62
360.483	94.62
360.709	89.62
360.936	93.62
361.163	92.62
361.39	102.62
361.616	90.62
361.843	81.62
362.07	73.62
362.296	88.62
362.523	85.62
362.749	92.62
362.976	79.62
363.203	90.62
363.429	82.62
363.656	87.62
363.882	73.62
364.109	83.62
364.335	78.62
364.562	81.62
364.788	97.62
365.015	89.62
365.241	88.62
365.468	115.62
365.694	86.62
365.92	78.62
366.147	88.62
366.373	100.62
366.599	95.62
366.826	71.62
367.052	90.62
367.278	91.62
367.505	91.62
367.731	87.62
367.957	84.62
368.184	88.62
368.41	103.62
368.636	112.62
368.862	122.62
369.089	109.62
369.315	101.62
369.541	84.62
369.767	83.62
369.993	86.62
370.219	92.62
370.445	85.62
370.672	75.62
370.898	95.62
371.124	89.62
371.35	71.62
371.576	82.62
371.802	82.62
372.028	103.62
372.254	81.62
372.48	94.62
372.706	79.62
372.932	89.62
373.158	88.62
373.384	89.62
373.61	84.62
373.835	79.62
374.061	86.62
374.287	88.62
374.513	83.62
374.739	83.62
374.965	79.62
375.191	87.62
375.416	88.62
375.642	90.62
375.868	105.62
376.094	87.62
376.319	76.62
376.545	84.62
376.771	91.62
376.997	98.62
377.222	84.62
377.448	100.62
377.674	81.62
377.899	85.62
378.125	92.62
378.35	86.62
378.576	91.62
378.802	89.62
379.027	83.62
379.253	74.62
379.478	85.62
379.704	78.62
379.929	75.62
380.155	87.62
380.38	84.62
380.606	92.62
380.831	86.62
381.057	85.62
381.282	88.62
381.507	101.62
381.733	91.62
381.958	92.62
382.184	103.62
382.409	90.62
382.634	106.62
382.86	98.62
383.085	90.62
383.31	98.62
383.535	86.62
383.761	82.62
383.986	89.62
384.211	87.62
384.436	102.62
384.662	96.62
384.887	103.62
385.112	100.62
385.337	101.62
385.562	104.62
385.787	107.62
386.013	102.62
386.238	92.62
386.463	107.62
386.688	101.62
386.913	103.62
387.138	98.62
387.363	92.62
387.588	106.62
387.813	79.62
388.038	89.62
388.263	114.62
388.488	112.62
388.713	84.62
388.938	96.62
389.163	83.62
389.387	90.62
389.612	79.62
389.837	83.62
390.062	78.62
390.287	81.62
390.512	87.62
390.736	83.62
390.961	94.62
391.186	98.62
391.411	94.62
391.636	79.62
391.86	87.62
392.085	91.62
392.31	90.62
392.534	75.62
392.759	80.62
392.984	63.62
393.208	96.62
393.433	84.62
393.658	83.62
393.882	96.62
394.107	85.62
394.331	95.62
394.556	84.62
394.78	87.62
395.005	75.62
395.229	69.62
395.454	82.62
395.678	78.62
395.903	81.62
396.127	77.62
396.352	79.62
396.576	99.62
396.801	77.62
397.025	84.62
397.249	82.62
397.474	98.62
397.698	82.62
397.922	83.62
398.147	79.62
398.371	78.62
398.595	78.62
398.82	90.62
399.044	86.62
399.268	78.62
399.492	70.62
399.717	82.62
399.941	83.62
400.165	85.62
400.389	72.62
400.613	75.62
400.837	100.62
401.062	83.62
401.286	81.62
401.51	85.62
401.734	88.62
401.958	84.62
402.182	108.62
402.406	147.62
402.63	97.62
402.854	92.62
403.078	93.62
403.302	93.62
403.526	98.62
403.75	95.62
403.974	85.62
404.198	83.62
404.422	80.62
404.645	97.62
404.869	89.62
405.093	91.62
405.317	106.62
405.541	97.62
405.765	105.62
405.988	118.62
406.212	137.62
406.436	197.62
406.66	140.62
406.883	90.62
407.107	98.62
407.331	75.62
407.555	94.62
407.778	83.62
408.002	92.62
408.226	89.62
408.449	83.62
408.673	81.62
408.896	84.62
409.12	92.62
409.344	79.62
409.567	91.62
409.791	93.62
410.014	98.62
410.238	82.62
410.461	75.62
410.685	86.62
410.908	97.62
411.132	92.62
411.355	110.62
411.578	80.62
411.802	92.62
412.025	87.62
412.249	84.62
412.472	97.62
412.695	95.62
412.919	76.62
413.142	95.62
413.365	75.62
413.589	66.62
413.812	84.62
414.035	109.62
414.258	72.62
414.482	97.62
414.705	75.62
414.928	90.62
415.151	95.62
415.374	87.62
415.597	68.62
415.821	91.62
416.044	85.62
416.267	94.62
416.49	93.62
416.713	78.62
416.936	89.62
417.159	82.62
417.382	83.62
417.605	74.62
417.828	89.62
418.051	92.62
418.274	102.62
418.497	84.62
418.72	78.62
418.943	87.62
419.166	83.62
419.389	96.62
419.611	83.62
419.834	77.62
420.057	81.62
420.28	87.62
420.503	66.62
420.726	86.62
420.948	88.62
421.171	91.62
421.394	90.62
421.617	101.62
421.839	93.62
422.062	84.62
422.285	86.62
422.507	93.62
422.73	106.62
422.953	81.62
423.175	93.62
423.398	87.62
423.621	79.62
423.843	95.62
424.066	87.62
424.288	87.62
424.511	80.62
424.733	95.62
424.956	94.62
425.178	108.62
425.401	96.62
425.623	105.62
425.846	95.62
426.068	94.62
426.291	89.62
426.513	84.62
426.735	95.62
426.958	97.62
427.18	121.62
427.402	122.62
427.625	151.62
427.847	134.62
428.069	132.62
428.292	111.62
428.514	96.62
428.736	79.62
428.958	74.62
429.181	84.62
429.403	74.62
429.625	76.62
429.847	100.62
430.069	91.62
430.292	102.62
430.514	76.62
430.736	86.62
430.958	88.62
431.18	82.62
431.402	78.62
431.624	85.62
431.846	88.62
432.068	95.62
432.29	96.62
432.512	81.62
432.734	67.62
432.956	80.62
433.178	91.62
433.4	79.62
433.622	94.62
433.844	91.62
434.066	93.62
434.287	76.62
434.509	73.62
434.731	83.62
434.953	84.62
435.175	74.62
435.397	72.62
435.618	94.62
435.84	86.62
436.062	99.62
436.284	116.62
436.505	101.62
436.727	92.62
436.949	89.62
437.17	86.62
437.392	86.62
437.614	96.62
437.835	104.62
438.057	114.62
438.278	89.62
438.5	110.62
438.721	114.62
438.943	89.62
439.165	87.62
439.386	83.62
439.608	83.62
439.829	94.62
440.05	99.62
440.272	117.62
440.493	86.62
440.715	80.62
440.936	89.62
441.158	68.62
441.379	96.62
441.6	102.62
441.822	101.62
442.043	96.62
442.264	83.62
442.486	88.62
442.707	87.62
442.928	110.62
443.149	119.62
443.371	125.62
443.592	95.62
443.813	105.62
444.034	101.62
444.255	96.62
444.476	86.62
444.698	81.62
444.919	68.62
445.14	99.62
445.361	112.62
445.582	113.62
445.803	128.62
446.024	129.62
446.245	121.62
446.466	95.62
446.687	82.62
446.908	75.62
447.129	77.62
447.35	74.62
447.571	80.62
447.792	90.62
448.013	86.62
448.234	96.62
448.455	102.62
448.675	113.62
448.896	112.62
449.117	88.62
449.338	92.62
449.559	131.62
449.779	132.62
450	90.62
450.221	96.62
450.442	80.62
450.662	79.62
450.883	106.62
451.104	89.62
451.324	83.62
451.545	83.62
451.766	94.62
451.986	89.62
452.207	86.62
452.428	73.62
452.648	75.62
452.869	97.62
453.089	97.62
453.31	94.62
453.53	90.62
453.751	89.62
453.971	98.62
454.192	101.62
454.412	85.62
454.633	84.62
454.853	76.62
455.073	77.62
455.294	87.62
455.514	95.62
455.734	76.62
455.955	71.62
456.175	80.62
456.395	65.62
456.616	75.62
456.836	71.62
457.056	85.62
457.276	75.62
457.497	74.62
457.717	76.62
457.937	75.62
458.157	89.62
458.377	84.62
458.598	89.62
458.818	115.62
459.038	146.62
459.258	106.62
459.478	89.62
459.698	89.62
459.918	70.62
460.138	82.62
460.358	71.62
460.578	58.62
460.798	79.62
461.018	91.62
461.238	78.62
461.458	91.62
461.678	87.62
461.898	74.62
462.118	87.62
462.338	97.62
462.558	84.62
462.777	91.62
462.997	82.62
463.217	92.62
463.437	86.62
463.657	91.62
463.876	80.62
464.096	91.62
464.316	82.62
464.536	88.62
464.755	103.62
464.975	105.62
465.195	131.62
465.414	120.62
465.634	91.62
465.854	90.62
466.073	73.62
466.293	103.62
466.512	98.62
466.732	81.62
466.951	100.62
467.171	84.62
467.391	83.62
467.61	93.62
467.829	98.62
468.049	165.62
468.268	201.62
468.488	104.62
468.707	92.62
468.927	98.62
469.146	80.62
469.365	87.62
469.585	84.62
469.804	92.62
470.023	95.62
470.243	86.62
470.462	91.62
470.681	95.62
470.901	105.62
471.12	85.62
471.339	75.62
471.558	96.62
471.777	100.62
471.997	123.62
472.216	261.62
472.435	474.62
472.654	167.62
472.873	94.62
473.092	88.62
473.311	99.62
473.53	86.62
473.749	80.62
473.968	94.62
474.187	107.62
474.406	98.62
474.625	83.62
474.844	76.62
475.063	88.62
475.282	85.62
475.501	90.62
475.72	95.62
475.939	89.62
476.158	82.62
476.377	75.62
476.596	89.62
476.814	80.62
477.033	92.62
477.252	78.62
477.471	71.62
477.69	81.62
477.908	82.62
478.127	81.62
478.346	76.62
478.564	82.62
478.783	85.62
479.002	88.62
479.22	100.62
479.439	112.62
479.658	87.62
479.876	87.62
480.095	97.62
480.313	98.62
480.532	98.62
480.751	114.62
480.969	263.62
481.188	848.62
481.406	534.62
481.624	130.62
481.843	83.62
482.061	91.62
482.28	91.62
482.498	97.62
482.717	92.62
482.935	78.62
483.153	98.62
483.372	92.62
483.59	80.62
483.808	88.62
484.027	102.62
484.245	95.62
484.463	83.62
484.681	100.62
484.9	86.62
485.118	98.62
485.336	103.62
485.554	91.62
485.772	102.62
485.99	94.62
486.209	102.62
486.427	88.62
486.645	104.62
486.863	110.62
487.081	91.62
487.299	98.62
487.517	95.62
487.735	90.62
487.953	90.62
488.171	89.62
488.389	101.62
488.607	86.62
488.825	79.62
489.043	80.62
489.261	87.62
489.479	95.62
489.696	84.62
489.914	83.62
490.132	84.62
490.35	100.62
490.568	90.62
490.786	86.62
491.003	86.62
491.221	91.62
491.439	85.62
491.657	98.62
491.874	98.62
492.092	100.62
492.31	84.62
492.527	83.62
492.745	97.62
492.963	96.62
493.18	87.62
493.398	82.62
493.615	95.62
493.833	95.62
494.05	104.62
494.268	84.62
494.485	84.62
494.703	84.62
494.92	89.62
495.138	86.62
495.355	96.62
495.573	87.62
495.79	87.62
496.008	90.62
496.225	88.62
496.442	83.62
496.66	101.62
496.877	75.62
497.094	90.62
497.312	86.62
497.529	86.62
497.746	83.62
497.963	105.62
498.181	92.62
498.398	93.62
498.615	104.62
498.832	103.62
499.049	97.62
499.267	81.62
499.484	81.62
499.701	94.62
499.918	84.62
500.135	87.62
500.352	91.62
500.569	89.62
500.786	76.62
501.003	90.62
501.22	69.62
501.437	89.62
501.654	95.62
501.871	91.62
502.088	91.62
502.305	88.62
502.522	95.62
502.739	83.62
502.956	91.62
503.172	82.62
503.389	82.62
503.606	103.62
503.823	81.62
504.04	94.62
504.256	86.62
504.473	66.62
504.69	91.62
504.907	84.62
505.123	95.62
505.34	102.62
505.557	99.62
505.773	101.62
505.99	97.62
506.207	89.62
506.423	90.62
506.64	109.62
506.856	90.62
507.073	72.62
507.289	94.62
507.506	92.62
507.722	91.62
507.939	100.62
508.155	92.62
508.372	99.62
508.588	80.62
508.805	97.62
509.021	87.62
509.238	79.62
509.454	91.62
509.67	101.62
509.887	103.62
510.103	106.62
510.319	160.62
510.536	595.62
510.752	1888.62
510.968	566.62
511.184	130.62
511.401	113.62
511.617	105.62
511.833	86.62
512.049	86.62
512.265	93.62
512.481	91.62
512.698	98.62
512.914	80.62
513.13	92.62
513.346	91.62
513.562	93.62
513.778	94.62
513.994	97.62
514.21	95.62
514.426	102.62
514.642	127.62
514.858	115.62
515.074	148.62
515.29	358.62
515.506	1103.62
515.721	454.62
515.937	144.62
516.153	101.62
516.369	94.62
516.585	91.62
