Data from Circ_2015_H10_HRD10591_00052.txt Node
Date: Wed Jan 03 10:00:33 EST 2024
User: Yrep
Spectrometer: HR+D1059
Trigger mode: 1
Integration Time (sec): 1.000000E-1
Scans to average: 1
Electric dark correction enabled: true
Nonlinearity correction enabled: false
Boxcar width: 0
XAxis mode: Wavelengths
Number of Pixels in Spectrum: 2048
>>>>>Begin Spectral Data<<<<<
223.165	-15.5
223.4	-15.5
223.635	-15.5
223.869	-20.5
224.104	-28.5
224.338	-17.5
224.573	-15.5
224.808	-22.5
225.042	-3.5
225.277	0.5
225.511	6.5
225.746	1.5
225.98	6.5
226.215	4.5
226.449	22.5
226.683	10.5
226.918	35.5
227.152	35.5
227.387	26.5
227.621	35.5
227.856	30.5
228.09	38.5
228.324	31.5
228.559	48.5
228.793	59.5
229.027	56.5
229.262	67.5
229.496	74.5
229.73	83.5
229.964	93.5
230.199	65.5
230.433	60.5
230.667	78.5
230.901	64.5
231.136	67.5
231.37	68.5
231.604	80.5
231.838	66.5
232.072	91.5
232.306	84.5
232.541	84.5
232.775	68.5
233.009	88.5
233.243	88.5
233.477	84.5
233.711	91.5
233.945	72.5
234.179	80.5
234.413	83.5
234.647	71.5
234.881	65.5
235.115	84.5
235.349	87.5
235.583	78.5
235.817	58.5
236.051	68.5
236.285	76.5
236.519	85.5
236.753	80.5
236.987	77.5
237.221	89.5
237.455	78.5
237.689	75.5
237.922	83.5
238.156	73.5
238.39	70.5
238.624	76.5
238.858	76.5
239.091	71.5
239.325	70.5
239.559	74.5
239.793	94.5
240.027	81.5
240.26	88.5
240.494	77.5
240.728	79.5
240.961	83.5
241.195	71.5
241.429	67.5
241.662	84.5
241.896	75.5
242.13	86.5
242.363	74.5
242.597	72.5
242.83	73.5
243.064	79.5
243.298	81.5
243.531	86.5
243.765	68.5
243.998	53.5
244.232	76.5
244.465	86.5
244.699	72.5
244.932	71.5
245.166	86.5
245.399	66.5
245.633	75.5
245.866	79.5
246.099	82.5
246.333	74.5
246.566	94.5
246.8	70.5
247.033	80.5
247.266	70.5
247.5	76.5
247.733	70.5
247.966	72.5
248.2	73.5
248.433	73.5
248.666	77.5
248.899	81.5
249.133	87.5
249.366	89.5
249.599	98.5
249.832	91.5
250.066	79.5
250.299	79.5
250.532	84.5
250.765	66.5
250.998	68.5
251.231	87.5
251.465	77.5
251.698	71.5
251.931	84.5
252.164	70.5
252.397	78.5
252.63	78.5
252.863	72.5
253.096	77.5
253.329	87.5
253.562	64.5
253.795	86.5
254.028	78.5
254.261	83.5
254.494	84.5
254.727	86.5
254.96	67.5
255.193	70.5
255.426	76.5
255.659	76.5
255.892	91.5
256.124	76.5
256.357	87.5
256.59	73.5
256.823	71.5
257.056	79.5
257.289	70.5
257.521	75.5
257.754	93.5
257.987	98.5
258.22	75.5
258.452	73.5
258.685	82.5
258.918	79.5
259.151	90.5
259.383	88.5
259.616	70.5
259.849	85.5
260.081	85.5
260.314	95.5
260.547	82.5
260.779	88.5
261.012	91.5
261.244	87.5
261.477	79.5
261.71	75.5
261.942	108.5
262.175	108.5
262.407	90.5
262.64	91.5
262.872	77.5
263.105	83.5
263.337	72.5
263.57	81.5
263.802	91.5
264.035	82.5
264.267	83.5
264.499	85.5
264.732	79.5
264.964	75.5
265.197	80.5
265.429	59.5
265.661	88.5
265.894	80.5
266.126	84.5
266.358	76.5
266.591	75.5
266.823	81.5
267.055	68.5
267.287	75.5
267.52	79.5
267.752	66.5
267.984	79.5
268.216	74.5
268.448	72.5
268.681	83.5
268.913	75.5
269.145	80.5
269.377	73.5
269.609	84.5
269.841	91.5
270.073	93.5
270.306	77.5
270.538	87.5
270.77	85.5
271.002	88.5
271.234	76.5
271.466	86.5
271.698	74.5
271.93	84.5
272.162	91.5
272.394	89.5
272.626	89.5
272.858	82.5
273.09	82.5
273.322	85.5
273.553	75.5
273.785	77.5
274.017	85.5
274.249	84.5
274.481	81.5
274.713	81.5
274.945	81.5
275.176	89.5
275.408	71.5
275.64	85.5
275.872	93.5
276.104	97.5
276.335	87.5
276.567	104.5
276.799	93.5
277.031	92.5
277.262	91.5
277.494	85.5
277.726	91.5
277.957	87.5
278.189	94.5
278.421	67.5
278.652	73.5
278.884	87.5
279.115	82.5
279.347	83.5
279.579	82.5
279.81	77.5
280.042	70.5
280.273	91.5
280.505	83.5
280.736	85.5
280.968	77.5
281.199	75.5
281.431	74.5
281.662	84.5
281.894	86.5
282.125	96.5
282.356	121.5
282.588	121.5
282.819	100.5
283.051	88.5
283.282	87.5
283.513	80.5
283.745	88.5
283.976	89.5
284.207	81.5
284.439	91.5
284.67	73.5
284.901	74.5
285.132	73.5
285.364	102.5
285.595	72.5
285.826	79.5
286.057	84.5
286.288	66.5
286.52	82.5
286.751	91.5
286.982	94.5
287.213	84.5
287.444	100.5
287.675	94.5
287.906	96.5
288.138	84.5
288.369	76.5
288.6	83.5
288.831	75.5
289.062	78.5
289.293	100.5
289.524	75.5
289.755	82.5
289.986	82.5
290.217	77.5
290.448	74.5
290.679	78.5
290.91	83.5
291.141	85.5
291.371	102.5
291.602	99.5
291.833	83.5
292.064	72.5
292.295	87.5
292.526	88.5
292.757	83.5
292.987	90.5
293.218	88.5
293.449	91.5
293.68	82.5
293.91	102.5
294.141	88.5
294.372	78.5
294.603	76.5
294.833	94.5
295.064	91.5
295.295	87.5
295.525	79.5
295.756	92.5
295.987	122.5
296.217	129.5
296.448	119.5
296.679	94.5
296.909	79.5
297.14	99.5
297.37	88.5
297.601	101.5
297.831	86.5
298.062	106.5
298.292	94.5
298.523	89.5
298.753	83.5
298.984	79.5
299.214	89.5
299.445	88.5
299.675	79.5
299.905	81.5
300.136	85.5
300.366	89.5
300.597	80.5
300.827	81.5
301.057	87.5
301.288	94.5
301.518	84.5
301.748	83.5
301.979	95.5
302.209	90.5
302.439	86.5
302.669	92.5
302.9	83.5
303.13	89.5
303.36	91.5
303.59	80.5
303.82	110.5
304.051	83.5
304.281	69.5
304.511	84.5
304.741	91.5
304.971	84.5
305.201	75.5
305.431	91.5
305.661	83.5
305.891	91.5
306.121	80.5
306.352	99.5
306.582	102.5
306.812	98.5
307.042	111.5
307.272	97.5
307.502	96.5
307.731	94.5
307.961	93.5
308.191	107.5
308.421	74.5
308.651	90.5
308.881	92.5
309.111	87.5
309.341	108.5
309.571	94.5
309.8	90.5
310.03	96.5
310.26	96.5
310.49	86.5
310.72	103.5
310.949	100.5
311.179	75.5
311.409	79.5
311.639	92.5
311.868	87.5
312.098	90.5
312.328	95.5
312.557	107.5
312.787	91.5
313.017	97.5
313.246	90.5
313.476	82.5
313.706	86.5
313.935	70.5
314.165	105.5
314.394	81.5
314.624	100.5
314.853	92.5
315.083	94.5
315.312	88.5
315.542	85.5
315.771	95.5
316.001	79.5
316.23	89.5
316.46	93.5
316.689	103.5
316.919	89.5
317.148	82.5
317.377	82.5
317.607	90.5
317.836	82.5
318.065	70.5
318.295	100.5
318.524	110.5
318.753	85.5
318.983	85.5
319.212	95.5
319.441	97.5
319.67	90.5
319.9	89.5
320.129	96.5
320.358	81.5
320.587	97.5
320.816	108.5
321.046	99.5
321.275	100.5
321.504	99.5
321.733	92.5
321.962	87.5
322.191	91.5
322.42	104.5
322.649	111.5
322.878	113.5
323.108	110.5
323.337	113.5
323.566	111.5
323.795	141.5
324.024	187.5
324.253	371.5
324.482	738.5
324.71	1490.5
324.939	2011.5
325.168	754.5
325.397	225.5
325.626	152.5
325.855	128.5
326.084	103.5
326.313	146.5
326.542	144.5
326.77	219.5
326.999	427.5
327.228	853.5
327.457	1572.5
327.686	1255.5
327.914	322.5
328.143	204.5
328.372	171.5
328.6	126.5
328.829	114.5
329.058	101.5
329.287	101.5
329.515	98.5
329.744	95.5
329.972	114.5
330.201	183.5
330.43	211.5
330.658	162.5
330.887	116.5
331.115	116.5
331.344	89.5
331.572	104.5
331.801	103.5
332.03	99.5
332.258	95.5
332.486	94.5
332.715	81.5
332.943	92.5
333.172	93.5
333.4	91.5
333.629	101.5
333.857	104.5
334.085	137.5
334.314	169.5
334.542	228.5
334.771	218.5
334.999	103.5
335.227	100.5
335.455	79.5
335.684	103.5
335.912	82.5
336.14	88.5
336.369	91.5
336.597	83.5
336.825	98.5
337.053	95.5
337.281	80.5
337.51	89.5
337.738	93.5
337.966	88.5
338.194	91.5
338.422	104.5
338.65	93.5
338.878	98.5
339.106	83.5
339.334	95.5
339.562	90.5
339.79	90.5
340.018	85.5
340.246	88.5
340.474	89.5
340.702	97.5
340.93	92.5
341.158	89.5
341.386	97.5
341.614	100.5
341.842	107.5
342.07	87.5
342.298	95.5
342.526	86.5
342.754	76.5
342.981	97.5
343.209	73.5
343.437	101.5
343.665	89.5
343.893	78.5
344.12	94.5
344.348	86.5
344.576	84.5
344.804	104.5
345.031	99.5
345.259	89.5
345.487	87.5
345.714	85.5
345.942	85.5
346.17	79.5
346.397	82.5
346.625	102.5
346.853	89.5
347.08	84.5
347.308	94.5
347.535	93.5
347.763	85.5
347.99	97.5
348.218	110.5
348.445	96.5
348.673	88.5
348.9	95.5
349.128	82.5
349.355	97.5
349.583	91.5
349.81	91.5
350.037	84.5
350.265	97.5
350.492	80.5
350.72	92.5
350.947	101.5
351.174	90.5
351.402	106.5
351.629	98.5
351.856	111.5
352.083	92.5
352.311	104.5
352.538	105.5
352.765	94.5
352.992	107.5
353.22	102.5
353.447	91.5
353.674	89.5
353.901	107.5
354.128	82.5
354.355	88.5
354.583	92.5
354.81	106.5
355.037	87.5
355.264	94.5
355.491	91.5
355.718	80.5
355.945	93.5
356.172	83.5
356.399	90.5
356.626	89.5
356.853	87.5
357.08	81.5
357.307	97.5
357.534	91.5
357.761	93.5
357.988	96.5
358.215	92.5
358.441	94.5
358.668	103.5
358.895	81.5
359.122	87.5
359.349	78.5
359.576	81.5
359.802	86.5
360.029	105.5
360.256	104.5
360.483	73.5
360.709	76.5
360.936	84.5
361.163	86.5
361.39	79.5
361.616	93.5
361.843	86.5
362.07	88.5
362.296	89.5
362.523	87.5
362.749	83.5
362.976	75.5
363.203	95.5
363.429	78.5
363.656	100.5
363.882	94.5
364.109	84.5
364.335	96.5
364.562	89.5
364.788	87.5
365.015	83.5
365.241	85.5
365.468	99.5
365.694	110.5
365.92	93.5
366.147	98.5
366.373	100.5
366.599	95.5
366.826	86.5
367.052	88.5
367.278	95.5
367.505	87.5
367.731	101.5
367.957	82.5
368.184	98.5
368.41	102.5
368.636	106.5
368.862	102.5
369.089	112.5
369.315	96.5
369.541	94.5
369.767	92.5
369.993	91.5
370.219	88.5
370.445	95.5
370.672	78.5
370.898	83.5
371.124	96.5
371.35	76.5
371.576	90.5
371.802	87.5
372.028	84.5
372.254	97.5
372.48	97.5
372.706	83.5
372.932	84.5
373.158	98.5
373.384	96.5
373.61	99.5
373.835	91.5
374.061	74.5
374.287	83.5
374.513	84.5
374.739	101.5
374.965	75.5
375.191	92.5
375.416	83.5
375.642	72.5
375.868	96.5
376.094	94.5
376.319	78.5
376.545	89.5
376.771	88.5
376.997	86.5
377.222	73.5
377.448	92.5
377.674	96.5
377.899	102.5
378.125	94.5
378.35	70.5
378.576	83.5
378.802	72.5
379.027	84.5
379.253	93.5
379.478	87.5
379.704	84.5
379.929	88.5
380.155	87.5
380.38	87.5
380.606	87.5
380.831	93.5
381.057	104.5
381.282	86.5
381.507	101.5
381.733	87.5
381.958	102.5
382.184	96.5
382.409	91.5
382.634	97.5
382.86	110.5
383.085	104.5
383.31	102.5
383.535	107.5
383.761	93.5
383.986	85.5
384.211	102.5
384.436	88.5
384.662	101.5
384.887	112.5
385.112	96.5
385.337	103.5
385.562	102.5
385.787	111.5
386.013	98.5
386.238	110.5
386.463	101.5
386.688	117.5
386.913	119.5
387.138	121.5
387.363	95.5
387.588	99.5
387.813	106.5
388.038	92.5
388.263	95.5
388.488	106.5
388.713	90.5
388.938	89.5
389.163	91.5
389.387	89.5
389.612	92.5
389.837	89.5
390.062	91.5
390.287	101.5
390.512	90.5
390.736	73.5
390.961	96.5
391.186	97.5
391.411	94.5
391.636	105.5
391.86	86.5
392.085	75.5
392.31	87.5
392.534	82.5
392.759	88.5
392.984	95.5
393.208	94.5
393.433	99.5
393.658	87.5
393.882	62.5
394.107	94.5
394.331	87.5
394.556	87.5
394.78	97.5
395.005	96.5
395.229	72.5
395.454	76.5
395.678	89.5
395.903	79.5
396.127	81.5
396.352	80.5
396.576	90.5
396.801	91.5
397.025	95.5
397.249	83.5
397.474	98.5
397.698	81.5
397.922	84.5
398.147	81.5
398.371	76.5
398.595	75.5
398.82	92.5
399.044	66.5
399.268	72.5
399.492	87.5
399.717	92.5
399.941	74.5
400.165	104.5
400.389	79.5
400.613	75.5
400.837	91.5
401.062	84.5
401.286	75.5
401.51	85.5
401.734	90.5
401.958	94.5
402.182	134.5
402.406	123.5
402.63	111.5
402.854	80.5
403.078	82.5
403.302	64.5
403.526	69.5
403.75	83.5
403.974	101.5
404.198	68.5
404.422	75.5
404.645	80.5
404.869	87.5
405.093	85.5
405.317	104.5
405.541	101.5
405.765	96.5
405.988	114.5
406.212	148.5
406.436	187.5
406.66	134.5
406.883	98.5
407.107	80.5
407.331	72.5
407.555	90.5
407.778	84.5
408.002	91.5
408.226	90.5
408.449	78.5
408.673	80.5
408.896	68.5
409.12	103.5
409.344	95.5
409.567	85.5
409.791	85.5
410.014	101.5
410.238	96.5
410.461	103.5
410.685	90.5
410.908	95.5
411.132	97.5
411.355	95.5
411.578	100.5
411.802	86.5
412.025	85.5
412.249	83.5
412.472	100.5
412.695	106.5
412.919	88.5
413.142	90.5
413.365	77.5
413.589	88.5
413.812	88.5
414.035	99.5
414.258	106.5
414.482	84.5
414.705	96.5
414.928	88.5
415.151	88.5
415.374	91.5
415.597	88.5
415.821	67.5
416.044	76.5
416.267	90.5
416.49	93.5
416.713	88.5
416.936	82.5
417.159	81.5
417.382	91.5
417.605	87.5
417.828	89.5
418.051	80.5
418.274	84.5
418.497	79.5
418.72	92.5
418.943	87.5
419.166	68.5
419.389	86.5
419.611	105.5
419.834	88.5
420.057	88.5
420.28	89.5
420.503	88.5
420.726	88.5
420.948	86.5
421.171	88.5
421.394	96.5
421.617	89.5
421.839	82.5
422.062	82.5
422.285	97.5
422.507	78.5
422.73	100.5
422.953	91.5
423.175	72.5
423.398	87.5
423.621	99.5
423.843	87.5
424.066	67.5
424.288	88.5
424.511	96.5
424.733	94.5
424.956	105.5
425.178	83.5
425.401	92.5
425.623	89.5
425.846	87.5
426.068	90.5
426.291	87.5
426.513	102.5
426.735	92.5
426.958	92.5
427.18	111.5
427.402	116.5
427.625	140.5
427.847	136.5
428.069	99.5
428.292	77.5
428.514	86.5
428.736	85.5
428.958	92.5
429.181	86.5
429.403	84.5
429.625	90.5
429.847	86.5
430.069	86.5
430.292	85.5
430.514	91.5
430.736	86.5
430.958	85.5
431.18	99.5
431.402	85.5
431.624	69.5
431.846	99.5
432.068	77.5
432.29	78.5
432.512	91.5
432.734	92.5
432.956	103.5
433.178	94.5
433.4	94.5
433.622	85.5
433.844	82.5
434.066	87.5
434.287	92.5
434.509	76.5
434.731	76.5
434.953	82.5
435.175	83.5
435.397	89.5
435.618	87.5
435.84	102.5
436.062	105.5
436.284	94.5
436.505	105.5
436.727	98.5
436.949	98.5
437.17	91.5
437.392	73.5
437.614	86.5
437.835	88.5
438.057	108.5
438.278	100.5
438.5	103.5
438.721	114.5
438.943	99.5
439.165	74.5
439.386	73.5
439.608	86.5
439.829	93.5
440.05	112.5
440.272	131.5
440.493	89.5
440.715	100.5
440.936	86.5
441.158	94.5
441.379	92.5
441.6	85.5
441.822	79.5
442.043	96.5
442.264	83.5
442.486	97.5
442.707	104.5
442.928	106.5
443.149	104.5
443.371	122.5
443.592	88.5
443.813	105.5
444.034	91.5
444.255	99.5
444.476	94.5
444.698	80.5
444.919	88.5
445.14	120.5
445.361	119.5
445.582	113.5
445.803	117.5
446.024	108.5
446.245	129.5
446.466	94.5
446.687	86.5
446.908	73.5
447.129	78.5
447.35	91.5
447.571	90.5
447.792	80.5
448.013	93.5
448.234	95.5
448.455	95.5
448.675	85.5
448.896	116.5
449.117	94.5
449.338	74.5
449.559	112.5
449.779	124.5
450	99.5
450.221	84.5
450.442	86.5
450.662	89.5
450.883	93.5
451.104	112.5
451.324	91.5
451.545	89.5
451.766	75.5
451.986	82.5
452.207	102.5
452.428	88.5
452.648	76.5
452.869	88.5
453.089	89.5
453.31	112.5
453.53	88.5
453.751	96.5
453.971	95.5
454.192	84.5
454.412	89.5
454.633	81.5
454.853	82.5
455.073	84.5
455.294	79.5
455.514	73.5
455.734	75.5
455.955	88.5
456.175	96.5
456.395	86.5
456.616	76.5
456.836	82.5
457.056	88.5
457.276	87.5
457.497	78.5
457.717	88.5
457.937	79.5
458.157	77.5
458.377	88.5
458.598	96.5
458.818	129.5
459.038	144.5
459.258	103.5
459.478	83.5
459.698	85.5
459.918	88.5
460.138	79.5
460.358	90.5
460.578	80.5
460.798	93.5
461.018	99.5
461.238	91.5
461.458	83.5
461.678	86.5
461.898	83.5
462.118	96.5
462.338	84.5
462.558	80.5
462.777	74.5
462.997	81.5
463.217	101.5
463.437	93.5
463.657	79.5
463.876	85.5
464.096	79.5
464.316	92.5
464.536	87.5
464.755	74.5
464.975	88.5
465.195	137.5
465.414	136.5
465.634	80.5
465.854	85.5
466.073	90.5
466.293	84.5
466.512	84.5
466.732	87.5
466.951	97.5
467.171	80.5
467.391	82.5
467.61	92.5
467.829	94.5
468.049	137.5
468.268	135.5
468.488	105.5
468.707	96.5
468.927	87.5
469.146	82.5
469.365	82.5
469.585	96.5
469.804	95.5
470.023	87.5
470.243	98.5
470.462	104.5
470.681	97.5
470.901	93.5
471.12	92.5
471.339	87.5
471.558	82.5
471.777	90.5
471.997	116.5
472.216	194.5
472.435	296.5
472.654	138.5
472.873	85.5
473.092	90.5
473.311	74.5
473.53	91.5
473.749	82.5
473.968	84.5
474.187	93.5
474.406	82.5
474.625	93.5
474.844	77.5
475.063	81.5
475.282	71.5
475.501	83.5
475.72	88.5
475.939	76.5
476.158	91.5
476.377	79.5
476.596	89.5
476.814	84.5
477.033	87.5
477.252	98.5
477.471	89.5
477.69	85.5
477.908	93.5
478.127	99.5
478.346	82.5
478.564	88.5
478.783	85.5
479.002	86.5
479.22	98.5
479.439	96.5
479.658	91.5
479.876	94.5
480.095	98.5
480.313	86.5
480.532	96.5
480.751	98.5
480.969	161.5
481.188	485.5
481.406	312.5
481.624	120.5
481.843	93.5
482.061	91.5
482.28	85.5
482.498	80.5
482.717	96.5
482.935	88.5
483.153	98.5
483.372	92.5
483.59	82.5
483.808	89.5
484.027	84.5
484.245	87.5
484.463	74.5
484.681	101.5
484.9	84.5
485.118	99.5
485.336	91.5
485.554	101.5
485.772	78.5
485.99	105.5
486.209	104.5
486.427	101.5
486.645	99.5
486.863	106.5
487.081	108.5
487.299	104.5
487.517	101.5
487.735	94.5
487.953	91.5
488.171	88.5
488.389	98.5
488.607	95.5
488.825	100.5
489.043	101.5
489.261	96.5
489.479	92.5
489.696	81.5
489.914	88.5
490.132	85.5
490.35	85.5
490.568	72.5
490.786	88.5
491.003	87.5
491.221	92.5
491.439	82.5
491.657	92.5
491.874	83.5
492.092	86.5
492.31	68.5
492.527	82.5
492.745	78.5
492.963	101.5
493.18	79.5
493.398	94.5
493.615	102.5
493.833	82.5
494.05	97.5
494.268	87.5
494.485	94.5
494.703	91.5
494.92	72.5
495.138	79.5
495.355	91.5
495.573	78.5
495.79	91.5
496.008	95.5
496.225	85.5
496.442	89.5
496.66	82.5
496.877	91.5
497.094	91.5
497.312	94.5
497.529	103.5
497.746	82.5
497.963	88.5
498.181	85.5
498.398	89.5
498.615	100.5
498.832	83.5
499.049	86.5
499.267	95.5
499.484	83.5
499.701	74.5
499.918	85.5
500.135	83.5
500.352	87.5
500.569	91.5
500.786	82.5
501.003	99.5
501.22	75.5
501.437	83.5
501.654	82.5
501.871	81.5
502.088	95.5
502.305	102.5
502.522	73.5
502.739	93.5
502.956	85.5
503.172	93.5
503.389	88.5
503.606	96.5
503.823	96.5
504.04	91.5
504.256	96.5
504.473	84.5
504.69	91.5
504.907	89.5
505.123	72.5
505.34	87.5
505.557	85.5
505.773	88.5
505.99	86.5
506.207	89.5
506.423	91.5
506.64	100.5
506.856	97.5
507.073	90.5
507.289	87.5
507.506	92.5
507.722	103.5
507.939	110.5
508.155	96.5
508.372	75.5
508.588	82.5
508.805	84.5
509.021	93.5
509.238	97.5
509.454	109.5
509.67	113.5
509.887	112.5
510.103	115.5
510.319	191.5
510.536	639.5
510.752	2003.5
510.968	610.5
511.184	148.5
511.401	120.5
511.617	87.5
511.833	95.5
512.049	91.5
512.265	87.5
512.481	73.5
512.698	95.5
512.914	97.5
513.13	98.5
513.346	97.5
513.562	95.5
513.778	101.5
513.994	101.5
514.21	85.5
514.426	110.5
514.642	113.5
514.858	124.5
515.074	148.5
515.29	360.5
515.506	1187.5
515.721	480.5
515.937	156.5
516.153	102.5
516.369	84.5
516.585	75.5
516.801	85.5
517.016	83.5
517.232	94.5
517.448	97.5
517.664	87.5
517.879	101.5
518.095	88.5
518.311	89.5
518.527	91.5
518.742	90.5
518.958	99.5
519.173	101.5
519.389	79.5
519.605	98.5
519.82	101.5
520.036	102.5
520.251	105.5
520.467	98.5
520.682	98.5
520.898	90.5
521.113	110.5
521.329	115.5
521.544	165.5
521.76	450.5
521.975	1933.5
522.19	1208.5
522.406	269.5
522.621	126.5
522.836	102.5
523.052	99.5
523.267	88.5
523.482	90.5
523.698	87.5
523.913	106.5
524.128	99.5
524.343	93.5
524.559	96.5
524.774	97.5
524.989	84.5
525.204	94.5
525.419	87.5
525.634	88.5
525.849	91.5
526.064	95.5
526.28	105.5
526.495	86.5
526.71	92.5
526.925	81.5
527.14	87.5
527.355	94.5
527.57	88.5
527.785	93.5
527.999	92.5
528.214	92.5
528.429	100.5
528.644	97.5
528.859	76.5
529.074	91.5
529.289	120.5
529.503	145.5
529.718	99.5
529.933	82.5
530.148	91.5
530.363	88.5
530.577	97.5
530.792	94.5
531.007	76.5
531.221	94.5
531.436	92.5
531.651	95.5
531.865	78.5
532.08	97.5
532.295	96.5
532.509	101.5
532.724	83.5
532.938	69.5
533.153	84.5
533.367	82.5
533.582	96.5
533.796	91.5
534.011	102.5
534.225	90.5
534.44	83.5
534.654	98.5
534.868	92.5
535.083	105.5
535.297	100.5
535.511	93.5
535.726	109.5
535.94	94.5
536.154	98.5
536.369	97.5
