Data from Circ_2015_H10_HRD10591_00058.txt Node
Date: Wed Jan 03 10:00:34 EST 2024
User: Yrep
Spectrometer: HR+D1059
Trigger mode: 1
Integration Time (sec): 1.000000E-1
Scans to average: 1
Electric dark correction enabled: true
Nonlinearity correction enabled: false
Boxcar width: 0
XAxis mode: Wavelengths
Number of Pixels in Spectrum: 2048
>>>>>Begin Spectral Data<<<<<
223.165	-19.88
223.4	-19.88
223.635	-19.88
223.869	-9.88
224.104	-34.88
224.338	-19.88
224.573	-20.88
224.808	-23.88
225.042	9.12
225.277	-3.88
225.511	-6.88
225.746	5.12
225.98	11.12
226.215	16.12
226.449	33.12
226.683	24.12
226.918	29.12
227.152	12.12
227.387	33.12
227.621	54.12
227.856	48.12
228.09	52.12
228.324	52.12
228.559	50.12
228.793	66.12
229.027	72.12
229.262	77.12
229.496	69.12
229.73	88.12
229.964	80.12
230.199	79.12
230.433	61.12
230.667	82.12
230.901	85.12
231.136	82.12
231.37	87.12
231.604	75.12
231.838	84.12
232.072	83.12
232.306	93.12
232.541	88.12
232.775	93.12
233.009	98.12
233.243	74.12
233.477	84.12
233.711	89.12
233.945	87.12
234.179	77.12
234.413	84.12
234.647	82.12
234.881	84.12
235.115	92.12
235.349	76.12
235.583	87.12
235.817	77.12
236.051	85.12
236.285	66.12
236.519	75.12
236.753	85.12
236.987	77.12
237.221	82.12
237.455	86.12
237.689	83.12
237.922	80.12
238.156	98.12
238.39	77.12
238.624	84.12
238.858	89.12
239.091	77.12
239.325	81.12
239.559	84.12
239.793	86.12
240.027	85.12
240.26	82.12
240.494	74.12
240.728	79.12
240.961	73.12
241.195	85.12
241.429	72.12
241.662	92.12
241.896	75.12
242.13	65.12
242.363	90.12
242.597	74.12
242.83	80.12
243.064	80.12
243.298	71.12
243.531	73.12
243.765	97.12
243.998	86.12
244.232	84.12
244.465	79.12
244.699	74.12
244.932	66.12
245.166	75.12
245.399	77.12
245.633	80.12
245.866	83.12
246.099	87.12
246.333	77.12
246.566	77.12
246.8	75.12
247.033	77.12
247.266	87.12
247.5	66.12
247.733	75.12
247.966	80.12
248.2	96.12
248.433	83.12
248.666	82.12
248.899	70.12
249.133	86.12
249.366	100.12
249.599	94.12
249.832	75.12
250.066	78.12
250.299	80.12
250.532	72.12
250.765	84.12
250.998	80.12
251.231	81.12
251.465	85.12
251.698	93.12
251.931	85.12
252.164	56.12
252.397	90.12
252.63	86.12
252.863	85.12
253.096	80.12
253.329	83.12
253.562	75.12
253.795	82.12
254.028	75.12
254.261	74.12
254.494	74.12
254.727	87.12
254.96	72.12
255.193	79.12
255.426	80.12
255.659	73.12
255.892	80.12
256.124	78.12
256.357	83.12
256.59	78.12
256.823	84.12
257.056	82.12
257.289	81.12
257.521	86.12
257.754	74.12
257.987	86.12
258.22	79.12
258.452	86.12
258.685	78.12
258.918	85.12
259.151	90.12
259.383	95.12
259.616	102.12
259.849	100.12
260.081	94.12
260.314	92.12
260.547	80.12
260.779	87.12
261.012	92.12
261.244	80.12
261.477	76.12
261.71	98.12
261.942	107.12
262.175	126.12
262.407	86.12
262.64	98.12
262.872	99.12
263.105	88.12
263.337	85.12
263.57	80.12
263.802	78.12
264.035	75.12
264.267	88.12
264.499	76.12
264.732	83.12
264.964	75.12
265.197	90.12
265.429	78.12
265.661	75.12
265.894	85.12
266.126	93.12
266.358	89.12
266.591	75.12
266.823	92.12
267.055	77.12
267.287	78.12
267.52	89.12
267.752	78.12
267.984	77.12
268.216	87.12
268.448	85.12
268.681	77.12
268.913	84.12
269.145	95.12
269.377	83.12
269.609	101.12
269.841	95.12
270.073	84.12
270.306	94.12
270.538	77.12
270.77	92.12
271.002	81.12
271.234	74.12
271.466	84.12
271.698	84.12
271.93	80.12
272.162	87.12
272.394	87.12
272.626	84.12
272.858	79.12
273.09	78.12
273.322	82.12
273.553	71.12
273.785	94.12
274.017	79.12
274.249	70.12
274.481	78.12
274.713	84.12
274.945	88.12
275.176	91.12
275.408	77.12
275.64	95.12
275.872	86.12
276.104	83.12
276.335	93.12
276.567	96.12
276.799	101.12
277.031	96.12
277.262	91.12
277.494	96.12
277.726	87.12
277.957	83.12
278.189	95.12
278.421	90.12
278.652	74.12
278.884	95.12
279.115	93.12
279.347	84.12
279.579	91.12
279.81	85.12
280.042	113.12
280.273	89.12
280.505	89.12
280.736	72.12
280.968	89.12
281.199	85.12
281.431	85.12
281.662	88.12
281.894	90.12
282.125	96.12
282.356	117.12
282.588	142.12
282.819	119.12
283.051	93.12
283.282	85.12
283.513	72.12
283.745	87.12
283.976	102.12
284.207	88.12
284.439	95.12
284.67	102.12
284.901	87.12
285.132	88.12
285.364	79.12
285.595	91.12
285.826	93.12
286.057	98.12
286.288	86.12
286.52	78.12
286.751	81.12
286.982	84.12
287.213	94.12
287.444	106.12
287.675	91.12
287.906	84.12
288.138	74.12
288.369	82.12
288.6	94.12
288.831	94.12
289.062	101.12
289.293	103.12
289.524	87.12
289.755	91.12
289.986	78.12
290.217	87.12
290.448	85.12
290.679	93.12
290.91	83.12
291.141	95.12
291.371	88.12
291.602	83.12
291.833	93.12
292.064	77.12
292.295	91.12
292.526	86.12
292.757	85.12
292.987	91.12
293.218	87.12
293.449	97.12
293.68	94.12
293.91	89.12
294.141	87.12
294.372	79.12
294.603	84.12
294.833	90.12
295.064	97.12
295.295	92.12
295.525	97.12
295.756	100.12
295.987	112.12
296.217	122.12
296.448	119.12
296.679	109.12
296.909	79.12
297.14	82.12
297.37	90.12
297.601	86.12
297.831	80.12
298.062	93.12
298.292	90.12
298.523	79.12
298.753	99.12
298.984	100.12
299.214	99.12
299.445	97.12
299.675	100.12
299.905	79.12
300.136	88.12
300.366	86.12
300.597	88.12
300.827	87.12
301.057	93.12
301.288	93.12
301.518	95.12
301.748	91.12
301.979	108.12
302.209	99.12
302.439	85.12
302.669	101.12
302.9	97.12
303.13	104.12
303.36	100.12
303.59	100.12
303.82	99.12
304.051	91.12
304.281	93.12
304.511	93.12
304.741	84.12
304.971	90.12
305.201	102.12
305.431	95.12
305.661	74.12
305.891	74.12
306.121	93.12
306.352	97.12
306.582	95.12
306.812	89.12
307.042	83.12
307.272	109.12
307.502	108.12
307.731	82.12
307.961	91.12
308.191	93.12
308.421	93.12
308.651	80.12
308.881	89.12
309.111	103.12
309.341	101.12
309.571	91.12
309.8	86.12
310.03	88.12
310.26	80.12
310.49	90.12
310.72	105.12
310.949	96.12
311.179	90.12
311.409	96.12
311.639	106.12
311.868	73.12
312.098	92.12
312.328	104.12
312.557	99.12
312.787	89.12
313.017	96.12
313.246	89.12
313.476	87.12
313.706	91.12
313.935	99.12
314.165	93.12
314.394	104.12
314.624	93.12
314.853	87.12
315.083	100.12
315.312	90.12
315.542	89.12
315.771	90.12
316.001	95.12
316.23	87.12
316.46	89.12
316.689	90.12
316.919	101.12
317.148	98.12
317.377	97.12
317.607	102.12
317.836	98.12
318.065	86.12
318.295	96.12
318.524	92.12
318.753	98.12
318.983	98.12
319.212	86.12
319.441	127.12
319.67	93.12
319.9	91.12
320.129	90.12
320.358	96.12
320.587	104.12
320.816	106.12
321.046	100.12
321.275	88.12
321.504	98.12
321.733	93.12
321.962	96.12
322.191	109.12
322.42	97.12
322.649	107.12
322.878	97.12
323.108	123.12
323.337	137.12
323.566	135.12
323.795	146.12
324.024	192.12
324.253	374.12
324.482	755.12
324.71	1559.12
324.939	2110.12
325.168	788.12
325.397	237.12
325.626	157.12
325.855	137.12
326.084	130.12
326.313	156.12
326.542	153.12
326.77	222.12
326.999	434.12
327.228	872.12
327.457	1587.12
327.686	1254.12
327.914	356.12
328.143	211.12
328.372	180.12
328.6	142.12
328.829	129.12
329.058	115.12
329.287	136.12
329.515	134.12
329.744	111.12
329.972	142.12
330.201	203.12
330.43	231.12
330.658	169.12
330.887	138.12
331.115	130.12
331.344	103.12
331.572	86.12
331.801	110.12
332.03	111.12
332.258	100.12
332.486	89.12
332.715	90.12
332.943	92.12
333.172	89.12
333.4	96.12
333.629	110.12
333.857	136.12
334.085	150.12
334.314	191.12
334.542	280.12
334.771	251.12
334.999	139.12
335.227	113.12
335.455	95.12
335.684	100.12
335.912	89.12
336.14	92.12
336.369	103.12
336.597	86.12
336.825	96.12
337.053	93.12
337.281	70.12
337.51	98.12
337.738	104.12
337.966	100.12
338.194	89.12
338.422	89.12
338.65	99.12
338.878	96.12
339.106	92.12
339.334	83.12
339.562	93.12
339.79	91.12
340.018	94.12
340.246	95.12
340.474	101.12
340.702	98.12
340.93	88.12
341.158	87.12
341.386	85.12
341.614	93.12
341.842	88.12
342.07	92.12
342.298	93.12
342.526	95.12
342.754	77.12
342.981	80.12
343.209	80.12
343.437	98.12
343.665	88.12
343.893	91.12
344.12	93.12
344.348	97.12
344.576	111.12
344.804	102.12
345.031	88.12
345.259	103.12
345.487	99.12
345.714	78.12
345.942	104.12
346.17	80.12
346.397	87.12
346.625	103.12
346.853	95.12
347.08	94.12
347.308	92.12
347.535	86.12
347.763	91.12
347.99	98.12
348.218	104.12
348.445	110.12
348.673	99.12
348.9	101.12
349.128	104.12
349.355	105.12
349.583	99.12
349.81	93.12
350.037	94.12
350.265	102.12
350.492	92.12
350.72	111.12
350.947	103.12
351.174	106.12
351.402	107.12
351.629	87.12
351.856	98.12
352.083	105.12
352.311	100.12
352.538	101.12
352.765	108.12
352.992	124.12
353.22	104.12
353.447	104.12
353.674	101.12
353.901	93.12
354.128	99.12
354.355	86.12
354.583	79.12
354.81	103.12
355.037	95.12
355.264	101.12
355.491	92.12
355.718	103.12
355.945	116.12
356.172	86.12
356.399	95.12
356.626	98.12
356.853	90.12
357.08	107.12
357.307	90.12
357.534	90.12
357.761	94.12
357.988	106.12
358.215	99.12
358.441	101.12
358.668	88.12
358.895	99.12
359.122	87.12
359.349	96.12
359.576	104.12
359.802	108.12
360.029	115.12
360.256	94.12
360.483	117.12
360.709	89.12
360.936	87.12
361.163	83.12
361.39	93.12
361.616	95.12
361.843	93.12
362.07	103.12
362.296	82.12
362.523	103.12
362.749	91.12
362.976	100.12
363.203	98.12
363.429	84.12
363.656	92.12
363.882	100.12
364.109	87.12
364.335	98.12
364.562	76.12
364.788	93.12
365.015	96.12
365.241	88.12
365.468	103.12
365.694	110.12
365.92	103.12
366.147	110.12
366.373	85.12
366.599	79.12
366.826	92.12
367.052	104.12
367.278	86.12
367.505	91.12
367.731	95.12
367.957	102.12
368.184	96.12
368.41	87.12
368.636	90.12
368.862	112.12
369.089	94.12
369.315	98.12
369.541	88.12
369.767	90.12
369.993	88.12
370.219	85.12
370.445	99.12
370.672	96.12
370.898	90.12
371.124	97.12
371.35	81.12
371.576	93.12
371.802	102.12
372.028	100.12
372.254	92.12
372.48	85.12
372.706	78.12
372.932	91.12
373.158	98.12
373.384	102.12
373.61	89.12
373.835	87.12
374.061	103.12
374.287	76.12
374.513	85.12
374.739	86.12
374.965	88.12
375.191	90.12
375.416	95.12
375.642	88.12
375.868	91.12
376.094	82.12
376.319	88.12
376.545	98.12
376.771	97.12
376.997	87.12
377.222	74.12
377.448	85.12
377.674	89.12
377.899	104.12
378.125	91.12
378.35	96.12
378.576	82.12
378.802	88.12
379.027	93.12
379.253	95.12
379.478	79.12
379.704	86.12
379.929	103.12
380.155	106.12
380.38	94.12
380.606	89.12
380.831	98.12
381.057	94.12
381.282	91.12
381.507	109.12
381.733	94.12
381.958	93.12
382.184	91.12
382.409	95.12
382.634	102.12
382.86	91.12
383.085	110.12
383.31	118.12
383.535	102.12
383.761	104.12
383.986	102.12
384.211	90.12
384.436	93.12
384.662	110.12
384.887	99.12
385.112	108.12
385.337	98.12
385.562	115.12
385.787	98.12
386.013	94.12
386.238	109.12
386.463	94.12
386.688	105.12
386.913	105.12
387.138	106.12
387.363	98.12
387.588	93.12
387.813	94.12
388.038	93.12
388.263	108.12
388.488	120.12
388.713	102.12
388.938	102.12
389.163	98.12
389.387	103.12
389.612	106.12
389.837	101.12
390.062	102.12
390.287	93.12
390.512	93.12
390.736	105.12
390.961	95.12
391.186	87.12
391.411	104.12
391.636	85.12
391.86	88.12
392.085	90.12
392.31	84.12
392.534	86.12
392.759	94.12
392.984	88.12
393.208	103.12
393.433	90.12
393.658	79.12
393.882	90.12
394.107	87.12
394.331	101.12
394.556	94.12
394.78	83.12
395.005	100.12
395.229	82.12
395.454	99.12
395.678	90.12
395.903	87.12
396.127	98.12
396.352	86.12
396.576	92.12
396.801	88.12
397.025	87.12
397.249	88.12
397.474	78.12
397.698	85.12
397.922	84.12
398.147	94.12
398.371	95.12
398.595	102.12
398.82	99.12
399.044	82.12
399.268	84.12
399.492	98.12
399.717	96.12
399.941	100.12
400.165	102.12
400.389	94.12
400.613	96.12
400.837	83.12
401.062	97.12
401.286	96.12
401.51	93.12
401.734	101.12
401.958	104.12
402.182	115.12
402.406	132.12
402.63	126.12
402.854	88.12
403.078	80.12
403.302	89.12
403.526	92.12
403.75	99.12
403.974	75.12
404.198	87.12
404.422	95.12
404.645	83.12
404.869	90.12
405.093	99.12
405.317	114.12
405.541	94.12
405.765	116.12
405.988	116.12
406.212	159.12
406.436	201.12
406.66	130.12
406.883	79.12
407.107	89.12
407.331	78.12
407.555	100.12
407.778	99.12
408.002	92.12
408.226	107.12
408.449	92.12
408.673	92.12
408.896	96.12
409.12	101.12
409.344	89.12
409.567	101.12
409.791	100.12
410.014	102.12
410.238	96.12
410.461	120.12
410.685	102.12
410.908	106.12
411.132	108.12
411.355	84.12
411.578	94.12
411.802	80.12
412.025	69.12
412.249	95.12
412.472	94.12
412.695	99.12
412.919	94.12
413.142	93.12
413.365	87.12
413.589	85.12
413.812	85.12
414.035	104.12
414.258	95.12
414.482	86.12
414.705	81.12
414.928	80.12
415.151	98.12
415.374	80.12
415.597	90.12
415.821	98.12
416.044	92.12
416.267	91.12
416.49	91.12
416.713	80.12
416.936	79.12
417.159	102.12
417.382	83.12
417.605	92.12
417.828	93.12
418.051	91.12
418.274	98.12
418.497	83.12
418.72	84.12
418.943	70.12
419.166	91.12
419.389	97.12
419.611	96.12
419.834	91.12
420.057	88.12
420.28	93.12
420.503	91.12
420.726	93.12
420.948	97.12
421.171	88.12
421.394	103.12
421.617	87.12
421.839	85.12
422.062	86.12
422.285	111.12
422.507	97.12
422.73	88.12
422.953	90.12
423.175	85.12
423.398	91.12
423.621	102.12
423.843	80.12
424.066	85.12
424.288	97.12
424.511	82.12
424.733	98.12
424.956	106.12
425.178	95.12
425.401	76.12
425.623	100.12
425.846	106.12
426.068	87.12
426.291	103.12
426.513	87.12
426.735	95.12
426.958	90.12
427.18	107.12
427.402	138.12
427.625	166.12
427.847	140.12
428.069	109.12
428.292	92.12
428.514	79.12
428.736	92.12
428.958	87.12
429.181	95.12
429.403	84.12
429.625	92.12
429.847	95.12
430.069	96.12
430.292	101.12
430.514	84.12
430.736	92.12
430.958	84.12
431.18	88.12
431.402	87.12
431.624	78.12
431.846	101.12
432.068	85.12
432.29	106.12
432.512	100.12
432.734	98.12
432.956	83.12
433.178	98.12
433.4	93.12
433.622	79.12
433.844	90.12
434.066	99.12
434.287	91.12
434.509	79.12
434.731	91.12
434.953	87.12
435.175	88.12
435.397	83.12
435.618	100.12
435.84	94.12
436.062	109.12
436.284	103.12
436.505	122.12
436.727	109.12
436.949	93.12
437.17	87.12
437.392	78.12
437.614	91.12
437.835	100.12
438.057	114.12
438.278	105.12
438.5	100.12
438.721	115.12
438.943	103.12
439.165	83.12
439.386	101.12
439.608	93.12
439.829	114.12
440.05	123.12
440.272	142.12
440.493	100.12
440.715	96.12
440.936	94.12
441.158	94.12
441.379	92.12
441.6	102.12
441.822	90.12
442.043	87.12
442.264	107.12
442.486	104.12
442.707	100.12
442.928	115.12
443.149	128.12
443.371	122.12
443.592	93.12
443.813	108.12
444.034	111.12
444.255	93.12
444.476	98.12
444.698	86.12
444.919	81.12
445.14	115.12
445.361	110.12
445.582	109.12
445.803	128.12
446.024	118.12
446.245	127.12
446.466	102.12
446.687	99.12
446.908	95.12
447.129	82.12
447.35	94.12
447.571	79.12
447.792	83.12
448.013	94.12
448.234	103.12
448.455	100.12
448.675	112.12
448.896	103.12
449.117	96.12
449.338	109.12
449.559	136.12
449.779	136.12
450	85.12
450.221	86.12
450.442	87.12
450.662	102.12
450.883	86.12
451.104	91.12
451.324	91.12
451.545	87.12
451.766	87.12
451.986	86.12
452.207	95.12
452.428	106.12
452.648	91.12
452.869	103.12
453.089	109.12
453.31	108.12
453.53	95.12
453.751	97.12
453.971	109.12
454.192	112.12
454.412	88.12
454.633	99.12
454.853	80.12
455.073	75.12
455.294	101.12
455.514	106.12
455.734	92.12
455.955	83.12
456.175	98.12
456.395	77.12
456.616	81.12
456.836	89.12
457.056	84.12
457.276	78.12
457.497	90.12
457.717	81.12
457.937	97.12
458.157	80.12
458.377	107.12
458.598	100.12
458.818	133.12
459.038	156.12
459.258	110.12
459.478	91.12
459.698	78.12
459.918	93.12
460.138	90.12
460.358	82.12
460.578	90.12
460.798	99.12
461.018	94.12
461.238	86.12
461.458	102.12
461.678	75.12
461.898	97.12
462.118	81.12
462.338	82.12
462.558	89.12
462.777	88.12
462.997	94.12
463.217	95.12
463.437	87.12
463.657	90.12
463.876	84.12
464.096	79.12
464.316	80.12
464.536	93.12
464.755	86.12
464.975	101.12
465.195	138.12
465.414	159.12
465.634	96.12
465.854	79.12
466.073	91.12
466.293	92.12
466.512	88.12
466.732	97.12
466.951	86.12
467.171	105.12
467.391	81.12
467.61	108.12
467.829	93.12
468.049	128.12
468.268	161.12
468.488	95.12
468.707	104.12
468.927	78.12
469.146	82.12
469.365	87.12
469.585	86.12
469.804	87.12
470.023	94.12
470.243	100.12
470.462	95.12
470.681	109.12
470.901	98.12
471.12	76.12
471.339	101.12
471.558	74.12
471.777	87.12
471.997	109.12
472.216	204.12
472.435	354.12
472.654	152.12
472.873	83.12
473.092	92.12
473.311	68.12
473.53	78.12
473.749	87.12
473.968	90.12
474.187	108.12
474.406	102.12
474.625	93.12
474.844	82.12
475.063	87.12
475.282	82.12
475.501	92.12
475.72	107.12
475.939	83.12
476.158	91.12
476.377	85.12
476.596	95.12
476.814	96.12
477.033	92.12
477.252	78.12
477.471	82.12
477.69	81.12
477.908	84.12
478.127	85.12
478.346	84.12
478.564	96.12
478.783	92.12
479.002	84.12
479.22	105.12
479.439	98.12
479.658	102.12
479.876	110.12
480.095	99.12
480.313	93.12
480.532	110.12
480.751	118.12
480.969	205.12
481.188	578.12
481.406	378.12
481.624	108.12
481.843	111.12
482.061	86.12
482.28	90.12
482.498	80.12
482.717	82.12
482.935	71.12
483.153	85.12
483.372	89.12
483.59	102.12
483.808	103.12
484.027	94.12
484.245	100.12
484.463	88.12
484.681	97.12
484.9	69.12
485.118	105.12
485.336	94.12
485.554	96.12
485.772	93.12
485.99	119.12
486.209	117.12
486.427	107.12
486.645	96.12
486.863	118.12
487.081	90.12
487.299	102.12
487.517	101.12
487.735	102.12
487.953	90.12
488.171	98.12
488.389	93.12
488.607	105.12
488.825	89.12
489.043	74.12
489.261	80.12
489.479	93.12
489.696	85.12
489.914	89.12
490.132	87.12
490.35	83.12
490.568	99.12
490.786	93.12
491.003	88.12
491.221	95.12
491.439	99.12
491.657	85.12
491.874	99.12
492.092	86.12
492.31	88.12
492.527	104.12
492.745	87.12
492.963	101.12
493.18	96.12
493.398	88.12
493.615	93.12
493.833	97.12
494.05	91.12
494.268	86.12
494.485	99.12
494.703	107.12
494.92	95.12
495.138	101.12
495.355	88.12
495.573	98.12
495.79	77.12
496.008	98.12
496.225	92.12
496.442	80.12
496.66	102.12
496.877	101.12
497.094	102.12
497.312	94.12
497.529	79.12
497.746	91.12
497.963	103.12
498.181	89.12
498.398	105.12
498.615	92.12
498.832	103.12
499.049	102.12
499.267	98.12
499.484	99.12
499.701	98.12
499.918	76.12
500.135	76.12
500.352	90.12
500.569	85.12
500.786	95.12
501.003	86.12
501.22	79.12
501.437	92.12
501.654	86.12
501.871	98.12
502.088	88.12
502.305	93.12
502.522	97.12
502.739	96.12
502.956	92.12
503.172	82.12
503.389	93.12
503.606	116.12
503.823	104.12
504.04	99.12
504.256	101.12
504.473	81.12
504.69	95.12
504.907	90.12
505.123	83.12
505.34	84.12
505.557	100.12
505.773	95.12
505.99	84.12
506.207	94.12
506.423	82.12
506.64	85.12
506.856	98.12
507.073	106.12
507.289	89.12
507.506	86.12
507.722	110.12
507.939	108.12
508.155	102.12
508.372	91.12
508.588	101.12
508.805	90.12
509.021	91.12
509.238	95.12
509.454	78.12
509.67	91.12
509.887	120.12
510.103	132.12
510.319	207.12
510.536	679.12
510.752	2167.12
510.968	641.12
511.184	173.12
511.401	113.12
511.617	97.12
511.833	95.12
512.049	94.12
512.265	102.12
512.481	97.12
512.698	90.12
512.914	105.12
513.13	87.12
513.346	96.12
513.562	100.12
513.778	91.12
513.994	89.12
514.21	94.12
514.426	117.12
514.642	117.12
514.858	119.12
515.074	149.12
