Data from Circ_2015_H10_HRD10591_00083.txt Node
Date: Wed Jan 03 10:00:39 EST 2024
User: Yrep
Spectrometer: HR+D1059
Trigger mode: 1
Integration Time (sec): 1.000000E-1
Scans to average: 1
Electric dark correction enabled: true
Nonlinearity correction enabled: false
Boxcar width: 0
XAxis mode: Wavelengths
Number of Pixels in Spectrum: 2048
>>>>>Begin Spectral Data<<<<<
223.165	-32.06
223.4	-32.06
223.635	-32.06
223.869	-12.06
224.104	-33.06
224.338	-26.06
224.573	-11.06
224.808	-12.06
225.042	-6.06
225.277	-4.06
225.511	-10.06
225.746	12.94
225.98	20.94
226.215	19.94
226.449	9.94
226.683	22.94
226.918	34.94
227.152	24.94
227.387	37.94
227.621	37.94
227.856	38.94
228.09	38.94
228.324	52.94
228.559	52.94
228.793	68.94
229.027	64.94
229.262	61.94
229.496	77.94
229.73	93.94
229.964	90.94
230.199	70.94
230.433	73.94
230.667	80.94
230.901	86.94
231.136	67.94
231.37	76.94
231.604	80.94
231.838	77.94
232.072	82.94
232.306	88.94
232.541	80.94
232.775	80.94
233.009	86.94
233.243	69.94
233.477	80.94
233.711	79.94
233.945	86.94
234.179	75.94
234.413	73.94
234.647	84.94
234.881	75.94
235.115	72.94
235.349	79.94
235.583	77.94
235.817	84.94
236.051	71.94
236.285	67.94
236.519	72.94
236.753	66.94
236.987	74.94
237.221	75.94
237.455	83.94
237.689	80.94
237.922	71.94
238.156	70.94
238.39	72.94
238.624	84.94
238.858	68.94
239.091	74.94
239.325	59.94
239.559	75.94
239.793	75.94
240.027	101.94
240.26	88.94
240.494	80.94
240.728	73.94
240.961	82.94
241.195	72.94
241.429	88.94
241.662	74.94
241.896	94.94
242.13	65.94
242.363	75.94
242.597	72.94
242.83	70.94
243.064	83.94
243.298	73.94
243.531	82.94
243.765	76.94
243.998	75.94
244.232	67.94
244.465	74.94
244.699	80.94
244.932	89.94
245.166	88.94
245.399	84.94
245.633	83.94
245.866	68.94
246.099	75.94
246.333	81.94
246.566	81.94
246.8	92.94
247.033	76.94
247.266	63.94
247.5	88.94
247.733	85.94
247.966	82.94
248.2	74.94
248.433	84.94
248.666	77.94
248.899	73.94
249.133	83.94
249.366	101.94
249.599	89.94
249.832	79.94
250.066	72.94
250.299	84.94
250.532	82.94
250.765	73.94
250.998	78.94
251.231	85.94
251.465	89.94
251.698	86.94
251.931	85.94
252.164	74.94
252.397	83.94
252.63	86.94
252.863	77.94
253.096	78.94
253.329	83.94
253.562	70.94
253.795	76.94
254.028	79.94
254.261	67.94
254.494	73.94
254.727	84.94
254.96	67.94
255.193	77.94
255.426	95.94
255.659	94.94
255.892	84.94
256.124	77.94
256.357	75.94
256.59	90.94
256.823	67.94
257.056	102.94
257.289	68.94
257.521	79.94
257.754	94.94
257.987	78.94
258.22	85.94
258.452	75.94
258.685	91.94
258.918	92.94
259.151	83.94
259.383	80.94
259.616	75.94
259.849	95.94
260.081	77.94
260.314	76.94
260.547	76.94
260.779	86.94
261.012	92.94
261.244	102.94
261.477	85.94
261.71	92.94
261.942	111.94
262.175	104.94
262.407	98.94
262.64	89.94
262.872	90.94
263.105	76.94
263.337	93.94
263.57	100.94
263.802	92.94
264.035	83.94
264.267	84.94
264.499	87.94
264.732	84.94
264.964	73.94
265.197	67.94
265.429	86.94
265.661	89.94
265.894	85.94
266.126	80.94
266.358	79.94
266.591	88.94
266.823	95.94
267.055	90.94
267.287	86.94
267.52	92.94
267.752	92.94
267.984	93.94
268.216	75.94
268.448	87.94
268.681	78.94
268.913	88.94
269.145	92.94
269.377	80.94
269.609	97.94
269.841	84.94
270.073	82.94
270.306	90.94
270.538	86.94
270.77	81.94
271.002	77.94
271.234	88.94
271.466	88.94
271.698	91.94
271.93	93.94
272.162	91.94
272.394	93.94
272.626	100.94
272.858	78.94
273.09	86.94
273.322	105.94
273.553	97.94
273.785	83.94
274.017	82.94
274.249	87.94
274.481	84.94
274.713	85.94
274.945	90.94
275.176	99.94
275.408	74.94
275.64	78.94
275.872	89.94
276.104	94.94
276.335	92.94
276.567	99.94
276.799	113.94
277.031	104.94
277.262	106.94
277.494	100.94
277.726	94.94
277.957	80.94
278.189	85.94
278.421	85.94
278.652	88.94
278.884	96.94
279.115	91.94
279.347	93.94
279.579	84.94
279.81	105.94
280.042	88.94
280.273	110.94
280.505	91.94
280.736	90.94
280.968	90.94
281.199	91.94
281.431	89.94
281.662	86.94
281.894	102.94
282.125	91.94
282.356	116.94
282.588	131.94
282.819	121.94
283.051	75.94
283.282	97.94
283.513	91.94
283.745	102.94
283.976	98.94
284.207	102.94
284.439	106.94
284.67	82.94
284.901	81.94
285.132	102.94
285.364	90.94
285.595	94.94
285.826	76.94
286.057	81.94
286.288	73.94
286.52	97.94
286.751	86.94
286.982	79.94
287.213	86.94
287.444	98.94
287.675	90.94
287.906	73.94
288.138	90.94
288.369	95.94
288.6	91.94
288.831	101.94
289.062	84.94
289.293	94.94
289.524	99.94
289.755	85.94
289.986	87.94
290.217	84.94
290.448	91.94
290.679	90.94
290.91	89.94
291.141	75.94
291.371	75.94
291.602	94.94
291.833	91.94
292.064	89.94
292.295	84.94
292.526	95.94
292.757	87.94
292.987	87.94
293.218	91.94
293.449	83.94
293.68	91.94
293.91	84.94
294.141	101.94
294.372	96.94
294.603	86.94
294.833	87.94
295.064	94.94
295.295	79.94
295.525	90.94
295.756	93.94
295.987	104.94
296.217	118.94
296.448	126.94
296.679	104.94
296.909	97.94
297.14	80.94
297.37	86.94
297.601	89.94
297.831	73.94
298.062	96.94
298.292	102.94
298.523	81.94
298.753	92.94
298.984	86.94
299.214	86.94
299.445	89.94
299.675	84.94
299.905	87.94
300.136	101.94
300.366	82.94
300.597	90.94
300.827	106.94
301.057	96.94
301.288	90.94
301.518	96.94
301.748	103.94
301.979	95.94
302.209	102.94
302.439	85.94
302.669	96.94
302.9	80.94
303.13	104.94
303.36	94.94
303.59	95.94
303.82	108.94
304.051	95.94
304.281	94.94
304.511	80.94
304.741	93.94
304.971	93.94
305.201	96.94
305.431	87.94
305.661	81.94
305.891	88.94
306.121	102.94
306.352	92.94
306.582	103.94
306.812	102.94
307.042	99.94
307.272	103.94
307.502	110.94
307.731	110.94
307.961	105.94
308.191	85.94
308.421	92.94
308.651	84.94
308.881	84.94
309.111	87.94
309.341	98.94
309.571	98.94
309.8	98.94
310.03	87.94
310.26	96.94
310.49	112.94
310.72	96.94
310.949	95.94
311.179	91.94
311.409	89.94
311.639	105.94
311.868	115.94
312.098	100.94
312.328	99.94
312.557	84.94
312.787	92.94
313.017	100.94
313.246	98.94
313.476	100.94
313.706	87.94
313.935	96.94
314.165	79.94
314.394	99.94
314.624	93.94
314.853	89.94
315.083	86.94
315.312	104.94
315.542	92.94
315.771	106.94
316.001	90.94
316.23	92.94
316.46	96.94
316.689	70.94
316.919	86.94
317.148	98.94
317.377	96.94
317.607	80.94
317.836	82.94
318.065	102.94
318.295	85.94
318.524	87.94
318.753	102.94
318.983	102.94
319.212	109.94
319.441	112.94
319.67	85.94
319.9	94.94
320.129	106.94
320.358	89.94
320.587	91.94
320.816	103.94
321.046	105.94
321.275	90.94
321.504	103.94
321.733	96.94
321.962	90.94
322.191	99.94
322.42	113.94
322.649	95.94
322.878	122.94
323.108	109.94
323.337	115.94
323.566	126.94
323.795	161.94
324.024	192.94
324.253	370.94
324.482	761.94
324.71	1510.94
324.939	2048.94
325.168	732.94
325.397	238.94
325.626	141.94
325.855	138.94
326.084	133.94
326.313	117.94
326.542	147.94
326.77	209.94
326.999	431.94
327.228	896.94
327.457	1608.94
327.686	1308.94
327.914	373.94
328.143	214.94
328.372	192.94
328.6	154.94
328.829	108.94
329.058	136.94
329.287	113.94
329.515	110.94
329.744	134.94
329.972	166.94
330.201	226.94
330.43	320.94
330.658	193.94
330.887	143.94
331.115	118.94
331.344	91.94
331.572	104.94
331.801	104.94
332.03	99.94
332.258	95.94
332.486	108.94
332.715	95.94
332.943	104.94
333.172	101.94
333.4	107.94
333.629	129.94
333.857	131.94
334.085	172.94
334.314	243.94
334.542	380.94
334.771	355.94
334.999	136.94
335.227	99.94
335.455	101.94
335.684	98.94
335.912	96.94
336.14	95.94
336.369	89.94
336.597	98.94
336.825	93.94
337.053	87.94
337.281	92.94
337.51	93.94
337.738	95.94
337.966	86.94
338.194	91.94
338.422	105.94
338.65	94.94
338.878	95.94
339.106	86.94
339.334	88.94
339.562	91.94
339.79	108.94
340.018	88.94
340.246	90.94
340.474	87.94
340.702	91.94
340.93	91.94
341.158	103.94
341.386	104.94
341.614	100.94
341.842	86.94
342.07	97.94
342.298	79.94
342.526	101.94
342.754	94.94
342.981	85.94
343.209	99.94
343.437	100.94
343.665	91.94
343.893	82.94
344.12	103.94
344.348	90.94
344.576	94.94
344.804	114.94
345.031	115.94
345.259	90.94
345.487	91.94
345.714	96.94
345.942	91.94
346.17	83.94
346.397	88.94
346.625	92.94
346.853	98.94
347.08	92.94
347.308	82.94
347.535	102.94
347.763	93.94
347.99	111.94
348.218	90.94
348.445	109.94
348.673	92.94
348.9	105.94
349.128	108.94
349.355	87.94
349.583	95.94
349.81	88.94
350.037	101.94
350.265	91.94
350.492	85.94
350.72	87.94
350.947	101.94
351.174	111.94
351.402	108.94
351.629	98.94
351.856	94.94
352.083	101.94
352.311	109.94
352.538	106.94
352.765	103.94
352.992	103.94
353.22	111.94
353.447	102.94
353.674	93.94
353.901	108.94
354.128	96.94
354.355	115.94
354.583	99.94
354.81	116.94
355.037	109.94
355.264	94.94
355.491	99.94
355.718	95.94
355.945	111.94
356.172	95.94
356.399	90.94
356.626	90.94
356.853	87.94
357.08	92.94
357.307	94.94
357.534	102.94
357.761	86.94
357.988	99.94
358.215	107.94
358.441	101.94
358.668	98.94
358.895	84.94
359.122	90.94
359.349	91.94
359.576	89.94
359.802	103.94
360.029	117.94
360.256	109.94
360.483	98.94
360.709	89.94
360.936	101.94
361.163	95.94
361.39	84.94
361.616	93.94
361.843	106.94
362.07	86.94
362.296	85.94
362.523	95.94
362.749	106.94
362.976	94.94
363.203	90.94
363.429	96.94
363.656	93.94
363.882	95.94
364.109	100.94
364.335	90.94
364.562	92.94
364.788	99.94
365.015	106.94
365.241	109.94
365.468	116.94
365.694	104.94
365.92	99.94
366.147	93.94
366.373	88.94
366.599	71.94
366.826	82.94
367.052	93.94
367.278	84.94
367.505	93.94
367.731	94.94
367.957	96.94
368.184	102.94
368.41	100.94
368.636	128.94
368.862	109.94
369.089	105.94
369.315	98.94
369.541	83.94
369.767	92.94
369.993	82.94
370.219	90.94
370.445	88.94
370.672	93.94
370.898	91.94
371.124	95.94
371.35	89.94
371.576	83.94
371.802	84.94
372.028	86.94
372.254	90.94
372.48	85.94
372.706	91.94
372.932	91.94
373.158	95.94
373.384	91.94
373.61	78.94
373.835	88.94
374.061	94.94
374.287	76.94
374.513	104.94
374.739	78.94
374.965	109.94
375.191	82.94
375.416	103.94
375.642	85.94
375.868	95.94
376.094	84.94
376.319	80.94
376.545	74.94
376.771	87.94
376.997	85.94
377.222	90.94
377.448	83.94
377.674	96.94
377.899	92.94
378.125	80.94
378.35	84.94
378.576	95.94
378.802	94.94
379.027	96.94
379.253	102.94
379.478	95.94
379.704	101.94
379.929	77.94
380.155	98.94
380.38	92.94
380.606	86.94
380.831	97.94
381.057	96.94
381.282	92.94
381.507	91.94
381.733	107.94
381.958	93.94
382.184	78.94
382.409	98.94
382.634	115.94
382.86	103.94
383.085	96.94
383.31	101.94
383.535	102.94
383.761	100.94
383.986	96.94
384.211	101.94
384.436	91.94
384.662	94.94
384.887	122.94
385.112	99.94
385.337	105.94
385.562	97.94
385.787	91.94
386.013	97.94
386.238	112.94
386.463	118.94
386.688	115.94
386.913	98.94
387.138	114.94
387.363	94.94
387.588	93.94
387.813	94.94
388.038	96.94
388.263	117.94
388.488	94.94
388.713	85.94
388.938	100.94
389.163	88.94
389.387	89.94
389.612	109.94
389.837	92.94
390.062	89.94
390.287	101.94
390.512	86.94
390.736	75.94
390.961	82.94
391.186	87.94
391.411	101.94
391.636	83.94
391.86	86.94
392.085	104.94
392.31	84.94
392.534	81.94
392.759	103.94
392.984	93.94
393.208	78.94
393.433	95.94
393.658	88.94
393.882	82.94
394.107	95.94
394.331	98.94
394.556	91.94
394.78	100.94
395.005	93.94
395.229	79.94
395.454	102.94
395.678	96.94
395.903	86.94
396.127	90.94
396.352	93.94
396.576	84.94
396.801	91.94
397.025	83.94
397.249	90.94
397.474	90.94
397.698	83.94
397.922	84.94
398.147	96.94
398.371	89.94
398.595	87.94
398.82	90.94
399.044	99.94
399.268	77.94
399.492	87.94
399.717	96.94
399.941	88.94
400.165	93.94
400.389	94.94
400.613	88.94
400.837	67.94
401.062	87.94
401.286	96.94
401.51	89.94
401.734	87.94
401.958	99.94
402.182	105.94
402.406	140.94
402.63	128.94
402.854	88.94
403.078	90.94
403.302	76.94
403.526	89.94
403.75	91.94
403.974	93.94
404.198	91.94
404.422	95.94
404.645	87.94
404.869	86.94
405.093	98.94
405.317	108.94
405.541	123.94
405.765	104.94
405.988	109.94
406.212	160.94
406.436	207.94
406.66	127.94
406.883	97.94
407.107	87.94
407.331	104.94
407.555	87.94
407.778	94.94
408.002	84.94
408.226	79.94
408.449	99.94
408.673	91.94
408.896	80.94
409.12	96.94
409.344	87.94
409.567	105.94
409.791	83.94
410.014	106.94
410.238	86.94
410.461	92.94
410.685	85.94
410.908	88.94
411.132	100.94
411.355	96.94
411.578	95.94
411.802	96.94
412.025	75.94
412.249	96.94
412.472	84.94
412.695	95.94
412.919	93.94
413.142	89.94
413.365	101.94
413.589	87.94
413.812	99.94
414.035	106.94
414.258	100.94
414.482	89.94
414.705	82.94
414.928	91.94
415.151	83.94
415.374	96.94
415.597	92.94
415.821	91.94
416.044	89.94
416.267	110.94
416.49	91.94
416.713	83.94
416.936	101.94
417.159	91.94
417.382	81.94
417.605	96.94
417.828	91.94
418.051	77.94
418.274	83.94
418.497	91.94
418.72	91.94
418.943	87.94
419.166	92.94
419.389	78.94
419.611	95.94
419.834	86.94
420.057	105.94
420.28	90.94
420.503	93.94
420.726	87.94
420.948	87.94
421.171	98.94
421.394	88.94
421.617	83.94
421.839	80.94
422.062	84.94
422.285	88.94
422.507	100.94
422.73	106.94
422.953	95.94
423.175	89.94
423.398	82.94
423.621	96.94
423.843	80.94
424.066	73.94
424.288	88.94
424.511	82.94
424.733	94.94
424.956	107.94
425.178	95.94
425.401	95.94
425.623	97.94
425.846	97.94
426.068	90.94
426.291	102.94
426.513	85.94
426.735	84.94
426.958	84.94
427.18	103.94
427.402	120.94
427.625	159.94
427.847	142.94
428.069	140.94
428.292	102.94
428.514	92.94
428.736	95.94
428.958	89.94
429.181	87.94
429.403	74.94
429.625	75.94
429.847	83.94
430.069	98.94
430.292	95.94
430.514	82.94
430.736	88.94
430.958	87.94
431.18	99.94
431.402	99.94
431.624	83.94
431.846	89.94
432.068	80.94
432.29	86.94
432.512	80.94
432.734	106.94
432.956	93.94
433.178	95.94
433.4	107.94
433.622	92.94
433.844	95.94
434.066	87.94
434.287	93.94
434.509	105.94
434.731	98.94
434.953	92.94
435.175	87.94
435.397	90.94
435.618	104.94
435.84	96.94
436.062	110.94
436.284	85.94
436.505	100.94
436.727	96.94
436.949	92.94
437.17	83.94
437.392	78.94
437.614	77.94
437.835	95.94
438.057	118.94
438.278	108.94
438.5	93.94
438.721	113.94
438.943	85.94
439.165	84.94
439.386	95.94
439.608	87.94
439.829	98.94
440.05	114.94
440.272	141.94
440.493	93.94
440.715	90.94
440.936	78.94
441.158	81.94
441.379	86.94
441.6	74.94
441.822	82.94
442.043	93.94
442.264	96.94
442.486	109.94
442.707	98.94
442.928	103.94
443.149	122.94
443.371	135.94
443.592	120.94
443.813	115.94
444.034	93.94
444.255	92.94
444.476	86.94
444.698	79.94
444.919	93.94
445.14	116.94
445.361	130.94
445.582	101.94
445.803	135.94
446.024	111.94
446.245	135.94
446.466	105.94
446.687	79.94
446.908	98.94
447.129	79.94
447.35	77.94
447.571	87.94
447.792	89.94
448.013	98.94
448.234	102.94
448.455	115.94
448.675	103.94
448.896	112.94
449.117	109.94
449.338	93.94
449.559	117.94
449.779	142.94
450	97.94
450.221	96.94
450.442	98.94
450.662	84.94
450.883	103.94
451.104	113.94
451.324	82.94
451.545	80.94
451.766	86.94
451.986	82.94
452.207	96.94
452.428	87.94
452.648	98.94
452.869	102.94
453.089	115.94
453.31	102.94
453.53	88.94
453.751	91.94
453.971	86.94
454.192	91.94
454.412	98.94
454.633	94.94
454.853	75.94
455.073	92.94
455.294	88.94
455.514	97.94
455.734	87.94
455.955	90.94
456.175	81.94
456.395	86.94
456.616	88.94
456.836	79.94
457.056	83.94
457.276	85.94
457.497	68.94
457.717	86.94
457.937	85.94
458.157	80.94
458.377	95.94
458.598	89.94
458.818	134.94
459.038	148.94
459.258	114.94
459.478	97.94
459.698	85.94
459.918	86.94
460.138	82.94
460.358	95.94
460.578	101.94
460.798	92.94
461.018	94.94
461.238	86.94
461.458	87.94
461.678	83.94
461.898	88.94
462.118	90.94
462.338	69.94
462.558	95.94
462.777	98.94
462.997	78.94
463.217	85.94
463.437	90.94
463.657	73.94
463.876	84.94
464.096	78.94
464.316	86.94
464.536	94.94
464.755	104.94
464.975	99.94
465.195	141.94
465.414	135.94
465.634	76.94
465.854	88.94
466.073	79.94
466.293	91.94
466.512	92.94
466.732	75.94
466.951	93.94
467.171	93.94
467.391	86.94
467.61	88.94
467.829	104.94
468.049	164.94
468.268	204.94
468.488	113.94
468.707	102.94
468.927	70.94
469.146	83.94
469.365	92.94
469.585	92.94
469.804	96.94
470.023	87.94
470.243	111.94
470.462	89.94
470.681	93.94
470.901	95.94
471.12	89.94
471.339	94.94
471.558	88.94
471.777	93.94
471.997	147.94
472.216	262.94
472.435	485.94
472.654	182.94
472.873	112.94
473.092	96.94
473.311	101.94
473.53	92.94
473.749	92.94
473.968	104.94
474.187	96.94
474.406	86.94
474.625	89.94
474.844	93.94
475.063	95.94
475.282	89.94
475.501	104.94
475.72	94.94
475.939	78.94
476.158	84.94
476.377	85.94
476.596	79.94
476.814	94.94
477.033	93.94
477.252	85.94
477.471	86.94
477.69	103.94
477.908	99.94
478.127	91.94
478.346	83.94
478.564	94.94
478.783	89.94
479.002	87.94
479.22	99.94
479.439	97.94
479.658	98.94
479.876	80.94
480.095	90.94
480.313	91.94
480.532	118.94
480.751	138.94
480.969	282.94
481.188	805.94
481.406	540.94
481.624	145.94
481.843	99.94
482.061	105.94
482.28	106.94
482.498	80.94
482.717	86.94
482.935	87.94
483.153	78.94
483.372	81.94
483.59	104.94
483.808	80.94
484.027	82.94
484.245	93.94
484.463	94.94
484.681	92.94
484.9	93.94
485.118	96.94
485.336	87.94
485.554	111.94
485.772	90.94
485.99	89.94
486.209	116.94
486.427	96.94
486.645	104.94
486.863	105.94
487.081	102.94
487.299	83.94
487.517	74.94
487.735	95.94
487.953	85.94
488.171	99.94
488.389	102.94
488.607	100.94
488.825	112.94
489.043	92.94
489.261	85.94
489.479	81.94
489.696	105.94
489.914	90.94
490.132	94.94
490.35	85.94
490.568	83.94
490.786	105.94
491.003	93.94
491.221	97.94
491.439	92.94
491.657	94.94
491.874	92.94
492.092	93.94
492.31	89.94
492.527	91.94
492.745	94.94
492.963	93.94
493.18	86.94
493.398	94.94
493.615	98.94
493.833	81.94
494.05	84.94
494.268	81.94
494.485	92.94
494.703	95.94
494.92	89.94
495.138	84.94
495.355	75.94
495.573	97.94
495.79	89.94
496.008	89.94
496.225	95.94
496.442	88.94
496.66	85.94
496.877	93.94
497.094	84.94
497.312	90.94
497.529	92.94
497.746	79.94
497.963	96.94
498.181	86.94
498.398	93.94
498.615	106.94
498.832	106.94
499.049	87.94
499.267	82.94
499.484	90.94
499.701	91.94
499.918	88.94
500.135	83.94
500.352	83.94
500.569	84.94
500.786	91.94
501.003	86.94
501.22	78.94
501.437	79.94
501.654	94.94
501.871	111.94
502.088	123.94
502.305	93.94
502.522	80.94
502.739	88.94
502.956	88.94
503.172	87.94
503.389	93.94
503.606	92.94
503.823	91.94
504.04	84.94
504.256	91.94
504.473	94.94
504.69	90.94
504.907	96.94
505.123	95.94
505.34	99.94
505.557	99.94
505.773	101.94
505.99	99.94
506.207	90.94
506.423	93.94
506.64	84.94
506.856	99.94
507.073	83.94
507.289	75.94
507.506	99.94
507.722	124.94
507.939	103.94
508.155	91.94
508.372	77.94
508.588	93.94
508.805	91.94
509.021	87.94
509.238	96.94
509.454	89.94
509.67	104.94
509.887	103.94
510.103	131.94
510.319	204.94
510.536	635.94
510.752	2023.94
510.968	598.94
511.184	147.94
511.401	112.94
511.617	104.94
511.833	95.94
512.049	101.94
512.265	99.94
512.481	88.94
512.698	103.94
512.914	94.94
513.13	86.94
513.346	85.94
513.562	88.94
513.778	100.94
513.994	79.94
514.21	94.94
514.426	109.94
514.642	119.94
514.858	118.94
515.074	150.94
515.29	360.94
515.506	1201.94
