Data from Circ_2015_H10_HRD10591_00073.txt Node
Date: Wed Jan 03 10:00:37 EST 2024
User: Yrep
Spectrometer: HR+D1059
Trigger mode: 1
Integration Time (sec): 1.000000E-1
Scans to average: 1
Electric dark correction enabled: true
Nonlinearity correction enabled: false
Boxcar width: 0
XAxis mode: Wavelengths
Number of Pixels in Spectrum: 2048
>>>>>Begin Spectral Data<<<<<
223.165	-14.69
223.4	-14.69
223.635	-14.69
223.869	-15.69
224.104	-3.69
224.338	-3.69
224.573	-30.69
224.808	-4.69
225.042	-6.69
225.277	-18.69
225.511	-21.69
225.746	-0.69
225.98	7.31
226.215	28.31
226.449	20.31
226.683	13.31
226.918	14.31
227.152	37.31
227.387	43.31
227.621	31.31
227.856	37.31
228.09	40.31
228.324	52.31
228.559	65.31
228.793	58.31
229.027	65.31
229.262	67.31
229.496	71.31
229.73	73.31
229.964	88.31
230.199	87.31
230.433	84.31
230.667	75.31
230.901	78.31
231.136	66.31
231.37	73.31
231.604	84.31
231.838	83.31
232.072	78.31
232.306	81.31
232.541	73.31
232.775	81.31
233.009	78.31
233.243	81.31
233.477	78.31
233.711	83.31
233.945	90.31
234.179	84.31
234.413	79.31
234.647	83.31
234.881	78.31
235.115	70.31
235.349	77.31
235.583	83.31
235.817	70.31
236.051	90.31
236.285	89.31
236.519	75.31
236.753	82.31
236.987	88.31
237.221	92.31
237.455	86.31
237.689	82.31
237.922	75.31
238.156	71.31
238.39	74.31
238.624	85.31
238.858	79.31
239.091	69.31
239.325	75.31
239.559	77.31
239.793	87.31
240.027	78.31
240.26	75.31
240.494	57.31
240.728	66.31
240.961	88.31
241.195	71.31
241.429	83.31
241.662	70.31
241.896	88.31
242.13	67.31
242.363	73.31
242.597	75.31
242.83	84.31
243.064	72.31
243.298	85.31
243.531	72.31
243.765	72.31
243.998	83.31
244.232	84.31
244.465	81.31
244.699	79.31
244.932	86.31
245.166	82.31
245.399	73.31
245.633	70.31
245.866	86.31
246.099	75.31
246.333	68.31
246.566	67.31
246.8	71.31
247.033	71.31
247.266	78.31
247.5	78.31
247.733	82.31
247.966	78.31
248.2	75.31
248.433	80.31
248.666	70.31
248.899	69.31
249.133	75.31
249.366	98.31
249.599	94.31
249.832	91.31
250.066	78.31
250.299	79.31
250.532	85.31
250.765	94.31
250.998	86.31
251.231	78.31
251.465	73.31
251.698	80.31
251.931	75.31
252.164	77.31
252.397	81.31
252.63	78.31
252.863	92.31
253.096	92.31
253.329	74.31
253.562	82.31
253.795	80.31
254.028	74.31
254.261	76.31
254.494	93.31
254.727	90.31
254.96	92.31
255.193	81.31
255.426	73.31
255.659	82.31
255.892	88.31
256.124	84.31
256.357	78.31
256.59	80.31
256.823	62.31
257.056	73.31
257.289	91.31
257.521	83.31
257.754	70.31
257.987	86.31
258.22	88.31
258.452	79.31
258.685	76.31
258.918	79.31
259.151	77.31
259.383	84.31
259.616	95.31
259.849	84.31
260.081	86.31
260.314	71.31
260.547	83.31
260.779	90.31
261.012	85.31
261.244	79.31
261.477	92.31
261.71	83.31
261.942	93.31
262.175	117.31
262.407	98.31
262.64	82.31
262.872	90.31
263.105	84.31
263.337	87.31
263.57	84.31
263.802	85.31
264.035	88.31
264.267	62.31
264.499	87.31
264.732	84.31
264.964	77.31
265.197	81.31
265.429	76.31
265.661	95.31
265.894	93.31
266.126	74.31
266.358	94.31
266.591	89.31
266.823	86.31
267.055	73.31
267.287	88.31
267.52	86.31
267.752	72.31
267.984	86.31
268.216	73.31
268.448	88.31
268.681	113.31
268.913	85.31
269.145	78.31
269.377	77.31
269.609	93.31
269.841	78.31
270.073	100.31
270.306	99.31
270.538	87.31
270.77	85.31
271.002	100.31
271.234	76.31
271.466	78.31
271.698	84.31
271.93	83.31
272.162	99.31
272.394	99.31
272.626	89.31
272.858	87.31
273.09	85.31
273.322	87.31
273.553	76.31
273.785	86.31
274.017	86.31
274.249	87.31
274.481	82.31
274.713	75.31
274.945	85.31
275.176	81.31
275.408	94.31
275.64	93.31
275.872	89.31
276.104	82.31
276.335	94.31
276.567	98.31
276.799	97.31
277.031	102.31
277.262	94.31
277.494	89.31
277.726	85.31
277.957	105.31
278.189	99.31
278.421	79.31
278.652	98.31
278.884	90.31
279.115	88.31
279.347	75.31
279.579	93.31
279.81	88.31
280.042	103.31
280.273	113.31
280.505	89.31
280.736	73.31
280.968	85.31
281.199	69.31
281.431	88.31
281.662	73.31
281.894	90.31
282.125	99.31
282.356	110.31
282.588	131.31
282.819	101.31
283.051	91.31
283.282	102.31
283.513	91.31
283.745	68.31
283.976	89.31
284.207	90.31
284.439	79.31
284.67	93.31
284.901	79.31
285.132	90.31
285.364	79.31
285.595	99.31
285.826	95.31
286.057	94.31
286.288	92.31
286.52	92.31
286.751	82.31
286.982	80.31
287.213	84.31
287.444	72.31
287.675	80.31
287.906	94.31
288.138	90.31
288.369	93.31
288.6	97.31
288.831	92.31
289.062	113.31
289.293	92.31
289.524	73.31
289.755	94.31
289.986	89.31
290.217	84.31
290.448	88.31
290.679	84.31
290.91	82.31
291.141	88.31
291.371	90.31
291.602	92.31
291.833	98.31
292.064	89.31
292.295	89.31
292.526	93.31
292.757	100.31
292.987	90.31
293.218	95.31
293.449	89.31
293.68	84.31
293.91	92.31
294.141	93.31
294.372	91.31
294.603	86.31
294.833	98.31
295.064	94.31
295.295	85.31
295.525	83.31
295.756	92.31
295.987	126.31
296.217	116.31
296.448	115.31
296.679	96.31
296.909	95.31
297.14	98.31
297.37	96.31
297.601	94.31
297.831	92.31
298.062	103.31
298.292	87.31
298.523	98.31
298.753	84.31
298.984	91.31
299.214	86.31
299.445	90.31
299.675	92.31
299.905	97.31
300.136	105.31
300.366	86.31
300.597	85.31
300.827	86.31
301.057	74.31
301.288	100.31
301.518	88.31
301.748	89.31
301.979	93.31
302.209	85.31
302.439	97.31
302.669	83.31
302.9	84.31
303.13	75.31
303.36	86.31
303.59	101.31
303.82	92.31
304.051	90.31
304.281	113.31
304.511	106.31
304.741	90.31
304.971	85.31
305.201	99.31
305.431	87.31
305.661	92.31
305.891	105.31
306.121	89.31
306.352	105.31
306.582	107.31
306.812	76.31
307.042	91.31
307.272	94.31
307.502	105.31
307.731	92.31
307.961	93.31
308.191	82.31
308.421	84.31
308.651	86.31
308.881	87.31
309.111	89.31
309.341	105.31
309.571	100.31
309.8	93.31
310.03	79.31
310.26	97.31
310.49	97.31
310.72	93.31
310.949	98.31
311.179	89.31
311.409	94.31
311.639	101.31
311.868	98.31
312.098	98.31
312.328	101.31
312.557	91.31
312.787	106.31
313.017	100.31
313.246	89.31
313.476	85.31
313.706	102.31
313.935	95.31
314.165	111.31
314.394	87.31
314.624	85.31
314.853	93.31
315.083	95.31
315.312	105.31
315.542	96.31
315.771	101.31
316.001	87.31
316.23	86.31
316.46	104.31
316.689	66.31
316.919	94.31
317.148	101.31
317.377	97.31
317.607	95.31
317.836	87.31
318.065	94.31
318.295	85.31
318.524	93.31
318.753	88.31
318.983	102.31
319.212	93.31
319.441	91.31
319.67	114.31
319.9	98.31
320.129	113.31
320.358	81.31
320.587	97.31
320.816	105.31
321.046	97.31
321.275	95.31
321.504	105.31
321.733	94.31
321.962	117.31
322.191	93.31
322.42	90.31
322.649	109.31
322.878	110.31
323.108	120.31
323.337	113.31
323.566	133.31
323.795	149.31
324.024	220.31
324.253	390.31
324.482	828.31
324.71	1704.31
324.939	2272.31
325.168	828.31
325.397	231.31
325.626	148.31
325.855	147.31
326.084	125.31
326.313	132.31
326.542	143.31
326.77	234.31
326.999	456.31
327.228	968.31
327.457	1765.31
327.686	1407.31
327.914	375.31
328.143	217.31
328.372	195.31
328.6	147.31
328.829	136.31
329.058	140.31
329.287	131.31
329.515	101.31
329.744	123.31
329.972	141.31
330.201	216.31
330.43	284.31
330.658	177.31
330.887	134.31
331.115	130.31
331.344	104.31
331.572	95.31
331.801	94.31
332.03	102.31
332.258	113.31
332.486	90.31
332.715	105.31
332.943	93.31
333.172	95.31
333.4	95.31
333.629	108.31
333.857	130.31
334.085	163.31
334.314	218.31
334.542	346.31
334.771	299.31
334.999	142.31
335.227	94.31
335.455	102.31
335.684	85.31
335.912	93.31
336.14	84.31
336.369	94.31
336.597	102.31
336.825	92.31
337.053	99.31
337.281	106.31
337.51	90.31
337.738	100.31
337.966	94.31
338.194	93.31
338.422	87.31
338.65	87.31
338.878	96.31
339.106	84.31
339.334	92.31
339.562	85.31
339.79	83.31
340.018	88.31
340.246	84.31
340.474	103.31
340.702	108.31
340.93	107.31
341.158	86.31
341.386	84.31
341.614	84.31
341.842	88.31
342.07	98.31
342.298	97.31
342.526	89.31
342.754	86.31
342.981	84.31
343.209	94.31
343.437	105.31
343.665	87.31
343.893	93.31
344.12	95.31
344.348	82.31
344.576	92.31
344.804	87.31
345.031	100.31
345.259	86.31
345.487	98.31
345.714	84.31
345.942	100.31
346.17	102.31
346.397	86.31
346.625	109.31
346.853	86.31
347.08	100.31
347.308	86.31
347.535	94.31
347.763	96.31
347.99	109.31
348.218	108.31
348.445	105.31
348.673	86.31
348.9	92.31
349.128	76.31
349.355	90.31
349.583	99.31
349.81	85.31
350.037	84.31
350.265	99.31
350.492	98.31
350.72	104.31
350.947	102.31
351.174	113.31
351.402	115.31
351.629	92.31
351.856	95.31
352.083	104.31
352.311	109.31
352.538	103.31
352.765	104.31
352.992	121.31
353.22	115.31
353.447	110.31
353.674	105.31
353.901	84.31
354.128	108.31
354.355	96.31
354.583	99.31
354.81	93.31
355.037	103.31
355.264	95.31
355.491	85.31
355.718	73.31
355.945	89.31
356.172	102.31
356.399	93.31
356.626	90.31
356.853	109.31
357.08	100.31
357.307	88.31
357.534	87.31
357.761	100.31
357.988	87.31
358.215	103.31
358.441	86.31
358.668	107.31
358.895	105.31
359.122	97.31
359.349	79.31
359.576	102.31
359.802	87.31
360.029	100.31
360.256	113.31
360.483	99.31
360.709	81.31
360.936	97.31
361.163	92.31
361.39	93.31
361.616	88.31
361.843	80.31
362.07	76.31
362.296	97.31
362.523	97.31
362.749	94.31
362.976	88.31
363.203	99.31
363.429	78.31
363.656	105.31
363.882	102.31
364.109	94.31
364.335	95.31
364.562	87.31
364.788	91.31
365.015	97.31
365.241	93.31
365.468	103.31
365.694	98.31
365.92	90.31
366.147	84.31
366.373	101.31
366.599	103.31
366.826	101.31
367.052	91.31
367.278	82.31
367.505	84.31
367.731	103.31
367.957	84.31
368.184	85.31
368.41	103.31
368.636	93.31
368.862	99.31
369.089	104.31
369.315	95.31
369.541	83.31
369.767	92.31
369.993	90.31
370.219	95.31
370.445	96.31
370.672	93.31
370.898	87.31
371.124	80.31
371.35	74.31
371.576	87.31
371.802	92.31
372.028	82.31
372.254	88.31
372.48	93.31
372.706	93.31
372.932	77.31
373.158	84.31
373.384	86.31
373.61	91.31
373.835	71.31
374.061	90.31
374.287	89.31
374.513	87.31
374.739	98.31
374.965	78.31
375.191	90.31
375.416	91.31
375.642	87.31
375.868	93.31
376.094	92.31
376.319	91.31
376.545	92.31
376.771	82.31
376.997	101.31
377.222	93.31
377.448	88.31
377.674	93.31
377.899	94.31
378.125	96.31
378.35	101.31
378.576	91.31
378.802	79.31
379.027	92.31
379.253	87.31
379.478	87.31
379.704	89.31
379.929	100.31
380.155	98.31
380.38	95.31
380.606	102.31
380.831	102.31
381.057	97.31
381.282	92.31
381.507	85.31
381.733	90.31
381.958	96.31
382.184	108.31
382.409	97.31
382.634	101.31
382.86	105.31
383.085	98.31
383.31	93.31
383.535	93.31
383.761	111.31
383.986	87.31
384.211	100.31
384.436	87.31
384.662	97.31
384.887	105.31
385.112	111.31
385.337	92.31
385.562	103.31
385.787	91.31
386.013	105.31
386.238	120.31
386.463	84.31
386.688	107.31
386.913	101.31
387.138	93.31
387.363	98.31
387.588	97.31
387.813	83.31
388.038	104.31
388.263	130.31
388.488	109.31
388.713	96.31
388.938	87.31
389.163	85.31
389.387	99.31
389.612	85.31
389.837	93.31
390.062	96.31
390.287	88.31
390.512	90.31
390.736	77.31
390.961	94.31
391.186	87.31
391.411	85.31
391.636	94.31
391.86	78.31
392.085	84.31
392.31	82.31
392.534	81.31
392.759	77.31
392.984	85.31
393.208	93.31
393.433	78.31
393.658	80.31
393.882	85.31
394.107	88.31
394.331	95.31
394.556	93.31
394.78	84.31
395.005	98.31
395.229	82.31
395.454	78.31
395.678	95.31
395.903	88.31
396.127	91.31
396.352	82.31
396.576	91.31
396.801	86.31
397.025	87.31
397.249	90.31
397.474	78.31
397.698	84.31
397.922	86.31
398.147	72.31
398.371	90.31
398.595	85.31
398.82	79.31
399.044	85.31
399.268	74.31
399.492	93.31
399.717	88.31
399.941	84.31
400.165	94.31
400.389	88.31
400.613	101.31
400.837	72.31
401.062	93.31
401.286	85.31
401.51	92.31
401.734	101.31
401.958	98.31
402.182	115.31
402.406	140.31
402.63	114.31
402.854	94.31
403.078	88.31
403.302	98.31
403.526	87.31
403.75	95.31
403.974	88.31
404.198	75.31
404.422	90.31
404.645	84.31
404.869	89.31
405.093	107.31
405.317	110.31
405.541	100.31
405.765	108.31
405.988	107.31
406.212	151.31
406.436	177.31
406.66	143.31
406.883	75.31
407.107	94.31
407.331	91.31
407.555	88.31
407.778	96.31
408.002	93.31
408.226	97.31
408.449	92.31
408.673	96.31
408.896	94.31
409.12	103.31
409.344	101.31
409.567	91.31
409.791	115.31
410.014	109.31
410.238	104.31
410.461	82.31
410.685	90.31
410.908	104.31
411.132	93.31
411.355	101.31
411.578	90.31
411.802	79.31
412.025	84.31
412.249	104.31
412.472	92.31
412.695	109.31
412.919	101.31
413.142	95.31
413.365	96.31
413.589	85.31
413.812	82.31
414.035	98.31
414.258	105.31
414.482	98.31
414.705	102.31
414.928	89.31
415.151	82.31
415.374	94.31
415.597	85.31
415.821	80.31
416.044	96.31
416.267	77.31
416.49	84.31
416.713	89.31
416.936	76.31
417.159	70.31
417.382	91.31
417.605	85.31
417.828	89.31
418.051	88.31
418.274	85.31
418.497	92.31
418.72	93.31
418.943	83.31
419.166	72.31
419.389	69.31
419.611	80.31
419.834	76.31
420.057	76.31
420.28	93.31
420.503	79.31
420.726	94.31
420.948	83.31
421.171	98.31
421.394	86.31
421.617	83.31
421.839	87.31
422.062	79.31
422.285	84.31
422.507	104.31
422.73	104.31
422.953	77.31
423.175	90.31
423.398	82.31
423.621	83.31
423.843	81.31
424.066	98.31
424.288	83.31
424.511	79.31
424.733	84.31
424.956	105.31
425.178	85.31
425.401	108.31
425.623	90.31
425.846	93.31
426.068	105.31
426.291	85.31
426.513	81.31
426.735	107.31
426.958	84.31
427.18	103.31
427.402	135.31
427.625	161.31
427.847	129.31
428.069	134.31
428.292	101.31
428.514	95.31
428.736	82.31
428.958	79.31
429.181	85.31
429.403	95.31
429.625	79.31
429.847	80.31
430.069	91.31
430.292	90.31
430.514	83.31
430.736	86.31
430.958	89.31
431.18	90.31
431.402	79.31
431.624	80.31
431.846	67.31
432.068	86.31
432.29	87.31
432.512	77.31
432.734	69.31
432.956	86.31
433.178	106.31
433.4	97.31
433.622	102.31
433.844	97.31
434.066	83.31
434.287	91.31
434.509	83.31
434.731	77.31
434.953	84.31
435.175	75.31
435.397	88.31
435.618	87.31
435.84	109.31
436.062	110.31
436.284	104.31
436.505	96.31
436.727	99.31
436.949	89.31
437.17	83.31
437.392	83.31
437.614	77.31
437.835	91.31
438.057	106.31
438.278	104.31
438.5	87.31
438.721	110.31
438.943	92.31
439.165	99.31
439.386	90.31
439.608	87.31
439.829	106.31
440.05	104.31
440.272	127.31
440.493	85.31
440.715	80.31
440.936	77.31
441.158	91.31
441.379	92.31
441.6	94.31
441.822	87.31
442.043	93.31
442.264	106.31
442.486	103.31
442.707	105.31
442.928	104.31
443.149	118.31
443.371	126.31
443.592	107.31
443.813	103.31
444.034	106.31
444.255	87.31
444.476	75.31
444.698	78.31
444.919	92.31
445.14	133.31
445.361	108.31
445.582	113.31
445.803	127.31
446.024	114.31
446.245	133.31
446.466	110.31
446.687	88.31
446.908	84.31
447.129	88.31
447.35	83.31
447.571	91.31
447.792	71.31
448.013	94.31
448.234	97.31
448.455	90.31
448.675	106.31
448.896	115.31
449.117	81.31
449.338	91.31
449.559	140.31
449.779	129.31
450	108.31
450.221	88.31
450.442	78.31
450.662	90.31
450.883	88.31
451.104	95.31
451.324	96.31
451.545	100.31
451.766	82.31
451.986	89.31
452.207	76.31
452.428	79.31
452.648	110.31
452.869	115.31
453.089	107.31
453.31	111.31
453.53	98.31
453.751	93.31
453.971	88.31
454.192	101.31
454.412	98.31
454.633	104.31
454.853	87.31
455.073	84.31
455.294	93.31
455.514	100.31
455.734	85.31
455.955	85.31
456.175	70.31
456.395	85.31
456.616	79.31
456.836	88.31
457.056	82.31
457.276	75.31
457.497	82.31
457.717	79.31
457.937	86.31
458.157	85.31
458.377	83.31
458.598	108.31
458.818	135.31
459.038	144.31
459.258	110.31
459.478	74.31
459.698	86.31
459.918	89.31
460.138	94.31
460.358	86.31
460.578	99.31
460.798	91.31
461.018	83.31
461.238	78.31
461.458	78.31
461.678	86.31
461.898	84.31
462.118	87.31
462.338	87.31
462.558	80.31
462.777	93.31
462.997	91.31
463.217	90.31
463.437	88.31
463.657	89.31
463.876	81.31
464.096	89.31
464.316	96.31
464.536	85.31
464.755	93.31
464.975	101.31
465.195	137.31
465.414	142.31
465.634	88.31
465.854	85.31
466.073	84.31
466.293	89.31
466.512	80.31
466.732	92.31
466.951	96.31
467.171	78.31
467.391	105.31
467.61	97.31
467.829	122.31
468.049	158.31
468.268	194.31
468.488	98.31
468.707	69.31
468.927	87.31
469.146	88.31
469.365	91.31
469.585	102.31
469.804	90.31
470.023	79.31
470.243	86.31
470.462	101.31
470.681	92.31
470.901	90.31
471.12	97.31
471.339	85.31
471.558	96.31
471.777	98.31
471.997	113.31
472.216	240.31
472.435	439.31
472.654	148.31
472.873	100.31
473.092	87.31
473.311	91.31
473.53	78.31
473.749	86.31
473.968	89.31
474.187	99.31
474.406	85.31
474.625	81.31
474.844	113.31
475.063	77.31
475.282	79.31
475.501	84.31
475.72	91.31
475.939	93.31
476.158	79.31
476.377	91.31
476.596	95.31
476.814	96.31
477.033	92.31
477.252	78.31
477.471	97.31
477.69	97.31
477.908	87.31
478.127	77.31
478.346	72.31
478.564	91.31
478.783	83.31
479.002	77.31
479.22	92.31
479.439	78.31
479.658	113.31
479.876	95.31
480.095	86.31
480.313	83.31
480.532	98.31
480.751	118.31
480.969	231.31
481.188	717.31
481.406	456.31
481.624	131.31
481.843	102.31
482.061	87.31
482.28	72.31
482.498	85.31
482.717	76.31
482.935	86.31
483.153	73.31
483.372	78.31
483.59	81.31
483.808	83.31
484.027	88.31
484.245	102.31
484.463	84.31
484.681	89.31
484.9	88.31
485.118	102.31
485.336	93.31
485.554	88.31
485.772	97.31
485.99	90.31
486.209	97.31
486.427	97.31
486.645	103.31
486.863	96.31
487.081	84.31
487.299	84.31
487.517	92.31
487.735	90.31
487.953	79.31
488.171	95.31
488.389	86.31
488.607	102.31
488.825	93.31
489.043	71.31
489.261	88.31
489.479	89.31
489.696	93.31
489.914	79.31
490.132	87.31
490.35	79.31
490.568	76.31
490.786	87.31
491.003	82.31
491.221	92.31
491.439	84.31
491.657	78.31
491.874	77.31
492.092	86.31
492.31	83.31
492.527	85.31
492.745	82.31
492.963	82.31
493.18	96.31
493.398	94.31
493.615	98.31
493.833	105.31
494.05	97.31
494.268	70.31
494.485	97.31
494.703	83.31
494.92	80.31
495.138	98.31
495.355	86.31
495.573	87.31
495.79	74.31
496.008	99.31
496.225	82.31
496.442	94.31
496.66	93.31
496.877	92.31
497.094	86.31
497.312	83.31
497.529	95.31
497.746	87.31
497.963	82.31
498.181	81.31
498.398	96.31
498.615	116.31
498.832	100.31
499.049	93.31
499.267	94.31
499.484	102.31
499.701	88.31
499.918	88.31
500.135	92.31
500.352	102.31
500.569	92.31
500.786	95.31
501.003	93.31
501.22	95.31
501.437	100.31
501.654	84.31
501.871	97.31
502.088	70.31
502.305	91.31
502.522	84.31
502.739	84.31
502.956	75.31
503.172	92.31
503.389	99.31
503.606	90.31
503.823	94.31
504.04	88.31
504.256	90.31
504.473	97.31
504.69	98.31
504.907	87.31
505.123	78.31
505.34	90.31
505.557	84.31
505.773	93.31
505.99	77.31
506.207	75.31
506.423	86.31
506.64	86.31
506.856	84.31
507.073	84.31
507.289	97.31
507.506	86.31
507.722	102.31
507.939	111.31
508.155	95.31
508.372	98.31
508.588	93.31
508.805	94.31
509.021	79.31
509.238	100.31
509.454	100.31
509.67	98.31
509.887	98.31
510.103	118.31
510.319	193.31
510.536	625.31
510.752	2023.31
510.968	609.31
511.184	146.31
511.401	105.31
511.617	97.31
511.833	95.31
512.049	90.31
512.265	95.31
512.481	75.31
512.698	104.31
512.914	87.31
513.13	94.31
513.346	92.31
513.562	94.31
513.778	101.31
513.994	98.31
514.21	96.31
514.426	122.31
514.642	123.31
514.858	135.31
515.074	142.31
515.29	362.31
515.506	1219.31
515.721	502.31
515.937	146.31
