Data from Circ_2015_H10_HRD10591_00010.txt Node
Date: Wed Jan 03 10:00:24 EST 2024
User: Yrep
Spectrometer: HR+D1059
Trigger mode: 1
Integration Time (sec): 1.000000E-1
Scans to average: 1
Electric dark correction enabled: true
Nonlinearity correction enabled: false
Boxcar width: 0
XAxis mode: Wavelengths
Number of Pixels in Spectrum: 2048
>>>>>Begin Spectral Data<<<<<
223.165	-17.19
223.4	-17.19
223.635	-17.19
223.869	-19.19
224.104	-32.19
224.338	-0.19
224.573	-9.19
224.808	-2.19
225.042	-6.19
225.277	2.81
225.511	-3.19
225.746	-0.19
225.98	-0.19
226.215	6.81
226.449	20.81
226.683	20.81
226.918	17.81
227.152	20.81
227.387	32.81
227.621	20.81
227.856	32.81
228.09	49.81
228.324	56.81
228.559	28.81
228.793	54.81
229.027	61.81
229.262	69.81
229.496	66.81
229.73	78.81
229.964	68.81
230.199	73.81
230.433	78.81
230.667	73.81
230.901	74.81
231.136	79.81
231.37	82.81
231.604	84.81
231.838	80.81
232.072	92.81
232.306	74.81
232.541	80.81
232.775	76.81
233.009	84.81
233.243	71.81
233.477	73.81
233.711	72.81
233.945	78.81
234.179	76.81
234.413	86.81
234.647	76.81
234.881	62.81
235.115	70.81
235.349	72.81
235.583	81.81
235.817	66.81
236.051	87.81
236.285	82.81
236.519	71.81
236.753	74.81
236.987	73.81
237.221	78.81
237.455	84.81
237.689	87.81
237.922	77.81
238.156	64.81
238.39	69.81
238.624	68.81
238.858	74.81
239.091	63.81
239.325	62.81
239.559	81.81
239.793	62.81
240.027	71.81
240.26	73.81
240.494	84.81
240.728	80.81
240.961	64.81
241.195	70.81
241.429	66.81
241.662	71.81
241.896	71.81
242.13	86.81
242.363	80.81
242.597	70.81
242.83	71.81
243.064	51.81
243.298	72.81
243.531	69.81
243.765	72.81
243.998	83.81
244.232	74.81
244.465	80.81
244.699	69.81
244.932	68.81
245.166	70.81
245.399	71.81
245.633	77.81
245.866	75.81
246.099	71.81
246.333	71.81
246.566	65.81
246.8	66.81
247.033	71.81
247.266	64.81
247.5	75.81
247.733	70.81
247.966	80.81
248.2	76.81
248.433	73.81
248.666	67.81
248.899	68.81
249.133	73.81
249.366	87.81
249.599	89.81
249.832	80.81
250.066	89.81
250.299	65.81
250.532	67.81
250.765	66.81
250.998	64.81
251.231	64.81
251.465	73.81
251.698	88.81
251.931	72.81
252.164	79.81
252.397	75.81
252.63	68.81
252.863	77.81
253.096	63.81
253.329	64.81
253.562	73.81
253.795	74.81
254.028	82.81
254.261	76.81
254.494	63.81
254.727	88.81
254.96	74.81
255.193	84.81
255.426	78.81
255.659	84.81
255.892	68.81
256.124	76.81
256.357	88.81
256.59	80.81
256.823	84.81
257.056	64.81
257.289	65.81
257.521	72.81
257.754	71.81
257.987	71.81
258.22	88.81
258.452	83.81
258.685	71.81
258.918	82.81
259.151	78.81
259.383	77.81
259.616	71.81
259.849	84.81
260.081	70.81
260.314	73.81
260.547	87.81
260.779	94.81
261.012	69.81
261.244	72.81
261.477	70.81
261.71	76.81
261.942	105.81
262.175	85.81
262.407	81.81
262.64	91.81
262.872	85.81
263.105	77.81
263.337	85.81
263.57	89.81
263.802	81.81
264.035	73.81
264.267	77.81
264.499	69.81
264.732	82.81
264.964	79.81
265.197	87.81
265.429	74.81
265.661	85.81
265.894	87.81
266.126	81.81
266.358	79.81
266.591	69.81
266.823	78.81
267.055	64.81
267.287	89.81
267.52	78.81
267.752	80.81
267.984	72.81
268.216	82.81
268.448	81.81
268.681	74.81
268.913	78.81
269.145	85.81
269.377	93.81
269.609	74.81
269.841	77.81
270.073	71.81
270.306	69.81
270.538	78.81
270.77	82.81
271.002	95.81
271.234	80.81
271.466	82.81
271.698	85.81
271.93	87.81
272.162	82.81
272.394	71.81
272.626	73.81
272.858	90.81
273.09	79.81
273.322	74.81
273.553	76.81
273.785	88.81
274.017	85.81
274.249	73.81
274.481	87.81
274.713	77.81
274.945	84.81
275.176	78.81
275.408	71.81
275.64	80.81
275.872	84.81
276.104	90.81
276.335	82.81
276.567	98.81
276.799	115.81
277.031	94.81
277.262	89.81
277.494	76.81
277.726	89.81
277.957	73.81
278.189	86.81
278.421	98.81
278.652	79.81
278.884	79.81
279.115	74.81
279.347	76.81
279.579	93.81
279.81	101.81
280.042	90.81
280.273	85.81
280.505	88.81
280.736	78.81
280.968	84.81
281.199	73.81
281.431	78.81
281.662	90.81
281.894	94.81
282.125	92.81
282.356	113.81
282.588	127.81
282.819	102.81
283.051	82.81
283.282	94.81
283.513	88.81
283.745	92.81
283.976	94.81
284.207	72.81
284.439	79.81
284.67	73.81
284.901	87.81
285.132	71.81
285.364	95.81
285.595	81.81
285.826	75.81
286.057	80.81
286.288	85.81
286.52	84.81
286.751	93.81
286.982	89.81
287.213	78.81
287.444	97.81
287.675	68.81
287.906	87.81
288.138	81.81
288.369	80.81
288.6	79.81
288.831	79.81
289.062	88.81
289.293	91.81
289.524	76.81
289.755	88.81
289.986	76.81
290.217	69.81
290.448	82.81
290.679	86.81
290.91	91.81
291.141	82.81
291.371	90.81
291.602	72.81
291.833	84.81
292.064	87.81
292.295	97.81
292.526	97.81
292.757	82.81
292.987	85.81
293.218	74.81
293.449	90.81
293.68	84.81
293.91	71.81
294.141	88.81
294.372	67.81
294.603	70.81
294.833	80.81
295.064	86.81
295.295	83.81
295.525	88.81
295.756	92.81
295.987	98.81
296.217	121.81
296.448	110.81
296.679	84.81
296.909	84.81
297.14	81.81
297.37	82.81
297.601	79.81
297.831	93.81
298.062	68.81
298.292	90.81
298.523	77.81
298.753	80.81
298.984	82.81
299.214	78.81
299.445	89.81
299.675	86.81
299.905	79.81
300.136	71.81
300.366	88.81
300.597	93.81
300.827	74.81
301.057	105.81
301.288	89.81
301.518	95.81
301.748	93.81
301.979	90.81
302.209	84.81
302.439	81.81
302.669	79.81
302.9	89.81
303.13	78.81
303.36	91.81
303.59	86.81
303.82	97.81
304.051	88.81
304.281	77.81
304.511	71.81
304.741	73.81
304.971	78.81
305.201	91.81
305.431	103.81
305.661	88.81
305.891	85.81
306.121	83.81
306.352	91.81
306.582	97.81
306.812	94.81
307.042	82.81
307.272	94.81
307.502	97.81
307.731	79.81
307.961	75.81
308.191	79.81
308.421	104.81
308.651	80.81
308.881	93.81
309.111	85.81
309.341	101.81
309.571	93.81
309.8	116.81
310.03	62.81
310.26	77.81
310.49	85.81
310.72	93.81
310.949	96.81
311.179	92.81
311.409	92.81
311.639	100.81
311.868	83.81
312.098	102.81
312.328	97.81
312.557	100.81
312.787	103.81
313.017	90.81
313.246	103.81
313.476	93.81
313.706	95.81
313.935	87.81
314.165	86.81
314.394	93.81
314.624	89.81
314.853	92.81
315.083	104.81
315.312	98.81
315.542	101.81
315.771	89.81
316.001	84.81
316.23	78.81
316.46	87.81
316.689	79.81
316.919	91.81
317.148	93.81
317.377	89.81
317.607	87.81
317.836	87.81
318.065	94.81
318.295	85.81
318.524	89.81
318.753	100.81
318.983	81.81
319.212	100.81
319.441	108.81
319.67	105.81
319.9	103.81
320.129	80.81
320.358	106.81
320.587	92.81
320.816	99.81
321.046	95.81
321.275	84.81
321.504	85.81
321.733	96.81
321.962	89.81
322.191	104.81
322.42	104.81
322.649	95.81
322.878	103.81
323.108	124.81
323.337	115.81
323.566	132.81
323.795	154.81
324.024	200.81
324.253	407.81
324.482	862.81
324.71	1800.81
324.939	2409.81
325.168	856.81
325.397	243.81
325.626	134.81
325.855	123.81
326.084	131.81
326.313	135.81
326.542	158.81
326.77	248.81
326.999	491.81
327.228	1008.81
327.457	1867.81
327.686	1473.81
327.914	370.81
328.143	199.81
328.372	138.81
328.6	133.81
328.829	110.81
329.058	128.81
329.287	128.81
329.515	110.81
329.744	96.81
329.972	113.81
330.201	116.81
330.43	124.81
330.658	132.81
330.887	134.81
331.115	114.81
331.344	105.81
331.572	97.81
331.801	111.81
332.03	94.81
332.258	88.81
332.486	88.81
332.715	83.81
332.943	88.81
333.172	84.81
333.4	92.81
333.629	101.81
333.857	95.81
334.085	108.81
334.314	126.81
334.542	139.81
334.771	145.81
334.999	111.81
335.227	87.81
335.455	84.81
335.684	86.81
335.912	92.81
336.14	90.81
336.369	116.81
336.597	99.81
336.825	108.81
337.053	95.81
337.281	96.81
337.51	85.81
337.738	87.81
337.966	94.81
338.194	85.81
338.422	93.81
338.65	96.81
338.878	87.81
339.106	81.81
339.334	94.81
339.562	72.81
339.79	99.81
340.018	76.81
340.246	94.81
340.474	101.81
340.702	95.81
340.93	92.81
341.158	85.81
341.386	98.81
341.614	84.81
341.842	108.81
342.07	85.81
342.298	82.81
342.526	78.81
342.754	80.81
342.981	63.81
343.209	73.81
343.437	68.81
343.665	74.81
343.893	97.81
344.12	104.81
344.348	88.81
344.576	75.81
344.804	76.81
345.031	76.81
345.259	83.81
345.487	92.81
345.714	92.81
345.942	80.81
346.17	89.81
346.397	91.81
346.625	85.81
346.853	95.81
347.08	93.81
347.308	92.81
347.535	105.81
347.763	101.81
347.99	86.81
348.218	93.81
348.445	90.81
348.673	92.81
348.9	94.81
349.128	86.81
349.355	80.81
349.583	82.81
349.81	92.81
350.037	85.81
350.265	83.81
350.492	100.81
350.72	103.81
350.947	95.81
351.174	111.81
351.402	108.81
351.629	85.81
351.856	84.81
352.083	95.81
352.311	107.81
352.538	118.81
352.765	109.81
352.992	105.81
353.22	121.81
353.447	100.81
353.674	101.81
353.901	80.81
354.128	97.81
354.355	78.81
354.583	87.81
354.81	98.81
355.037	73.81
355.264	93.81
355.491	83.81
355.718	80.81
355.945	103.81
356.172	100.81
356.399	102.81
356.626	77.81
356.853	99.81
357.08	88.81
357.307	82.81
357.534	93.81
357.761	84.81
357.988	89.81
358.215	107.81
358.441	101.81
358.668	84.81
358.895	93.81
359.122	93.81
359.349	86.81
359.576	96.81
359.802	97.81
360.029	111.81
360.256	112.81
360.483	100.81
360.709	78.81
360.936	87.81
361.163	83.81
361.39	92.81
361.616	90.81
361.843	86.81
362.07	95.81
362.296	103.81
362.523	98.81
362.749	82.81
362.976	90.81
363.203	100.81
363.429	87.81
363.656	91.81
363.882	82.81
364.109	95.81
364.335	71.81
364.562	91.81
364.788	81.81
365.015	81.81
365.241	96.81
365.468	93.81
365.694	97.81
365.92	90.81
366.147	76.81
366.373	84.81
366.599	86.81
366.826	98.81
367.052	87.81
367.278	93.81
367.505	97.81
367.731	78.81
367.957	88.81
368.184	91.81
368.41	80.81
368.636	115.81
368.862	108.81
369.089	95.81
369.315	84.81
369.541	82.81
369.767	89.81
369.993	88.81
370.219	86.81
370.445	78.81
370.672	92.81
370.898	84.81
371.124	85.81
371.35	79.81
371.576	92.81
371.802	72.81
372.028	85.81
372.254	77.81
372.48	86.81
372.706	70.81
372.932	82.81
373.158	92.81
373.384	96.81
373.61	93.81
373.835	84.81
374.061	84.81
374.287	81.81
374.513	78.81
374.739	92.81
374.965	92.81
375.191	85.81
375.416	66.81
375.642	88.81
375.868	91.81
376.094	78.81
376.319	83.81
376.545	102.81
376.771	110.81
376.997	92.81
377.222	85.81
377.448	79.81
377.674	88.81
377.899	98.81
378.125	86.81
378.35	92.81
378.576	95.81
378.802	95.81
379.027	96.81
379.253	90.81
379.478	92.81
379.704	91.81
379.929	87.81
380.155	89.81
380.38	112.81
380.606	97.81
380.831	100.81
381.057	100.81
381.282	110.81
381.507	90.81
381.733	92.81
381.958	105.81
382.184	112.81
382.409	93.81
382.634	117.81
382.86	104.81
383.085	107.81
383.31	122.81
383.535	102.81
383.761	127.81
383.986	94.81
384.211	99.81
384.436	88.81
384.662	111.81
384.887	113.81
385.112	108.81
385.337	128.81
385.562	113.81
385.787	93.81
386.013	117.81
386.238	130.81
386.463	128.81
386.688	127.81
386.913	112.81
387.138	125.81
387.363	102.81
387.588	95.81
387.813	112.81
388.038	125.81
388.263	128.81
388.488	120.81
388.713	97.81
388.938	108.81
389.163	103.81
389.387	92.81
389.612	89.81
389.837	90.81
390.062	85.81
390.287	91.81
390.512	86.81
390.736	84.81
390.961	90.81
391.186	87.81
391.411	79.81
391.636	90.81
391.86	81.81
392.085	87.81
392.31	86.81
392.534	87.81
392.759	89.81
392.984	90.81
393.208	101.81
393.433	108.81
393.658	96.81
393.882	83.81
394.107	82.81
394.331	95.81
394.556	93.81
394.78	96.81
395.005	97.81
395.229	84.81
395.454	84.81
395.678	78.81
395.903	85.81
396.127	79.81
396.352	97.81
396.576	85.81
396.801	98.81
397.025	97.81
397.249	92.81
397.474	85.81
397.698	84.81
397.922	81.81
398.147	85.81
398.371	94.81
398.595	76.81
398.82	73.81
399.044	85.81
399.268	74.81
399.492	81.81
399.717	74.81
399.941	74.81
400.165	83.81
400.389	83.81
400.613	96.81
400.837	92.81
401.062	85.81
401.286	86.81
401.51	93.81
401.734	95.81
401.958	96.81
402.182	117.81
402.406	146.81
402.63	102.81
402.854	94.81
403.078	93.81
403.302	86.81
403.526	85.81
403.75	84.81
403.974	81.81
404.198	86.81
404.422	81.81
404.645	80.81
404.869	89.81
405.093	82.81
405.317	96.81
405.541	90.81
405.765	92.81
405.988	103.81
406.212	144.81
406.436	213.81
406.66	144.81
406.883	99.81
407.107	83.81
407.331	102.81
407.555	94.81
407.778	94.81
408.002	109.81
408.226	79.81
408.449	103.81
408.673	86.81
408.896	95.81
409.12	102.81
409.344	93.81
409.567	85.81
409.791	89.81
410.014	104.81
410.238	93.81
410.461	81.81
410.685	99.81
410.908	96.81
411.132	109.81
411.355	95.81
411.578	84.81
411.802	82.81
412.025	73.81
412.249	87.81
412.472	75.81
412.695	94.81
412.919	87.81
413.142	90.81
413.365	81.81
413.589	65.81
413.812	83.81
414.035	77.81
414.258	87.81
414.482	71.81
414.705	78.81
414.928	90.81
415.151	100.81
415.374	102.81
415.597	77.81
415.821	92.81
416.044	78.81
416.267	86.81
416.49	90.81
416.713	79.81
416.936	90.81
417.159	95.81
417.382	86.81
417.605	89.81
417.828	88.81
418.051	87.81
418.274	104.81
418.497	88.81
418.72	71.81
418.943	85.81
419.166	65.81
419.389	80.81
419.611	80.81
419.834	81.81
420.057	87.81
420.28	74.81
420.503	84.81
420.726	84.81
420.948	90.81
421.171	101.81
421.394	86.81
421.617	93.81
421.839	92.81
422.062	78.81
422.285	100.81
422.507	91.81
422.73	93.81
422.953	94.81
423.175	100.81
423.398	89.81
423.621	85.81
423.843	100.81
424.066	72.81
424.288	85.81
424.511	84.81
424.733	87.81
424.956	95.81
425.178	92.81
425.401	101.81
425.623	89.81
425.846	92.81
426.068	88.81
426.291	96.81
426.513	110.81
426.735	91.81
426.958	94.81
427.18	97.81
427.402	145.81
427.625	164.81
427.847	131.81
428.069	106.81
428.292	86.81
428.514	98.81
428.736	79.81
428.958	71.81
429.181	78.81
429.403	102.81
429.625	90.81
429.847	89.81
430.069	105.81
430.292	87.81
430.514	72.81
430.736	84.81
430.958	67.81
431.18	91.81
431.402	88.81
431.624	66.81
431.846	88.81
432.068	87.81
432.29	90.81
432.512	86.81
432.734	96.81
432.956	83.81
433.178	104.81
433.4	96.81
433.622	86.81
433.844	73.81
434.066	87.81
434.287	93.81
434.509	80.81
434.731	79.81
434.953	99.81
435.175	71.81
435.397	87.81
435.618	82.81
435.84	103.81
436.062	105.81
436.284	115.81
436.505	92.81
436.727	97.81
436.949	103.81
437.17	73.81
437.392	91.81
437.614	96.81
437.835	84.81
438.057	109.81
438.278	103.81
438.5	106.81
438.721	127.81
438.943	94.81
439.165	91.81
439.386	91.81
439.608	92.81
439.829	106.81
440.05	114.81
440.272	143.81
440.493	90.81
440.715	79.81
440.936	88.81
441.158	72.81
441.379	91.81
441.6	88.81
441.822	91.81
442.043	95.81
442.264	93.81
442.486	90.81
442.707	86.81
442.928	98.81
443.149	113.81
443.371	115.81
443.592	108.81
443.813	94.81
444.034	93.81
444.255	88.81
444.476	76.81
444.698	80.81
444.919	91.81
445.14	117.81
445.361	121.81
445.582	120.81
445.803	132.81
446.024	131.81
446.245	128.81
446.466	106.81
446.687	89.81
446.908	76.81
447.129	86.81
447.35	81.81
447.571	81.81
447.792	75.81
448.013	99.81
448.234	114.81
448.455	89.81
448.675	93.81
448.896	112.81
449.117	110.81
449.338	105.81
449.559	119.81
449.779	142.81
450	90.81
450.221	81.81
450.442	85.81
450.662	86.81
450.883	104.81
451.104	96.81
451.324	84.81
451.545	90.81
451.766	81.81
451.986	99.81
452.207	81.81
452.428	90.81
452.648	88.81
452.869	127.81
453.089	96.81
453.31	115.81
453.53	91.81
453.751	91.81
453.971	109.81
454.192	92.81
454.412	76.81
454.633	92.81
454.853	76.81
455.073	80.81
455.294	101.81
455.514	90.81
455.734	75.81
455.955	73.81
456.175	86.81
456.395	65.81
456.616	83.81
456.836	81.81
457.056	76.81
457.276	85.81
457.497	74.81
457.717	91.81
457.937	84.81
458.157	82.81
458.377	84.81
458.598	102.81
458.818	146.81
459.038	146.81
459.258	102.81
459.478	80.81
459.698	65.81
459.918	88.81
460.138	82.81
460.358	88.81
460.578	93.81
460.798	76.81
461.018	83.81
461.238	81.81
461.458	87.81
461.678	71.81
461.898	87.81
462.118	77.81
462.338	82.81
462.558	82.81
462.777	79.81
462.997	66.81
463.217	81.81
463.437	73.81
463.657	93.81
463.876	82.81
464.096	85.81
464.316	80.81
464.536	89.81
464.755	79.81
464.975	100.81
465.195	137.81
465.414	149.81
465.634	85.81
465.854	93.81
466.073	92.81
466.293	101.81
466.512	92.81
466.732	81.81
466.951	80.81
467.171	92.81
467.391	92.81
467.61	93.81
467.829	72.81
468.049	96.81
468.268	89.81
468.488	87.81
468.707	101.81
468.927	88.81
469.146	56.81
469.365	90.81
469.585	83.81
469.804	90.81
470.023	86.81
470.243	80.81
470.462	84.81
470.681	113.81
470.901	88.81
471.12	82.81
471.339	95.81
471.558	84.81
471.777	73.81
471.997	76.81
472.216	103.81
472.435	165.81
472.654	84.81
472.873	75.81
473.092	74.81
473.311	85.81
473.53	89.81
473.749	89.81
473.968	86.81
474.187	107.81
474.406	88.81
474.625	94.81
474.844	78.81
475.063	82.81
475.282	84.81
475.501	70.81
475.72	86.81
475.939	79.81
476.158	74.81
476.377	87.81
476.596	85.81
476.814	100.81
477.033	96.81
477.252	77.81
477.471	72.81
477.69	80.81
477.908	81.81
478.127	96.81
478.346	91.81
478.564	78.81
478.783	90.81
479.002	93.81
479.22	89.81
479.439	88.81
479.658	93.81
479.876	95.81
480.095	104.81
480.313	77.81
480.532	87.81
480.751	94.81
480.969	122.81
481.188	201.81
481.406	164.81
481.624	74.81
481.843	88.81
482.061	88.81
482.28	92.81
482.498	75.81
482.717	71.81
482.935	82.81
483.153	93.81
483.372	96.81
483.59	88.81
483.808	90.81
484.027	84.81
484.245	86.81
484.463	95.81
484.681	92.81
484.9	88.81
485.118	96.81
485.336	85.81
485.554	100.81
485.772	100.81
485.99	108.81
486.209	99.81
486.427	105.81
486.645	88.81
486.863	82.81
487.081	88.81
487.299	86.81
487.517	94.81
487.735	80.81
487.953	82.81
488.171	93.81
488.389	83.81
488.607	106.81
488.825	89.81
489.043	85.81
489.261	97.81
489.479	91.81
489.696	77.81
489.914	90.81
490.132	96.81
490.35	86.81
490.568	85.81
490.786	83.81
491.003	95.81
491.221	98.81
491.439	82.81
491.657	79.81
491.874	92.81
492.092	94.81
492.31	89.81
492.527	99.81
492.745	93.81
492.963	81.81
493.18	80.81
493.398	77.81
493.615	89.81
493.833	98.81
494.05	92.81
494.268	89.81
494.485	76.81
494.703	95.81
494.92	82.81
495.138	96.81
495.355	92.81
495.573	89.81
495.79	88.81
496.008	83.81
496.225	83.81
496.442	88.81
496.66	87.81
496.877	76.81
497.094	82.81
497.312	88.81
497.529	92.81
497.746	97.81
497.963	71.81
498.181	80.81
498.398	95.81
498.615	100.81
498.832	95.81
499.049	92.81
499.267	96.81
499.484	86.81
499.701	96.81
499.918	74.81
500.135	84.81
500.352	80.81
500.569	85.81
500.786	86.81
501.003	92.81
501.22	74.81
501.437	88.81
501.654	99.81
501.871	97.81
502.088	88.81
502.305	77.81
502.522	91.81
502.739	89.81
502.956	86.81
503.172	90.81
503.389	81.81
503.606	98.81
503.823	92.81
504.04	83.81
504.256	96.81
504.473	85.81
504.69	94.81
504.907	90.81
505.123	95.81
505.34	80.81
505.557	94.81
505.773	80.81
505.99	93.81
506.207	84.81
506.423	82.81
506.64	97.81
506.856	86.81
507.073	92.81
507.289	86.81
507.506	92.81
507.722	105.81
507.939	96.81
508.155	87.81
508.372	91.81
508.588	93.81
508.805	91.81
509.021	91.81
509.238	78.81
509.454	97.81
509.67	92.81
509.887	112.81
510.103	126.81
510.319	188.81
510.536	683.81
510.752	2241.81
510.968	665.81
511.184	164.81
511.401	98.81
511.617	99.81
511.833	80.81
512.049	87.81
512.265	90.81
512.481	81.81
512.698	79.81
512.914	92.81
513.13	80.81
513.346	79.81
513.562	95.81
513.778	101.81
513.994	81.81
514.21	106.81
514.426	114.81
514.642	125.81
514.858	132.81
515.074	148.81
515.29	407.81
515.506	1349.81
515.721	513.81
515.937	163.81
516.153	109.81
516.369	81.81
516.585	88.81
516.801	94.81
