Data from Circ_2015_H10_HRD10591_00057.txt Node
Date: Wed Jan 03 10:00:34 EST 2024
User: Yrep
Spectrometer: HR+D1059
Trigger mode: 1
Integration Time (sec): 1.000000E-1
Scans to average: 1
Electric dark correction enabled: true
Nonlinearity correction enabled: false
Boxcar width: 0
XAxis mode: Wavelengths
Number of Pixels in Spectrum: 2048
>>>>>Begin Spectral Data<<<<<
223.165	-3.69
223.4	-3.69
223.635	-3.69
223.869	-10.69
224.104	-23.69
224.338	-24.69
224.573	-17.69
224.808	-17.69
225.042	-14.69
225.277	0.31
225.511	7.31
225.746	-5.69
225.98	18.31
226.215	16.31
226.449	8.31
226.683	17.31
226.918	25.31
227.152	25.31
227.387	31.31
227.621	30.31
227.856	46.31
228.09	43.31
228.324	46.31
228.559	58.31
228.793	71.31
229.027	65.31
229.262	62.31
229.496	66.31
229.73	68.31
229.964	81.31
230.199	70.31
230.433	64.31
230.667	70.31
230.901	69.31
231.136	82.31
231.37	70.31
231.604	64.31
231.838	59.31
232.072	67.31
232.306	85.31
232.541	88.31
232.775	69.31
233.009	92.31
233.243	65.31
233.477	76.31
233.711	80.31
233.945	92.31
234.179	82.31
234.413	76.31
234.647	82.31
234.881	74.31
235.115	76.31
235.349	81.31
235.583	69.31
235.817	75.31
236.051	67.31
236.285	72.31
236.519	72.31
236.753	76.31
236.987	72.31
237.221	83.31
237.455	80.31
237.689	64.31
237.922	77.31
238.156	72.31
238.39	72.31
238.624	72.31
238.858	70.31
239.091	72.31
239.325	79.31
239.559	83.31
239.793	72.31
240.027	80.31
240.26	70.31
240.494	70.31
240.728	67.31
240.961	68.31
241.195	76.31
241.429	91.31
241.662	84.31
241.896	93.31
242.13	85.31
242.363	67.31
242.597	83.31
242.83	94.31
243.064	66.31
243.298	78.31
243.531	71.31
243.765	87.31
243.998	68.31
244.232	90.31
244.465	87.31
244.699	86.31
244.932	82.31
245.166	80.31
245.399	75.31
245.633	70.31
245.866	73.31
246.099	76.31
246.333	80.31
246.566	75.31
246.8	70.31
247.033	65.31
247.266	55.31
247.5	74.31
247.733	90.31
247.966	82.31
248.2	87.31
248.433	77.31
248.666	87.31
248.899	71.31
249.133	84.31
249.366	100.31
249.599	85.31
249.832	96.31
250.066	79.31
250.299	70.31
250.532	78.31
250.765	72.31
250.998	69.31
251.231	87.31
251.465	85.31
251.698	74.31
251.931	86.31
252.164	71.31
252.397	93.31
252.63	75.31
252.863	79.31
253.096	79.31
253.329	71.31
253.562	92.31
253.795	86.31
254.028	89.31
254.261	86.31
254.494	74.31
254.727	78.31
254.96	83.31
255.193	86.31
255.426	72.31
255.659	82.31
255.892	86.31
256.124	78.31
256.357	74.31
256.59	89.31
256.823	91.31
257.056	74.31
257.289	71.31
257.521	78.31
257.754	74.31
257.987	77.31
258.22	73.31
258.452	83.31
258.685	72.31
258.918	77.31
259.151	76.31
259.383	70.31
259.616	80.31
259.849	72.31
260.081	68.31
260.314	84.31
260.547	85.31
260.779	82.31
261.012	90.31
261.244	92.31
261.477	83.31
261.71	103.31
261.942	117.31
262.175	99.31
262.407	87.31
262.64	73.31
262.872	71.31
263.105	69.31
263.337	89.31
263.57	76.31
263.802	67.31
264.035	91.31
264.267	79.31
264.499	79.31
264.732	79.31
264.964	61.31
265.197	76.31
265.429	83.31
265.661	85.31
265.894	90.31
266.126	86.31
266.358	80.31
266.591	83.31
266.823	87.31
267.055	79.31
267.287	76.31
267.52	82.31
267.752	70.31
267.984	91.31
268.216	83.31
268.448	93.31
268.681	75.31
268.913	89.31
269.145	81.31
269.377	88.31
269.609	94.31
269.841	95.31
270.073	79.31
270.306	78.31
270.538	88.31
270.77	82.31
271.002	91.31
271.234	97.31
271.466	94.31
271.698	85.31
271.93	83.31
272.162	71.31
272.394	77.31
272.626	82.31
272.858	75.31
273.09	81.31
273.322	83.31
273.553	84.31
273.785	83.31
274.017	77.31
274.249	84.31
274.481	74.31
274.713	68.31
274.945	64.31
275.176	63.31
275.408	68.31
275.64	94.31
275.872	88.31
276.104	90.31
276.335	94.31
276.567	114.31
276.799	102.31
277.031	106.31
277.262	94.31
277.494	101.31
277.726	87.31
277.957	88.31
278.189	84.31
278.421	72.31
278.652	95.31
278.884	70.31
279.115	93.31
279.347	85.31
279.579	81.31
279.81	86.31
280.042	98.31
280.273	90.31
280.505	97.31
280.736	88.31
280.968	94.31
281.199	81.31
281.431	102.31
281.662	80.31
281.894	81.31
282.125	86.31
282.356	112.31
282.588	128.31
282.819	113.31
283.051	66.31
283.282	90.31
283.513	90.31
283.745	77.31
283.976	84.31
284.207	89.31
284.439	81.31
284.67	85.31
284.901	87.31
285.132	79.31
285.364	86.31
285.595	89.31
285.826	89.31
286.057	93.31
286.288	80.31
286.52	85.31
286.751	76.31
286.982	81.31
287.213	83.31
287.444	88.31
287.675	92.31
287.906	82.31
288.138	78.31
288.369	99.31
288.6	80.31
288.831	76.31
289.062	92.31
289.293	87.31
289.524	86.31
289.755	75.31
289.986	87.31
290.217	85.31
290.448	88.31
290.679	67.31
290.91	84.31
291.141	83.31
291.371	81.31
291.602	87.31
291.833	74.31
292.064	90.31
292.295	90.31
292.526	85.31
292.757	75.31
292.987	80.31
293.218	81.31
293.449	82.31
293.68	86.31
293.91	96.31
294.141	95.31
294.372	71.31
294.603	88.31
294.833	84.31
295.064	78.31
295.295	91.31
295.525	85.31
295.756	91.31
295.987	113.31
296.217	126.31
296.448	116.31
296.679	89.31
296.909	96.31
297.14	90.31
297.37	90.31
297.601	86.31
297.831	83.31
298.062	97.31
298.292	96.31
298.523	84.31
298.753	92.31
298.984	79.31
299.214	87.31
299.445	87.31
299.675	87.31
299.905	96.31
300.136	86.31
300.366	91.31
300.597	84.31
300.827	86.31
301.057	104.31
301.288	101.31
301.518	79.31
301.748	64.31
301.979	111.31
302.209	92.31
302.439	83.31
302.669	89.31
302.9	70.31
303.13	79.31
303.36	87.31
303.59	89.31
303.82	96.31
304.051	91.31
304.281	91.31
304.511	88.31
304.741	81.31
304.971	84.31
305.201	92.31
305.431	88.31
305.661	64.31
305.891	96.31
306.121	75.31
306.352	101.31
306.582	81.31
306.812	114.31
307.042	90.31
307.272	86.31
307.502	111.31
307.731	99.31
307.961	102.31
308.191	82.31
308.421	81.31
308.651	88.31
308.881	91.31
309.111	114.31
309.341	95.31
309.571	93.31
309.8	87.31
310.03	80.31
310.26	87.31
310.49	84.31
310.72	104.31
310.949	102.31
311.179	103.31
311.409	92.31
311.639	91.31
311.868	91.31
312.098	99.31
312.328	94.31
312.557	98.31
312.787	104.31
313.017	86.31
313.246	94.31
313.476	99.31
313.706	97.31
313.935	82.31
314.165	96.31
314.394	89.31
314.624	100.31
314.853	103.31
315.083	98.31
315.312	86.31
315.542	89.31
315.771	71.31
316.001	89.31
316.23	97.31
316.46	96.31
316.689	95.31
316.919	86.31
317.148	91.31
317.377	86.31
317.607	87.31
317.836	88.31
318.065	84.31
318.295	84.31
318.524	77.31
318.753	90.31
318.983	87.31
319.212	104.31
319.441	103.31
319.67	101.31
319.9	91.31
320.129	100.31
320.358	89.31
320.587	86.31
320.816	92.31
321.046	102.31
321.275	90.31
321.504	96.31
321.733	96.31
321.962	98.31
322.191	95.31
322.42	82.31
322.649	107.31
322.878	105.31
323.108	114.31
323.337	116.31
323.566	129.31
323.795	140.31
324.024	191.31
324.253	350.31
324.482	740.31
324.71	1523.31
324.939	2035.31
325.168	756.31
325.397	215.31
325.626	122.31
325.855	118.31
326.084	122.31
326.313	118.31
326.542	156.31
326.77	213.31
326.999	440.31
327.228	854.31
327.457	1603.31
327.686	1265.31
327.914	359.31
328.143	197.31
328.372	166.31
328.6	135.31
328.829	113.31
329.058	110.31
329.287	124.31
329.515	122.31
329.744	120.31
329.972	137.31
330.201	192.31
330.43	230.31
330.658	158.31
330.887	139.31
331.115	112.31
331.344	106.31
331.572	91.31
331.801	98.31
332.03	86.31
332.258	105.31
332.486	87.31
332.715	97.31
332.943	102.31
333.172	92.31
333.4	85.31
333.629	100.31
333.857	124.31
334.085	141.31
334.314	161.31
334.542	248.31
334.771	241.31
334.999	126.31
335.227	103.31
335.455	104.31
335.684	93.31
335.912	100.31
336.14	98.31
336.369	97.31
336.597	113.31
336.825	90.31
337.053	98.31
337.281	95.31
337.51	94.31
337.738	95.31
337.966	85.31
338.194	90.31
338.422	92.31
338.65	85.31
338.878	93.31
339.106	96.31
339.334	93.31
339.562	87.31
339.79	84.31
340.018	87.31
340.246	93.31
340.474	100.31
340.702	107.31
340.93	88.31
341.158	89.31
341.386	90.31
341.614	102.31
341.842	84.31
342.07	94.31
342.298	93.31
342.526	100.31
342.754	85.31
342.981	87.31
343.209	97.31
343.437	89.31
343.665	81.31
343.893	88.31
344.12	106.31
344.348	95.31
344.576	83.31
344.804	82.31
345.031	101.31
345.259	94.31
345.487	91.31
345.714	89.31
345.942	88.31
346.17	102.31
346.397	77.31
346.625	86.31
346.853	88.31
347.08	83.31
347.308	91.31
347.535	90.31
347.763	79.31
347.99	99.31
348.218	106.31
348.445	102.31
348.673	108.31
348.9	109.31
349.128	109.31
349.355	95.31
349.583	91.31
349.81	98.31
350.037	84.31
350.265	101.31
350.492	91.31
350.72	86.31
350.947	93.31
351.174	95.31
351.402	116.31
351.629	107.31
351.856	102.31
352.083	94.31
352.311	102.31
352.538	95.31
352.765	110.31
352.992	115.31
353.22	106.31
353.447	88.31
353.674	96.31
353.901	99.31
354.128	90.31
354.355	85.31
354.583	97.31
354.81	82.31
355.037	89.31
355.264	81.31
355.491	83.31
355.718	77.31
355.945	103.31
356.172	88.31
356.399	91.31
356.626	82.31
356.853	92.31
357.08	91.31
357.307	91.31
357.534	82.31
357.761	76.31
357.988	90.31
358.215	87.31
358.441	86.31
358.668	77.31
358.895	97.31
359.122	89.31
359.349	102.31
359.576	96.31
359.802	89.31
360.029	110.31
360.256	112.31
360.483	87.31
360.709	80.31
360.936	98.31
361.163	88.31
361.39	86.31
361.616	87.31
361.843	88.31
362.07	107.31
362.296	81.31
362.523	82.31
362.749	91.31
362.976	78.31
363.203	94.31
363.429	77.31
363.656	102.31
363.882	89.31
364.109	90.31
364.335	93.31
364.562	83.31
364.788	93.31
365.015	104.31
365.241	103.31
365.468	105.31
365.694	99.31
365.92	81.31
366.147	87.31
366.373	90.31
366.599	89.31
366.826	87.31
367.052	64.31
367.278	75.31
367.505	78.31
367.731	84.31
367.957	93.31
368.184	82.31
368.41	102.31
368.636	105.31
368.862	113.31
369.089	105.31
369.315	81.31
369.541	84.31
369.767	78.31
369.993	94.31
370.219	77.31
370.445	87.31
370.672	86.31
370.898	84.31
371.124	75.31
371.35	87.31
371.576	87.31
371.802	72.31
372.028	81.31
372.254	83.31
372.48	79.31
372.706	92.31
372.932	95.31
373.158	84.31
373.384	88.31
373.61	82.31
373.835	100.31
374.061	85.31
374.287	89.31
374.513	75.31
374.739	89.31
374.965	88.31
375.191	84.31
375.416	104.31
375.642	95.31
375.868	93.31
376.094	80.31
376.319	84.31
376.545	86.31
376.771	94.31
376.997	73.31
377.222	92.31
377.448	83.31
377.674	98.31
377.899	99.31
378.125	94.31
378.35	81.31
378.576	81.31
378.802	83.31
379.027	85.31
379.253	83.31
379.478	101.31
379.704	101.31
379.929	105.31
380.155	94.31
380.38	93.31
380.606	95.31
380.831	84.31
381.057	104.31
381.282	83.31
381.507	89.31
381.733	95.31
381.958	99.31
382.184	95.31
382.409	86.31
382.634	103.31
382.86	100.31
383.085	94.31
383.31	83.31
383.535	104.31
383.761	108.31
383.986	97.31
384.211	113.31
384.436	109.31
384.662	101.31
384.887	110.31
385.112	104.31
385.337	120.31
385.562	104.31
385.787	105.31
386.013	98.31
386.238	97.31
386.463	95.31
386.688	103.31
386.913	92.31
387.138	99.31
387.363	98.31
387.588	114.31
387.813	96.31
388.038	99.31
388.263	123.31
388.488	107.31
388.713	110.31
388.938	95.31
389.163	96.31
389.387	98.31
389.612	89.31
389.837	94.31
390.062	103.31
390.287	84.31
390.512	85.31
390.736	84.31
390.961	85.31
391.186	102.31
391.411	88.31
391.636	85.31
391.86	84.31
392.085	86.31
392.31	79.31
392.534	76.31
392.759	84.31
392.984	78.31
393.208	90.31
393.433	96.31
393.658	103.31
393.882	75.31
394.107	83.31
394.331	91.31
394.556	78.31
394.78	92.31
395.005	95.31
395.229	80.31
395.454	88.31
395.678	79.31
395.903	104.31
396.127	101.31
396.352	81.31
396.576	88.31
396.801	95.31
397.025	78.31
397.249	81.31
397.474	105.31
397.698	83.31
397.922	73.31
398.147	94.31
398.371	87.31
398.595	87.31
398.82	83.31
399.044	106.31
399.268	84.31
399.492	95.31
399.717	79.31
399.941	82.31
400.165	96.31
400.389	75.31
400.613	91.31
400.837	70.31
401.062	82.31
401.286	85.31
401.51	80.31
401.734	93.31
401.958	100.31
402.182	98.31
402.406	133.31
402.63	106.31
402.854	91.31
403.078	92.31
403.302	94.31
403.526	75.31
403.75	91.31
403.974	70.31
404.198	66.31
404.422	83.31
404.645	80.31
404.869	84.31
405.093	81.31
405.317	102.31
405.541	108.31
405.765	92.31
405.988	113.31
406.212	150.31
406.436	198.31
406.66	128.31
406.883	96.31
407.107	83.31
407.331	99.31
407.555	98.31
407.778	101.31
408.002	99.31
408.226	84.31
408.449	106.31
408.673	92.31
408.896	107.31
409.12	99.31
409.344	85.31
409.567	91.31
409.791	78.31
410.014	106.31
410.238	105.31
410.461	91.31
410.685	95.31
410.908	96.31
411.132	114.31
411.355	88.31
411.578	99.31
411.802	82.31
412.025	85.31
412.249	83.31
412.472	91.31
412.695	97.31
412.919	84.31
413.142	90.31
413.365	81.31
413.589	96.31
413.812	79.31
414.035	103.31
414.258	97.31
414.482	79.31
414.705	89.31
414.928	99.31
415.151	91.31
415.374	84.31
415.597	80.31
415.821	100.31
416.044	94.31
416.267	89.31
416.49	89.31
416.713	90.31
416.936	106.31
417.159	87.31
417.382	95.31
417.605	84.31
417.828	86.31
418.051	79.31
418.274	101.31
418.497	94.31
418.72	89.31
418.943	83.31
419.166	87.31
419.389	83.31
419.611	73.31
419.834	78.31
420.057	88.31
420.28	76.31
420.503	80.31
420.726	83.31
420.948	78.31
421.171	89.31
421.394	82.31
421.617	82.31
421.839	95.31
422.062	94.31
422.285	84.31
422.507	97.31
422.73	99.31
422.953	103.31
423.175	78.31
423.398	92.31
423.621	79.31
423.843	83.31
424.066	94.31
424.288	98.31
424.511	83.31
424.733	95.31
424.956	102.31
425.178	94.31
425.401	87.31
425.623	101.31
425.846	92.31
426.068	86.31
426.291	92.31
426.513	91.31
426.735	86.31
426.958	89.31
427.18	92.31
427.402	119.31
427.625	157.31
427.847	139.31
428.069	135.31
428.292	76.31
428.514	82.31
428.736	80.31
428.958	85.31
429.181	86.31
429.403	89.31
429.625	77.31
429.847	93.31
430.069	96.31
430.292	85.31
430.514	85.31
430.736	100.31
430.958	88.31
431.18	80.31
431.402	91.31
431.624	82.31
431.846	78.31
432.068	76.31
432.29	101.31
432.512	78.31
432.734	85.31
432.956	87.31
433.178	89.31
433.4	76.31
433.622	72.31
433.844	94.31
434.066	93.31
434.287	81.31
434.509	81.31
434.731	90.31
434.953	70.31
435.175	84.31
435.397	105.31
435.618	89.31
435.84	99.31
436.062	124.31
436.284	114.31
436.505	84.31
436.727	87.31
436.949	91.31
437.17	87.31
437.392	85.31
437.614	87.31
437.835	100.31
438.057	104.31
438.278	116.31
438.5	108.31
438.721	126.31
438.943	92.31
439.165	84.31
439.386	101.31
439.608	101.31
439.829	99.31
440.05	94.31
440.272	127.31
440.493	94.31
440.715	90.31
440.936	85.31
441.158	89.31
441.379	95.31
441.6	88.31
441.822	73.31
442.043	72.31
442.264	94.31
442.486	88.31
442.707	83.31
442.928	99.31
443.149	126.31
443.371	127.31
443.592	111.31
443.813	113.31
444.034	100.31
444.255	80.31
444.476	95.31
444.698	87.31
444.919	95.31
445.14	123.31
445.361	124.31
445.582	107.31
445.803	123.31
446.024	113.31
446.245	151.31
446.466	114.31
446.687	94.31
446.908	73.31
447.129	88.31
447.35	81.31
447.571	87.31
447.792	86.31
448.013	83.31
448.234	99.31
448.455	94.31
448.675	112.31
448.896	102.31
449.117	101.31
449.338	103.31
449.559	122.31
449.779	124.31
450	101.31
450.221	90.31
450.442	85.31
450.662	94.31
450.883	100.31
451.104	100.31
451.324	87.31
451.545	73.31
451.766	84.31
451.986	98.31
452.207	88.31
452.428	102.31
452.648	100.31
452.869	98.31
453.089	112.31
453.31	100.31
453.53	84.31
453.751	98.31
453.971	86.31
454.192	98.31
454.412	96.31
454.633	93.31
454.853	91.31
455.073	91.31
455.294	70.31
455.514	89.31
455.734	80.31
455.955	83.31
456.175	89.31
456.395	88.31
456.616	82.31
456.836	86.31
457.056	74.31
457.276	77.31
457.497	73.31
457.717	87.31
457.937	78.31
458.157	90.31
458.377	88.31
458.598	100.31
458.818	142.31
459.038	125.31
459.258	95.31
459.478	87.31
459.698	87.31
459.918	95.31
460.138	88.31
460.358	74.31
460.578	79.31
460.798	75.31
461.018	98.31
461.238	88.31
461.458	80.31
461.678	82.31
461.898	90.31
462.118	81.31
462.338	83.31
462.558	104.31
462.777	74.31
462.997	98.31
463.217	79.31
463.437	82.31
463.657	70.31
463.876	83.31
464.096	81.31
464.316	76.31
464.536	76.31
464.755	87.31
464.975	90.31
465.195	136.31
465.414	145.31
465.634	89.31
465.854	85.31
466.073	91.31
466.293	88.31
466.512	93.31
466.732	91.31
466.951	80.31
467.171	82.31
467.391	100.31
467.61	104.31
467.829	95.31
468.049	139.31
468.268	152.31
468.488	85.31
468.707	77.31
468.927	68.31
469.146	78.31
469.365	89.31
469.585	80.31
469.804	105.31
470.023	89.31
470.243	101.31
470.462	96.31
470.681	95.31
470.901	74.31
471.12	90.31
471.339	87.31
471.558	83.31
471.777	82.31
471.997	103.31
472.216	197.31
472.435	316.31
472.654	130.31
472.873	102.31
473.092	86.31
473.311	84.31
473.53	74.31
473.749	94.31
473.968	88.31
474.187	101.31
474.406	99.31
474.625	81.31
474.844	91.31
475.063	98.31
475.282	85.31
475.501	89.31
475.72	76.31
475.939	85.31
476.158	83.31
476.377	83.31
476.596	78.31
476.814	69.31
477.033	90.31
477.252	100.31
477.471	95.31
477.69	92.31
477.908	95.31
478.127	91.31
478.346	90.31
478.564	79.31
478.783	103.31
479.002	88.31
479.22	95.31
479.439	91.31
479.658	109.31
479.876	86.31
480.095	99.31
480.313	88.31
480.532	85.31
480.751	104.31
480.969	204.31
481.188	530.31
481.406	342.31
481.624	106.31
481.843	82.31
482.061	85.31
482.28	87.31
482.498	86.31
482.717	85.31
482.935	91.31
483.153	80.31
483.372	92.31
483.59	82.31
483.808	82.31
484.027	91.31
484.245	94.31
484.463	90.31
484.681	100.31
484.9	94.31
485.118	85.31
485.336	90.31
485.554	90.31
485.772	87.31
485.99	113.31
486.209	102.31
486.427	101.31
486.645	94.31
486.863	112.31
487.081	100.31
487.299	85.31
487.517	87.31
487.735	88.31
487.953	85.31
488.171	83.31
488.389	106.31
488.607	92.31
488.825	90.31
489.043	102.31
489.261	76.31
489.479	89.31
489.696	64.31
489.914	84.31
490.132	84.31
490.35	94.31
490.568	87.31
490.786	77.31
491.003	86.31
491.221	92.31
491.439	90.31
491.657	103.31
491.874	80.31
492.092	78.31
492.31	91.31
492.527	97.31
492.745	82.31
492.963	92.31
493.18	95.31
493.398	100.31
493.615	87.31
493.833	92.31
494.05	93.31
494.268	84.31
494.485	95.31
494.703	72.31
494.92	94.31
495.138	95.31
495.355	75.31
495.573	101.31
495.79	89.31
496.008	79.31
496.225	71.31
496.442	88.31
496.66	93.31
496.877	96.31
497.094	94.31
497.312	100.31
497.529	81.31
497.746	104.31
497.963	94.31
498.181	90.31
498.398	92.31
498.615	94.31
498.832	110.31
499.049	90.31
499.267	92.31
499.484	88.31
499.701	94.31
499.918	94.31
500.135	88.31
500.352	88.31
500.569	89.31
500.786	89.31
501.003	89.31
501.22	93.31
501.437	86.31
501.654	96.31
501.871	87.31
502.088	82.31
502.305	95.31
502.522	85.31
502.739	81.31
502.956	79.31
503.172	96.31
503.389	88.31
503.606	113.31
503.823	91.31
504.04	97.31
504.256	85.31
504.473	70.31
504.69	74.31
504.907	104.31
505.123	83.31
505.34	94.31
505.557	89.31
505.773	87.31
505.99	87.31
506.207	84.31
506.423	72.31
506.64	98.31
506.856	89.31
507.073	90.31
507.289	102.31
507.506	93.31
507.722	103.31
507.939	111.31
508.155	91.31
508.372	84.31
508.588	91.31
508.805	86.31
509.021	88.31
509.238	96.31
509.454	93.31
509.67	103.31
509.887	124.31
510.103	139.31
510.319	202.31
510.536	679.31
510.752	2198.31
510.968	628.31
511.184	140.31
511.401	106.31
511.617	105.31
511.833	90.31
512.049	86.31
512.265	99.31
512.481	100.31
512.698	98.31
512.914	91.31
513.13	84.31
513.346	70.31
513.562	86.31
513.778	95.31
513.994	99.31
514.21	103.31
514.426	116.31
514.642	117.31
514.858	111.31
515.074	129.31
515.29	390.31
515.506	1292.31
515.721	484.31
515.937	153.31
516.153	99.31
