Data from Circ_2015_H10_HRD10591_00082.txt Node
Date: Wed Jan 03 10:00:39 EST 2024
User: Yrep
Spectrometer: HR+D1059
Trigger mode: 1
Integration Time (sec): 1.000000E-1
Scans to average: 1
Electric dark correction enabled: true
Nonlinearity correction enabled: false
Boxcar width: 0
XAxis mode: Wavelengths
Number of Pixels in Spectrum: 2048
>>>>>Begin Spectral Data<<<<<
223.165	-9.75
223.4	-9.75
223.635	-9.75
223.869	-27.75
224.104	-28.75
224.338	-13.75
224.573	-11.75
224.808	-12.75
225.042	-3.75
225.277	-14.75
225.511	-6.75
225.746	-11.75
225.98	14.25
226.215	19.25
226.449	33.25
226.683	8.25
226.918	36.25
227.152	30.25
227.387	54.25
227.621	35.25
227.856	35.25
228.09	56.25
228.324	50.25
228.559	55.25
228.793	179.25
229.027	429.25
229.262	505.25
229.496	592.25
229.73	845.25
229.964	822.25
230.199	548.25
230.433	471.25
230.667	460.25
230.901	465.25
231.136	436.25
231.37	447.25
231.604	456.25
231.838	432.25
232.072	448.25
232.306	463.25
232.541	482.25
232.775	485.25
233.009	483.25
233.243	490.25
233.477	479.25
233.711	476.25
233.945	512.25
234.179	523.25
234.413	472.25
234.647	515.25
234.881	507.25
235.115	549.25
235.349	539.25
235.583	570.25
235.817	603.25
236.051	629.25
236.285	632.25
236.519	625.25
236.753	715.25
236.987	927.25
237.221	1370.25
237.455	1497.25
237.689	864.25
237.922	754.25
238.156	727.25
238.39	704.25
238.624	666.25
238.858	637.25
239.091	652.25
239.325	671.25
239.559	701.25
239.793	715.25
240.027	771.25
240.26	938.25
240.494	996.25
240.728	975.25
240.961	891.25
241.195	815.25
241.429	788.25
241.662	774.25
241.896	791.25
242.13	781.25
242.363	796.25
242.597	818.25
242.83	866.25
243.064	878.25
243.298	858.25
243.531	821.25
243.765	859.25
243.998	877.25
244.232	909.25
244.465	895.25
244.699	926.25
244.932	926.25
245.166	931.25
245.399	913.25
245.633	938.25
245.866	908.25
246.099	949.25
246.333	964.25
246.566	959.25
246.8	985.25
247.033	1024.25
247.266	1080.25
247.5	1120.25
247.733	1163.25
247.966	1171.25
248.2	1155.25
248.433	1205.25
248.666	1256.25
248.899	1394.25
249.133	1473.25
249.366	1518.25
249.599	1388.25
249.832	1396.25
250.066	1440.25
250.299	1729.25
250.532	2121.25
250.765	2179.25
250.998	2034.25
251.231	1763.25
251.465	1610.25
251.698	1497.25
251.931	1481.25
252.164	1442.25
252.397	1483.25
252.63	1524.25
252.863	1606.25
253.096	1732.25
253.329	1744.25
253.562	1612.25
253.795	1599.25
254.028	1595.25
254.261	1666.25
254.494	1895.25
254.727	2210.25
254.96	2306.25
255.193	2065.25
255.426	2009.25
255.659	2173.25
255.892	2861.25
256.124	3480.25
256.357	2962.25
256.59	2374.25
256.823	2015.25
257.056	1848.25
257.289	1785.25
257.521	1729.25
257.754	1699.25
257.987	1701.25
258.22	1622.25
258.452	1586.25
258.685	1642.25
258.918	1660.25
259.151	1677.25
259.383	1749.25
259.616	1760.25
259.849	1804.25
260.081	2018.25
260.314	2131.25
260.547	1991.25
260.779	1887.25
261.012	1803.25
261.244	1754.25
261.477	1732.25
261.71	1752.25
261.942	1865.25
262.175	1917.25
262.407	1806.25
262.64	1728.25
262.872	1707.25
263.105	1716.25
263.337	1691.25
263.57	1731.25
263.802	1718.25
264.035	1705.25
264.267	1719.25
264.499	1747.25
264.732	1736.25
264.964	1707.25
265.197	1766.25
265.429	1780.25
265.661	1769.25
265.894	1747.25
266.126	1771.25
266.358	1795.25
266.591	1856.25
266.823	1906.25
267.055	1930.25
267.287	1899.25
267.52	1898.25
267.752	1898.25
267.984	1900.25
268.216	1929.25
268.448	1987.25
268.681	2008.25
268.913	2166.25
269.145	2351.25
269.377	2357.25
269.609	2257.25
269.841	2260.25
270.073	2415.25
270.306	2683.25
270.538	2857.25
270.77	2627.25
271.002	2467.25
271.234	2417.25
271.466	2638.25
271.698	2784.25
271.93	2751.25
272.162	2732.25
272.394	2671.25
272.626	2491.25
272.858	2383.25
273.09	2369.25
273.322	2330.25
273.553	2264.25
273.785	2310.25
274.017	2253.25
274.249	2338.25
274.481	2310.25
274.713	2321.25
274.945	2356.25
275.176	2413.25
275.408	2385.25
275.64	2402.25
275.872	2410.25
276.104	2414.25
276.335	2480.25
276.567	2573.25
276.799	2797.25
277.031	3076.25
277.262	3195.25
277.494	2936.25
277.726	2759.25
277.957	2584.25
278.189	2591.25
278.421	2545.25
278.652	2516.25
278.884	2518.25
279.115	2495.25
279.347	2547.25
279.579	2524.25
279.81	2596.25
280.042	2711.25
280.273	2830.25
280.505	2765.25
280.736	2643.25
280.968	2600.25
281.199	2607.25
281.431	2571.25
281.662	2558.25
281.894	2562.25
282.125	2646.25
282.356	2826.25
282.588	2974.25
282.819	2790.25
283.051	2676.25
283.282	2608.25
283.513	2599.25
283.745	2686.25
283.976	2701.25
284.207	2708.25
284.439	2674.25
284.67	2701.25
284.901	2705.25
285.132	2662.25
285.364	2695.25
285.595	2653.25
285.826	2689.25
286.057	2745.25
286.288	2769.25
286.52	2789.25
286.751	2760.25
286.982	2774.25
287.213	2807.25
287.444	2812.25
287.675	2897.25
287.906	2964.25
288.138	2998.25
288.369	2940.25
288.6	2973.25
288.831	2943.25
289.062	2890.25
289.293	2917.25
289.524	2920.25
289.755	2898.25
289.986	2886.25
290.217	2874.25
290.448	2912.25
290.679	2875.25
290.91	2827.25
291.141	2867.25
291.371	2876.25
291.602	2851.25
291.833	2812.25
292.064	2859.25
292.295	2878.25
292.526	2950.25
292.757	2892.25
292.987	2868.25
293.218	2839.25
293.449	2873.25
293.68	2881.25
293.91	2854.25
294.141	2871.25
294.372	2889.25
294.603	2896.25
294.833	2900.25
295.064	2891.25
295.295	2923.25
295.525	2912.25
295.756	2998.25
295.987	3096.25
296.217	3267.25
296.448	3259.25
296.679	3045.25
296.909	2973.25
297.14	2979.25
297.37	3072.25
297.601	3089.25
297.831	3092.25
298.062	3103.25
298.292	3123.25
298.523	3143.25
298.753	3167.25
298.984	3159.25
299.214	3178.25
299.445	3127.25
299.675	3203.25
299.905	3230.25
300.136	3239.25
300.366	3199.25
300.597	3221.25
300.827	3381.25
301.057	3411.25
301.288	3435.25
301.518	3386.25
301.748	3393.25
301.979	3453.25
302.209	3460.25
302.439	3483.25
302.669	3370.25
302.9	3382.25
303.13	3301.25
303.36	3428.25
303.59	3478.25
303.82	3595.25
304.051	3446.25
304.281	3345.25
304.511	3299.25
304.741	3296.25
304.971	3352.25
305.201	3345.25
305.431	3322.25
305.661	3339.25
305.891	3376.25
306.121	3312.25
306.352	3399.25
306.582	3404.25
306.812	3354.25
307.042	3396.25
307.272	3473.25
307.502	3454.25
307.731	3508.25
307.961	3371.25
308.191	3339.25
308.421	3376.25
308.651	3383.25
308.881	3417.25
309.111	3456.25
309.341	3467.25
309.571	3563.25
309.8	3651.25
310.03	3765.25
310.26	3719.25
310.49	3729.25
310.72	3844.25
310.949	3994.25
311.179	3934.25
311.409	3689.25
311.639	3705.25
311.868	3813.25
312.098	3818.25
312.328	3932.25
312.557	4048.25
312.787	4207.25
313.017	4032.25
313.246	3908.25
313.476	3809.25
313.706	3852.25
313.935	3984.25
314.165	4109.25
314.394	4151.25
314.624	4091.25
314.853	3941.25
315.083	3869.25
315.312	3800.25
315.542	3795.25
315.771	3731.25
316.001	3739.25
316.23	3772.25
316.46	3691.25
316.689	3777.25
316.919	3891.25
317.148	3932.25
317.377	3928.25
317.607	3869.25
317.836	3834.25
318.065	3761.25
318.295	3787.25
318.524	3821.25
318.753	3776.25
318.983	3787.25
319.212	3802.25
319.441	3907.25
319.67	3936.25
319.9	3822.25
320.129	3835.25
320.358	3811.25
320.587	3848.25
320.816	3952.25
321.046	3984.25
321.275	3957.25
321.504	3995.25
321.733	4031.25
321.962	4103.25
322.191	4193.25
322.42	4359.25
322.649	4388.25
322.878	4488.25
323.108	4584.25
323.337	4834.25
323.566	5155.25
323.795	5444.25
324.024	6079.25
324.253	8185.25
324.482	12457.25
324.71	15597.25
324.939	15597.25
325.168	13937.25
325.397	7013.25
325.626	5589.25
325.855	5213.25
326.084	5148.25
326.313	5111.25
326.542	5422.25
326.77	6255.25
326.999	8035.25
327.228	11840.25
327.457	15526.25
327.686	14843.25
327.914	8784.25
328.143	7852.25
328.372	7908.25
328.6	6759.25
328.829	6320.25
329.058	6553.25
329.287	6538.25
329.515	6275.25
329.744	6570.25
329.972	7740.25
330.201	9626.25
330.43	10744.25
330.658	8532.25
330.887	7543.25
331.115	6498.25
331.344	5793.25
331.572	5628.25
331.801	5727.25
332.03	5643.25
332.258	5557.25
332.486	5617.25
332.715	5654.25
332.943	5955.25
333.172	6128.25
333.4	6468.25
333.629	6865.25
333.857	7549.25
334.085	8867.25
334.314	11042.25
334.542	13305.25
334.771	12199.25
334.999	8078.25
335.227	6665.25
335.455	6051.25
335.684	5776.25
335.912	5565.25
336.14	5377.25
336.369	5437.25
336.597	5464.25
336.825	5306.25
337.053	5162.25
337.281	5076.25
337.51	5039.25
337.738	4981.25
337.966	4951.25
338.194	4946.25
338.422	4803.25
338.65	4706.25
338.878	4789.25
339.106	4639.25
339.334	4675.25
339.562	4657.25
339.79	4594.25
340.018	4630.25
340.246	4535.25
340.474	4652.25
340.702	4554.25
340.93	4539.25
341.158	4585.25
341.386	4544.25
341.614	4527.25
341.842	4492.25
342.07	4448.25
342.298	4441.25
342.526	4369.25
342.754	4324.25
342.981	4365.25
343.209	4492.25
343.437	4738.25
343.665	4898.25
343.893	5267.25
344.12	5219.25
344.348	5033.25
344.576	4857.25
344.804	4784.25
345.031	4761.25
345.259	4750.25
345.487	4575.25
345.714	4491.25
345.942	4393.25
346.17	4359.25
346.397	4309.25
346.625	4319.25
346.853	4228.25
347.08	4304.25
347.308	4309.25
347.535	4472.25
347.763	4537.25
347.99	4460.25
348.218	4418.25
348.445	4493.25
348.673	4422.25
348.9	4294.25
349.128	4247.25
349.355	4129.25
349.583	4163.25
349.81	4144.25
350.037	4133.25
350.265	4094.25
350.492	4152.25
350.72	4180.25
350.947	4265.25
351.174	4316.25
351.402	4407.25
351.629	4289.25
351.856	4301.25
352.083	4421.25
352.311	4416.25
352.538	4446.25
352.765	4415.25
352.992	4288.25
353.22	4263.25
353.447	4200.25
353.674	4086.25
353.901	4131.25
354.128	4050.25
354.355	3998.25
354.583	4063.25
354.81	4030.25
355.037	4034.25
355.264	3996.25
355.491	3947.25
355.718	3992.25
355.945	4029.25
356.172	4022.25
356.399	3951.25
356.626	4020.25
356.853	4036.25
357.08	3952.25
357.307	4028.25
357.534	4036.25
357.761	4005.25
357.988	4024.25
358.215	4012.25
358.441	4035.25
358.668	4072.25
358.895	4092.25
359.122	4137.25
359.349	4227.25
359.576	4372.25
359.802	4657.25
360.029	4860.25
360.256	4817.25
360.483	4599.25
360.709	4335.25
360.936	4307.25
361.163	4327.25
361.39	4357.25
361.616	4396.25
361.843	4274.25
362.07	4331.25
362.296	4381.25
362.523	4336.25
362.749	4300.25
362.976	4228.25
363.203	4159.25
363.429	4151.25
363.656	4227.25
363.882	4143.25
364.109	4130.25
364.335	4132.25
364.562	4116.25
364.788	4162.25
365.015	4191.25
365.241	4134.25
365.468	4175.25
365.694	4276.25
365.92	4200.25
366.147	4185.25
366.373	4139.25
366.599	4117.25
366.826	4083.25
367.052	4088.25
367.278	4132.25
367.505	4167.25
367.731	4127.25
367.957	4131.25
368.184	4240.25
368.41	4347.25
368.636	4374.25
368.862	4380.25
369.089	4272.25
369.315	4207.25
369.541	4161.25
369.767	4280.25
369.993	4278.25
370.219	4286.25
370.445	4261.25
370.672	4295.25
370.898	4284.25
371.124	4323.25
371.35	4416.25
371.576	4319.25
371.802	4307.25
372.028	4275.25
372.254	4353.25
372.48	4388.25
372.706	4504.25
372.932	4565.25
373.158	4454.25
373.384	4417.25
373.61	4337.25
373.835	4403.25
374.061	4426.25
374.287	4427.25
374.513	4545.25
374.739	4659.25
374.965	4811.25
375.191	4777.25
375.416	4684.25
375.642	4580.25
375.868	4476.25
376.094	4461.25
376.319	4408.25
376.545	4391.25
376.771	4374.25
376.997	4394.25
377.222	4346.25
377.448	4305.25
377.674	4305.25
377.899	4311.25
378.125	4323.25
378.35	4263.25
378.576	4273.25
378.802	4243.25
379.027	4258.25
379.253	4311.25
379.478	4277.25
379.704	4306.25
379.929	4313.25
380.155	4333.25
380.38	4369.25
380.606	4354.25
380.831	4314.25
381.057	4355.25
381.282	4371.25
381.507	4342.25
381.733	4432.25
381.958	4416.25
382.184	4436.25
382.409	4517.25
382.634	4558.25
382.86	4581.25
383.085	4604.25
383.31	4657.25
383.535	4782.25
383.761	4798.25
383.986	4867.25
384.211	4935.25
384.436	5081.25
384.662	5100.25
384.887	5156.25
385.112	5154.25
385.337	5181.25
385.562	5214.25
385.787	5291.25
386.013	5399.25
386.238	5411.25
386.463	5296.25
386.688	5242.25
386.913	5137.25
387.138	5191.25
387.363	5210.25
387.588	5125.25
387.813	5118.25
388.038	5141.25
388.263	5196.25
388.488	5218.25
388.713	5192.25
388.938	5215.25
389.163	5061.25
389.387	5152.25
389.612	5044.25
389.837	5125.25
390.062	5050.25
390.287	5065.25
390.512	5120.25
390.736	5184.25
390.961	5364.25
391.186	5337.25
391.411	5507.25
391.636	5623.25
391.86	5764.25
392.085	5852.25
392.31	5708.25
392.534	5575.25
392.759	5523.25
392.984	5387.25
393.208	5422.25
393.433	5347.25
393.658	5349.25
393.882	5352.25
394.107	5431.25
394.331	5422.25
394.556	5393.25
394.78	5453.25
395.005	5566.25
395.229	5528.25
395.454	5770.25
395.678	5855.25
395.903	5856.25
396.127	5914.25
396.352	5733.25
396.576	5555.25
396.801	5387.25
397.025	5590.25
397.249	5771.25
397.474	5842.25
397.698	5889.25
397.922	5981.25
398.147	6122.25
398.371	6241.25
398.595	6331.25
398.82	6567.25
399.044	7167.25
399.268	7860.25
399.492	8888.25
399.717	9597.25
399.941	9289.25
400.165	8723.25
400.389	8111.25
400.613	7266.25
400.837	6840.25
401.062	6665.25
401.286	6621.25
401.51	6588.25
401.734	6543.25
401.958	6690.25
402.182	6733.25
402.406	6843.25
402.63	7006.25
402.854	6967.25
403.078	7176.25
403.302	7315.25
403.526	7427.25
403.75	7414.25
403.974	7518.25
404.198	7518.25
404.422	7760.25
404.645	7749.25
404.869	7911.25
405.093	8372.25
405.317	8845.25
405.541	8680.25
405.765	7944.25
405.988	7542.25
406.212	7708.25
406.436	7800.25
406.66	7987.25
406.883	7863.25
407.107	8490.25
407.331	8970.25
407.555	9339.25
407.778	9093.25
408.002	8308.25
408.226	7890.25
408.449	7876.25
408.673	7663.25
408.896	7767.25
409.12	8048.25
409.344	7531.25
409.567	7196.25
409.791	7180.25
410.014	7100.25
410.238	7060.25
410.461	7081.25
410.685	7162.25
410.908	7262.25
411.132	7414.25
411.355	7377.25
411.578	7187.25
411.802	6954.25
412.025	7075.25
412.249	7571.25
412.472	8014.25
412.695	8491.25
412.919	7759.25
413.142	7261.25
413.365	6991.25
413.589	6835.25
413.812	6696.25
414.035	6569.25
414.258	6598.25
414.482	6612.25
414.705	6657.25
414.928	6554.25
415.151	6469.25
415.374	6508.25
415.597	6484.25
415.821	6342.25
416.044	6382.25
416.267	6413.25
416.49	6274.25
416.713	6244.25
416.936	6342.25
417.159	6426.25
417.382	6504.25
417.605	6579.25
417.828	6788.25
418.051	6828.25
418.274	6605.25
418.497	6447.25
418.72	6604.25
418.943	6500.25
419.166	6982.25
419.389	7354.25
419.611	7284.25
419.834	7194.25
420.057	7228.25
420.28	7508.25
420.503	7278.25
420.726	7041.25
420.948	7105.25
421.171	7277.25
421.394	7208.25
421.617	6647.25
421.839	6647.25
422.062	6716.25
422.285	6897.25
422.507	7524.25
422.73	7931.25
422.953	7329.25
423.175	7063.25
423.398	7092.25
423.621	7037.25
423.843	7288.25
424.066	7227.25
424.288	7078.25
424.511	7404.25
424.733	7832.25
424.956	8275.25
425.178	7824.25
425.401	7946.25
425.623	7722.25
425.846	6869.25
426.068	6703.25
426.291	6560.25
426.513	6566.25
426.735	6756.25
426.958	7162.25
427.18	8040.25
427.402	9161.25
427.625	9759.25
427.847	8726.25
428.069	8255.25
428.292	7009.25
428.514	6287.25
428.736	6128.25
428.958	6098.25
429.181	5879.25
429.403	5911.25
429.625	6020.25
429.847	6355.25
430.069	6953.25
430.292	6412.25
430.514	5809.25
430.736	5809.25
430.958	5708.25
431.18	5741.25
431.402	5685.25
431.624	5656.25
431.846	5725.25
432.068	5809.25
432.29	5918.25
432.512	5728.25
432.734	5876.25
432.956	5740.25
433.178	5885.25
433.4	5856.25
433.622	5795.25
433.844	5834.25
434.066	5846.25
434.287	5850.25
434.509	6106.25
434.731	6347.25
434.953	6542.25
435.175	6641.25
435.397	6654.25
435.618	6597.25
435.84	7059.25
436.062	7956.25
436.284	7839.25
436.505	6671.25
436.727	6338.25
436.949	5963.25
437.17	5890.25
437.392	5911.25
437.614	6070.25
437.835	6476.25
438.057	7525.25
438.278	8068.25
438.5	7889.25
438.721	8729.25
438.943	7650.25
439.165	6419.25
439.386	6258.25
439.608	6325.25
439.829	6454.25
440.05	6848.25
440.272	7313.25
440.493	6517.25
440.715	6120.25
440.936	6106.25
441.158	6139.25
441.379	6302.25
441.6	6698.25
441.822	6955.25
442.043	7288.25
442.264	8126.25
442.486	7793.25
442.707	6968.25
442.928	6799.25
443.149	6993.25
443.371	7337.25
443.592	7705.25
443.813	8649.25
444.034	8665.25
444.255	7580.25
444.476	7322.25
444.698	7578.25
444.919	7524.25
445.14	7468.25
445.361	7308.25
445.582	7573.25
445.803	8326.25
446.024	8937.25
446.245	8555.25
446.466	7668.25
446.687	6527.25
446.908	6129.25
447.129	5834.25
447.35	5719.25
447.571	5681.25
447.792	5543.25
448.013	5692.25
448.234	6002.25
448.455	6572.25
448.675	7804.25
448.896	8291.25
449.117	6794.25
449.338	7019.25
449.559	8286.25
449.779	8528.25
450	6515.25
450.221	5783.25
450.442	5556.25
450.662	5576.25
450.883	5713.25
451.104	5841.25
451.324	5649.25
451.545	5424.25
451.766	5235.25
451.986	5141.25
452.207	5077.25
452.428	5083.25
452.648	5185.25
452.869	5165.25
453.089	5256.25
453.31	5399.25
453.53	5130.25
453.751	5145.25
453.971	5211.25
454.192	5341.25
454.412	5134.25
454.633	5013.25
454.853	4896.25
455.073	5043.25
455.294	5382.25
455.514	5995.25
455.734	5422.25
455.955	4831.25
456.175	4746.25
456.395	4703.25
456.616	4744.25
456.836	4757.25
457.056	4644.25
457.276	4645.25
457.497	4781.25
457.717	4775.25
457.937	4820.25
458.157	4951.25
458.377	5029.25
458.598	5418.25
458.818	6351.25
459.038	7149.25
459.258	6831.25
459.478	6092.25
459.698	5916.25
459.918	5891.25
460.138	6125.25
460.358	6341.25
460.578	6316.25
460.798	6393.25
461.018	6468.25
461.238	6206.25
461.458	6274.25
461.678	6118.25
461.898	6312.25
462.118	6456.25
462.338	6794.25
462.558	6900.25
462.777	7217.25
462.997	7759.25
463.217	8057.25
463.437	7927.25
463.657	7401.25
463.876	7120.25
464.096	7280.25
464.316	7218.25
464.536	7211.25
464.755	7116.25
464.975	6953.25
465.195	7396.25
465.414	7640.25
465.634	6496.25
465.854	5968.25
466.073	5805.25
466.293	5598.25
466.512	5426.25
466.732	5284.25
466.951	5287.25
467.171	5311.25
467.391	5398.25
467.61	5609.25
467.829	5662.25
468.049	6184.25
468.268	6719.25
468.488	5744.25
468.707	5506.25
468.927	5270.25
469.146	5229.25
469.365	5277.25
469.585	5224.25
469.804	5547.25
470.023	5657.25
470.243	5589.25
470.462	5694.25
470.681	5836.25
470.901	5636.25
471.12	5579.25
471.339	5441.25
471.558	5557.25
471.777	5546.25
471.997	5755.25
472.216	7205.25
472.435	10067.25
472.654	7703.25
472.873	6242.25
473.092	5755.25
473.311	5574.25
473.53	5455.25
473.749	5447.25
473.968	5983.25
474.187	7076.25
474.406	6508.25
474.625	5465.25
474.844	5179.25
475.063	5220.25
475.282	5184.25
475.501	5195.25
475.72	5332.25
475.939	5314.25
476.158	5296.25
476.377	5322.25
476.596	5381.25
476.814	5545.25
477.033	5573.25
477.252	5632.25
477.471	5647.25
477.69	5886.25
477.908	5915.25
478.127	5999.25
478.346	6135.25
478.564	6240.25
478.783	6385.25
479.002	6505.25
479.22	6558.25
479.439	6615.25
479.658	6916.25
479.876	6827.25
480.095	7124.25
480.313	7612.25
480.532	7588.25
480.751	7857.25
480.969	9215.25
481.188	13957.25
481.406	13944.25
481.624	9378.25
481.843	7840.25
482.061	7249.25
482.28	6947.25
482.498	6714.25
482.717	6539.25
482.935	6412.25
483.153	6356.25
483.372	6199.25
483.59	6239.25
483.808	6288.25
484.027	6244.25
484.245	6297.25
484.463	6294.25
484.681	6336.25
484.9	6474.25
485.118	6451.25
485.336	6404.25
485.554	6547.25
485.772	6548.25
485.99	6572.25
486.209	6540.25
486.427	6643.25
486.645	6633.25
486.863	6876.25
487.081	6813.25
487.299	6619.25
487.517	6565.25
487.735	6600.25
