Data from Circ_2015_H10_HRD10591_00096.txt Node
Date: Wed Jan 03 10:00:42 EST 2024
User: Yrep
Spectrometer: HR+D1059
Trigger mode: 1
Integration Time (sec): 1.000000E-1
Scans to average: 1
Electric dark correction enabled: true
Nonlinearity correction enabled: false
Boxcar width: 0
XAxis mode: Wavelengths
Number of Pixels in Spectrum: 2048
>>>>>Begin Spectral Data<<<<<
223.165	-11.75
223.4	-11.75
223.635	-11.75
223.869	-23.75
224.104	-22.75
224.338	-16.75
224.573	-17.75
224.808	-5.75
225.042	-7.75
225.277	-0.75
225.511	8.25
225.746	-2.75
225.98	8.25
226.215	26.25
226.449	18.25
226.683	7.25
226.918	18.25
227.152	23.25
227.387	29.25
227.621	40.25
227.856	36.25
228.09	39.25
228.324	44.25
228.559	49.25
228.793	55.25
229.027	57.25
229.262	81.25
229.496	79.25
229.73	96.25
229.964	78.25
230.199	78.25
230.433	81.25
230.667	83.25
230.901	79.25
231.136	86.25
231.37	71.25
231.604	80.25
231.838	84.25
232.072	84.25
232.306	88.25
232.541	85.25
232.775	84.25
233.009	74.25
233.243	63.25
233.477	86.25
233.711	90.25
233.945	81.25
234.179	91.25
234.413	85.25
234.647	62.25
234.881	80.25
235.115	80.25
235.349	79.25
235.583	79.25
235.817	84.25
236.051	78.25
236.285	81.25
236.519	78.25
236.753	77.25
236.987	84.25
237.221	96.25
237.455	74.25
237.689	84.25
237.922	84.25
238.156	91.25
238.39	78.25
238.624	75.25
238.858	80.25
239.091	85.25
239.325	69.25
239.559	66.25
239.793	85.25
240.027	85.25
240.26	92.25
240.494	81.25
240.728	72.25
240.961	79.25
241.195	83.25
241.429	83.25
241.662	88.25
241.896	89.25
242.13	81.25
242.363	81.25
242.597	78.25
242.83	88.25
243.064	80.25
243.298	88.25
243.531	80.25
243.765	87.25
243.998	93.25
244.232	88.25
244.465	77.25
244.699	67.25
244.932	81.25
245.166	83.25
245.399	65.25
245.633	87.25
245.866	85.25
246.099	85.25
246.333	78.25
246.566	90.25
246.8	69.25
247.033	78.25
247.266	78.25
247.5	88.25
247.733	80.25
247.966	64.25
248.2	89.25
248.433	66.25
248.666	85.25
248.899	88.25
249.133	72.25
249.366	99.25
249.599	98.25
249.832	81.25
250.066	87.25
250.299	80.25
250.532	73.25
250.765	80.25
250.998	85.25
251.231	69.25
251.465	85.25
251.698	82.25
251.931	80.25
252.164	96.25
252.397	74.25
252.63	75.25
252.863	73.25
253.096	77.25
253.329	94.25
253.562	81.25
253.795	76.25
254.028	72.25
254.261	89.25
254.494	78.25
254.727	86.25
254.96	82.25
255.193	88.25
255.426	78.25
255.659	88.25
255.892	92.25
256.124	81.25
256.357	85.25
256.59	89.25
256.823	82.25
257.056	76.25
257.289	85.25
257.521	93.25
257.754	91.25
257.987	77.25
258.22	81.25
258.452	85.25
258.685	72.25
258.918	89.25
259.151	89.25
259.383	82.25
259.616	82.25
259.849	78.25
260.081	84.25
260.314	88.25
260.547	66.25
260.779	76.25
261.012	79.25
261.244	90.25
261.477	93.25
261.71	96.25
261.942	106.25
262.175	112.25
262.407	100.25
262.64	87.25
262.872	83.25
263.105	92.25
263.337	78.25
263.57	83.25
263.802	93.25
264.035	74.25
264.267	77.25
264.499	86.25
264.732	83.25
264.964	75.25
265.197	73.25
265.429	93.25
265.661	87.25
265.894	81.25
266.126	86.25
266.358	98.25
266.591	91.25
266.823	79.25
267.055	74.25
267.287	89.25
267.52	90.25
267.752	76.25
267.984	68.25
268.216	89.25
268.448	101.25
268.681	90.25
268.913	85.25
269.145	90.25
269.377	85.25
269.609	59.25
269.841	85.25
270.073	73.25
270.306	92.25
270.538	75.25
270.77	79.25
271.002	81.25
271.234	89.25
271.466	88.25
271.698	89.25
271.93	90.25
272.162	110.25
272.394	92.25
272.626	82.25
272.858	83.25
273.09	88.25
273.322	85.25
273.553	88.25
273.785	99.25
274.017	78.25
274.249	90.25
274.481	81.25
274.713	81.25
274.945	91.25
275.176	92.25
275.408	91.25
275.64	111.25
275.872	101.25
276.104	84.25
276.335	91.25
276.567	94.25
276.799	114.25
277.031	128.25
277.262	136.25
277.494	97.25
277.726	96.25
277.957	88.25
278.189	87.25
278.421	84.25
278.652	84.25
278.884	80.25
279.115	91.25
279.347	89.25
279.579	98.25
279.81	100.25
280.042	120.25
280.273	128.25
280.505	110.25
280.736	94.25
280.968	93.25
281.199	81.25
281.431	79.25
281.662	99.25
281.894	106.25
282.125	115.25
282.356	122.25
282.588	132.25
282.819	115.25
283.051	85.25
283.282	84.25
283.513	78.25
283.745	96.25
283.976	89.25
284.207	90.25
284.439	89.25
284.67	103.25
284.901	109.25
285.132	93.25
285.364	99.25
285.595	93.25
285.826	79.25
286.057	105.25
286.288	87.25
286.52	81.25
286.751	84.25
286.982	90.25
287.213	77.25
287.444	88.25
287.675	94.25
287.906	94.25
288.138	95.25
288.369	90.25
288.6	75.25
288.831	75.25
289.062	88.25
289.293	80.25
289.524	90.25
289.755	83.25
289.986	91.25
290.217	93.25
290.448	102.25
290.679	97.25
290.91	98.25
291.141	94.25
291.371	79.25
291.602	86.25
291.833	79.25
292.064	95.25
292.295	78.25
292.526	110.25
292.757	90.25
292.987	81.25
293.218	99.25
293.449	95.25
293.68	105.25
293.91	80.25
294.141	96.25
294.372	88.25
294.603	78.25
294.833	83.25
295.064	101.25
295.295	100.25
295.525	98.25
295.756	96.25
295.987	104.25
296.217	144.25
296.448	124.25
296.679	109.25
296.909	90.25
297.14	104.25
297.37	95.25
297.601	87.25
297.831	82.25
298.062	97.25
298.292	59.25
298.523	94.25
298.753	79.25
298.984	84.25
299.214	82.25
299.445	87.25
299.675	102.25
299.905	96.25
300.136	102.25
300.366	107.25
300.597	96.25
300.827	101.25
301.057	108.25
301.288	100.25
301.518	108.25
301.748	95.25
301.979	120.25
302.209	105.25
302.439	94.25
302.669	92.25
302.9	86.25
303.13	99.25
303.36	99.25
303.59	116.25
303.82	112.25
304.051	102.25
304.281	105.25
304.511	76.25
304.741	81.25
304.971	91.25
305.201	99.25
305.431	88.25
305.661	90.25
305.891	85.25
306.121	87.25
306.352	111.25
306.582	103.25
306.812	112.25
307.042	102.25
307.272	110.25
307.502	135.25
307.731	135.25
307.961	109.25
308.191	99.25
308.421	85.25
308.651	91.25
308.881	90.25
309.111	87.25
309.341	101.25
309.571	96.25
309.8	83.25
310.03	101.25
310.26	98.25
310.49	115.25
310.72	105.25
310.949	106.25
311.179	120.25
311.409	111.25
311.639	113.25
311.868	92.25
312.098	93.25
312.328	93.25
312.557	112.25
312.787	122.25
313.017	101.25
313.246	88.25
313.476	113.25
313.706	99.25
313.935	98.25
314.165	103.25
314.394	100.25
314.624	87.25
314.853	109.25
315.083	95.25
315.312	109.25
315.542	94.25
315.771	98.25
316.001	95.25
316.23	95.25
316.46	98.25
316.689	90.25
316.919	105.25
317.148	91.25
317.377	93.25
317.607	94.25
317.836	101.25
318.065	93.25
318.295	85.25
318.524	85.25
318.753	96.25
318.983	108.25
319.212	120.25
319.441	99.25
319.67	104.25
319.9	104.25
320.129	98.25
320.358	96.25
320.587	108.25
320.816	100.25
321.046	100.25
321.275	109.25
321.504	102.25
321.733	105.25
321.962	124.25
322.191	117.25
322.42	121.25
322.649	120.25
322.878	128.25
323.108	132.25
323.337	141.25
323.566	140.25
323.795	156.25
324.024	239.25
324.253	495.25
324.482	1024.25
324.71	2119.25
324.939	2808.25
325.168	981.25
325.397	288.25
325.626	154.25
325.855	137.25
326.084	139.25
326.313	137.25
326.542	181.25
326.77	259.25
326.999	582.25
327.228	1206.25
327.457	2180.25
327.686	1738.25
327.914	478.25
328.143	301.25
328.372	339.25
328.6	209.25
328.829	154.25
329.058	144.25
329.287	150.25
329.515	133.25
329.744	163.25
329.972	251.25
330.201	427.25
330.43	568.25
330.658	309.25
330.887	195.25
331.115	152.25
331.344	112.25
331.572	109.25
331.801	116.25
332.03	120.25
332.258	109.25
332.486	101.25
332.715	108.25
332.943	110.25
333.172	108.25
333.4	108.25
333.629	132.25
333.857	151.25
334.085	236.25
334.314	440.25
334.542	744.25
334.771	650.25
334.999	229.25
335.227	117.25
335.455	96.25
335.684	107.25
335.912	104.25
336.14	113.25
336.369	106.25
336.597	99.25
336.825	106.25
337.053	92.25
337.281	90.25
337.51	99.25
337.738	82.25
337.966	89.25
338.194	115.25
338.422	100.25
338.65	99.25
338.878	113.25
339.106	101.25
339.334	103.25
339.562	92.25
339.79	106.25
340.018	97.25
340.246	96.25
340.474	87.25
340.702	100.25
340.93	94.25
341.158	78.25
341.386	100.25
341.614	94.25
341.842	101.25
342.07	91.25
342.298	95.25
342.526	102.25
342.754	81.25
342.981	96.25
343.209	93.25
343.437	93.25
343.665	92.25
343.893	80.25
344.12	99.25
344.348	85.25
344.576	102.25
344.804	89.25
345.031	116.25
345.259	117.25
345.487	99.25
345.714	105.25
345.942	92.25
346.17	101.25
346.397	101.25
346.625	97.25
346.853	116.25
347.08	116.25
347.308	84.25
347.535	95.25
347.763	104.25
347.99	105.25
348.218	104.25
348.445	99.25
348.673	110.25
348.9	108.25
349.128	97.25
349.355	96.25
349.583	89.25
349.81	98.25
350.037	88.25
350.265	100.25
350.492	115.25
350.72	97.25
350.947	115.25
351.174	125.25
351.402	118.25
351.629	111.25
351.856	104.25
352.083	106.25
352.311	117.25
352.538	131.25
352.765	108.25
352.992	131.25
353.22	110.25
353.447	118.25
353.674	112.25
353.901	115.25
354.128	109.25
354.355	97.25
354.583	93.25
354.81	108.25
355.037	93.25
355.264	96.25
355.491	94.25
355.718	100.25
355.945	102.25
356.172	102.25
356.399	102.25
356.626	99.25
356.853	90.25
357.08	86.25
357.307	92.25
357.534	97.25
357.761	98.25
357.988	79.25
358.215	112.25
358.441	107.25
358.668	95.25
358.895	97.25
359.122	96.25
359.349	84.25
359.576	106.25
359.802	110.25
360.029	121.25
360.256	137.25
360.483	103.25
360.709	83.25
360.936	78.25
361.163	100.25
361.39	99.25
361.616	108.25
361.843	97.25
362.07	107.25
362.296	105.25
362.523	88.25
362.749	105.25
362.976	94.25
363.203	86.25
363.429	95.25
363.656	96.25
363.882	79.25
364.109	106.25
364.335	95.25
364.562	100.25
364.788	97.25
365.015	91.25
365.241	105.25
365.468	101.25
365.694	108.25
365.92	102.25
366.147	106.25
366.373	85.25
366.599	91.25
366.826	87.25
367.052	85.25
367.278	110.25
367.505	96.25
367.731	97.25
367.957	95.25
368.184	91.25
368.41	99.25
368.636	107.25
368.862	115.25
369.089	104.25
369.315	104.25
369.541	94.25
369.767	87.25
369.993	99.25
370.219	90.25
370.445	108.25
370.672	94.25
370.898	100.25
371.124	78.25
371.35	81.25
371.576	79.25
371.802	89.25
372.028	89.25
372.254	85.25
372.48	94.25
372.706	95.25
372.932	88.25
373.158	87.25
373.384	93.25
373.61	107.25
373.835	102.25
374.061	87.25
374.287	81.25
374.513	93.25
374.739	107.25
374.965	101.25
375.191	96.25
375.416	96.25
375.642	109.25
375.868	104.25
376.094	93.25
376.319	81.25
376.545	95.25
376.771	96.25
376.997	93.25
377.222	96.25
377.448	93.25
377.674	97.25
377.899	98.25
378.125	100.25
378.35	97.25
378.576	90.25
378.802	85.25
379.027	84.25
379.253	98.25
379.478	88.25
379.704	89.25
379.929	99.25
380.155	106.25
380.38	103.25
380.606	94.25
380.831	97.25
381.057	96.25
381.282	98.25
381.507	108.25
381.733	93.25
381.958	85.25
382.184	101.25
382.409	102.25
382.634	93.25
382.86	97.25
383.085	102.25
383.31	88.25
383.535	113.25
383.761	80.25
383.986	89.25
384.211	96.25
384.436	96.25
384.662	94.25
384.887	104.25
385.112	95.25
385.337	105.25
385.562	115.25
385.787	103.25
386.013	115.25
386.238	116.25
386.463	98.25
386.688	128.25
386.913	109.25
387.138	113.25
387.363	115.25
387.588	98.25
387.813	101.25
388.038	92.25
388.263	108.25
388.488	97.25
388.713	99.25
388.938	89.25
389.163	96.25
389.387	105.25
389.612	99.25
389.837	100.25
390.062	107.25
390.287	80.25
390.512	92.25
390.736	80.25
390.961	103.25
391.186	87.25
391.411	110.25
391.636	93.25
391.86	101.25
392.085	105.25
392.31	92.25
392.534	91.25
392.759	94.25
392.984	83.25
393.208	90.25
393.433	86.25
393.658	93.25
393.882	96.25
394.107	86.25
394.331	85.25
394.556	80.25
394.78	91.25
395.005	80.25
395.229	81.25
395.454	91.25
395.678	95.25
395.903	103.25
396.127	96.25
396.352	77.25
396.576	96.25
396.801	82.25
397.025	87.25
397.249	104.25
397.474	88.25
397.698	76.25
397.922	102.25
398.147	86.25
398.371	76.25
398.595	86.25
398.82	81.25
399.044	97.25
399.268	98.25
399.492	93.25
399.717	93.25
399.941	91.25
400.165	98.25
400.389	93.25
400.613	95.25
400.837	88.25
401.062	86.25
401.286	84.25
401.51	83.25
401.734	87.25
401.958	104.25
402.182	127.25
402.406	155.25
402.63	125.25
402.854	94.25
403.078	91.25
403.302	90.25
403.526	84.25
403.75	86.25
403.974	91.25
404.198	103.25
404.422	102.25
404.645	94.25
404.869	96.25
405.093	99.25
405.317	118.25
405.541	115.25
405.765	102.25
405.988	120.25
406.212	183.25
406.436	252.25
406.66	145.25
406.883	121.25
407.107	97.25
407.331	105.25
407.555	111.25
407.778	99.25
408.002	93.25
408.226	85.25
408.449	80.25
408.673	97.25
408.896	93.25
409.12	110.25
409.344	99.25
409.567	104.25
409.791	101.25
410.014	88.25
410.238	79.25
410.461	92.25
410.685	109.25
410.908	104.25
411.132	111.25
411.355	92.25
411.578	86.25
411.802	91.25
412.025	102.25
412.249	108.25
412.472	116.25
412.695	123.25
412.919	102.25
413.142	97.25
413.365	93.25
413.589	81.25
413.812	96.25
414.035	95.25
414.258	80.25
414.482	92.25
414.705	96.25
414.928	102.25
415.151	93.25
415.374	87.25
415.597	95.25
415.821	97.25
416.044	101.25
416.267	106.25
416.49	76.25
416.713	94.25
416.936	81.25
417.159	94.25
417.382	90.25
417.605	108.25
417.828	112.25
418.051	103.25
418.274	85.25
418.497	91.25
418.72	92.25
418.943	94.25
419.166	94.25
419.389	89.25
419.611	70.25
419.834	92.25
420.057	95.25
420.28	98.25
420.503	93.25
420.726	98.25
420.948	87.25
421.171	81.25
421.394	108.25
421.617	105.25
421.839	94.25
422.062	97.25
422.285	91.25
422.507	100.25
422.73	109.25
422.953	97.25
423.175	79.25
423.398	105.25
423.621	78.25
423.843	86.25
424.066	90.25
424.288	98.25
424.511	98.25
424.733	95.25
424.956	122.25
425.178	118.25
425.401	126.25
425.623	113.25
425.846	92.25
426.068	96.25
426.291	94.25
426.513	94.25
426.735	92.25
426.958	105.25
427.18	108.25
427.402	163.25
427.625	222.25
427.847	191.25
428.069	180.25
428.292	128.25
428.514	76.25
428.736	103.25
428.958	84.25
429.181	96.25
429.403	89.25
429.625	85.25
429.847	96.25
430.069	96.25
430.292	102.25
430.514	85.25
430.736	89.25
430.958	94.25
431.18	84.25
431.402	97.25
431.624	94.25
431.846	71.25
432.068	83.25
432.29	79.25
432.512	93.25
432.734	100.25
432.956	87.25
433.178	103.25
433.4	111.25
433.622	86.25
433.844	88.25
434.066	106.25
434.287	109.25
434.509	102.25
434.731	91.25
434.953	89.25
435.175	91.25
435.397	104.25
435.618	98.25
435.84	117.25
436.062	133.25
436.284	145.25
436.505	110.25
436.727	104.25
436.949	95.25
437.17	98.25
437.392	91.25
437.614	99.25
437.835	110.25
438.057	134.25
438.278	100.25
438.5	111.25
438.721	124.25
438.943	107.25
439.165	104.25
439.386	100.25
439.608	95.25
439.829	107.25
440.05	127.25
440.272	159.25
440.493	118.25
440.715	105.25
440.936	95.25
441.158	89.25
441.379	94.25
441.6	94.25
441.822	90.25
442.043	88.25
442.264	109.25
442.486	99.25
442.707	106.25
442.928	124.25
443.149	147.25
443.371	161.25
443.592	119.25
443.813	110.25
444.034	122.25
444.255	96.25
444.476	96.25
444.698	83.25
444.919	89.25
445.14	125.25
445.361	143.25
445.582	119.25
445.803	166.25
446.024	158.25
446.245	158.25
446.466	127.25
446.687	97.25
446.908	88.25
447.129	93.25
447.35	104.25
447.571	90.25
447.792	102.25
448.013	97.25
448.234	102.25
448.455	100.25
448.675	136.25
448.896	125.25
449.117	111.25
449.338	110.25
449.559	144.25
449.779	148.25
450	103.25
450.221	80.25
450.442	91.25
450.662	108.25
450.883	123.25
451.104	109.25
451.324	107.25
451.545	82.25
451.766	88.25
451.986	89.25
452.207	86.25
452.428	101.25
452.648	100.25
452.869	111.25
453.089	115.25
453.31	133.25
453.53	104.25
453.751	101.25
453.971	116.25
454.192	125.25
454.412	111.25
454.633	101.25
454.853	92.25
455.073	94.25
455.294	84.25
455.514	107.25
455.734	91.25
455.955	80.25
456.175	89.25
456.395	90.25
456.616	85.25
456.836	89.25
457.056	77.25
457.276	77.25
457.497	76.25
457.717	93.25
457.937	86.25
458.157	87.25
458.377	87.25
458.598	94.25
458.818	166.25
459.038	168.25
459.258	125.25
459.478	110.25
459.698	94.25
459.918	87.25
460.138	101.25
460.358	69.25
460.578	96.25
460.798	87.25
461.018	103.25
461.238	85.25
461.458	80.25
461.678	85.25
461.898	90.25
462.118	82.25
462.338	77.25
462.558	103.25
462.777	94.25
462.997	89.25
463.217	96.25
463.437	90.25
463.657	101.25
463.876	85.25
464.096	94.25
464.316	101.25
464.536	97.25
464.755	107.25
464.975	114.25
465.195	189.25
465.414	171.25
465.634	80.25
465.854	85.25
466.073	82.25
466.293	100.25
466.512	84.25
466.732	94.25
466.951	95.25
467.171	84.25
467.391	94.25
467.61	120.25
467.829	145.25
468.049	260.25
468.268	336.25
468.488	144.25
468.707	100.25
468.927	88.25
469.146	100.25
469.365	95.25
469.585	87.25
469.804	101.25
470.023	103.25
470.243	98.25
470.462	95.25
470.681	121.25
470.901	92.25
471.12	106.25
471.339	79.25
471.558	107.25
471.777	115.25
471.997	175.25
472.216	445.25
472.435	911.25
472.654	269.25
472.873	112.25
473.092	77.25
473.311	76.25
473.53	95.25
473.749	111.25
473.968	105.25
474.187	120.25
474.406	117.25
474.625	94.25
474.844	95.25
475.063	102.25
475.282	91.25
475.501	80.25
475.72	95.25
475.939	96.25
476.158	98.25
476.377	92.25
476.596	104.25
476.814	90.25
477.033	92.25
477.252	89.25
477.471	89.25
477.69	98.25
477.908	90.25
478.127	93.25
478.346	83.25
478.564	85.25
478.783	86.25
479.002	93.25
479.22	95.25
479.439	107.25
479.658	105.25
479.876	95.25
480.095	117.25
480.313	103.25
480.532	104.25
480.751	175.25
480.969	445.25
481.188	1608.25
481.406	966.25
481.624	194.25
481.843	110.25
482.061	98.25
482.28	94.25
482.498	94.25
482.717	79.25
482.935	78.25
483.153	79.25
483.372	87.25
483.59	103.25
483.808	84.25
484.027	91.25
484.245	104.25
484.463	101.25
484.681	115.25
484.9	67.25
485.118	86.25
485.336	93.25
485.554	98.25
485.772	86.25
485.99	100.25
486.209	99.25
486.427	105.25
486.645	106.25
486.863	99.25
487.081	98.25
487.299	89.25
487.517	88.25
487.735	92.25
487.953	96.25
488.171	99.25
488.389	98.25
488.607	96.25
488.825	86.25
489.043	88.25
489.261	93.25
489.479	87.25
489.696	96.25
489.914	88.25
490.132	90.25
490.35	93.25
490.568	82.25
490.786	80.25
491.003	95.25
491.221	89.25
491.439	101.25
491.657	102.25
491.874	88.25
492.092	86.25
492.31	100.25
492.527	93.25
492.745	110.25
492.963	90.25
493.18	90.25
493.398	91.25
493.615	100.25
493.833	93.25
494.05	92.25
494.268	84.25
494.485	94.25
494.703	90.25
494.92	85.25
495.138	98.25
495.355	91.25
495.573	82.25
495.79	81.25
496.008	106.25
496.225	87.25
496.442	101.25
496.66	94.25
496.877	78.25
497.094	104.25
497.312	95.25
497.529	104.25
497.746	86.25
497.963	78.25
498.181	97.25
498.398	95.25
498.615	105.25
498.832	112.25
499.049	89.25
499.267	84.25
499.484	83.25
499.701	88.25
499.918	80.25
500.135	87.25
500.352	77.25
500.569	95.25
500.786	106.25
501.003	80.25
501.22	109.25
501.437	94.25
501.654	93.25
501.871	99.25
502.088	88.25
502.305	71.25
502.522	97.25
502.739	93.25
502.956	93.25
503.172	91.25
503.389	103.25
503.606	109.25
503.823	105.25
504.04	101.25
504.256	94.25
504.473	93.25
504.69	96.25
504.907	96.25
505.123	94.25
505.34	96.25
505.557	92.25
505.773	86.25
505.99	91.25
506.207	83.25
506.423	91.25
506.64	96.25
506.856	92.25
507.073	93.25
507.289	97.25
507.506	107.25
507.722	103.25
507.939	118.25
508.155	105.25
508.372	97.25
508.588	100.25
508.805	100.25
509.021	80.25
509.238	101.25
509.454	92.25
509.67	101.25
509.887	108.25
510.103	131.25
510.319	216.25
510.536	673.25
510.752	2243.25
510.968	657.25
511.184	159.25
511.401	104.25
511.617	101.25
511.833	102.25
512.049	104.25
512.265	101.25
512.481	97.25
512.698	76.25
512.914	93.25
513.13	102.25
513.346	102.25
