Data from Circ_2015_H10_HRD10591_00031.txt Node
Date: Wed Jan 03 10:00:29 EST 2024
User: Yrep
Spectrometer: HR+D1059
Trigger mode: 1
Integration Time (sec): 1.000000E-1
Scans to average: 1
Electric dark correction enabled: true
Nonlinearity correction enabled: false
Boxcar width: 0
XAxis mode: Wavelengths
Number of Pixels in Spectrum: 2048
>>>>>Begin Spectral Data<<<<<
223.165	-14.88
223.4	-14.88
223.635	-14.88
223.869	-18.88
224.104	-27.88
224.338	-18.88
224.573	-13.88
224.808	-4.88
225.042	-5.88
225.277	-12.88
225.511	-1.88
225.746	5.12
225.98	8.12
226.215	30.12
226.449	19.12
226.683	13.12
226.918	18.12
227.152	26.12
227.387	30.12
227.621	40.12
227.856	40.12
228.09	49.12
228.324	45.12
228.559	44.12
228.793	55.12
229.027	55.12
229.262	54.12
229.496	73.12
229.73	81.12
229.964	80.12
230.199	78.12
230.433	65.12
230.667	65.12
230.901	72.12
231.136	69.12
231.37	63.12
231.604	79.12
231.838	69.12
232.072	78.12
232.306	66.12
232.541	73.12
232.775	68.12
233.009	86.12
233.243	83.12
233.477	87.12
233.711	81.12
233.945	86.12
234.179	83.12
234.413	83.12
234.647	58.12
234.881	71.12
235.115	68.12
235.349	72.12
235.583	71.12
235.817	73.12
236.051	78.12
236.285	64.12
236.519	84.12
236.753	64.12
236.987	81.12
237.221	81.12
237.455	75.12
237.689	80.12
237.922	85.12
238.156	69.12
238.39	68.12
238.624	72.12
238.858	68.12
239.091	86.12
239.325	77.12
239.559	73.12
239.793	79.12
240.027	82.12
240.26	83.12
240.494	64.12
240.728	66.12
240.961	95.12
241.195	86.12
241.429	66.12
241.662	69.12
241.896	78.12
242.13	69.12
242.363	82.12
242.597	65.12
242.83	68.12
243.064	76.12
243.298	70.12
243.531	65.12
243.765	81.12
243.998	80.12
244.232	86.12
244.465	82.12
244.699	88.12
244.932	70.12
245.166	73.12
245.399	71.12
245.633	76.12
245.866	68.12
246.099	74.12
246.333	72.12
246.566	77.12
246.8	72.12
247.033	71.12
247.266	81.12
247.5	75.12
247.733	79.12
247.966	85.12
248.2	65.12
248.433	93.12
248.666	76.12
248.899	78.12
249.133	80.12
249.366	93.12
249.599	96.12
249.832	80.12
250.066	75.12
250.299	78.12
250.532	87.12
250.765	68.12
250.998	67.12
251.231	87.12
251.465	80.12
251.698	83.12
251.931	78.12
252.164	78.12
252.397	87.12
252.63	76.12
252.863	75.12
253.096	79.12
253.329	77.12
253.562	73.12
253.795	75.12
254.028	67.12
254.261	76.12
254.494	74.12
254.727	83.12
254.96	77.12
255.193	79.12
255.426	84.12
255.659	67.12
255.892	77.12
256.124	74.12
256.357	81.12
256.59	65.12
256.823	73.12
257.056	63.12
257.289	81.12
257.521	70.12
257.754	75.12
257.987	98.12
258.22	72.12
258.452	78.12
258.685	86.12
258.918	84.12
259.151	67.12
259.383	78.12
259.616	82.12
259.849	75.12
260.081	88.12
260.314	82.12
260.547	86.12
260.779	77.12
261.012	78.12
261.244	74.12
261.477	83.12
261.71	85.12
261.942	115.12
262.175	118.12
262.407	83.12
262.64	88.12
262.872	81.12
263.105	85.12
263.337	80.12
263.57	78.12
263.802	83.12
264.035	75.12
264.267	79.12
264.499	77.12
264.732	80.12
264.964	83.12
265.197	85.12
265.429	82.12
265.661	64.12
265.894	80.12
266.126	85.12
266.358	91.12
266.591	88.12
266.823	76.12
267.055	77.12
267.287	74.12
267.52	86.12
267.752	89.12
267.984	93.12
268.216	85.12
268.448	81.12
268.681	75.12
268.913	83.12
269.145	69.12
269.377	86.12
269.609	79.12
269.841	99.12
270.073	82.12
270.306	80.12
270.538	74.12
270.77	74.12
271.002	68.12
271.234	77.12
271.466	70.12
271.698	83.12
271.93	73.12
272.162	71.12
272.394	69.12
272.626	85.12
272.858	85.12
273.09	71.12
273.322	82.12
273.553	82.12
273.785	80.12
274.017	75.12
274.249	73.12
274.481	73.12
274.713	73.12
274.945	84.12
275.176	88.12
275.408	91.12
275.64	92.12
275.872	73.12
276.104	102.12
276.335	91.12
276.567	95.12
276.799	106.12
277.031	89.12
277.262	77.12
277.494	96.12
277.726	79.12
277.957	86.12
278.189	92.12
278.421	80.12
278.652	62.12
278.884	74.12
279.115	87.12
279.347	91.12
279.579	95.12
279.81	74.12
280.042	63.12
280.273	85.12
280.505	76.12
280.736	72.12
280.968	83.12
281.199	78.12
281.431	86.12
281.662	75.12
281.894	93.12
282.125	82.12
282.356	91.12
282.588	127.12
282.819	103.12
283.051	73.12
283.282	79.12
283.513	92.12
283.745	98.12
283.976	78.12
284.207	71.12
284.439	75.12
284.67	83.12
284.901	83.12
285.132	80.12
285.364	93.12
285.595	86.12
285.826	83.12
286.057	87.12
286.288	81.12
286.52	89.12
286.751	86.12
286.982	88.12
287.213	77.12
287.444	85.12
287.675	84.12
287.906	94.12
288.138	79.12
288.369	90.12
288.6	90.12
288.831	72.12
289.062	77.12
289.293	85.12
289.524	70.12
289.755	84.12
289.986	81.12
290.217	85.12
290.448	75.12
290.679	62.12
290.91	94.12
291.141	85.12
291.371	85.12
291.602	74.12
291.833	96.12
292.064	88.12
292.295	87.12
292.526	85.12
292.757	82.12
292.987	77.12
293.218	84.12
293.449	87.12
293.68	90.12
293.91	98.12
294.141	90.12
294.372	88.12
294.603	75.12
294.833	69.12
295.064	80.12
295.295	78.12
295.525	89.12
295.756	85.12
295.987	112.12
296.217	138.12
296.448	111.12
296.679	98.12
296.909	93.12
297.14	77.12
297.37	89.12
297.601	92.12
297.831	93.12
298.062	90.12
298.292	85.12
298.523	77.12
298.753	79.12
298.984	91.12
299.214	72.12
299.445	87.12
299.675	89.12
299.905	87.12
300.136	85.12
300.366	82.12
300.597	90.12
300.827	80.12
301.057	100.12
301.288	102.12
301.518	97.12
301.748	82.12
301.979	89.12
302.209	89.12
302.439	96.12
302.669	75.12
302.9	90.12
303.13	91.12
303.36	87.12
303.59	98.12
303.82	100.12
304.051	91.12
304.281	86.12
304.511	93.12
304.741	102.12
304.971	83.12
305.201	90.12
305.431	89.12
305.661	94.12
305.891	81.12
306.121	99.12
306.352	96.12
306.582	95.12
306.812	89.12
307.042	86.12
307.272	97.12
307.502	91.12
307.731	90.12
307.961	87.12
308.191	93.12
308.421	79.12
308.651	92.12
308.881	88.12
309.111	80.12
309.341	98.12
309.571	91.12
309.8	85.12
310.03	92.12
310.26	97.12
310.49	82.12
310.72	90.12
310.949	86.12
311.179	102.12
311.409	78.12
311.639	95.12
311.868	110.12
312.098	102.12
312.328	99.12
312.557	90.12
312.787	97.12
313.017	91.12
313.246	106.12
313.476	85.12
313.706	85.12
313.935	99.12
314.165	76.12
314.394	95.12
314.624	105.12
314.853	87.12
315.083	92.12
315.312	84.12
315.542	78.12
315.771	90.12
316.001	78.12
316.23	79.12
316.46	80.12
316.689	90.12
316.919	82.12
317.148	95.12
317.377	115.12
317.607	101.12
317.836	78.12
318.065	74.12
318.295	89.12
318.524	92.12
318.753	89.12
318.983	98.12
319.212	94.12
319.441	112.12
319.67	89.12
319.9	95.12
320.129	78.12
320.358	88.12
320.587	93.12
320.816	93.12
321.046	82.12
321.275	85.12
321.504	75.12
321.733	95.12
321.962	98.12
322.191	100.12
322.42	114.12
322.649	101.12
322.878	114.12
323.108	123.12
323.337	118.12
323.566	128.12
323.795	147.12
324.024	197.12
324.253	397.12
324.482	821.12
324.71	1713.12
324.939	2227.12
325.168	844.12
325.397	251.12
325.626	147.12
325.855	120.12
326.084	112.12
326.313	122.12
326.542	137.12
326.77	236.12
326.999	469.12
327.228	965.12
327.457	1757.12
327.686	1386.12
327.914	387.12
328.143	199.12
328.372	181.12
328.6	147.12
328.829	101.12
329.058	121.12
329.287	106.12
329.515	100.12
329.744	117.12
329.972	116.12
330.201	133.12
330.43	176.12
330.658	146.12
330.887	122.12
331.115	115.12
331.344	105.12
331.572	89.12
331.801	82.12
332.03	85.12
332.258	85.12
332.486	87.12
332.715	79.12
332.943	85.12
333.172	95.12
333.4	86.12
333.629	102.12
333.857	99.12
334.085	136.12
334.314	154.12
334.542	205.12
334.771	186.12
334.999	117.12
335.227	93.12
335.455	89.12
335.684	93.12
335.912	84.12
336.14	85.12
336.369	109.12
336.597	103.12
336.825	89.12
337.053	82.12
337.281	90.12
337.51	80.12
337.738	83.12
337.966	80.12
338.194	109.12
338.422	89.12
338.65	100.12
338.878	95.12
339.106	93.12
339.334	81.12
339.562	86.12
339.79	94.12
340.018	88.12
340.246	95.12
340.474	85.12
340.702	79.12
340.93	97.12
341.158	86.12
341.386	81.12
341.614	105.12
341.842	82.12
342.07	91.12
342.298	89.12
342.526	81.12
342.754	78.12
342.981	85.12
343.209	77.12
343.437	94.12
343.665	69.12
343.893	88.12
344.12	102.12
344.348	95.12
344.576	87.12
344.804	95.12
345.031	100.12
345.259	108.12
345.487	87.12
345.714	95.12
345.942	87.12
346.17	90.12
346.397	69.12
346.625	73.12
346.853	97.12
347.08	89.12
347.308	93.12
347.535	88.12
347.763	94.12
347.99	86.12
348.218	99.12
348.445	102.12
348.673	102.12
348.9	88.12
349.128	97.12
349.355	90.12
349.583	98.12
349.81	95.12
350.037	101.12
350.265	78.12
350.492	83.12
350.72	90.12
350.947	104.12
351.174	110.12
351.402	117.12
351.629	94.12
351.856	101.12
352.083	99.12
352.311	97.12
352.538	104.12
352.765	107.12
352.992	104.12
353.22	97.12
353.447	103.12
353.674	104.12
353.901	94.12
354.128	92.12
354.355	98.12
354.583	97.12
354.81	99.12
355.037	103.12
355.264	79.12
355.491	82.12
355.718	82.12
355.945	89.12
356.172	93.12
356.399	82.12
356.626	81.12
356.853	93.12
357.08	85.12
357.307	86.12
357.534	84.12
357.761	86.12
357.988	96.12
358.215	97.12
358.441	101.12
358.668	86.12
358.895	90.12
359.122	100.12
359.349	85.12
359.576	93.12
359.802	95.12
360.029	102.12
360.256	116.12
360.483	90.12
360.709	93.12
360.936	98.12
361.163	84.12
361.39	82.12
361.616	86.12
361.843	80.12
362.07	98.12
362.296	75.12
362.523	102.12
362.749	79.12
362.976	91.12
363.203	89.12
363.429	94.12
363.656	99.12
363.882	94.12
364.109	86.12
364.335	83.12
364.562	83.12
364.788	77.12
365.015	87.12
365.241	86.12
365.468	101.12
365.694	103.12
365.92	95.12
366.147	106.12
366.373	87.12
366.599	95.12
366.826	85.12
367.052	89.12
367.278	87.12
367.505	84.12
367.731	87.12
367.957	100.12
368.184	80.12
368.41	93.12
368.636	101.12
368.862	109.12
369.089	98.12
369.315	85.12
369.541	98.12
369.767	82.12
369.993	80.12
370.219	80.12
370.445	89.12
370.672	81.12
370.898	86.12
371.124	92.12
371.35	86.12
371.576	84.12
371.802	92.12
372.028	87.12
372.254	85.12
372.48	74.12
372.706	86.12
372.932	81.12
373.158	90.12
373.384	107.12
373.61	88.12
373.835	76.12
374.061	72.12
374.287	78.12
374.513	96.12
374.739	94.12
374.965	85.12
375.191	89.12
375.416	81.12
375.642	82.12
375.868	93.12
376.094	85.12
376.319	97.12
376.545	90.12
376.771	90.12
376.997	98.12
377.222	75.12
377.448	76.12
377.674	79.12
377.899	82.12
378.125	88.12
378.35	96.12
378.576	88.12
378.802	100.12
379.027	79.12
379.253	82.12
379.478	85.12
379.704	95.12
379.929	99.12
380.155	79.12
380.38	99.12
380.606	89.12
380.831	90.12
381.057	82.12
381.282	85.12
381.507	95.12
381.733	105.12
381.958	98.12
382.184	95.12
382.409	89.12
382.634	98.12
382.86	97.12
383.085	95.12
383.31	106.12
383.535	90.12
383.761	94.12
383.986	114.12
384.211	95.12
384.436	99.12
384.662	92.12
384.887	105.12
385.112	98.12
385.337	113.12
385.562	90.12
385.787	120.12
386.013	127.12
386.238	114.12
386.463	113.12
386.688	109.12
386.913	107.12
387.138	107.12
387.363	121.12
387.588	100.12
387.813	100.12
388.038	101.12
388.263	104.12
388.488	107.12
388.713	88.12
388.938	89.12
389.163	88.12
389.387	78.12
389.612	78.12
389.837	83.12
390.062	84.12
390.287	67.12
390.512	89.12
390.736	95.12
390.961	89.12
391.186	90.12
391.411	80.12
391.636	84.12
391.86	87.12
392.085	87.12
392.31	77.12
392.534	84.12
392.759	100.12
392.984	94.12
393.208	91.12
393.433	119.12
393.658	91.12
393.882	92.12
394.107	87.12
394.331	80.12
394.556	73.12
394.78	88.12
395.005	79.12
395.229	79.12
395.454	89.12
395.678	86.12
395.903	94.12
396.127	82.12
396.352	90.12
396.576	76.12
396.801	97.12
397.025	90.12
397.249	86.12
397.474	91.12
397.698	76.12
397.922	78.12
398.147	83.12
398.371	68.12
398.595	93.12
398.82	101.12
399.044	88.12
399.268	83.12
399.492	77.12
399.717	80.12
399.941	81.12
400.165	87.12
400.389	98.12
400.613	76.12
400.837	89.12
401.062	79.12
401.286	82.12
401.51	86.12
401.734	85.12
401.958	95.12
402.182	128.12
402.406	154.12
402.63	112.12
402.854	91.12
403.078	96.12
403.302	101.12
403.526	57.12
403.75	86.12
403.974	70.12
404.198	87.12
404.422	85.12
404.645	76.12
404.869	106.12
405.093	80.12
405.317	84.12
405.541	108.12
405.765	98.12
405.988	97.12
406.212	158.12
406.436	209.12
406.66	149.12
406.883	98.12
407.107	74.12
407.331	95.12
407.555	106.12
407.778	83.12
408.002	91.12
408.226	78.12
408.449	94.12
408.673	84.12
408.896	89.12
409.12	82.12
409.344	90.12
409.567	78.12
409.791	78.12
410.014	85.12
410.238	98.12
410.461	88.12
410.685	89.12
410.908	96.12
411.132	109.12
411.355	105.12
411.578	105.12
411.802	80.12
412.025	91.12
412.249	83.12
412.472	83.12
412.695	94.12
412.919	84.12
413.142	75.12
413.365	83.12
413.589	87.12
413.812	73.12
414.035	94.12
414.258	98.12
414.482	86.12
414.705	87.12
414.928	101.12
415.151	80.12
415.374	84.12
415.597	90.12
415.821	97.12
416.044	77.12
416.267	81.12
416.49	81.12
416.713	74.12
416.936	90.12
417.159	80.12
417.382	91.12
417.605	86.12
417.828	105.12
418.051	90.12
418.274	95.12
418.497	82.12
418.72	77.12
418.943	88.12
419.166	86.12
419.389	89.12
419.611	94.12
419.834	88.12
420.057	78.12
420.28	83.12
420.503	79.12
420.726	95.12
420.948	87.12
421.171	76.12
421.394	74.12
421.617	84.12
421.839	88.12
422.062	88.12
422.285	89.12
422.507	82.12
422.73	92.12
422.953	90.12
423.175	88.12
423.398	88.12
423.621	95.12
423.843	77.12
424.066	86.12
424.288	72.12
424.511	78.12
424.733	85.12
424.956	88.12
425.178	90.12
425.401	95.12
425.623	92.12
425.846	74.12
426.068	90.12
426.291	87.12
426.513	75.12
426.735	82.12
426.958	71.12
427.18	102.12
427.402	131.12
427.625	153.12
427.847	159.12
428.069	109.12
428.292	83.12
428.514	88.12
428.736	82.12
428.958	79.12
429.181	76.12
429.403	61.12
429.625	89.12
429.847	89.12
430.069	96.12
430.292	68.12
430.514	84.12
430.736	76.12
430.958	84.12
431.18	85.12
431.402	83.12
431.624	84.12
431.846	81.12
432.068	85.12
432.29	92.12
432.512	85.12
432.734	86.12
432.956	84.12
433.178	95.12
433.4	109.12
433.622	83.12
433.844	82.12
434.066	88.12
434.287	75.12
434.509	72.12
434.731	91.12
434.953	89.12
435.175	80.12
435.397	78.12
435.618	79.12
435.84	86.12
436.062	106.12
436.284	102.12
436.505	110.12
436.727	100.12
436.949	96.12
437.17	101.12
437.392	83.12
437.614	97.12
437.835	74.12
438.057	106.12
438.278	115.12
438.5	98.12
438.721	102.12
438.943	92.12
439.165	67.12
439.386	83.12
439.608	96.12
439.829	98.12
440.05	104.12
440.272	108.12
440.493	99.12
440.715	78.12
440.936	94.12
441.158	75.12
441.379	74.12
441.6	89.12
441.822	82.12
442.043	82.12
442.264	99.12
442.486	98.12
442.707	92.12
442.928	97.12
443.149	124.12
443.371	135.12
443.592	94.12
443.813	102.12
444.034	87.12
444.255	94.12
444.476	80.12
444.698	75.12
444.919	81.12
445.14	133.12
445.361	106.12
445.582	112.12
445.803	127.12
446.024	117.12
446.245	122.12
446.466	110.12
446.687	102.12
446.908	88.12
447.129	77.12
447.35	64.12
447.571	78.12
447.792	86.12
448.013	92.12
448.234	100.12
448.455	90.12
448.675	114.12
448.896	105.12
449.117	107.12
449.338	109.12
449.559	127.12
449.779	136.12
450	93.12
450.221	80.12
450.442	82.12
450.662	97.12
450.883	88.12
451.104	105.12
451.324	100.12
451.545	82.12
451.766	68.12
451.986	87.12
452.207	79.12
452.428	89.12
452.648	82.12
452.869	98.12
453.089	110.12
453.31	112.12
453.53	94.12
453.751	80.12
453.971	103.12
454.192	98.12
454.412	102.12
454.633	79.12
454.853	88.12
455.073	81.12
455.294	92.12
455.514	95.12
455.734	97.12
455.955	70.12
456.175	90.12
456.395	82.12
456.616	86.12
456.836	67.12
457.056	90.12
457.276	87.12
457.497	68.12
457.717	81.12
457.937	95.12
458.157	84.12
458.377	77.12
458.598	84.12
458.818	122.12
459.038	154.12
459.258	105.12
459.478	85.12
459.698	77.12
459.918	83.12
460.138	84.12
460.358	80.12
460.578	77.12
460.798	79.12
461.018	76.12
461.238	79.12
461.458	83.12
461.678	90.12
461.898	93.12
462.118	89.12
462.338	93.12
462.558	79.12
462.777	91.12
462.997	80.12
463.217	83.12
463.437	95.12
463.657	99.12
463.876	84.12
464.096	91.12
464.316	80.12
464.536	89.12
464.755	101.12
464.975	98.12
465.195	164.12
465.414	153.12
465.634	93.12
465.854	85.12
466.073	76.12
466.293	92.12
466.512	88.12
466.732	93.12
466.951	81.12
467.171	92.12
467.391	74.12
467.61	89.12
467.829	96.12
468.049	117.12
468.268	125.12
468.488	89.12
468.707	79.12
468.927	81.12
469.146	72.12
469.365	87.12
469.585	92.12
469.804	82.12
470.023	88.12
470.243	77.12
470.462	109.12
470.681	109.12
470.901	89.12
471.12	83.12
471.339	84.12
471.558	98.12
471.777	82.12
471.997	91.12
472.216	150.12
472.435	237.12
472.654	109.12
472.873	102.12
473.092	74.12
473.311	86.12
473.53	97.12
473.749	78.12
473.968	94.12
474.187	100.12
474.406	85.12
474.625	86.12
474.844	93.12
475.063	78.12
475.282	90.12
475.501	89.12
475.72	85.12
475.939	98.12
476.158	80.12
476.377	75.12
476.596	97.12
476.814	105.12
477.033	79.12
477.252	77.12
477.471	72.12
477.69	85.12
477.908	80.12
478.127	70.12
478.346	73.12
478.564	80.12
478.783	106.12
479.002	103.12
479.22	73.12
479.439	88.12
479.658	93.12
479.876	88.12
480.095	82.12
480.313	86.12
480.532	100.12
480.751	96.12
480.969	148.12
481.188	365.12
481.406	277.12
481.624	120.12
481.843	86.12
482.061	69.12
482.28	91.12
482.498	88.12
482.717	64.12
482.935	80.12
483.153	87.12
483.372	77.12
483.59	92.12
483.808	97.12
484.027	91.12
484.245	105.12
484.463	83.12
484.681	101.12
484.9	94.12
485.118	74.12
485.336	90.12
485.554	79.12
485.772	88.12
485.99	96.12
486.209	86.12
486.427	102.12
486.645	96.12
486.863	95.12
487.081	80.12
487.299	84.12
487.517	83.12
487.735	87.12
487.953	93.12
488.171	98.12
488.389	91.12
488.607	99.12
488.825	86.12
489.043	98.12
489.261	83.12
489.479	82.12
489.696	89.12
489.914	78.12
490.132	77.12
490.35	86.12
490.568	69.12
490.786	86.12
491.003	91.12
491.221	71.12
491.439	94.12
491.657	86.12
491.874	78.12
492.092	84.12
492.31	91.12
492.527	88.12
492.745	87.12
492.963	93.12
493.18	80.12
493.398	87.12
493.615	95.12
493.833	91.12
494.05	105.12
494.268	84.12
494.485	79.12
494.703	87.12
494.92	74.12
495.138	94.12
495.355	88.12
495.573	96.12
495.79	89.12
496.008	78.12
496.225	80.12
496.442	90.12
496.66	83.12
496.877	92.12
497.094	88.12
497.312	91.12
497.529	78.12
497.746	94.12
497.963	103.12
498.181	95.12
498.398	98.12
498.615	122.12
498.832	104.12
499.049	97.12
499.267	84.12
499.484	84.12
499.701	93.12
499.918	97.12
500.135	90.12
500.352	95.12
500.569	76.12
500.786	81.12
501.003	83.12
501.22	71.12
501.437	103.12
501.654	102.12
501.871	94.12
502.088	90.12
502.305	80.12
502.522	90.12
502.739	73.12
502.956	91.12
503.172	96.12
503.389	102.12
503.606	101.12
503.823	87.12
504.04	95.12
504.256	100.12
504.473	82.12
504.69	93.12
504.907	83.12
505.123	73.12
505.34	81.12
505.557	84.12
505.773	82.12
505.99	82.12
506.207	76.12
506.423	84.12
506.64	83.12
506.856	82.12
507.073	86.12
507.289	97.12
507.506	91.12
507.722	120.12
507.939	98.12
508.155	86.12
508.372	83.12
508.588	99.12
508.805	85.12
509.021	87.12
509.238	85.12
509.454	94.12
509.67	97.12
509.887	96.12
510.103	123.12
510.319	209.12
510.536	736.12
510.752	2436.12
510.968	698.12
511.184	157.12
511.401	103.12
511.617	93.12
511.833	86.12
512.049	85.12
512.265	73.12
512.481	81.12
512.698	80.12
512.914	80.12
513.13	84.12
513.346	82.12
513.562	99.12
513.778	102.12
513.994	93.12
514.21	111.12
514.426	111.12
514.642	113.12
514.858	116.12
515.074	159.12
515.29	421.12
515.506	1405.12
515.721	535.12
515.937	155.12
516.153	98.12
516.369	100.12
516.585	79.12
516.801	85.12
