Data from Circ_2015_H10_HRD10591_00011.txt Node
Date: Wed Jan 03 10:00:25 EST 2024
User: Yrep
Spectrometer: HR+D1059
Trigger mode: 1
Integration Time (sec): 1.000000E-1
Scans to average: 1
Electric dark correction enabled: true
Nonlinearity correction enabled: false
Boxcar width: 0
XAxis mode: Wavelengths
Number of Pixels in Spectrum: 2048
>>>>>Begin Spectral Data<<<<<
223.165	-13.25
223.4	-13.25
223.635	-13.25
223.869	-24.25
224.104	-18.25
224.338	-11.25
224.573	-21.25
224.808	5.75
225.042	-8.25
225.277	-8.25
225.511	-3.25
225.746	-10.25
225.98	-5.25
226.215	19.75
226.449	23.75
226.683	28.75
226.918	21.75
227.152	23.75
227.387	29.75
227.621	18.75
227.856	29.75
228.09	30.75
228.324	54.75
228.559	54.75
228.793	46.75
229.027	57.75
229.262	63.75
229.496	64.75
229.73	81.75
229.964	66.75
230.199	63.75
230.433	57.75
230.667	82.75
230.901	70.75
231.136	66.75
231.37	67.75
231.604	71.75
231.838	65.75
232.072	88.75
232.306	71.75
232.541	80.75
232.775	65.75
233.009	69.75
233.243	74.75
233.477	63.75
233.711	83.75
233.945	76.75
234.179	77.75
234.413	77.75
234.647	78.75
234.881	64.75
235.115	75.75
235.349	79.75
235.583	84.75
235.817	73.75
236.051	72.75
236.285	60.75
236.519	65.75
236.753	80.75
236.987	74.75
237.221	80.75
237.455	65.75
237.689	68.75
237.922	67.75
238.156	64.75
238.39	65.75
238.624	71.75
238.858	67.75
239.091	74.75
239.325	77.75
239.559	79.75
239.793	61.75
240.027	76.75
240.26	74.75
240.494	80.75
240.728	76.75
240.961	80.75
241.195	65.75
241.429	71.75
241.662	71.75
241.896	75.75
242.13	70.75
242.363	75.75
242.597	75.75
242.83	84.75
243.064	69.75
243.298	55.75
243.531	75.75
243.765	48.75
243.998	70.75
244.232	83.75
244.465	75.75
244.699	75.75
244.932	74.75
245.166	82.75
245.399	87.75
245.633	82.75
245.866	77.75
246.099	84.75
246.333	79.75
246.566	69.75
246.8	73.75
247.033	80.75
247.266	77.75
247.5	66.75
247.733	67.75
247.966	72.75
248.2	73.75
248.433	77.75
248.666	82.75
248.899	70.75
249.133	81.75
249.366	72.75
249.599	88.75
249.832	79.75
250.066	78.75
250.299	83.75
250.532	69.75
250.765	81.75
250.998	74.75
251.231	74.75
251.465	68.75
251.698	77.75
251.931	84.75
252.164	70.75
252.397	79.75
252.63	79.75
252.863	59.75
253.096	80.75
253.329	62.75
253.562	65.75
253.795	70.75
254.028	70.75
254.261	82.75
254.494	74.75
254.727	95.75
254.96	80.75
255.193	62.75
255.426	79.75
255.659	68.75
255.892	76.75
256.124	82.75
256.357	79.75
256.59	80.75
256.823	74.75
257.056	77.75
257.289	68.75
257.521	77.75
257.754	79.75
257.987	77.75
258.22	98.75
258.452	77.75
258.685	73.75
258.918	84.75
259.151	71.75
259.383	71.75
259.616	66.75
259.849	73.75
260.081	71.75
260.314	65.75
260.547	64.75
260.779	62.75
261.012	75.75
261.244	74.75
261.477	85.75
261.71	73.75
261.942	96.75
262.175	96.75
262.407	81.75
262.64	80.75
262.872	72.75
263.105	62.75
263.337	78.75
263.57	70.75
263.802	65.75
264.035	76.75
264.267	79.75
264.499	71.75
264.732	85.75
264.964	77.75
265.197	85.75
265.429	75.75
265.661	74.75
265.894	90.75
266.126	68.75
266.358	73.75
266.591	82.75
266.823	75.75
267.055	83.75
267.287	71.75
267.52	65.75
267.752	83.75
267.984	77.75
268.216	63.75
268.448	82.75
268.681	84.75
268.913	87.75
269.145	64.75
269.377	70.75
269.609	76.75
269.841	83.75
270.073	83.75
270.306	80.75
270.538	62.75
270.77	70.75
271.002	78.75
271.234	84.75
271.466	80.75
271.698	69.75
271.93	86.75
272.162	84.75
272.394	84.75
272.626	90.75
272.858	73.75
273.09	73.75
273.322	83.75
273.553	67.75
273.785	85.75
274.017	80.75
274.249	81.75
274.481	71.75
274.713	77.75
274.945	79.75
275.176	60.75
275.408	84.75
275.64	69.75
275.872	80.75
276.104	79.75
276.335	82.75
276.567	88.75
276.799	92.75
277.031	84.75
277.262	84.75
277.494	84.75
277.726	83.75
277.957	78.75
278.189	77.75
278.421	82.75
278.652	77.75
278.884	90.75
279.115	77.75
279.347	84.75
279.579	98.75
279.81	67.75
280.042	69.75
280.273	86.75
280.505	72.75
280.736	77.75
280.968	79.75
281.199	90.75
281.431	86.75
281.662	87.75
281.894	69.75
282.125	84.75
282.356	97.75
282.588	120.75
282.819	86.75
283.051	81.75
283.282	77.75
283.513	84.75
283.745	80.75
283.976	90.75
284.207	78.75
284.439	82.75
284.67	77.75
284.901	65.75
285.132	77.75
285.364	75.75
285.595	81.75
285.826	83.75
286.057	75.75
286.288	72.75
286.52	72.75
286.751	78.75
286.982	76.75
287.213	87.75
287.444	78.75
287.675	75.75
287.906	91.75
288.138	87.75
288.369	93.75
288.6	79.75
288.831	77.75
289.062	80.75
289.293	68.75
289.524	72.75
289.755	75.75
289.986	75.75
290.217	74.75
290.448	68.75
290.679	63.75
290.91	89.75
291.141	85.75
291.371	86.75
291.602	79.75
291.833	87.75
292.064	83.75
292.295	84.75
292.526	76.75
292.757	74.75
292.987	70.75
293.218	63.75
293.449	79.75
293.68	71.75
293.91	77.75
294.141	95.75
294.372	83.75
294.603	66.75
294.833	85.75
295.064	74.75
295.295	77.75
295.525	79.75
295.756	95.75
295.987	88.75
296.217	108.75
296.448	107.75
296.679	87.75
296.909	85.75
297.14	83.75
297.37	96.75
297.601	101.75
297.831	71.75
298.062	93.75
298.292	88.75
298.523	74.75
298.753	96.75
298.984	52.75
299.214	77.75
299.445	74.75
299.675	93.75
299.905	82.75
300.136	82.75
300.366	76.75
300.597	61.75
300.827	90.75
301.057	94.75
301.288	103.75
301.518	87.75
301.748	81.75
301.979	91.75
302.209	78.75
302.439	80.75
302.669	75.75
302.9	94.75
303.13	84.75
303.36	91.75
303.59	91.75
303.82	98.75
304.051	78.75
304.281	79.75
304.511	80.75
304.741	72.75
304.971	83.75
305.201	67.75
305.431	88.75
305.661	74.75
305.891	87.75
306.121	80.75
306.352	92.75
306.582	107.75
306.812	87.75
307.042	86.75
307.272	89.75
307.502	87.75
307.731	81.75
307.961	84.75
308.191	86.75
308.421	90.75
308.651	81.75
308.881	75.75
309.111	102.75
309.341	79.75
309.571	86.75
309.8	96.75
310.03	97.75
310.26	82.75
310.49	76.75
310.72	101.75
310.949	82.75
311.179	82.75
311.409	95.75
311.639	86.75
311.868	77.75
312.098	99.75
312.328	94.75
312.557	89.75
312.787	92.75
313.017	97.75
313.246	92.75
313.476	76.75
313.706	92.75
313.935	77.75
314.165	89.75
314.394	78.75
314.624	94.75
314.853	84.75
315.083	106.75
315.312	89.75
315.542	86.75
315.771	84.75
316.001	84.75
316.23	77.75
316.46	95.75
316.689	88.75
316.919	81.75
317.148	84.75
317.377	94.75
317.607	77.75
317.836	92.75
318.065	85.75
318.295	70.75
318.524	77.75
318.753	78.75
318.983	88.75
319.212	94.75
319.441	99.75
319.67	102.75
319.9	81.75
320.129	84.75
320.358	93.75
320.587	89.75
320.816	107.75
321.046	92.75
321.275	100.75
321.504	86.75
321.733	86.75
321.962	96.75
322.191	99.75
322.42	93.75
322.649	105.75
322.878	93.75
323.108	92.75
323.337	134.75
323.566	134.75
323.795	135.75
324.024	192.75
324.253	350.75
324.482	741.75
324.71	1582.75
324.939	2043.75
325.168	753.75
325.397	224.75
325.626	139.75
325.855	128.75
326.084	121.75
326.313	123.75
326.542	136.75
326.77	217.75
326.999	454.75
327.228	893.75
327.457	1615.75
327.686	1291.75
327.914	356.75
328.143	163.75
328.372	121.75
328.6	125.75
328.829	112.75
329.058	115.75
329.287	106.75
329.515	101.75
329.744	94.75
329.972	87.75
330.201	89.75
330.43	124.75
330.658	105.75
330.887	130.75
331.115	107.75
331.344	93.75
331.572	85.75
331.801	86.75
332.03	95.75
332.258	87.75
332.486	77.75
332.715	86.75
332.943	80.75
333.172	106.75
333.4	102.75
333.629	88.75
333.857	114.75
334.085	109.75
334.314	95.75
334.542	138.75
334.771	121.75
334.999	82.75
335.227	95.75
335.455	88.75
335.684	80.75
335.912	79.75
336.14	90.75
336.369	88.75
336.597	91.75
336.825	86.75
337.053	92.75
337.281	81.75
337.51	75.75
337.738	87.75
337.966	85.75
338.194	87.75
338.422	94.75
338.65	97.75
338.878	86.75
339.106	90.75
339.334	82.75
339.562	91.75
339.79	78.75
340.018	93.75
340.246	82.75
340.474	90.75
340.702	73.75
340.93	86.75
341.158	69.75
341.386	92.75
341.614	92.75
341.842	74.75
342.07	95.75
342.298	103.75
342.526	84.75
342.754	98.75
342.981	95.75
343.209	74.75
343.437	91.75
343.665	86.75
343.893	83.75
344.12	84.75
344.348	84.75
344.576	77.75
344.804	89.75
345.031	77.75
345.259	90.75
345.487	78.75
345.714	87.75
345.942	93.75
346.17	83.75
346.397	90.75
346.625	76.75
346.853	91.75
347.08	80.75
347.308	85.75
347.535	90.75
347.763	91.75
347.99	79.75
348.218	76.75
348.445	102.75
348.673	101.75
348.9	85.75
349.128	90.75
349.355	88.75
349.583	82.75
349.81	79.75
350.037	88.75
350.265	83.75
350.492	85.75
350.72	93.75
350.947	90.75
351.174	106.75
351.402	97.75
351.629	87.75
351.856	87.75
352.083	90.75
352.311	94.75
352.538	102.75
352.765	106.75
352.992	105.75
353.22	102.75
353.447	92.75
353.674	85.75
353.901	84.75
354.128	94.75
354.355	84.75
354.583	86.75
354.81	102.75
355.037	80.75
355.264	91.75
355.491	93.75
355.718	76.75
355.945	94.75
356.172	84.75
356.399	80.75
356.626	91.75
356.853	84.75
357.08	88.75
357.307	89.75
357.534	86.75
357.761	86.75
357.988	101.75
358.215	90.75
358.441	83.75
358.668	80.75
358.895	91.75
359.122	94.75
359.349	89.75
359.576	78.75
359.802	98.75
360.029	93.75
360.256	83.75
360.483	76.75
360.709	86.75
360.936	84.75
361.163	86.75
361.39	95.75
361.616	83.75
361.843	87.75
362.07	102.75
362.296	94.75
362.523	88.75
362.749	78.75
362.976	81.75
363.203	78.75
363.429	73.75
363.656	73.75
363.882	78.75
364.109	98.75
364.335	97.75
364.562	82.75
364.788	93.75
365.015	82.75
365.241	93.75
365.468	94.75
365.694	86.75
365.92	81.75
366.147	81.75
366.373	78.75
366.599	76.75
366.826	84.75
367.052	78.75
367.278	86.75
367.505	91.75
367.731	96.75
367.957	77.75
368.184	75.75
368.41	79.75
368.636	92.75
368.862	102.75
369.089	101.75
369.315	76.75
369.541	89.75
369.767	76.75
369.993	63.75
370.219	88.75
370.445	69.75
370.672	78.75
370.898	64.75
371.124	77.75
371.35	87.75
371.576	86.75
371.802	90.75
372.028	88.75
372.254	70.75
372.48	82.75
372.706	82.75
372.932	86.75
373.158	73.75
373.384	83.75
373.61	75.75
373.835	87.75
374.061	76.75
374.287	82.75
374.513	86.75
374.739	72.75
374.965	82.75
375.191	88.75
375.416	86.75
375.642	79.75
375.868	83.75
376.094	84.75
376.319	88.75
376.545	76.75
376.771	83.75
376.997	78.75
377.222	87.75
377.448	86.75
377.674	74.75
377.899	98.75
378.125	83.75
378.35	86.75
378.576	83.75
378.802	80.75
379.027	81.75
379.253	93.75
379.478	80.75
379.704	92.75
379.929	104.75
380.155	94.75
380.38	87.75
380.606	97.75
380.831	87.75
381.057	89.75
381.282	93.75
381.507	109.75
381.733	93.75
381.958	91.75
382.184	105.75
382.409	102.75
382.634	104.75
382.86	87.75
383.085	89.75
383.31	98.75
383.535	115.75
383.761	102.75
383.986	83.75
384.211	99.75
384.436	94.75
384.662	96.75
384.887	114.75
385.112	116.75
385.337	105.75
385.562	112.75
385.787	93.75
386.013	103.75
386.238	118.75
386.463	107.75
386.688	114.75
386.913	121.75
387.138	138.75
387.363	106.75
387.588	99.75
387.813	86.75
388.038	114.75
388.263	115.75
388.488	104.75
388.713	77.75
388.938	74.75
389.163	85.75
389.387	79.75
389.612	103.75
389.837	74.75
390.062	76.75
390.287	92.75
390.512	80.75
390.736	87.75
390.961	85.75
391.186	93.75
391.411	93.75
391.636	83.75
391.86	74.75
392.085	89.75
392.31	78.75
392.534	83.75
392.759	90.75
392.984	90.75
393.208	76.75
393.433	118.75
393.658	110.75
393.882	89.75
394.107	82.75
394.331	70.75
394.556	86.75
394.78	69.75
395.005	65.75
395.229	88.75
395.454	78.75
395.678	71.75
395.903	86.75
396.127	87.75
396.352	71.75
396.576	82.75
396.801	95.75
397.025	91.75
397.249	80.75
397.474	90.75
397.698	90.75
397.922	70.75
398.147	80.75
398.371	66.75
398.595	79.75
398.82	73.75
399.044	85.75
399.268	72.75
399.492	68.75
399.717	86.75
399.941	79.75
400.165	88.75
400.389	73.75
400.613	82.75
400.837	76.75
401.062	87.75
401.286	80.75
401.51	85.75
401.734	89.75
401.958	93.75
402.182	109.75
402.406	134.75
402.63	100.75
402.854	75.75
403.078	91.75
403.302	78.75
403.526	97.75
403.75	74.75
403.974	67.75
404.198	84.75
404.422	53.75
404.645	84.75
404.869	91.75
405.093	89.75
405.317	93.75
405.541	105.75
405.765	91.75
405.988	96.75
406.212	154.75
406.436	183.75
406.66	128.75
406.883	83.75
407.107	77.75
407.331	86.75
407.555	77.75
407.778	83.75
408.002	66.75
408.226	74.75
408.449	93.75
408.673	79.75
408.896	70.75
409.12	91.75
409.344	84.75
409.567	82.75
409.791	77.75
410.014	87.75
410.238	92.75
410.461	86.75
410.685	73.75
410.908	97.75
411.132	97.75
411.355	88.75
411.578	96.75
411.802	77.75
412.025	83.75
412.249	98.75
412.472	96.75
412.695	102.75
412.919	89.75
413.142	72.75
413.365	75.75
413.589	77.75
413.812	91.75
414.035	90.75
414.258	93.75
414.482	69.75
414.705	89.75
414.928	77.75
415.151	102.75
415.374	84.75
415.597	81.75
415.821	84.75
416.044	82.75
416.267	83.75
416.49	98.75
416.713	91.75
416.936	68.75
417.159	81.75
417.382	91.75
417.605	76.75
417.828	70.75
418.051	84.75
418.274	82.75
418.497	81.75
418.72	80.75
418.943	82.75
419.166	81.75
419.389	86.75
419.611	82.75
419.834	79.75
420.057	98.75
420.28	70.75
420.503	79.75
420.726	88.75
420.948	80.75
421.171	87.75
421.394	92.75
421.617	84.75
421.839	74.75
422.062	83.75
422.285	93.75
422.507	91.75
422.73	107.75
422.953	78.75
423.175	63.75
423.398	86.75
423.621	82.75
423.843	80.75
424.066	67.75
424.288	81.75
424.511	82.75
424.733	85.75
424.956	97.75
425.178	75.75
425.401	85.75
425.623	87.75
425.846	77.75
426.068	61.75
426.291	78.75
426.513	70.75
426.735	79.75
426.958	73.75
427.18	102.75
427.402	134.75
427.625	135.75
427.847	123.75
428.069	106.75
428.292	85.75
428.514	76.75
428.736	69.75
428.958	78.75
429.181	77.75
429.403	84.75
429.625	90.75
429.847	81.75
430.069	84.75
430.292	84.75
430.514	79.75
430.736	73.75
430.958	87.75
431.18	86.75
431.402	72.75
431.624	92.75
431.846	75.75
432.068	79.75
432.29	69.75
432.512	69.75
432.734	84.75
432.956	74.75
433.178	94.75
433.4	87.75
433.622	88.75
433.844	89.75
434.066	82.75
434.287	78.75
434.509	68.75
434.731	87.75
434.953	84.75
435.175	91.75
435.397	82.75
435.618	80.75
435.84	86.75
436.062	104.75
436.284	90.75
436.505	88.75
436.727	88.75
436.949	72.75
437.17	89.75
437.392	73.75
437.614	82.75
437.835	86.75
438.057	86.75
438.278	94.75
438.5	88.75
438.721	100.75
438.943	99.75
439.165	81.75
439.386	87.75
439.608	77.75
439.829	93.75
440.05	107.75
440.272	126.75
440.493	93.75
440.715	82.75
440.936	82.75
441.158	83.75
441.379	70.75
441.6	71.75
441.822	93.75
442.043	84.75
442.264	68.75
442.486	100.75
442.707	75.75
442.928	93.75
443.149	119.75
443.371	124.75
443.592	100.75
443.813	85.75
444.034	98.75
444.255	93.75
444.476	102.75
444.698	80.75
444.919	89.75
445.14	109.75
445.361	111.75
445.582	100.75
445.803	109.75
446.024	120.75
446.245	141.75
446.466	105.75
446.687	81.75
446.908	79.75
447.129	82.75
447.35	84.75
447.571	76.75
447.792	81.75
448.013	86.75
448.234	70.75
448.455	80.75
448.675	89.75
448.896	104.75
449.117	100.75
449.338	108.75
449.559	111.75
449.779	112.75
450	76.75
450.221	78.75
450.442	87.75
450.662	77.75
450.883	99.75
451.104	100.75
451.324	100.75
451.545	69.75
451.766	66.75
451.986	82.75
452.207	81.75
452.428	73.75
452.648	77.75
452.869	91.75
453.089	98.75
453.31	105.75
453.53	89.75
453.751	92.75
453.971	92.75
454.192	97.75
454.412	81.75
454.633	79.75
454.853	76.75
455.073	70.75
455.294	77.75
455.514	85.75
455.734	79.75
455.955	77.75
456.175	77.75
456.395	71.75
456.616	70.75
456.836	76.75
457.056	68.75
457.276	69.75
457.497	73.75
457.717	77.75
457.937	69.75
458.157	76.75
458.377	93.75
458.598	101.75
458.818	111.75
459.038	129.75
459.258	99.75
459.478	94.75
459.698	79.75
459.918	87.75
460.138	78.75
460.358	69.75
460.578	87.75
460.798	75.75
461.018	81.75
461.238	77.75
461.458	82.75
461.678	65.75
461.898	77.75
462.118	95.75
462.338	79.75
462.558	87.75
462.777	83.75
462.997	86.75
463.217	81.75
463.437	86.75
463.657	69.75
463.876	79.75
464.096	71.75
464.316	83.75
464.536	71.75
464.755	83.75
464.975	96.75
465.195	117.75
465.414	122.75
465.634	96.75
465.854	61.75
466.073	86.75
466.293	81.75
466.512	79.75
466.732	78.75
466.951	77.75
467.171	85.75
467.391	79.75
467.61	87.75
467.829	83.75
468.049	95.75
468.268	99.75
468.488	76.75
468.707	69.75
468.927	79.75
469.146	74.75
469.365	83.75
469.585	78.75
469.804	81.75
470.023	85.75
470.243	88.75
470.462	86.75
470.681	82.75
470.901	90.75
471.12	66.75
471.339	80.75
471.558	77.75
471.777	77.75
471.997	82.75
472.216	96.75
472.435	122.75
472.654	97.75
472.873	85.75
473.092	77.75
473.311	83.75
473.53	71.75
473.749	86.75
473.968	80.75
474.187	93.75
474.406	85.75
474.625	74.75
474.844	90.75
475.063	87.75
475.282	68.75
475.501	80.75
475.72	77.75
475.939	81.75
476.158	64.75
476.377	77.75
476.596	75.75
476.814	85.75
477.033	69.75
477.252	79.75
477.471	79.75
477.69	80.75
477.908	85.75
478.127	79.75
478.346	95.75
478.564	82.75
478.783	81.75
479.002	70.75
479.22	74.75
479.439	84.75
479.658	83.75
479.876	78.75
480.095	85.75
480.313	80.75
480.532	84.75
480.751	87.75
480.969	99.75
481.188	187.75
481.406	150.75
481.624	78.75
481.843	84.75
482.061	79.75
482.28	68.75
482.498	75.75
482.717	79.75
482.935	94.75
483.153	86.75
483.372	78.75
483.59	84.75
483.808	87.75
484.027	83.75
484.245	68.75
484.463	77.75
484.681	81.75
484.9	74.75
485.118	80.75
485.336	101.75
485.554	73.75
485.772	99.75
485.99	98.75
486.209	102.75
486.427	100.75
486.645	109.75
486.863	90.75
487.081	86.75
487.299	96.75
487.517	101.75
487.735	93.75
487.953	80.75
488.171	70.75
488.389	92.75
488.607	99.75
488.825	90.75
489.043	89.75
489.261	78.75
489.479	64.75
489.696	57.75
489.914	77.75
490.132	87.75
490.35	77.75
490.568	93.75
490.786	89.75
491.003	102.75
491.221	79.75
491.439	84.75
491.657	74.75
491.874	92.75
492.092	77.75
492.31	82.75
492.527	79.75
492.745	83.75
492.963	85.75
493.18	83.75
493.398	89.75
493.615	91.75
493.833	96.75
494.05	84.75
494.268	95.75
494.485	94.75
494.703	75.75
494.92	81.75
495.138	83.75
495.355	89.75
495.573	87.75
495.79	84.75
496.008	102.75
496.225	89.75
496.442	90.75
496.66	89.75
496.877	82.75
497.094	78.75
497.312	73.75
497.529	66.75
497.746	85.75
497.963	76.75
498.181	87.75
498.398	92.75
498.615	115.75
498.832	97.75
499.049	66.75
499.267	83.75
499.484	83.75
499.701	87.75
499.918	89.75
500.135	83.75
500.352	85.75
500.569	73.75
500.786	75.75
501.003	90.75
501.22	84.75
501.437	84.75
501.654	85.75
501.871	103.75
502.088	87.75
502.305	82.75
502.522	71.75
502.739	74.75
502.956	90.75
503.172	85.75
503.389	75.75
503.606	96.75
503.823	99.75
504.04	84.75
504.256	80.75
504.473	77.75
504.69	78.75
504.907	75.75
505.123	75.75
505.34	78.75
505.557	90.75
505.773	68.75
505.99	84.75
506.207	72.75
506.423	77.75
506.64	89.75
506.856	76.75
507.073	88.75
507.289	84.75
507.506	87.75
507.722	97.75
507.939	94.75
508.155	73.75
508.372	83.75
508.588	86.75
508.805	101.75
509.021	95.75
509.238	91.75
509.454	103.75
509.67	93.75
509.887	101.75
510.103	109.75
510.319	189.75
510.536	605.75
510.752	2032.75
510.968	613.75
511.184	140.75
511.401	98.75
511.617	95.75
511.833	90.75
512.049	82.75
512.265	92.75
512.481	86.75
512.698	72.75
512.914	86.75
513.13	92.75
513.346	68.75
513.562	89.75
513.778	95.75
513.994	76.75
514.21	95.75
514.426	95.75
514.642	116.75
514.858	100.75
515.074	137.75
515.29	342.75
515.506	1163.75
515.721	449.75
515.937	135.75
516.153	96.75
516.369	100.75
516.585	79.75
516.801	87.75
517.016	85.75
517.232	75.75
517.448	94.75
517.664	80.75
517.879	89.75
