Data from Circ_2015_H10_HRD10591_00055.txt Node
Date: Wed Jan 03 10:00:33 EST 2024
User: Yrep
Spectrometer: HR+D1059
Trigger mode: 1
Integration Time (sec): 1.000000E-1
Scans to average: 1
Electric dark correction enabled: true
Nonlinearity correction enabled: false
Boxcar width: 0
XAxis mode: Wavelengths
Number of Pixels in Spectrum: 2048
>>>>>Begin Spectral Data<<<<<
223.165	-8.06
223.4	-8.06
223.635	-8.06
223.869	-19.06
224.104	-21.06
224.338	-8.06
224.573	-23.06
224.808	-15.06
225.042	-2.06
225.277	-9.06
225.511	-7.06
225.746	-0.06
225.98	13.94
226.215	10.94
226.449	6.94
226.683	21.94
226.918	23.94
227.152	34.94
227.387	35.94
227.621	45.94
227.856	53.94
228.09	54.94
228.324	70.94
228.559	50.94
228.793	66.94
229.027	56.94
229.262	63.94
229.496	70.94
229.73	78.94
229.964	94.94
230.199	73.94
230.433	75.94
230.667	76.94
230.901	90.94
231.136	75.94
231.37	85.94
231.604	88.94
231.838	85.94
232.072	98.94
232.306	75.94
232.541	78.94
232.775	84.94
233.009	95.94
233.243	81.94
233.477	82.94
233.711	86.94
233.945	89.94
234.179	74.94
234.413	75.94
234.647	97.94
234.881	92.94
235.115	80.94
235.349	82.94
235.583	83.94
235.817	82.94
236.051	80.94
236.285	78.94
236.519	85.94
236.753	85.94
236.987	86.94
237.221	71.94
237.455	76.94
237.689	74.94
237.922	78.94
238.156	78.94
238.39	72.94
238.624	70.94
238.858	68.94
239.091	72.94
239.325	77.94
239.559	91.94
239.793	65.94
240.027	77.94
240.26	65.94
240.494	78.94
240.728	71.94
240.961	73.94
241.195	77.94
241.429	83.94
241.662	73.94
241.896	95.94
242.13	61.94
242.363	61.94
242.597	78.94
242.83	85.94
243.064	63.94
243.298	77.94
243.531	68.94
243.765	76.94
243.998	70.94
244.232	73.94
244.465	75.94
244.699	75.94
244.932	74.94
245.166	86.94
245.399	76.94
245.633	88.94
245.866	84.94
246.099	79.94
246.333	88.94
246.566	78.94
246.8	67.94
247.033	80.94
247.266	77.94
247.5	81.94
247.733	79.94
247.966	84.94
248.2	85.94
248.433	87.94
248.666	71.94
248.899	81.94
249.133	83.94
249.366	104.94
249.599	95.94
249.832	83.94
250.066	90.94
250.299	94.94
250.532	91.94
250.765	81.94
250.998	85.94
251.231	88.94
251.465	85.94
251.698	77.94
251.931	81.94
252.164	90.94
252.397	98.94
252.63	94.94
252.863	72.94
253.096	78.94
253.329	86.94
253.562	75.94
253.795	72.94
254.028	79.94
254.261	69.94
254.494	81.94
254.727	86.94
254.96	81.94
255.193	82.94
255.426	73.94
255.659	84.94
255.892	69.94
256.124	83.94
256.357	93.94
256.59	97.94
256.823	69.94
257.056	78.94
257.289	97.94
257.521	71.94
257.754	89.94
257.987	101.94
258.22	100.94
258.452	86.94
258.685	81.94
258.918	97.94
259.151	87.94
259.383	72.94
259.616	81.94
259.849	90.94
260.081	64.94
260.314	81.94
260.547	70.94
260.779	83.94
261.012	81.94
261.244	95.94
261.477	85.94
261.71	97.94
261.942	99.94
262.175	107.94
262.407	80.94
262.64	93.94
262.872	82.94
263.105	81.94
263.337	88.94
263.57	84.94
263.802	91.94
264.035	79.94
264.267	95.94
264.499	72.94
264.732	78.94
264.964	80.94
265.197	81.94
265.429	81.94
265.661	83.94
265.894	75.94
266.126	73.94
266.358	73.94
266.591	75.94
266.823	92.94
267.055	86.94
267.287	99.94
267.52	79.94
267.752	83.94
267.984	80.94
268.216	87.94
268.448	102.94
268.681	76.94
268.913	75.94
269.145	73.94
269.377	79.94
269.609	71.94
269.841	77.94
270.073	79.94
270.306	70.94
270.538	82.94
270.77	77.94
271.002	75.94
271.234	76.94
271.466	85.94
271.698	79.94
271.93	79.94
272.162	96.94
272.394	94.94
272.626	85.94
272.858	82.94
273.09	88.94
273.322	85.94
273.553	93.94
273.785	84.94
274.017	94.94
274.249	94.94
274.481	81.94
274.713	80.94
274.945	78.94
275.176	81.94
275.408	88.94
275.64	92.94
275.872	84.94
276.104	94.94
276.335	82.94
276.567	90.94
276.799	89.94
277.031	114.94
277.262	97.94
277.494	103.94
277.726	84.94
277.957	83.94
278.189	82.94
278.421	79.94
278.652	72.94
278.884	88.94
279.115	87.94
279.347	78.94
279.579	99.94
279.81	89.94
280.042	102.94
280.273	106.94
280.505	93.94
280.736	81.94
280.968	83.94
281.199	94.94
281.431	85.94
281.662	97.94
281.894	81.94
282.125	95.94
282.356	135.94
282.588	124.94
282.819	120.94
283.051	107.94
283.282	77.94
283.513	90.94
283.745	90.94
283.976	97.94
284.207	92.94
284.439	77.94
284.67	90.94
284.901	74.94
285.132	97.94
285.364	84.94
285.595	82.94
285.826	93.94
286.057	83.94
286.288	76.94
286.52	88.94
286.751	75.94
286.982	94.94
287.213	88.94
287.444	77.94
287.675	86.94
287.906	90.94
288.138	88.94
288.369	85.94
288.6	85.94
288.831	76.94
289.062	98.94
289.293	86.94
289.524	90.94
289.755	103.94
289.986	91.94
290.217	90.94
290.448	98.94
290.679	84.94
290.91	97.94
291.141	92.94
291.371	84.94
291.602	110.94
291.833	81.94
292.064	78.94
292.295	93.94
292.526	84.94
292.757	100.94
292.987	88.94
293.218	70.94
293.449	92.94
293.68	88.94
293.91	87.94
294.141	91.94
294.372	82.94
294.603	93.94
294.833	89.94
295.064	83.94
295.295	100.94
295.525	105.94
295.756	91.94
295.987	116.94
296.217	143.94
296.448	123.94
296.679	77.94
296.909	86.94
297.14	94.94
297.37	86.94
297.601	93.94
297.831	101.94
298.062	96.94
298.292	76.94
298.523	101.94
298.753	77.94
298.984	86.94
299.214	79.94
299.445	93.94
299.675	92.94
299.905	96.94
300.136	98.94
300.366	90.94
300.597	89.94
300.827	87.94
301.057	91.94
301.288	105.94
301.518	95.94
301.748	77.94
301.979	97.94
302.209	81.94
302.439	103.94
302.669	90.94
302.9	86.94
303.13	98.94
303.36	88.94
303.59	115.94
303.82	100.94
304.051	80.94
304.281	85.94
304.511	91.94
304.741	88.94
304.971	98.94
305.201	101.94
305.431	78.94
305.661	74.94
305.891	87.94
306.121	100.94
306.352	102.94
306.582	104.94
306.812	97.94
307.042	84.94
307.272	85.94
307.502	113.94
307.731	99.94
307.961	92.94
308.191	97.94
308.421	92.94
308.651	87.94
308.881	83.94
309.111	93.94
309.341	87.94
309.571	98.94
309.8	101.94
310.03	89.94
310.26	100.94
310.49	92.94
310.72	93.94
310.949	96.94
311.179	105.94
311.409	92.94
311.639	87.94
311.868	97.94
312.098	89.94
312.328	86.94
312.557	98.94
312.787	94.94
313.017	92.94
313.246	86.94
313.476	96.94
313.706	110.94
313.935	102.94
314.165	86.94
314.394	97.94
314.624	86.94
314.853	97.94
315.083	97.94
315.312	92.94
315.542	105.94
315.771	83.94
316.001	96.94
316.23	101.94
316.46	82.94
316.689	91.94
316.919	98.94
317.148	94.94
317.377	85.94
317.607	92.94
317.836	104.94
318.065	75.94
318.295	82.94
318.524	97.94
318.753	84.94
318.983	103.94
319.212	98.94
319.441	99.94
319.67	113.94
319.9	97.94
320.129	86.94
320.358	83.94
320.587	90.94
320.816	100.94
321.046	100.94
321.275	91.94
321.504	90.94
321.733	94.94
321.962	81.94
322.191	94.94
322.42	101.94
322.649	109.94
322.878	117.94
323.108	104.94
323.337	129.94
323.566	138.94
323.795	154.94
324.024	195.94
324.253	398.94
324.482	842.94
324.71	1743.94
324.939	2263.94
325.168	819.94
325.397	259.94
325.626	155.94
325.855	135.94
326.084	138.94
326.313	146.94
326.542	142.94
326.77	225.94
326.999	462.94
327.228	950.94
327.457	1747.94
327.686	1391.94
327.914	393.94
328.143	206.94
328.372	193.94
328.6	149.94
328.829	127.94
329.058	118.94
329.287	118.94
329.515	105.94
329.744	127.94
329.972	139.94
330.201	195.94
330.43	250.94
330.658	157.94
330.887	131.94
331.115	129.94
331.344	107.94
331.572	106.94
331.801	106.94
332.03	95.94
332.258	92.94
332.486	98.94
332.715	89.94
332.943	118.94
333.172	89.94
333.4	100.94
333.629	103.94
333.857	137.94
334.085	138.94
334.314	189.94
334.542	266.94
334.771	268.94
334.999	131.94
335.227	103.94
335.455	85.94
335.684	100.94
335.912	93.94
336.14	98.94
336.369	92.94
336.597	104.94
336.825	83.94
337.053	95.94
337.281	99.94
337.51	80.94
337.738	94.94
337.966	99.94
338.194	91.94
338.422	77.94
338.65	94.94
338.878	83.94
339.106	87.94
339.334	93.94
339.562	86.94
339.79	86.94
340.018	84.94
340.246	106.94
340.474	94.94
340.702	93.94
340.93	88.94
341.158	92.94
341.386	90.94
341.614	93.94
341.842	93.94
342.07	84.94
342.298	103.94
342.526	86.94
342.754	93.94
342.981	90.94
343.209	104.94
343.437	105.94
343.665	93.94
343.893	79.94
344.12	88.94
344.348	85.94
344.576	88.94
344.804	100.94
345.031	86.94
345.259	90.94
345.487	79.94
345.714	105.94
345.942	97.94
346.17	94.94
346.397	88.94
346.625	93.94
346.853	86.94
347.08	93.94
347.308	86.94
347.535	88.94
347.763	98.94
347.99	82.94
348.218	94.94
348.445	103.94
348.673	99.94
348.9	93.94
349.128	95.94
349.355	99.94
349.583	85.94
349.81	100.94
350.037	83.94
350.265	95.94
350.492	104.94
350.72	96.94
350.947	102.94
351.174	110.94
351.402	119.94
351.629	104.94
351.856	86.94
352.083	105.94
352.311	92.94
352.538	106.94
352.765	101.94
352.992	113.94
353.22	110.94
353.447	101.94
353.674	107.94
353.901	72.94
354.128	91.94
354.355	90.94
354.583	97.94
354.81	108.94
355.037	84.94
355.264	88.94
355.491	94.94
355.718	116.94
355.945	105.94
356.172	95.94
356.399	97.94
356.626	93.94
356.853	100.94
357.08	105.94
357.307	81.94
357.534	83.94
357.761	75.94
357.988	102.94
358.215	90.94
358.441	100.94
358.668	79.94
358.895	93.94
359.122	93.94
359.349	77.94
359.576	94.94
359.802	103.94
360.029	107.94
360.256	112.94
360.483	96.94
360.709	100.94
360.936	102.94
361.163	84.94
361.39	95.94
361.616	90.94
361.843	85.94
362.07	86.94
362.296	91.94
362.523	94.94
362.749	95.94
362.976	106.94
363.203	101.94
363.429	93.94
363.656	78.94
363.882	82.94
364.109	99.94
364.335	102.94
364.562	87.94
364.788	87.94
365.015	88.94
365.241	94.94
365.468	88.94
365.694	104.94
365.92	107.94
366.147	102.94
366.373	69.94
366.599	79.94
366.826	89.94
367.052	83.94
367.278	95.94
367.505	94.94
367.731	84.94
367.957	90.94
368.184	97.94
368.41	98.94
368.636	97.94
368.862	103.94
369.089	95.94
369.315	105.94
369.541	92.94
369.767	82.94
369.993	97.94
370.219	91.94
370.445	94.94
370.672	86.94
370.898	101.94
371.124	84.94
371.35	88.94
371.576	86.94
371.802	83.94
372.028	88.94
372.254	92.94
372.48	83.94
372.706	75.94
372.932	89.94
373.158	100.94
373.384	87.94
373.61	87.94
373.835	98.94
374.061	97.94
374.287	82.94
374.513	89.94
374.739	87.94
374.965	85.94
375.191	88.94
375.416	87.94
375.642	93.94
375.868	90.94
376.094	97.94
376.319	94.94
376.545	97.94
376.771	90.94
376.997	93.94
377.222	89.94
377.448	97.94
377.674	87.94
377.899	75.94
378.125	88.94
378.35	92.94
378.576	94.94
378.802	83.94
379.027	87.94
379.253	100.94
379.478	100.94
379.704	94.94
379.929	91.94
380.155	98.94
380.38	82.94
380.606	90.94
380.831	93.94
381.057	90.94
381.282	95.94
381.507	92.94
381.733	98.94
381.958	101.94
382.184	85.94
382.409	97.94
382.634	89.94
382.86	97.94
383.085	90.94
383.31	102.94
383.535	120.94
383.761	103.94
383.986	98.94
384.211	92.94
384.436	94.94
384.662	104.94
384.887	104.94
385.112	88.94
385.337	106.94
385.562	100.94
385.787	94.94
386.013	94.94
386.238	103.94
386.463	114.94
386.688	126.94
386.913	99.94
387.138	101.94
387.363	101.94
387.588	101.94
387.813	102.94
388.038	103.94
388.263	99.94
388.488	98.94
388.713	96.94
388.938	98.94
389.163	99.94
389.387	102.94
389.612	81.94
389.837	88.94
390.062	99.94
390.287	88.94
390.512	100.94
390.736	91.94
390.961	97.94
391.186	95.94
391.411	90.94
391.636	110.94
391.86	81.94
392.085	80.94
392.31	86.94
392.534	83.94
392.759	85.94
392.984	89.94
393.208	91.94
393.433	115.94
393.658	106.94
393.882	87.94
394.107	103.94
394.331	89.94
394.556	83.94
394.78	91.94
395.005	89.94
395.229	81.94
395.454	96.94
395.678	72.94
395.903	78.94
396.127	89.94
396.352	89.94
396.576	95.94
396.801	86.94
397.025	100.94
397.249	87.94
397.474	96.94
397.698	85.94
397.922	87.94
398.147	81.94
398.371	93.94
398.595	98.94
398.82	78.94
399.044	90.94
399.268	97.94
399.492	79.94
399.717	77.94
399.941	105.94
400.165	89.94
400.389	103.94
400.613	93.94
400.837	87.94
401.062	89.94
401.286	78.94
401.51	94.94
401.734	83.94
401.958	97.94
402.182	115.94
402.406	150.94
402.63	121.94
402.854	93.94
403.078	84.94
403.302	85.94
403.526	83.94
403.75	68.94
403.974	81.94
404.198	73.94
404.422	90.94
404.645	109.94
404.869	102.94
405.093	88.94
405.317	115.94
405.541	97.94
405.765	97.94
405.988	107.94
406.212	155.94
406.436	207.94
406.66	147.94
406.883	104.94
407.107	92.94
407.331	100.94
407.555	111.94
407.778	88.94
408.002	98.94
408.226	94.94
408.449	104.94
408.673	86.94
408.896	94.94
409.12	80.94
409.344	72.94
409.567	101.94
409.791	88.94
410.014	102.94
410.238	92.94
410.461	94.94
410.685	101.94
410.908	114.94
411.132	100.94
411.355	95.94
411.578	97.94
411.802	90.94
412.025	82.94
412.249	93.94
412.472	92.94
412.695	87.94
412.919	74.94
413.142	94.94
413.365	94.94
413.589	81.94
413.812	94.94
414.035	89.94
414.258	96.94
414.482	90.94
414.705	90.94
414.928	79.94
415.151	92.94
415.374	98.94
415.597	99.94
415.821	92.94
416.044	84.94
416.267	100.94
416.49	93.94
416.713	100.94
416.936	90.94
417.159	87.94
417.382	102.94
417.605	98.94
417.828	93.94
418.051	107.94
418.274	91.94
418.497	89.94
418.72	90.94
418.943	73.94
419.166	83.94
419.389	89.94
419.611	79.94
419.834	100.94
420.057	88.94
420.28	90.94
420.503	99.94
420.726	88.94
420.948	85.94
421.171	101.94
421.394	98.94
421.617	87.94
421.839	90.94
422.062	85.94
422.285	87.94
422.507	107.94
422.73	110.94
422.953	96.94
423.175	85.94
423.398	87.94
423.621	81.94
423.843	90.94
424.066	85.94
424.288	89.94
424.511	102.94
424.733	102.94
424.956	108.94
425.178	97.94
425.401	101.94
425.623	95.94
425.846	82.94
426.068	102.94
426.291	88.94
426.513	96.94
426.735	92.94
426.958	77.94
427.18	103.94
427.402	131.94
427.625	168.94
427.847	157.94
428.069	114.94
428.292	90.94
428.514	78.94
428.736	89.94
428.958	94.94
429.181	89.94
429.403	69.94
429.625	81.94
429.847	106.94
430.069	103.94
430.292	87.94
430.514	81.94
430.736	87.94
430.958	97.94
431.18	88.94
431.402	73.94
431.624	78.94
431.846	77.94
432.068	82.94
432.29	103.94
432.512	80.94
432.734	89.94
432.956	94.94
433.178	99.94
433.4	87.94
433.622	78.94
433.844	81.94
434.066	91.94
434.287	93.94
434.509	97.94
434.731	82.94
434.953	95.94
435.175	82.94
435.397	86.94
435.618	99.94
435.84	102.94
436.062	106.94
436.284	121.94
436.505	101.94
436.727	98.94
436.949	93.94
437.17	90.94
437.392	80.94
437.614	98.94
437.835	101.94
438.057	107.94
438.278	118.94
438.5	108.94
438.721	126.94
438.943	87.94
439.165	83.94
439.386	105.94
439.608	103.94
439.829	115.94
440.05	121.94
440.272	137.94
440.493	101.94
440.715	82.94
440.936	82.94
441.158	83.94
441.379	89.94
441.6	75.94
441.822	82.94
442.043	83.94
442.264	97.94
442.486	99.94
442.707	110.94
442.928	109.94
443.149	130.94
443.371	134.94
443.592	102.94
443.813	105.94
444.034	94.94
444.255	108.94
444.476	89.94
444.698	89.94
444.919	92.94
445.14	141.94
445.361	116.94
445.582	115.94
445.803	140.94
446.024	129.94
446.245	129.94
446.466	107.94
446.687	89.94
446.908	88.94
447.129	91.94
447.35	97.94
447.571	83.94
447.792	89.94
448.013	87.94
448.234	104.94
448.455	95.94
448.675	113.94
448.896	118.94
449.117	98.94
449.338	103.94
449.559	133.94
449.779	111.94
450	96.94
450.221	74.94
450.442	98.94
450.662	90.94
450.883	123.94
451.104	115.94
451.324	85.94
451.545	86.94
451.766	88.94
451.986	89.94
452.207	90.94
452.428	109.94
452.648	109.94
452.869	122.94
453.089	101.94
453.31	110.94
453.53	103.94
453.751	84.94
453.971	93.94
454.192	106.94
454.412	85.94
454.633	84.94
454.853	97.94
455.073	106.94
455.294	88.94
455.514	102.94
455.734	89.94
455.955	85.94
456.175	79.94
456.395	75.94
456.616	92.94
456.836	78.94
457.056	84.94
457.276	82.94
457.497	89.94
457.717	87.94
457.937	81.94
458.157	84.94
458.377	88.94
458.598	99.94
458.818	145.94
459.038	156.94
459.258	110.94
459.478	83.94
459.698	97.94
459.918	91.94
460.138	93.94
460.358	91.94
460.578	86.94
460.798	95.94
461.018	82.94
461.238	82.94
461.458	75.94
461.678	91.94
461.898	102.94
462.118	84.94
462.338	92.94
462.558	102.94
462.777	97.94
462.997	80.94
463.217	96.94
463.437	94.94
463.657	86.94
463.876	95.94
464.096	76.94
464.316	104.94
464.536	94.94
464.755	98.94
464.975	107.94
465.195	142.94
465.414	152.94
465.634	106.94
465.854	92.94
466.073	98.94
466.293	91.94
466.512	93.94
466.732	90.94
466.951	85.94
467.171	94.94
467.391	101.94
467.61	89.94
467.829	103.94
468.049	139.94
468.268	162.94
468.488	100.94
468.707	85.94
468.927	87.94
469.146	88.94
469.365	92.94
469.585	92.94
469.804	98.94
470.023	93.94
470.243	101.94
470.462	94.94
470.681	110.94
470.901	99.94
471.12	90.94
471.339	91.94
471.558	110.94
471.777	94.94
471.997	124.94
472.216	209.94
472.435	365.94
472.654	153.94
472.873	91.94
473.092	78.94
473.311	84.94
473.53	86.94
473.749	85.94
473.968	93.94
474.187	99.94
474.406	82.94
474.625	98.94
474.844	86.94
475.063	89.94
475.282	91.94
475.501	99.94
475.72	86.94
475.939	76.94
476.158	78.94
476.377	92.94
476.596	96.94
476.814	104.94
477.033	111.94
477.252	90.94
477.471	77.94
477.69	90.94
477.908	108.94
478.127	102.94
478.346	89.94
478.564	101.94
478.783	102.94
479.002	95.94
479.22	99.94
479.439	96.94
479.658	114.94
479.876	104.94
480.095	97.94
480.313	91.94
480.532	91.94
480.751	120.94
480.969	196.94
481.188	600.94
481.406	400.94
481.624	123.94
481.843	118.94
482.061	106.94
482.28	98.94
482.498	95.94
482.717	87.94
482.935	94.94
483.153	94.94
483.372	101.94
483.59	73.94
483.808	87.94
484.027	88.94
484.245	92.94
484.463	84.94
484.681	98.94
484.9	99.94
485.118	97.94
485.336	77.94
485.554	97.94
485.772	92.94
485.99	85.94
486.209	99.94
486.427	108.94
486.645	101.94
486.863	114.94
487.081	95.94
487.299	89.94
487.517	90.94
487.735	88.94
487.953	95.94
488.171	98.94
488.389	90.94
488.607	102.94
488.825	89.94
489.043	99.94
489.261	97.94
489.479	98.94
489.696	78.94
489.914	97.94
490.132	94.94
490.35	89.94
490.568	98.94
490.786	88.94
491.003	84.94
491.221	101.94
491.439	103.94
491.657	95.94
491.874	99.94
492.092	78.94
492.31	101.94
492.527	89.94
492.745	77.94
492.963	93.94
493.18	84.94
493.398	85.94
493.615	104.94
493.833	101.94
494.05	91.94
494.268	95.94
494.485	82.94
494.703	91.94
494.92	89.94
495.138	96.94
495.355	85.94
495.573	98.94
495.79	87.94
496.008	90.94
496.225	101.94
496.442	84.94
496.66	91.94
496.877	97.94
497.094	102.94
497.312	94.94
497.529	82.94
497.746	101.94
497.963	87.94
498.181	88.94
498.398	83.94
498.615	93.94
498.832	120.94
499.049	84.94
499.267	92.94
499.484	84.94
499.701	97.94
499.918	91.94
500.135	74.94
500.352	90.94
500.569	79.94
500.786	93.94
501.003	102.94
501.22	88.94
501.437	87.94
501.654	85.94
501.871	116.94
502.088	97.94
502.305	89.94
502.522	103.94
502.739	99.94
502.956	90.94
503.172	91.94
503.389	105.94
503.606	110.94
503.823	106.94
504.04	90.94
504.256	99.94
504.473	82.94
504.69	105.94
504.907	93.94
505.123	109.94
505.34	93.94
505.557	96.94
505.773	89.94
505.99	82.94
506.207	91.94
506.423	97.94
506.64	97.94
506.856	86.94
507.073	89.94
507.289	86.94
507.506	80.94
507.722	121.94
507.939	109.94
508.155	109.94
508.372	114.94
508.588	103.94
508.805	97.94
509.021	112.94
509.238	96.94
509.454	103.94
509.67	93.94
509.887	113.94
510.103	145.94
510.319	217.94
510.536	729.94
510.752	2349.94
510.968	681.94
511.184	164.94
511.401	106.94
511.617	92.94
511.833	93.94
512.049	82.94
512.265	94.94
512.481	92.94
512.698	85.94
512.914	96.94
513.13	75.94
513.346	99.94
513.562	85.94
513.778	105.94
513.994	105.94
514.21	109.94
514.426	113.94
514.642	129.94
514.858	126.94
515.074	162.94
515.29	419.94
