Data from Circ_2015_H10_HRD10591_00049.txt Node
Date: Wed Jan 03 10:00:32 EST 2024
User: Yrep
Spectrometer: HR+D1059
Trigger mode: 1
Integration Time (sec): 1.000000E-1
Scans to average: 1
Electric dark correction enabled: true
Nonlinearity correction enabled: false
Boxcar width: 0
XAxis mode: Wavelengths
Number of Pixels in Spectrum: 2048
>>>>>Begin Spectral Data<<<<<
223.165	-9.06
223.4	-9.06
223.635	-9.06
223.869	-22.06
224.104	-30.06
224.338	-10.06
224.573	-9.06
224.808	-9.06
225.042	-3.06
225.277	-13.06
225.511	-2.06
225.746	-0.06
225.98	13.94
226.215	0.94
226.449	8.94
226.683	23.94
226.918	29.94
227.152	29.94
227.387	32.94
227.621	30.94
227.856	53.94
228.09	55.94
228.324	45.94
228.559	43.94
228.793	54.94
229.027	58.94
229.262	67.94
229.496	66.94
229.73	82.94
229.964	88.94
230.199	67.94
230.433	80.94
230.667	65.94
230.901	70.94
231.136	85.94
231.37	86.94
231.604	73.94
231.838	79.94
232.072	73.94
232.306	82.94
232.541	88.94
232.775	75.94
233.009	71.94
233.243	92.94
233.477	82.94
233.711	71.94
233.945	82.94
234.179	75.94
234.413	86.94
234.647	87.94
234.881	80.94
235.115	80.94
235.349	76.94
235.583	86.94
235.817	87.94
236.051	92.94
236.285	97.94
236.519	64.94
236.753	74.94
236.987	71.94
237.221	77.94
237.455	85.94
237.689	80.94
237.922	74.94
238.156	80.94
238.39	72.94
238.624	64.94
238.858	74.94
239.091	77.94
239.325	49.94
239.559	110.94
239.793	75.94
240.027	77.94
240.26	87.94
240.494	81.94
240.728	73.94
240.961	81.94
241.195	74.94
241.429	76.94
241.662	94.94
241.896	81.94
242.13	90.94
242.363	81.94
242.597	77.94
242.83	75.94
243.064	59.94
243.298	73.94
243.531	69.94
243.765	77.94
243.998	65.94
244.232	68.94
244.465	78.94
244.699	78.94
244.932	80.94
245.166	91.94
245.399	82.94
245.633	82.94
245.866	76.94
246.099	65.94
246.333	67.94
246.566	67.94
246.8	81.94
247.033	76.94
247.266	72.94
247.5	72.94
247.733	68.94
247.966	82.94
248.2	87.94
248.433	83.94
248.666	85.94
248.899	88.94
249.133	96.94
249.366	90.94
249.599	89.94
249.832	86.94
250.066	84.94
250.299	94.94
250.532	82.94
250.765	84.94
250.998	77.94
251.231	85.94
251.465	82.94
251.698	77.94
251.931	91.94
252.164	78.94
252.397	74.94
252.63	67.94
252.863	70.94
253.096	77.94
253.329	85.94
253.562	95.94
253.795	93.94
254.028	88.94
254.261	102.94
254.494	73.94
254.727	74.94
254.96	88.94
255.193	78.94
255.426	77.94
255.659	78.94
255.892	93.94
256.124	84.94
256.357	66.94
256.59	87.94
256.823	82.94
257.056	82.94
257.289	84.94
257.521	74.94
257.754	84.94
257.987	89.94
258.22	85.94
258.452	71.94
258.685	83.94
258.918	76.94
259.151	74.94
259.383	80.94
259.616	88.94
259.849	82.94
260.081	86.94
260.314	90.94
260.547	76.94
260.779	82.94
261.012	75.94
261.244	78.94
261.477	82.94
261.71	102.94
261.942	93.94
262.175	111.94
262.407	81.94
262.64	100.94
262.872	81.94
263.105	94.94
263.337	75.94
263.57	63.94
263.802	92.94
264.035	94.94
264.267	75.94
264.499	73.94
264.732	87.94
264.964	89.94
265.197	82.94
265.429	90.94
265.661	77.94
265.894	78.94
266.126	81.94
266.358	85.94
266.591	93.94
266.823	88.94
267.055	91.94
267.287	84.94
267.52	81.94
267.752	82.94
267.984	86.94
268.216	88.94
268.448	97.94
268.681	98.94
268.913	77.94
269.145	86.94
269.377	83.94
269.609	84.94
269.841	78.94
270.073	90.94
270.306	91.94
270.538	92.94
270.77	87.94
271.002	90.94
271.234	75.94
271.466	81.94
271.698	92.94
271.93	92.94
272.162	78.94
272.394	86.94
272.626	76.94
272.858	77.94
273.09	99.94
273.322	81.94
273.553	74.94
273.785	82.94
274.017	84.94
274.249	85.94
274.481	84.94
274.713	84.94
274.945	81.94
275.176	96.94
275.408	89.94
275.64	71.94
275.872	83.94
276.104	83.94
276.335	87.94
276.567	113.94
276.799	97.94
277.031	98.94
277.262	98.94
277.494	77.94
277.726	97.94
277.957	86.94
278.189	84.94
278.421	82.94
278.652	97.94
278.884	93.94
279.115	86.94
279.347	84.94
279.579	93.94
279.81	75.94
280.042	100.94
280.273	101.94
280.505	92.94
280.736	91.94
280.968	81.94
281.199	86.94
281.431	90.94
281.662	86.94
281.894	109.94
282.125	119.94
282.356	108.94
282.588	135.94
282.819	118.94
283.051	82.94
283.282	89.94
283.513	95.94
283.745	81.94
283.976	86.94
284.207	90.94
284.439	100.94
284.67	85.94
284.901	84.94
285.132	85.94
285.364	88.94
285.595	82.94
285.826	77.94
286.057	96.94
286.288	92.94
286.52	100.94
286.751	88.94
286.982	93.94
287.213	100.94
287.444	88.94
287.675	85.94
287.906	93.94
288.138	91.94
288.369	80.94
288.6	88.94
288.831	99.94
289.062	85.94
289.293	90.94
289.524	89.94
289.755	81.94
289.986	81.94
290.217	94.94
290.448	84.94
290.679	90.94
290.91	80.94
291.141	95.94
291.371	79.94
291.602	86.94
291.833	83.94
292.064	89.94
292.295	73.94
292.526	71.94
292.757	90.94
292.987	86.94
293.218	81.94
293.449	68.94
293.68	78.94
293.91	95.94
294.141	86.94
294.372	86.94
294.603	88.94
294.833	77.94
295.064	84.94
295.295	98.94
295.525	92.94
295.756	93.94
295.987	107.94
296.217	126.94
296.448	99.94
296.679	80.94
296.909	83.94
297.14	100.94
297.37	104.94
297.601	94.94
297.831	86.94
298.062	75.94
298.292	104.94
298.523	105.94
298.753	94.94
298.984	93.94
299.214	100.94
299.445	87.94
299.675	76.94
299.905	82.94
300.136	87.94
300.366	89.94
300.597	81.94
300.827	97.94
301.057	90.94
301.288	96.94
301.518	94.94
301.748	97.94
301.979	106.94
302.209	85.94
302.439	91.94
302.669	92.94
302.9	86.94
303.13	95.94
303.36	101.94
303.59	93.94
303.82	95.94
304.051	92.94
304.281	100.94
304.511	93.94
304.741	89.94
304.971	81.94
305.201	88.94
305.431	93.94
305.661	93.94
305.891	84.94
306.121	101.94
306.352	94.94
306.582	88.94
306.812	88.94
307.042	98.94
307.272	93.94
307.502	94.94
307.731	115.94
307.961	88.94
308.191	104.94
308.421	88.94
308.651	100.94
308.881	92.94
309.111	89.94
309.341	80.94
309.571	90.94
309.8	94.94
310.03	102.94
310.26	84.94
310.49	97.94
310.72	83.94
310.949	96.94
311.179	96.94
311.409	91.94
311.639	89.94
311.868	99.94
312.098	89.94
312.328	102.94
312.557	101.94
312.787	92.94
313.017	88.94
313.246	104.94
313.476	81.94
313.706	80.94
313.935	91.94
314.165	97.94
314.394	87.94
314.624	102.94
314.853	79.94
315.083	89.94
315.312	77.94
315.542	84.94
315.771	91.94
316.001	86.94
316.23	84.94
316.46	85.94
316.689	91.94
316.919	98.94
317.148	95.94
317.377	93.94
317.607	82.94
317.836	87.94
318.065	89.94
318.295	84.94
318.524	92.94
318.753	85.94
318.983	93.94
319.212	93.94
319.441	92.94
319.67	119.94
319.9	99.94
320.129	94.94
320.358	101.94
320.587	89.94
320.816	97.94
321.046	94.94
321.275	90.94
321.504	96.94
321.733	105.94
321.962	96.94
322.191	96.94
322.42	106.94
322.649	109.94
322.878	111.94
323.108	114.94
323.337	126.94
323.566	117.94
323.795	149.94
324.024	192.94
324.253	376.94
324.482	762.94
324.71	1589.94
324.939	2136.94
325.168	796.94
325.397	235.94
325.626	165.94
325.855	131.94
326.084	115.94
326.313	133.94
326.542	149.94
326.77	212.94
326.999	421.94
327.228	902.94
327.457	1647.94
327.686	1314.94
327.914	347.94
328.143	202.94
328.372	188.94
328.6	140.94
328.829	113.94
329.058	104.94
329.287	126.94
329.515	113.94
329.744	115.94
329.972	139.94
330.201	187.94
330.43	207.94
330.658	150.94
330.887	137.94
331.115	121.94
331.344	103.94
331.572	109.94
331.801	106.94
332.03	105.94
332.258	83.94
332.486	91.94
332.715	93.94
332.943	102.94
333.172	102.94
333.4	106.94
333.629	99.94
333.857	116.94
334.085	130.94
334.314	193.94
334.542	273.94
334.771	255.94
334.999	135.94
335.227	107.94
335.455	102.94
335.684	100.94
335.912	84.94
336.14	86.94
336.369	103.94
336.597	100.94
336.825	95.94
337.053	91.94
337.281	96.94
337.51	95.94
337.738	96.94
337.966	86.94
338.194	91.94
338.422	71.94
338.65	101.94
338.878	90.94
339.106	87.94
339.334	97.94
339.562	84.94
339.79	95.94
340.018	101.94
340.246	77.94
340.474	91.94
340.702	90.94
340.93	96.94
341.158	88.94
341.386	87.94
341.614	91.94
341.842	91.94
342.07	82.94
342.298	75.94
342.526	81.94
342.754	100.94
342.981	94.94
343.209	94.94
343.437	99.94
343.665	94.94
343.893	86.94
344.12	101.94
344.348	88.94
344.576	98.94
344.804	91.94
345.031	89.94
345.259	84.94
345.487	91.94
345.714	85.94
345.942	93.94
346.17	86.94
346.397	90.94
346.625	101.94
346.853	90.94
347.08	87.94
347.308	94.94
347.535	96.94
347.763	99.94
347.99	93.94
348.218	106.94
348.445	106.94
348.673	88.94
348.9	102.94
349.128	78.94
349.355	104.94
349.583	89.94
349.81	95.94
350.037	97.94
350.265	96.94
350.492	93.94
350.72	97.94
350.947	101.94
351.174	114.94
351.402	133.94
351.629	100.94
351.856	101.94
352.083	98.94
352.311	93.94
352.538	113.94
352.765	99.94
352.992	101.94
353.22	110.94
353.447	99.94
353.674	82.94
353.901	82.94
354.128	98.94
354.355	89.94
354.583	92.94
354.81	94.94
355.037	90.94
355.264	89.94
355.491	100.94
355.718	86.94
355.945	78.94
356.172	96.94
356.399	97.94
356.626	97.94
356.853	89.94
357.08	107.94
357.307	100.94
357.534	73.94
357.761	79.94
357.988	102.94
358.215	110.94
358.441	102.94
358.668	93.94
358.895	92.94
359.122	97.94
359.349	86.94
359.576	83.94
359.802	84.94
360.029	109.94
360.256	96.94
360.483	101.94
360.709	82.94
360.936	102.94
361.163	84.94
361.39	104.94
361.616	88.94
361.843	86.94
362.07	93.94
362.296	97.94
362.523	90.94
362.749	89.94
362.976	103.94
363.203	93.94
363.429	93.94
363.656	103.94
363.882	84.94
364.109	77.94
364.335	87.94
364.562	91.94
364.788	93.94
365.015	84.94
365.241	91.94
365.468	97.94
365.694	97.94
365.92	91.94
366.147	97.94
366.373	88.94
366.599	71.94
366.826	84.94
367.052	90.94
367.278	102.94
367.505	99.94
367.731	100.94
367.957	86.94
368.184	70.94
368.41	96.94
368.636	109.94
368.862	105.94
369.089	103.94
369.315	87.94
369.541	84.94
369.767	95.94
369.993	97.94
370.219	94.94
370.445	86.94
370.672	87.94
370.898	95.94
371.124	92.94
371.35	87.94
371.576	86.94
371.802	91.94
372.028	87.94
372.254	94.94
372.48	89.94
372.706	84.94
372.932	98.94
373.158	76.94
373.384	83.94
373.61	82.94
373.835	84.94
374.061	96.94
374.287	96.94
374.513	79.94
374.739	83.94
374.965	78.94
375.191	96.94
375.416	92.94
375.642	85.94
375.868	78.94
376.094	89.94
376.319	81.94
376.545	83.94
376.771	91.94
376.997	74.94
377.222	89.94
377.448	105.94
377.674	96.94
377.899	74.94
378.125	92.94
378.35	99.94
378.576	94.94
378.802	92.94
379.027	84.94
379.253	96.94
379.478	95.94
379.704	85.94
379.929	94.94
380.155	101.94
380.38	99.94
380.606	91.94
380.831	99.94
381.057	91.94
381.282	102.94
381.507	103.94
381.733	97.94
381.958	103.94
382.184	116.94
382.409	102.94
382.634	94.94
382.86	101.94
383.085	114.94
383.31	101.94
383.535	99.94
383.761	112.94
383.986	92.94
384.211	90.94
384.436	109.94
384.662	107.94
384.887	97.94
385.112	104.94
385.337	95.94
385.562	110.94
385.787	105.94
386.013	107.94
386.238	99.94
386.463	102.94
386.688	112.94
386.913	101.94
387.138	99.94
387.363	105.94
387.588	111.94
387.813	92.94
388.038	104.94
388.263	118.94
388.488	101.94
388.713	94.94
388.938	98.94
389.163	93.94
389.387	77.94
389.612	97.94
389.837	98.94
390.062	112.94
390.287	94.94
390.512	108.94
390.736	96.94
390.961	86.94
391.186	90.94
391.411	100.94
391.636	89.94
391.86	91.94
392.085	93.94
392.31	88.94
392.534	87.94
392.759	86.94
392.984	87.94
393.208	101.94
393.433	91.94
393.658	86.94
393.882	85.94
394.107	88.94
394.331	88.94
394.556	91.94
394.78	77.94
395.005	86.94
395.229	99.94
395.454	88.94
395.678	97.94
395.903	91.94
396.127	80.94
396.352	77.94
396.576	92.94
396.801	88.94
397.025	97.94
397.249	82.94
397.474	82.94
397.698	71.94
397.922	85.94
398.147	86.94
398.371	85.94
398.595	90.94
398.82	92.94
399.044	88.94
399.268	91.94
399.492	91.94
399.717	91.94
399.941	82.94
400.165	87.94
400.389	85.94
400.613	79.94
400.837	83.94
401.062	79.94
401.286	86.94
401.51	78.94
401.734	84.94
401.958	105.94
402.182	117.94
402.406	150.94
402.63	115.94
402.854	90.94
403.078	98.94
403.302	75.94
403.526	64.94
403.75	84.94
403.974	82.94
404.198	81.94
404.422	83.94
404.645	81.94
404.869	78.94
405.093	95.94
405.317	112.94
405.541	103.94
405.765	100.94
405.988	115.94
406.212	152.94
406.436	201.94
406.66	126.94
406.883	114.94
407.107	99.94
407.331	99.94
407.555	88.94
407.778	80.94
408.002	89.94
408.226	89.94
408.449	92.94
408.673	93.94
408.896	99.94
409.12	85.94
409.344	88.94
409.567	87.94
409.791	92.94
410.014	93.94
410.238	90.94
410.461	93.94
410.685	89.94
410.908	88.94
411.132	106.94
411.355	108.94
411.578	100.94
411.802	82.94
412.025	80.94
412.249	94.94
412.472	84.94
412.695	109.94
412.919	109.94
413.142	83.94
413.365	90.94
413.589	89.94
413.812	80.94
414.035	88.94
414.258	88.94
414.482	82.94
414.705	92.94
414.928	89.94
415.151	82.94
415.374	84.94
415.597	88.94
415.821	84.94
416.044	91.94
416.267	94.94
416.49	93.94
416.713	85.94
416.936	83.94
417.159	98.94
417.382	81.94
417.605	89.94
417.828	93.94
418.051	95.94
418.274	88.94
418.497	100.94
418.72	99.94
418.943	98.94
419.166	87.94
419.389	96.94
419.611	86.94
419.834	81.94
420.057	85.94
420.28	93.94
420.503	94.94
420.726	79.94
420.948	93.94
421.171	81.94
421.394	96.94
421.617	81.94
421.839	83.94
422.062	87.94
422.285	81.94
422.507	101.94
422.73	95.94
422.953	100.94
423.175	82.94
423.398	82.94
423.621	75.94
423.843	88.94
424.066	76.94
424.288	60.94
424.511	84.94
424.733	100.94
424.956	112.94
425.178	72.94
425.401	97.94
425.623	98.94
425.846	92.94
426.068	91.94
426.291	85.94
426.513	99.94
426.735	81.94
426.958	91.94
427.18	88.94
427.402	99.94
427.625	149.94
427.847	133.94
428.069	132.94
428.292	101.94
428.514	89.94
428.736	77.94
428.958	74.94
429.181	94.94
429.403	89.94
429.625	96.94
429.847	88.94
430.069	89.94
430.292	87.94
430.514	91.94
430.736	78.94
430.958	82.94
431.18	90.94
431.402	98.94
431.624	88.94
431.846	83.94
432.068	83.94
432.29	86.94
432.512	84.94
432.734	90.94
432.956	90.94
433.178	93.94
433.4	90.94
433.622	99.94
433.844	96.94
434.066	110.94
434.287	89.94
434.509	75.94
434.731	73.94
434.953	102.94
435.175	96.94
435.397	86.94
435.618	99.94
435.84	86.94
436.062	107.94
436.284	104.94
436.505	93.94
436.727	99.94
436.949	98.94
437.17	91.94
437.392	90.94
437.614	93.94
437.835	97.94
438.057	101.94
438.278	98.94
438.5	107.94
438.721	109.94
438.943	81.94
439.165	83.94
439.386	89.94
439.608	85.94
439.829	80.94
440.05	110.94
440.272	113.94
440.493	92.94
440.715	82.94
440.936	82.94
441.158	78.94
441.379	85.94
441.6	80.94
441.822	83.94
442.043	89.94
442.264	108.94
442.486	76.94
442.707	92.94
442.928	109.94
443.149	127.94
443.371	118.94
443.592	102.94
443.813	104.94
444.034	100.94
444.255	91.94
444.476	76.94
444.698	86.94
444.919	96.94
445.14	107.94
445.361	108.94
445.582	114.94
445.803	124.94
446.024	115.94
446.245	132.94
446.466	108.94
446.687	102.94
446.908	96.94
447.129	94.94
447.35	99.94
447.571	88.94
447.792	101.94
448.013	92.94
448.234	101.94
448.455	96.94
448.675	88.94
448.896	118.94
449.117	100.94
449.338	86.94
449.559	128.94
449.779	116.94
450	87.94
450.221	84.94
450.442	90.94
450.662	85.94
450.883	105.94
451.104	106.94
451.324	85.94
451.545	88.94
451.766	92.94
451.986	75.94
452.207	92.94
452.428	88.94
452.648	95.94
452.869	102.94
453.089	105.94
453.31	91.94
453.53	80.94
453.751	97.94
453.971	102.94
454.192	99.94
454.412	84.94
454.633	87.94
454.853	90.94
455.073	82.94
455.294	81.94
455.514	86.94
455.734	89.94
455.955	91.94
456.175	95.94
456.395	73.94
456.616	101.94
456.836	86.94
457.056	85.94
457.276	95.94
457.497	75.94
457.717	81.94
457.937	84.94
458.157	94.94
458.377	86.94
458.598	97.94
458.818	113.94
459.038	137.94
459.258	97.94
459.478	93.94
459.698	84.94
459.918	86.94
460.138	82.94
460.358	88.94
460.578	86.94
460.798	79.94
461.018	66.94
461.238	85.94
461.458	79.94
461.678	83.94
461.898	92.94
462.118	77.94
462.338	82.94
462.558	88.94
462.777	75.94
462.997	92.94
463.217	67.94
463.437	87.94
463.657	81.94
463.876	81.94
464.096	85.94
464.316	91.94
464.536	84.94
464.755	89.94
464.975	91.94
465.195	154.94
465.414	165.94
465.634	94.94
465.854	90.94
466.073	91.94
466.293	88.94
466.512	94.94
466.732	86.94
466.951	78.94
467.171	97.94
467.391	76.94
467.61	113.94
467.829	104.94
468.049	137.94
468.268	149.94
468.488	100.94
468.707	95.94
468.927	82.94
469.146	86.94
469.365	89.94
469.585	77.94
469.804	91.94
470.023	83.94
470.243	79.94
470.462	101.94
470.681	109.94
470.901	88.94
471.12	84.94
471.339	89.94
471.558	92.94
471.777	93.94
471.997	103.94
472.216	193.94
472.435	329.94
472.654	132.94
472.873	106.94
473.092	93.94
473.311	98.94
473.53	74.94
473.749	93.94
473.968	92.94
474.187	99.94
474.406	88.94
474.625	80.94
474.844	88.94
475.063	100.94
475.282	100.94
475.501	87.94
475.72	99.94
475.939	90.94
476.158	91.94
476.377	81.94
476.596	74.94
476.814	90.94
477.033	78.94
477.252	68.94
477.471	92.94
477.69	76.94
477.908	89.94
478.127	76.94
478.346	82.94
478.564	91.94
478.783	85.94
479.002	95.94
479.22	95.94
479.439	113.94
479.658	96.94
479.876	100.94
480.095	70.94
480.313	84.94
480.532	87.94
480.751	103.94
480.969	204.94
481.188	541.94
481.406	350.94
481.624	137.94
481.843	106.94
482.061	74.94
482.28	95.94
482.498	93.94
482.717	78.94
482.935	89.94
483.153	78.94
483.372	92.94
483.59	87.94
483.808	90.94
484.027	95.94
484.245	82.94
484.463	86.94
484.681	91.94
484.9	87.94
485.118	96.94
485.336	96.94
485.554	85.94
485.772	104.94
485.99	95.94
486.209	95.94
486.427	103.94
486.645	109.94
486.863	112.94
487.081	91.94
487.299	80.94
487.517	102.94
487.735	89.94
487.953	93.94
488.171	73.94
488.389	97.94
488.607	87.94
488.825	93.94
489.043	89.94
489.261	93.94
489.479	101.94
489.696	98.94
489.914	81.94
490.132	96.94
490.35	102.94
490.568	77.94
490.786	96.94
491.003	88.94
491.221	79.94
491.439	101.94
491.657	86.94
491.874	84.94
492.092	81.94
492.31	82.94
492.527	69.94
492.745	88.94
492.963	86.94
493.18	100.94
493.398	92.94
493.615	95.94
493.833	81.94
494.05	96.94
494.268	91.94
494.485	86.94
494.703	84.94
494.92	82.94
495.138	76.94
495.355	89.94
495.573	90.94
495.79	90.94
496.008	94.94
496.225	81.94
496.442	87.94
496.66	96.94
496.877	104.94
497.094	86.94
497.312	92.94
497.529	81.94
497.746	89.94
497.963	96.94
498.181	94.94
498.398	97.94
498.615	98.94
498.832	96.94
499.049	100.94
499.267	96.94
499.484	103.94
499.701	88.94
499.918	86.94
500.135	107.94
500.352	98.94
500.569	88.94
500.786	84.94
501.003	98.94
501.22	81.94
501.437	100.94
501.654	88.94
501.871	100.94
502.088	96.94
502.305	83.94
502.522	92.94
502.739	94.94
502.956	92.94
503.172	89.94
503.389	89.94
503.606	105.94
503.823	90.94
504.04	86.94
504.256	88.94
504.473	90.94
504.69	80.94
504.907	97.94
505.123	80.94
505.34	92.94
505.557	78.94
505.773	79.94
505.99	88.94
506.207	100.94
506.423	76.94
506.64	77.94
506.856	90.94
507.073	74.94
507.289	109.94
507.506	95.94
507.722	101.94
507.939	104.94
508.155	100.94
508.372	79.94
508.588	92.94
508.805	106.94
509.021	92.94
509.238	97.94
509.454	89.94
509.67	95.94
509.887	100.94
510.103	113.94
510.319	187.94
510.536	660.94
510.752	2117.94
510.968	604.94
511.184	152.94
511.401	100.94
511.617	105.94
511.833	89.94
512.049	87.94
512.265	79.94
512.481	87.94
512.698	89.94
512.914	88.94
513.13	82.94
513.346	96.94
513.562	93.94
513.778	88.94
513.994	77.94
514.21	96.94
514.426	114.94
514.642	108.94
514.858	128.94
515.074	156.94
515.29	365.94
515.506	1234.94
515.721	513.94
515.937	142.94
516.153	114.94
