Data from Circ_2015_H10_HRD10591_00032.txt Node
Date: Wed Jan 03 10:00:29 EST 2024
User: Yrep
Spectrometer: HR+D1059
Trigger mode: 1
Integration Time (sec): 1.000000E-1
Scans to average: 1
Electric dark correction enabled: true
Nonlinearity correction enabled: false
Boxcar width: 0
XAxis mode: Wavelengths
Number of Pixels in Spectrum: 2048
>>>>>Begin Spectral Data<<<<<
223.165	-30.31
223.4	-30.31
223.635	-30.31
223.869	1.69
224.104	-18.31
224.338	-10.31
224.573	-8.31
224.808	-15.31
225.042	-13.31
225.277	-10.31
225.511	-5.31
225.746	-1.31
225.98	3.69
226.215	4.69
226.449	25.69
226.683	16.69
226.918	28.69
227.152	31.69
227.387	38.69
227.621	29.69
227.856	44.69
228.09	43.69
228.324	57.69
228.559	64.69
228.793	56.69
229.027	61.69
229.262	75.69
229.496	68.69
229.73	81.69
229.964	78.69
230.199	66.69
230.433	62.69
230.667	67.69
230.901	80.69
231.136	63.69
231.37	94.69
231.604	94.69
231.838	73.69
232.072	82.69
232.306	84.69
232.541	83.69
232.775	82.69
233.009	94.69
233.243	89.69
233.477	90.69
233.711	79.69
233.945	84.69
234.179	83.69
234.413	79.69
234.647	85.69
234.881	96.69
235.115	83.69
235.349	77.69
235.583	64.69
235.817	83.69
236.051	88.69
236.285	80.69
236.519	84.69
236.753	77.69
236.987	73.69
237.221	80.69
237.455	69.69
237.689	58.69
237.922	74.69
238.156	80.69
238.39	73.69
238.624	68.69
238.858	75.69
239.091	83.69
239.325	83.69
239.559	102.69
239.793	82.69
240.027	81.69
240.26	84.69
240.494	84.69
240.728	70.69
240.961	72.69
241.195	87.69
241.429	76.69
241.662	70.69
241.896	62.69
242.13	59.69
242.363	80.69
242.597	75.69
242.83	82.69
243.064	80.69
243.298	80.69
243.531	88.69
243.765	92.69
243.998	83.69
244.232	87.69
244.465	90.69
244.699	70.69
244.932	81.69
245.166	88.69
245.399	72.69
245.633	76.69
245.866	73.69
246.099	76.69
246.333	76.69
246.566	82.69
246.8	75.69
247.033	72.69
247.266	75.69
247.5	93.69
247.733	58.69
247.966	75.69
248.2	78.69
248.433	77.69
248.666	76.69
248.899	75.69
249.133	85.69
249.366	95.69
249.599	94.69
249.832	86.69
250.066	80.69
250.299	76.69
250.532	56.69
250.765	78.69
250.998	77.69
251.231	77.69
251.465	87.69
251.698	80.69
251.931	88.69
252.164	78.69
252.397	94.69
252.63	88.69
252.863	77.69
253.096	82.69
253.329	84.69
253.562	64.69
253.795	82.69
254.028	72.69
254.261	90.69
254.494	85.69
254.727	90.69
254.96	95.69
255.193	88.69
255.426	84.69
255.659	87.69
255.892	94.69
256.124	79.69
256.357	76.69
256.59	87.69
256.823	77.69
257.056	81.69
257.289	79.69
257.521	86.69
257.754	78.69
257.987	80.69
258.22	84.69
258.452	66.69
258.685	82.69
258.918	87.69
259.151	75.69
259.383	80.69
259.616	86.69
259.849	95.69
260.081	80.69
260.314	82.69
260.547	72.69
260.779	92.69
261.012	87.69
261.244	82.69
261.477	93.69
261.71	106.69
261.942	106.69
262.175	116.69
262.407	82.69
262.64	74.69
262.872	88.69
263.105	94.69
263.337	90.69
263.57	77.69
263.802	103.69
264.035	93.69
264.267	82.69
264.499	71.69
264.732	89.69
264.964	77.69
265.197	84.69
265.429	92.69
265.661	76.69
265.894	89.69
266.126	102.69
266.358	85.69
266.591	87.69
266.823	74.69
267.055	94.69
267.287	73.69
267.52	86.69
267.752	81.69
267.984	82.69
268.216	78.69
268.448	90.69
268.681	93.69
268.913	80.69
269.145	75.69
269.377	75.69
269.609	72.69
269.841	86.69
270.073	80.69
270.306	86.69
270.538	78.69
270.77	77.69
271.002	81.69
271.234	84.69
271.466	99.69
271.698	78.69
271.93	88.69
272.162	87.69
272.394	95.69
272.626	90.69
272.858	86.69
273.09	95.69
273.322	84.69
273.553	76.69
273.785	78.69
274.017	87.69
274.249	84.69
274.481	100.69
274.713	90.69
274.945	75.69
275.176	96.69
275.408	79.69
275.64	87.69
275.872	78.69
276.104	81.69
276.335	93.69
276.567	92.69
276.799	94.69
277.031	99.69
277.262	88.69
277.494	91.69
277.726	94.69
277.957	82.69
278.189	80.69
278.421	101.69
278.652	88.69
278.884	97.69
279.115	86.69
279.347	83.69
279.579	80.69
279.81	89.69
280.042	78.69
280.273	91.69
280.505	78.69
280.736	84.69
280.968	79.69
281.199	92.69
281.431	94.69
281.662	92.69
281.894	99.69
282.125	104.69
282.356	117.69
282.588	134.69
282.819	117.69
283.051	98.69
283.282	95.69
283.513	88.69
283.745	78.69
283.976	108.69
284.207	79.69
284.439	80.69
284.67	79.69
284.901	83.69
285.132	108.69
285.364	93.69
285.595	90.69
285.826	83.69
286.057	94.69
286.288	91.69
286.52	91.69
286.751	94.69
286.982	88.69
287.213	81.69
287.444	88.69
287.675	76.69
287.906	81.69
288.138	101.69
288.369	95.69
288.6	103.69
288.831	87.69
289.062	90.69
289.293	77.69
289.524	82.69
289.755	87.69
289.986	86.69
290.217	99.69
290.448	93.69
290.679	88.69
290.91	96.69
291.141	91.69
291.371	90.69
291.602	105.69
291.833	86.69
292.064	96.69
292.295	95.69
292.526	84.69
292.757	90.69
292.987	81.69
293.218	94.69
293.449	94.69
293.68	93.69
293.91	91.69
294.141	88.69
294.372	77.69
294.603	90.69
294.833	100.69
295.064	83.69
295.295	90.69
295.525	99.69
295.756	118.69
295.987	129.69
296.217	122.69
296.448	112.69
296.679	100.69
296.909	108.69
297.14	112.69
297.37	102.69
297.601	84.69
297.831	89.69
298.062	87.69
298.292	74.69
298.523	99.69
298.753	97.69
298.984	92.69
299.214	77.69
299.445	82.69
299.675	99.69
299.905	108.69
300.136	96.69
300.366	86.69
300.597	79.69
300.827	78.69
301.057	93.69
301.288	111.69
301.518	102.69
301.748	90.69
301.979	100.69
302.209	103.69
302.439	87.69
302.669	89.69
302.9	86.69
303.13	87.69
303.36	82.69
303.59	103.69
303.82	114.69
304.051	90.69
304.281	91.69
304.511	100.69
304.741	87.69
304.971	102.69
305.201	95.69
305.431	89.69
305.661	93.69
305.891	91.69
306.121	100.69
306.352	95.69
306.582	101.69
306.812	98.69
307.042	81.69
307.272	107.69
307.502	110.69
307.731	91.69
307.961	98.69
308.191	88.69
308.421	102.69
308.651	96.69
308.881	93.69
309.111	87.69
309.341	94.69
309.571	108.69
309.8	95.69
310.03	108.69
310.26	90.69
310.49	91.69
310.72	119.69
310.949	104.69
311.179	93.69
311.409	103.69
311.639	91.69
311.868	86.69
312.098	102.69
312.328	109.69
312.557	98.69
312.787	105.69
313.017	108.69
313.246	103.69
313.476	97.69
313.706	94.69
313.935	92.69
314.165	107.69
314.394	90.69
314.624	99.69
314.853	101.69
315.083	113.69
315.312	107.69
315.542	116.69
315.771	97.69
316.001	94.69
316.23	91.69
316.46	95.69
316.689	96.69
316.919	92.69
317.148	92.69
317.377	95.69
317.607	94.69
317.836	87.69
318.065	85.69
318.295	85.69
318.524	97.69
318.753	100.69
318.983	99.69
319.212	111.69
319.441	118.69
319.67	106.69
319.9	101.69
320.129	109.69
320.358	95.69
320.587	84.69
320.816	111.69
321.046	84.69
321.275	94.69
321.504	99.69
321.733	109.69
321.962	93.69
322.191	104.69
322.42	111.69
322.649	100.69
322.878	92.69
323.108	114.69
323.337	118.69
323.566	138.69
323.795	136.69
324.024	199.69
324.253	390.69
324.482	812.69
324.71	1674.69
324.939	2228.69
325.168	859.69
325.397	248.69
325.626	146.69
325.855	143.69
326.084	134.69
326.313	140.69
326.542	164.69
326.77	244.69
326.999	464.69
327.228	943.69
327.457	1743.69
327.686	1368.69
327.914	394.69
328.143	195.69
328.372	170.69
328.6	134.69
328.829	124.69
329.058	136.69
329.287	130.69
329.515	112.69
329.744	107.69
329.972	115.69
330.201	150.69
330.43	173.69
330.658	144.69
330.887	137.69
331.115	134.69
331.344	92.69
331.572	78.69
331.801	116.69
332.03	103.69
332.258	91.69
332.486	98.69
332.715	105.69
332.943	110.69
333.172	102.69
333.4	93.69
333.629	99.69
333.857	99.69
334.085	125.69
334.314	134.69
334.542	184.69
334.771	190.69
334.999	109.69
335.227	103.69
335.455	100.69
335.684	96.69
335.912	94.69
336.14	96.69
336.369	109.69
336.597	108.69
336.825	94.69
337.053	72.69
337.281	90.69
337.51	90.69
337.738	91.69
337.966	92.69
338.194	93.69
338.422	112.69
338.65	103.69
338.878	94.69
339.106	77.69
339.334	76.69
339.562	103.69
339.79	95.69
340.018	99.69
340.246	92.69
340.474	100.69
340.702	94.69
340.93	97.69
341.158	99.69
341.386	87.69
341.614	93.69
341.842	101.69
342.07	96.69
342.298	98.69
342.526	94.69
342.754	83.69
342.981	87.69
343.209	98.69
343.437	93.69
343.665	96.69
343.893	86.69
344.12	92.69
344.348	100.69
344.576	97.69
344.804	90.69
345.031	88.69
345.259	83.69
345.487	101.69
345.714	91.69
345.942	92.69
346.17	105.69
346.397	91.69
346.625	94.69
346.853	89.69
347.08	95.69
347.308	91.69
347.535	81.69
347.763	98.69
347.99	107.69
348.218	80.69
348.445	89.69
348.673	105.69
348.9	103.69
349.128	88.69
349.355	88.69
349.583	96.69
349.81	100.69
350.037	92.69
350.265	97.69
350.492	96.69
350.72	91.69
350.947	123.69
351.174	106.69
351.402	105.69
351.629	97.69
351.856	100.69
352.083	95.69
352.311	110.69
352.538	118.69
352.765	114.69
352.992	110.69
353.22	107.69
353.447	103.69
353.674	92.69
353.901	87.69
354.128	94.69
354.355	98.69
354.583	98.69
354.81	97.69
355.037	101.69
355.264	103.69
355.491	84.69
355.718	111.69
355.945	104.69
356.172	98.69
356.399	95.69
356.626	108.69
356.853	97.69
357.08	82.69
357.307	105.69
357.534	95.69
357.761	93.69
357.988	102.69
358.215	107.69
358.441	109.69
358.668	109.69
358.895	93.69
359.122	106.69
359.349	104.69
359.576	77.69
359.802	96.69
360.029	119.69
360.256	108.69
360.483	83.69
360.709	82.69
360.936	88.69
361.163	101.69
361.39	96.69
361.616	87.69
361.843	83.69
362.07	103.69
362.296	99.69
362.523	93.69
362.749	96.69
362.976	95.69
363.203	91.69
363.429	84.69
363.656	90.69
363.882	92.69
364.109	103.69
364.335	101.69
364.562	101.69
364.788	84.69
365.015	93.69
365.241	98.69
365.468	117.69
365.694	104.69
365.92	87.69
366.147	88.69
366.373	84.69
366.599	93.69
366.826	90.69
367.052	83.69
367.278	105.69
367.505	94.69
367.731	95.69
367.957	76.69
368.184	85.69
368.41	103.69
368.636	112.69
368.862	127.69
369.089	99.69
369.315	101.69
369.541	80.69
369.767	93.69
369.993	98.69
370.219	95.69
370.445	87.69
370.672	75.69
370.898	84.69
371.124	79.69
371.35	105.69
371.576	85.69
371.802	108.69
372.028	96.69
372.254	84.69
372.48	83.69
372.706	77.69
372.932	94.69
373.158	75.69
373.384	97.69
373.61	96.69
373.835	82.69
374.061	98.69
374.287	86.69
374.513	89.69
374.739	91.69
374.965	95.69
375.191	94.69
375.416	89.69
375.642	93.69
375.868	104.69
376.094	93.69
376.319	79.69
376.545	88.69
376.771	93.69
376.997	76.69
377.222	87.69
377.448	86.69
377.674	98.69
377.899	81.69
378.125	105.69
378.35	95.69
378.576	98.69
378.802	98.69
379.027	105.69
379.253	96.69
379.478	90.69
379.704	103.69
379.929	91.69
380.155	96.69
380.38	114.69
380.606	110.69
380.831	103.69
381.057	112.69
381.282	89.69
381.507	94.69
381.733	89.69
381.958	98.69
382.184	103.69
382.409	100.69
382.634	102.69
382.86	109.69
383.085	98.69
383.31	114.69
383.535	116.69
383.761	100.69
383.986	114.69
384.211	113.69
384.436	110.69
384.662	102.69
384.887	111.69
385.112	128.69
385.337	103.69
385.562	107.69
385.787	100.69
386.013	99.69
386.238	115.69
386.463	118.69
386.688	106.69
386.913	110.69
387.138	122.69
387.363	107.69
387.588	100.69
387.813	99.69
388.038	102.69
388.263	111.69
388.488	105.69
388.713	104.69
388.938	97.69
389.163	95.69
389.387	110.69
389.612	89.69
389.837	99.69
390.062	83.69
390.287	103.69
390.512	97.69
390.736	86.69
390.961	92.69
391.186	99.69
391.411	92.69
391.636	98.69
391.86	97.69
392.085	90.69
392.31	85.69
392.534	104.69
392.759	89.69
392.984	82.69
393.208	102.69
393.433	91.69
393.658	102.69
393.882	85.69
394.107	87.69
394.331	85.69
394.556	101.69
394.78	92.69
395.005	82.69
395.229	86.69
395.454	86.69
395.678	64.69
395.903	96.69
396.127	84.69
396.352	87.69
396.576	90.69
396.801	96.69
397.025	92.69
397.249	93.69
397.474	93.69
397.698	90.69
397.922	98.69
398.147	93.69
398.371	100.69
398.595	88.69
398.82	86.69
399.044	83.69
399.268	86.69
399.492	92.69
399.717	70.69
399.941	92.69
400.165	102.69
400.389	86.69
400.613	86.69
400.837	86.69
401.062	91.69
401.286	93.69
401.51	91.69
401.734	91.69
401.958	105.69
402.182	117.69
402.406	130.69
402.63	114.69
402.854	97.69
403.078	95.69
403.302	66.69
403.526	79.69
403.75	93.69
403.974	86.69
404.198	80.69
404.422	101.69
404.645	88.69
404.869	90.69
405.093	92.69
405.317	100.69
405.541	102.69
405.765	98.69
405.988	104.69
406.212	152.69
406.436	219.69
406.66	142.69
406.883	88.69
407.107	82.69
407.331	103.69
407.555	105.69
407.778	89.69
408.002	104.69
408.226	88.69
408.449	91.69
408.673	102.69
408.896	85.69
409.12	92.69
409.344	86.69
409.567	86.69
409.791	96.69
410.014	95.69
410.238	90.69
410.461	103.69
410.685	85.69
410.908	101.69
411.132	102.69
411.355	93.69
411.578	98.69
411.802	94.69
412.025	89.69
412.249	89.69
412.472	102.69
412.695	107.69
412.919	91.69
413.142	86.69
413.365	96.69
413.589	93.69
413.812	85.69
414.035	103.69
414.258	92.69
414.482	93.69
414.705	84.69
414.928	98.69
415.151	95.69
415.374	107.69
415.597	85.69
415.821	88.69
416.044	98.69
416.267	88.69
416.49	87.69
416.713	105.69
416.936	86.69
417.159	90.69
417.382	84.69
417.605	98.69
417.828	103.69
418.051	100.69
418.274	85.69
418.497	87.69
418.72	107.69
418.943	79.69
419.166	87.69
419.389	87.69
419.611	84.69
419.834	96.69
420.057	88.69
420.28	72.69
420.503	98.69
420.726	83.69
420.948	107.69
421.171	105.69
421.394	85.69
421.617	87.69
421.839	89.69
422.062	80.69
422.285	109.69
422.507	92.69
422.73	118.69
422.953	104.69
423.175	80.69
423.398	90.69
423.621	90.69
423.843	87.69
424.066	69.69
424.288	100.69
424.511	91.69
424.733	114.69
424.956	96.69
425.178	96.69
425.401	105.69
425.623	100.69
425.846	93.69
426.068	90.69
426.291	106.69
426.513	88.69
426.735	86.69
426.958	97.69
427.18	101.69
427.402	150.69
427.625	160.69
427.847	130.69
428.069	119.69
428.292	88.69
428.514	90.69
428.736	93.69
428.958	95.69
429.181	89.69
429.403	83.69
429.625	82.69
429.847	86.69
430.069	78.69
430.292	106.69
430.514	76.69
430.736	89.69
430.958	93.69
431.18	88.69
431.402	71.69
431.624	89.69
431.846	87.69
432.068	87.69
432.29	91.69
432.512	103.69
432.734	85.69
432.956	87.69
433.178	87.69
433.4	117.69
433.622	89.69
433.844	93.69
434.066	86.69
434.287	94.69
434.509	92.69
434.731	91.69
434.953	82.69
435.175	105.69
435.397	106.69
435.618	83.69
435.84	93.69
436.062	128.69
436.284	104.69
436.505	112.69
436.727	104.69
436.949	87.69
437.17	96.69
437.392	91.69
437.614	104.69
437.835	98.69
438.057	103.69
438.278	100.69
438.5	98.69
438.721	115.69
438.943	97.69
439.165	92.69
439.386	87.69
439.608	87.69
439.829	95.69
440.05	111.69
440.272	143.69
440.493	120.69
440.715	96.69
440.936	92.69
441.158	96.69
441.379	81.69
441.6	89.69
441.822	100.69
442.043	94.69
442.264	98.69
442.486	102.69
442.707	99.69
442.928	104.69
443.149	121.69
443.371	132.69
443.592	116.69
443.813	106.69
444.034	112.69
444.255	96.69
444.476	85.69
444.698	98.69
444.919	90.69
445.14	127.69
445.361	114.69
445.582	107.69
445.803	141.69
446.024	116.69
446.245	131.69
446.466	111.69
446.687	107.69
446.908	88.69
447.129	94.69
447.35	80.69
447.571	104.69
447.792	82.69
448.013	103.69
448.234	115.69
448.455	102.69
448.675	114.69
448.896	109.69
449.117	93.69
449.338	111.69
449.559	123.69
449.779	124.69
450	91.69
450.221	89.69
450.442	85.69
450.662	101.69
450.883	104.69
451.104	112.69
451.324	104.69
451.545	89.69
451.766	90.69
451.986	87.69
452.207	83.69
452.428	100.69
452.648	99.69
452.869	103.69
453.089	106.69
453.31	103.69
453.53	101.69
453.751	77.69
453.971	95.69
454.192	111.69
454.412	82.69
454.633	80.69
454.853	83.69
455.073	78.69
455.294	82.69
455.514	107.69
455.734	100.69
455.955	88.69
456.175	94.69
456.395	84.69
456.616	93.69
456.836	89.69
457.056	85.69
457.276	86.69
457.497	71.69
457.717	91.69
457.937	86.69
458.157	93.69
458.377	94.69
458.598	107.69
458.818	132.69
459.038	135.69
459.258	116.69
459.478	100.69
459.698	85.69
459.918	92.69
460.138	78.69
460.358	82.69
460.578	98.69
460.798	88.69
461.018	95.69
461.238	99.69
461.458	72.69
461.678	86.69
461.898	79.69
462.118	98.69
462.338	96.69
462.558	86.69
462.777	94.69
462.997	94.69
463.217	94.69
463.437	81.69
463.657	95.69
463.876	102.69
464.096	87.69
464.316	88.69
464.536	94.69
464.755	95.69
464.975	82.69
465.195	139.69
465.414	139.69
465.634	77.69
465.854	79.69
466.073	79.69
466.293	88.69
466.512	87.69
466.732	82.69
466.951	77.69
467.171	103.69
467.391	86.69
467.61	112.69
467.829	84.69
468.049	107.69
468.268	117.69
468.488	107.69
468.707	85.69
468.927	90.69
469.146	93.69
469.365	90.69
469.585	77.69
469.804	84.69
470.023	84.69
470.243	101.69
470.462	118.69
470.681	110.69
470.901	90.69
471.12	89.69
471.339	86.69
471.558	90.69
471.777	96.69
471.997	108.69
472.216	139.69
472.435	212.69
472.654	123.69
472.873	90.69
473.092	89.69
473.311	81.69
473.53	74.69
473.749	91.69
473.968	91.69
474.187	101.69
474.406	99.69
474.625	102.69
474.844	90.69
475.063	80.69
475.282	86.69
475.501	96.69
475.72	75.69
475.939	90.69
476.158	98.69
476.377	90.69
476.596	86.69
476.814	100.69
477.033	89.69
477.252	86.69
477.471	89.69
477.69	92.69
477.908	91.69
478.127	106.69
478.346	81.69
478.564	92.69
478.783	89.69
479.002	91.69
479.22	100.69
479.439	99.69
479.658	101.69
479.876	82.69
480.095	93.69
480.313	77.69
480.532	84.69
480.751	104.69
480.969	156.69
481.188	340.69
481.406	218.69
481.624	122.69
481.843	96.69
482.061	92.69
482.28	100.69
482.498	94.69
482.717	86.69
482.935	99.69
483.153	92.69
483.372	90.69
483.59	87.69
483.808	93.69
484.027	87.69
484.245	83.69
484.463	95.69
484.681	88.69
484.9	83.69
485.118	90.69
485.336	98.69
485.554	97.69
485.772	103.69
485.99	100.69
486.209	114.69
486.427	92.69
486.645	109.69
486.863	104.69
487.081	104.69
487.299	93.69
487.517	95.69
487.735	93.69
487.953	106.69
488.171	95.69
488.389	98.69
488.607	102.69
488.825	98.69
489.043	91.69
489.261	93.69
489.479	92.69
489.696	86.69
489.914	90.69
490.132	73.69
490.35	79.69
490.568	84.69
490.786	90.69
491.003	76.69
491.221	88.69
491.439	100.69
491.657	95.69
491.874	87.69
492.092	95.69
492.31	75.69
492.527	79.69
492.745	71.69
492.963	78.69
493.18	82.69
493.398	102.69
493.615	85.69
493.833	97.69
494.05	90.69
494.268	82.69
494.485	93.69
494.703	70.69
494.92	97.69
495.138	94.69
495.355	91.69
495.573	85.69
495.79	89.69
496.008	88.69
496.225	95.69
496.442	91.69
496.66	98.69
496.877	93.69
497.094	91.69
497.312	106.69
497.529	83.69
497.746	88.69
497.963	96.69
498.181	95.69
498.398	105.69
498.615	110.69
498.832	98.69
499.049	87.69
499.267	86.69
499.484	86.69
499.701	92.69
499.918	97.69
500.135	103.69
500.352	78.69
500.569	90.69
500.786	106.69
501.003	83.69
501.22	96.69
501.437	79.69
501.654	95.69
501.871	94.69
502.088	96.69
502.305	78.69
502.522	91.69
502.739	85.69
502.956	78.69
503.172	81.69
503.389	90.69
503.606	102.69
503.823	102.69
504.04	85.69
504.256	100.69
504.473	77.69
504.69	92.69
504.907	101.69
505.123	85.69
505.34	78.69
505.557	87.69
505.773	90.69
505.99	73.69
506.207	83.69
506.423	83.69
506.64	91.69
506.856	95.69
507.073	87.69
507.289	85.69
507.506	92.69
507.722	114.69
507.939	114.69
508.155	101.69
508.372	94.69
508.588	104.69
508.805	92.69
509.021	86.69
509.238	92.69
509.454	100.69
509.67	106.69
509.887	101.69
510.103	118.69
510.319	202.69
510.536	695.69
510.752	2325.69
510.968	685.69
511.184	164.69
511.401	116.69
511.617	107.69
511.833	90.69
512.049	109.69
512.265	114.69
512.481	86.69
512.698	77.69
512.914	88.69
513.13	107.69
513.346	88.69
513.562	109.69
513.778	80.69
513.994	93.69
514.21	112.69
514.426	111.69
514.642	119.69
