Data from Circ_2015_H10_HRD10591_00019.txt Node
Date: Wed Jan 03 10:00:26 EST 2024
User: Yrep
Spectrometer: HR+D1059
Trigger mode: 1
Integration Time (sec): 1.000000E-1
Scans to average: 1
Electric dark correction enabled: true
Nonlinearity correction enabled: false
Boxcar width: 0
XAxis mode: Wavelengths
Number of Pixels in Spectrum: 2048
>>>>>Begin Spectral Data<<<<<
223.165	-18.56
223.4	-18.56
223.635	-18.56
223.869	-13.56
224.104	-23.56
224.338	-4.56
224.573	-11.56
224.808	-11.56
225.042	-12.56
225.277	-9.56
225.511	5.44
225.746	4.44
225.98	6.44
226.215	-1.56
226.449	18.44
226.683	22.44
226.918	16.44
227.152	33.44
227.387	25.44
227.621	56.44
227.856	44.44
228.09	51.44
228.324	51.44
228.559	47.44
228.793	58.44
229.027	70.44
229.262	65.44
229.496	83.44
229.73	80.44
229.964	88.44
230.199	74.44
230.433	74.44
230.667	75.44
230.901	74.44
231.136	91.44
231.37	94.44
231.604	85.44
231.838	78.44
232.072	76.44
232.306	77.44
232.541	63.44
232.775	86.44
233.009	82.44
233.243	92.44
233.477	76.44
233.711	92.44
233.945	78.44
234.179	93.44
234.413	87.44
234.647	81.44
234.881	82.44
235.115	72.44
235.349	78.44
235.583	81.44
235.817	72.44
236.051	78.44
236.285	78.44
236.519	77.44
236.753	76.44
236.987	87.44
237.221	86.44
237.455	99.44
237.689	78.44
237.922	82.44
238.156	86.44
238.39	92.44
238.624	73.44
238.858	76.44
239.091	83.44
239.325	77.44
239.559	86.44
239.793	76.44
240.027	76.44
240.26	79.44
240.494	74.44
240.728	87.44
240.961	71.44
241.195	87.44
241.429	81.44
241.662	63.44
241.896	67.44
242.13	76.44
242.363	79.44
242.597	80.44
242.83	86.44
243.064	77.44
243.298	87.44
243.531	84.44
243.765	59.44
243.998	60.44
244.232	77.44
244.465	80.44
244.699	82.44
244.932	95.44
245.166	73.44
245.399	81.44
245.633	68.44
245.866	78.44
246.099	66.44
246.333	81.44
246.566	67.44
246.8	74.44
247.033	82.44
247.266	72.44
247.5	96.44
247.733	77.44
247.966	74.44
248.2	82.44
248.433	75.44
248.666	90.44
248.899	71.44
249.133	69.44
249.366	88.44
249.599	88.44
249.832	89.44
250.066	78.44
250.299	84.44
250.532	96.44
250.765	77.44
250.998	87.44
251.231	82.44
251.465	77.44
251.698	63.44
251.931	79.44
252.164	88.44
252.397	70.44
252.63	81.44
252.863	76.44
253.096	79.44
253.329	92.44
253.562	80.44
253.795	84.44
254.028	91.44
254.261	74.44
254.494	87.44
254.727	84.44
254.96	88.44
255.193	68.44
255.426	78.44
255.659	78.44
255.892	92.44
256.124	84.44
256.357	80.44
256.59	78.44
256.823	84.44
257.056	80.44
257.289	85.44
257.521	99.44
257.754	83.44
257.987	66.44
258.22	81.44
258.452	88.44
258.685	79.44
258.918	82.44
259.151	87.44
259.383	91.44
259.616	80.44
259.849	78.44
260.081	67.44
260.314	60.44
260.547	92.44
260.779	90.44
261.012	75.44
261.244	78.44
261.477	97.44
261.71	95.44
261.942	107.44
262.175	123.44
262.407	88.44
262.64	71.44
262.872	92.44
263.105	87.44
263.337	92.44
263.57	91.44
263.802	91.44
264.035	83.44
264.267	79.44
264.499	91.44
264.732	79.44
264.964	85.44
265.197	84.44
265.429	87.44
265.661	91.44
265.894	97.44
266.126	85.44
266.358	84.44
266.591	81.44
266.823	85.44
267.055	97.44
267.287	101.44
267.52	98.44
267.752	89.44
267.984	87.44
268.216	79.44
268.448	93.44
268.681	78.44
268.913	80.44
269.145	78.44
269.377	91.44
269.609	82.44
269.841	89.44
270.073	77.44
270.306	88.44
270.538	98.44
270.77	74.44
271.002	93.44
271.234	76.44
271.466	87.44
271.698	80.44
271.93	92.44
272.162	87.44
272.394	77.44
272.626	88.44
272.858	92.44
273.09	81.44
273.322	97.44
273.553	88.44
273.785	86.44
274.017	89.44
274.249	79.44
274.481	90.44
274.713	97.44
274.945	71.44
275.176	91.44
275.408	86.44
275.64	91.44
275.872	85.44
276.104	91.44
276.335	82.44
276.567	96.44
276.799	90.44
277.031	106.44
277.262	101.44
277.494	90.44
277.726	77.44
277.957	87.44
278.189	75.44
278.421	87.44
278.652	82.44
278.884	82.44
279.115	85.44
279.347	87.44
279.579	84.44
279.81	91.44
280.042	92.44
280.273	88.44
280.505	85.44
280.736	93.44
280.968	93.44
281.199	86.44
281.431	92.44
281.662	90.44
281.894	81.44
282.125	93.44
282.356	110.44
282.588	123.44
282.819	128.44
283.051	79.44
283.282	89.44
283.513	97.44
283.745	82.44
283.976	86.44
284.207	74.44
284.439	86.44
284.67	83.44
284.901	90.44
285.132	92.44
285.364	91.44
285.595	91.44
285.826	84.44
286.057	86.44
286.288	80.44
286.52	83.44
286.751	92.44
286.982	98.44
287.213	97.44
287.444	82.44
287.675	92.44
287.906	77.44
288.138	96.44
288.369	119.44
288.6	85.44
288.831	79.44
289.062	81.44
289.293	84.44
289.524	91.44
289.755	85.44
289.986	79.44
290.217	89.44
290.448	86.44
290.679	87.44
290.91	94.44
291.141	89.44
291.371	90.44
291.602	99.44
291.833	94.44
292.064	85.44
292.295	102.44
292.526	82.44
292.757	98.44
292.987	81.44
293.218	95.44
293.449	91.44
293.68	78.44
293.91	85.44
294.141	76.44
294.372	93.44
294.603	90.44
294.833	96.44
295.064	81.44
295.295	85.44
295.525	89.44
295.756	91.44
295.987	99.44
296.217	122.44
296.448	118.44
296.679	87.44
296.909	98.44
297.14	86.44
297.37	83.44
297.601	77.44
297.831	87.44
298.062	96.44
298.292	85.44
298.523	87.44
298.753	95.44
298.984	93.44
299.214	87.44
299.445	91.44
299.675	87.44
299.905	84.44
300.136	98.44
300.366	92.44
300.597	85.44
300.827	88.44
301.057	104.44
301.288	99.44
301.518	95.44
301.748	95.44
301.979	94.44
302.209	87.44
302.439	83.44
302.669	92.44
302.9	91.44
303.13	101.44
303.36	76.44
303.59	101.44
303.82	87.44
304.051	87.44
304.281	97.44
304.511	78.44
304.741	89.44
304.971	82.44
305.201	84.44
305.431	83.44
305.661	92.44
305.891	79.44
306.121	96.44
306.352	98.44
306.582	99.44
306.812	91.44
307.042	90.44
307.272	95.44
307.502	99.44
307.731	96.44
307.961	87.44
308.191	97.44
308.421	85.44
308.651	91.44
308.881	93.44
309.111	101.44
309.341	83.44
309.571	92.44
309.8	104.44
310.03	112.44
310.26	91.44
310.49	111.44
310.72	89.44
310.949	97.44
311.179	96.44
311.409	90.44
311.639	77.44
311.868	91.44
312.098	87.44
312.328	94.44
312.557	95.44
312.787	108.44
313.017	100.44
313.246	99.44
313.476	100.44
313.706	99.44
313.935	81.44
314.165	110.44
314.394	108.44
314.624	85.44
314.853	93.44
315.083	93.44
315.312	79.44
315.542	98.44
315.771	82.44
316.001	98.44
316.23	90.44
316.46	77.44
316.689	98.44
316.919	107.44
317.148	101.44
317.377	108.44
317.607	102.44
317.836	74.44
318.065	96.44
318.295	100.44
318.524	86.44
318.753	101.44
318.983	94.44
319.212	104.44
319.441	95.44
319.67	115.44
319.9	92.44
320.129	93.44
320.358	88.44
320.587	98.44
320.816	87.44
321.046	101.44
321.275	101.44
321.504	99.44
321.733	98.44
321.962	102.44
322.191	104.44
322.42	104.44
322.649	101.44
322.878	104.44
323.108	114.44
323.337	116.44
323.566	126.44
323.795	144.44
324.024	193.44
324.253	350.44
324.482	726.44
324.71	1478.44
324.939	1943.44
325.168	741.44
325.397	227.44
325.626	151.44
325.855	123.44
326.084	133.44
326.313	127.44
326.542	159.44
326.77	229.44
326.999	413.44
327.228	825.44
327.457	1501.44
327.686	1207.44
327.914	351.44
328.143	194.44
328.372	158.44
328.6	131.44
328.829	118.44
329.058	120.44
329.287	115.44
329.515	110.44
329.744	111.44
329.972	108.44
330.201	125.44
330.43	135.44
330.658	130.44
330.887	133.44
331.115	112.44
331.344	93.44
331.572	99.44
331.801	107.44
332.03	114.44
332.258	112.44
332.486	98.44
332.715	102.44
332.943	97.44
333.172	101.44
333.4	92.44
333.629	103.44
333.857	109.44
334.085	135.44
334.314	124.44
334.542	172.44
334.771	164.44
334.999	99.44
335.227	92.44
335.455	96.44
335.684	105.44
335.912	91.44
336.14	98.44
336.369	89.44
336.597	102.44
336.825	108.44
337.053	94.44
337.281	95.44
337.51	84.44
337.738	86.44
337.966	91.44
338.194	95.44
338.422	100.44
338.65	101.44
338.878	90.44
339.106	88.44
339.334	87.44
339.562	85.44
339.79	104.44
340.018	110.44
340.246	84.44
340.474	83.44
340.702	98.44
340.93	87.44
341.158	77.44
341.386	90.44
341.614	95.44
341.842	101.44
342.07	95.44
342.298	106.44
342.526	85.44
342.754	90.44
342.981	89.44
343.209	87.44
343.437	105.44
343.665	104.44
343.893	86.44
344.12	105.44
344.348	92.44
344.576	86.44
344.804	93.44
345.031	96.44
345.259	99.44
345.487	97.44
345.714	93.44
345.942	80.44
346.17	93.44
346.397	91.44
346.625	84.44
346.853	90.44
347.08	86.44
347.308	98.44
347.535	95.44
347.763	93.44
347.99	102.44
348.218	99.44
348.445	101.44
348.673	85.44
348.9	79.44
349.128	99.44
349.355	95.44
349.583	89.44
349.81	89.44
350.037	87.44
350.265	93.44
350.492	97.44
350.72	91.44
350.947	99.44
351.174	113.44
351.402	115.44
351.629	96.44
351.856	100.44
352.083	104.44
352.311	104.44
352.538	109.44
352.765	95.44
352.992	112.44
353.22	99.44
353.447	103.44
353.674	109.44
353.901	106.44
354.128	115.44
354.355	83.44
354.583	100.44
354.81	95.44
355.037	97.44
355.264	105.44
355.491	97.44
355.718	107.44
355.945	93.44
356.172	88.44
356.399	86.44
356.626	87.44
356.853	102.44
357.08	101.44
357.307	109.44
357.534	99.44
357.761	109.44
357.988	93.44
358.215	103.44
358.441	97.44
358.668	100.44
358.895	93.44
359.122	90.44
359.349	89.44
359.576	86.44
359.802	110.44
360.029	100.44
360.256	115.44
360.483	110.44
360.709	91.44
360.936	100.44
361.163	94.44
361.39	94.44
361.616	93.44
361.843	103.44
362.07	90.44
362.296	84.44
362.523	97.44
362.749	77.44
362.976	96.44
363.203	94.44
363.429	97.44
363.656	91.44
363.882	93.44
364.109	95.44
364.335	75.44
364.562	93.44
364.788	102.44
365.015	89.44
365.241	99.44
365.468	104.44
365.694	96.44
365.92	100.44
366.147	92.44
366.373	93.44
366.599	101.44
366.826	103.44
367.052	92.44
367.278	89.44
367.505	87.44
367.731	91.44
367.957	97.44
368.184	95.44
368.41	82.44
368.636	118.44
368.862	123.44
369.089	97.44
369.315	91.44
369.541	87.44
369.767	85.44
369.993	74.44
370.219	78.44
370.445	94.44
370.672	92.44
370.898	102.44
371.124	92.44
371.35	86.44
371.576	98.44
371.802	94.44
372.028	86.44
372.254	81.44
372.48	85.44
372.706	79.44
372.932	91.44
373.158	93.44
373.384	83.44
373.61	89.44
373.835	80.44
374.061	84.44
374.287	96.44
374.513	103.44
374.739	96.44
374.965	83.44
375.191	87.44
375.416	85.44
375.642	83.44
375.868	90.44
376.094	91.44
376.319	90.44
376.545	79.44
376.771	99.44
376.997	78.44
377.222	103.44
377.448	98.44
377.674	90.44
377.899	89.44
378.125	85.44
378.35	95.44
378.576	112.44
378.802	95.44
379.027	79.44
379.253	87.44
379.478	92.44
379.704	88.44
379.929	105.44
380.155	101.44
380.38	84.44
380.606	87.44
380.831	121.44
381.057	104.44
381.282	110.44
381.507	100.44
381.733	102.44
381.958	94.44
382.184	87.44
382.409	93.44
382.634	119.44
382.86	104.44
383.085	110.44
383.31	119.44
383.535	102.44
383.761	110.44
383.986	103.44
384.211	108.44
384.436	108.44
384.662	111.44
384.887	94.44
385.112	104.44
385.337	102.44
385.562	93.44
385.787	108.44
386.013	127.44
386.238	129.44
386.463	108.44
386.688	108.44
386.913	114.44
387.138	119.44
387.363	97.44
387.588	108.44
387.813	115.44
388.038	114.44
388.263	118.44
388.488	114.44
388.713	91.44
388.938	107.44
389.163	103.44
389.387	101.44
389.612	106.44
389.837	103.44
390.062	95.44
390.287	113.44
390.512	88.44
390.736	92.44
390.961	98.44
391.186	100.44
391.411	102.44
391.636	97.44
391.86	82.44
392.085	83.44
392.31	79.44
392.534	98.44
392.759	84.44
392.984	71.44
393.208	99.44
393.433	116.44
393.658	105.44
393.882	87.44
394.107	90.44
394.331	98.44
394.556	85.44
394.78	87.44
395.005	107.44
395.229	85.44
395.454	78.44
395.678	80.44
395.903	87.44
396.127	90.44
396.352	76.44
396.576	90.44
396.801	97.44
397.025	104.44
397.249	100.44
397.474	77.44
397.698	70.44
397.922	80.44
398.147	92.44
398.371	79.44
398.595	89.44
398.82	81.44
399.044	97.44
399.268	76.44
399.492	88.44
399.717	107.44
399.941	93.44
400.165	88.44
400.389	102.44
400.613	93.44
400.837	99.44
401.062	75.44
401.286	86.44
401.51	92.44
401.734	80.44
401.958	99.44
402.182	111.44
402.406	157.44
402.63	122.44
402.854	82.44
403.078	94.44
403.302	100.44
403.526	86.44
403.75	80.44
403.974	100.44
404.198	83.44
404.422	102.44
404.645	94.44
404.869	77.44
405.093	99.44
405.317	94.44
405.541	92.44
405.765	96.44
405.988	103.44
406.212	166.44
406.436	188.44
406.66	136.44
406.883	94.44
407.107	84.44
407.331	90.44
407.555	96.44
407.778	98.44
408.002	92.44
408.226	95.44
408.449	92.44
408.673	93.44
408.896	95.44
409.12	86.44
409.344	88.44
409.567	87.44
409.791	107.44
410.014	112.44
410.238	91.44
410.461	86.44
410.685	110.44
410.908	105.44
411.132	99.44
411.355	90.44
411.578	92.44
411.802	98.44
412.025	87.44
412.249	91.44
412.472	100.44
412.695	98.44
412.919	84.44
413.142	76.44
413.365	95.44
413.589	86.44
413.812	82.44
414.035	92.44
414.258	105.44
414.482	100.44
414.705	95.44
414.928	89.44
415.151	88.44
415.374	90.44
415.597	103.44
415.821	95.44
416.044	94.44
416.267	95.44
416.49	91.44
416.713	73.44
416.936	86.44
417.159	100.44
417.382	103.44
417.605	85.44
417.828	90.44
418.051	95.44
418.274	97.44
418.497	89.44
418.72	89.44
418.943	87.44
419.166	111.44
419.389	92.44
419.611	78.44
419.834	93.44
420.057	76.44
420.28	97.44
420.503	106.44
420.726	95.44
420.948	78.44
421.171	89.44
421.394	87.44
421.617	79.44
421.839	98.44
422.062	95.44
422.285	76.44
422.507	93.44
422.73	104.44
422.953	95.44
423.175	101.44
423.398	83.44
423.621	88.44
423.843	97.44
424.066	105.44
424.288	83.44
424.511	78.44
424.733	101.44
424.956	102.44
425.178	101.44
425.401	97.44
425.623	98.44
425.846	102.44
426.068	94.44
426.291	104.44
426.513	85.44
426.735	85.44
426.958	104.44
427.18	114.44
427.402	126.44
427.625	132.44
427.847	116.44
428.069	109.44
428.292	96.44
428.514	71.44
428.736	74.44
428.958	89.44
429.181	87.44
429.403	87.44
429.625	94.44
429.847	83.44
430.069	106.44
430.292	90.44
430.514	87.44
430.736	81.44
430.958	100.44
431.18	85.44
431.402	81.44
431.624	86.44
431.846	82.44
432.068	97.44
432.29	76.44
432.512	87.44
432.734	86.44
432.956	88.44
433.178	85.44
433.4	94.44
433.622	92.44
433.844	101.44
434.066	88.44
434.287	88.44
434.509	90.44
434.731	92.44
434.953	77.44
435.175	91.44
435.397	89.44
435.618	93.44
435.84	93.44
436.062	117.44
436.284	99.44
436.505	97.44
436.727	96.44
436.949	89.44
437.17	99.44
437.392	82.44
437.614	86.44
437.835	99.44
438.057	114.44
438.278	119.44
438.5	99.44
438.721	117.44
438.943	96.44
439.165	89.44
439.386	94.44
439.608	90.44
439.829	100.44
440.05	107.44
440.272	119.44
440.493	100.44
440.715	80.44
440.936	87.44
441.158	95.44
441.379	89.44
441.6	87.44
441.822	89.44
442.043	96.44
442.264	98.44
442.486	102.44
442.707	89.44
442.928	101.44
443.149	125.44
443.371	120.44
443.592	104.44
443.813	115.44
444.034	103.44
444.255	96.44
444.476	87.44
444.698	78.44
444.919	73.44
445.14	122.44
445.361	108.44
445.582	100.44
445.803	119.44
446.024	118.44
446.245	123.44
446.466	118.44
446.687	104.44
446.908	87.44
447.129	90.44
447.35	86.44
447.571	96.44
447.792	102.44
448.013	97.44
448.234	105.44
448.455	99.44
448.675	108.44
448.896	115.44
449.117	89.44
449.338	96.44
449.559	115.44
449.779	111.44
450	90.44
450.221	75.44
450.442	86.44
450.662	76.44
450.883	100.44
451.104	105.44
451.324	97.44
451.545	92.44
451.766	101.44
451.986	94.44
452.207	87.44
452.428	76.44
452.648	100.44
452.869	106.44
453.089	103.44
453.31	94.44
453.53	91.44
453.751	87.44
453.971	98.44
454.192	107.44
454.412	109.44
454.633	90.44
454.853	92.44
455.073	94.44
455.294	91.44
455.514	105.44
455.734	88.44
455.955	79.44
456.175	73.44
456.395	68.44
456.616	84.44
456.836	89.44
457.056	80.44
457.276	91.44
457.497	83.44
457.717	87.44
457.937	86.44
458.157	87.44
458.377	89.44
458.598	95.44
458.818	138.44
459.038	141.44
459.258	104.44
459.478	85.44
459.698	86.44
459.918	93.44
460.138	79.44
460.358	77.44
460.578	84.44
460.798	96.44
461.018	80.44
461.238	92.44
461.458	79.44
461.678	84.44
461.898	90.44
462.118	75.44
462.338	92.44
462.558	72.44
462.777	84.44
462.997	93.44
463.217	85.44
463.437	93.44
463.657	85.44
463.876	89.44
464.096	78.44
464.316	87.44
464.536	81.44
464.755	106.44
464.975	102.44
465.195	142.44
465.414	135.44
465.634	86.44
465.854	78.44
466.073	86.44
466.293	81.44
466.512	80.44
466.732	78.44
466.951	105.44
467.171	108.44
467.391	104.44
467.61	96.44
467.829	91.44
468.049	114.44
468.268	120.44
468.488	116.44
468.707	85.44
468.927	86.44
469.146	88.44
469.365	79.44
469.585	93.44
469.804	106.44
470.023	90.44
470.243	92.44
470.462	100.44
470.681	86.44
470.901	85.44
471.12	86.44
471.339	86.44
471.558	106.44
471.777	91.44
471.997	103.44
472.216	129.44
472.435	188.44
472.654	115.44
472.873	85.44
473.092	74.44
473.311	81.44
473.53	87.44
473.749	90.44
473.968	108.44
474.187	104.44
474.406	107.44
474.625	98.44
474.844	87.44
475.063	91.44
475.282	66.44
475.501	93.44
475.72	92.44
475.939	87.44
476.158	80.44
476.377	84.44
476.596	79.44
476.814	88.44
477.033	100.44
477.252	87.44
477.471	85.44
477.69	86.44
477.908	85.44
478.127	94.44
478.346	94.44
478.564	92.44
478.783	78.44
479.002	96.44
479.22	75.44
479.439	97.44
479.658	88.44
479.876	93.44
480.095	88.44
480.313	86.44
480.532	104.44
480.751	83.44
480.969	130.44
481.188	256.44
481.406	194.44
481.624	86.44
481.843	96.44
482.061	94.44
482.28	102.44
482.498	83.44
482.717	94.44
482.935	92.44
483.153	86.44
483.372	95.44
483.59	74.44
483.808	100.44
484.027	93.44
484.245	105.44
484.463	90.44
484.681	90.44
484.9	105.44
485.118	99.44
485.336	91.44
485.554	92.44
485.772	102.44
485.99	95.44
486.209	96.44
486.427	107.44
486.645	114.44
486.863	107.44
487.081	109.44
487.299	109.44
487.517	83.44
487.735	92.44
487.953	94.44
488.171	109.44
488.389	105.44
488.607	108.44
488.825	91.44
489.043	103.44
489.261	91.44
489.479	87.44
489.696	113.44
489.914	75.44
490.132	87.44
490.35	104.44
490.568	89.44
490.786	83.44
491.003	94.44
491.221	92.44
491.439	86.44
491.657	84.44
491.874	96.44
492.092	82.44
492.31	94.44
492.527	94.44
492.745	72.44
492.963	93.44
493.18	99.44
493.398	99.44
493.615	102.44
493.833	105.44
494.05	107.44
494.268	91.44
494.485	97.44
494.703	80.44
494.92	83.44
495.138	92.44
495.355	81.44
495.573	84.44
495.79	83.44
496.008	99.44
496.225	86.44
496.442	80.44
496.66	93.44
496.877	91.44
497.094	95.44
497.312	93.44
497.529	89.44
497.746	101.44
497.963	84.44
498.181	95.44
498.398	104.44
498.615	97.44
498.832	110.44
499.049	101.44
499.267	72.44
499.484	83.44
499.701	85.44
499.918	84.44
500.135	95.44
500.352	87.44
500.569	106.44
500.786	96.44
501.003	89.44
501.22	97.44
501.437	92.44
501.654	101.44
501.871	93.44
502.088	79.44
502.305	94.44
502.522	95.44
502.739	94.44
502.956	77.44
503.172	86.44
503.389	87.44
503.606	105.44
503.823	103.44
504.04	90.44
504.256	83.44
504.473	92.44
504.69	90.44
504.907	93.44
505.123	97.44
505.34	82.44
505.557	87.44
505.773	95.44
505.99	90.44
506.207	78.44
506.423	99.44
506.64	68.44
506.856	89.44
507.073	86.44
507.289	92.44
507.506	94.44
507.722	106.44
507.939	110.44
508.155	106.44
508.372	94.44
508.588	94.44
508.805	102.44
509.021	80.44
509.238	99.44
509.454	105.44
509.67	120.44
509.887	104.44
510.103	115.44
510.319	182.44
510.536	660.44
510.752	2108.44
510.968	642.44
511.184	151.44
511.401	110.44
511.617	111.44
511.833	102.44
512.049	96.44
512.265	90.44
512.481	85.44
512.698	86.44
512.914	92.44
513.13	90.44
513.346	87.44
513.562	104.44
513.778	113.44
513.994	88.44
514.21	91.44
514.426	114.44
514.642	133.44
514.858	115.44
515.074	146.44
515.29	355.44
