Data from Circ_2015_H10_HRD10591_00075.txt Node
Date: Wed Jan 03 10:00:37 EST 2024
User: Yrep
Spectrometer: HR+D1059
Trigger mode: 1
Integration Time (sec): 1.000000E-1
Scans to average: 1
Electric dark correction enabled: true
Nonlinearity correction enabled: false
Boxcar width: 0
XAxis mode: Wavelengths
Number of Pixels in Spectrum: 2048
>>>>>Begin Spectral Data<<<<<
223.165	-0.94
223.4	-0.94
223.635	-0.94
223.869	-20.94
224.104	-1.94
224.338	-9.94
224.573	-16.94
224.808	-14.94
225.042	-4.94
225.277	-8.94
225.511	-9.94
225.746	-2.94
225.98	5.06
226.215	10.06
226.449	11.06
226.683	25.06
226.918	18.06
227.152	23.06
227.387	31.06
227.621	45.06
227.856	62.06
228.09	60.06
228.324	58.06
228.559	50.06
228.793	50.06
229.027	77.06
229.262	61.06
229.496	83.06
229.73	73.06
229.964	86.06
230.199	62.06
230.433	80.06
230.667	73.06
230.901	77.06
231.136	73.06
231.37	72.06
231.604	73.06
231.838	81.06
232.072	88.06
232.306	79.06
232.541	86.06
232.775	92.06
233.009	79.06
233.243	79.06
233.477	83.06
233.711	82.06
233.945	71.06
234.179	93.06
234.413	71.06
234.647	86.06
234.881	83.06
235.115	86.06
235.349	86.06
235.583	71.06
235.817	84.06
236.051	73.06
236.285	78.06
236.519	83.06
236.753	91.06
236.987	74.06
237.221	89.06
237.455	85.06
237.689	82.06
237.922	77.06
238.156	80.06
238.39	79.06
238.624	73.06
238.858	82.06
239.091	72.06
239.325	82.06
239.559	87.06
239.793	62.06
240.027	73.06
240.26	70.06
240.494	85.06
240.728	89.06
240.961	77.06
241.195	62.06
241.429	69.06
241.662	65.06
241.896	76.06
242.13	70.06
242.363	64.06
242.597	73.06
242.83	82.06
243.064	77.06
243.298	89.06
243.531	85.06
243.765	68.06
243.998	69.06
244.232	77.06
244.465	78.06
244.699	89.06
244.932	70.06
245.166	82.06
245.399	76.06
245.633	67.06
245.866	84.06
246.099	80.06
246.333	61.06
246.566	71.06
246.8	89.06
247.033	79.06
247.266	87.06
247.5	82.06
247.733	77.06
247.966	82.06
248.2	62.06
248.433	78.06
248.666	88.06
248.899	73.06
249.133	83.06
249.366	92.06
249.599	88.06
249.832	75.06
250.066	84.06
250.299	76.06
250.532	90.06
250.765	86.06
250.998	80.06
251.231	71.06
251.465	83.06
251.698	70.06
251.931	78.06
252.164	90.06
252.397	92.06
252.63	101.06
252.863	84.06
253.096	74.06
253.329	85.06
253.562	78.06
253.795	88.06
254.028	86.06
254.261	98.06
254.494	80.06
254.727	83.06
254.96	95.06
255.193	98.06
255.426	96.06
255.659	93.06
255.892	95.06
256.124	87.06
256.357	89.06
256.59	85.06
256.823	86.06
257.056	94.06
257.289	86.06
257.521	80.06
257.754	74.06
257.987	91.06
258.22	74.06
258.452	94.06
258.685	73.06
258.918	87.06
259.151	75.06
259.383	79.06
259.616	85.06
259.849	65.06
260.081	82.06
260.314	89.06
260.547	81.06
260.779	87.06
261.012	95.06
261.244	89.06
261.477	94.06
261.71	97.06
261.942	94.06
262.175	108.06
262.407	82.06
262.64	84.06
262.872	92.06
263.105	79.06
263.337	91.06
263.57	88.06
263.802	74.06
264.035	74.06
264.267	78.06
264.499	82.06
264.732	73.06
264.964	68.06
265.197	95.06
265.429	79.06
265.661	76.06
265.894	91.06
266.126	90.06
266.358	74.06
266.591	94.06
266.823	81.06
267.055	82.06
267.287	96.06
267.52	81.06
267.752	86.06
267.984	87.06
268.216	82.06
268.448	84.06
268.681	88.06
268.913	85.06
269.145	73.06
269.377	90.06
269.609	75.06
269.841	96.06
270.073	89.06
270.306	72.06
270.538	86.06
270.77	85.06
271.002	62.06
271.234	81.06
271.466	91.06
271.698	87.06
271.93	75.06
272.162	80.06
272.394	86.06
272.626	75.06
272.858	77.06
273.09	80.06
273.322	86.06
273.553	83.06
273.785	91.06
274.017	100.06
274.249	92.06
274.481	88.06
274.713	89.06
274.945	94.06
275.176	92.06
275.408	81.06
275.64	80.06
275.872	110.06
276.104	91.06
276.335	94.06
276.567	99.06
276.799	96.06
277.031	111.06
277.262	99.06
277.494	88.06
277.726	88.06
277.957	89.06
278.189	100.06
278.421	75.06
278.652	97.06
278.884	93.06
279.115	86.06
279.347	80.06
279.579	95.06
279.81	98.06
280.042	102.06
280.273	108.06
280.505	108.06
280.736	75.06
280.968	84.06
281.199	85.06
281.431	89.06
281.662	88.06
281.894	81.06
282.125	93.06
282.356	105.06
282.588	125.06
282.819	115.06
283.051	88.06
283.282	86.06
283.513	84.06
283.745	92.06
283.976	83.06
284.207	78.06
284.439	94.06
284.67	101.06
284.901	90.06
285.132	83.06
285.364	86.06
285.595	77.06
285.826	94.06
286.057	79.06
286.288	83.06
286.52	86.06
286.751	82.06
286.982	91.06
287.213	69.06
287.444	82.06
287.675	90.06
287.906	81.06
288.138	82.06
288.369	93.06
288.6	100.06
288.831	95.06
289.062	87.06
289.293	91.06
289.524	92.06
289.755	77.06
289.986	91.06
290.217	114.06
290.448	85.06
290.679	96.06
290.91	90.06
291.141	92.06
291.371	79.06
291.602	98.06
291.833	87.06
292.064	89.06
292.295	83.06
292.526	90.06
292.757	88.06
292.987	95.06
293.218	79.06
293.449	95.06
293.68	93.06
293.91	87.06
294.141	88.06
294.372	94.06
294.603	92.06
294.833	97.06
295.064	99.06
295.295	92.06
295.525	92.06
295.756	113.06
295.987	108.06
296.217	140.06
296.448	114.06
296.679	95.06
296.909	90.06
297.14	82.06
297.37	92.06
297.601	100.06
297.831	78.06
298.062	87.06
298.292	96.06
298.523	81.06
298.753	82.06
298.984	89.06
299.214	101.06
299.445	97.06
299.675	85.06
299.905	104.06
300.136	93.06
300.366	86.06
300.597	84.06
300.827	103.06
301.057	104.06
301.288	121.06
301.518	98.06
301.748	65.06
301.979	84.06
302.209	93.06
302.439	83.06
302.669	90.06
302.9	91.06
303.13	99.06
303.36	91.06
303.59	105.06
303.82	90.06
304.051	106.06
304.281	98.06
304.511	86.06
304.741	90.06
304.971	84.06
305.201	80.06
305.431	99.06
305.661	93.06
305.891	86.06
306.121	108.06
306.352	106.06
306.582	109.06
306.812	110.06
307.042	96.06
307.272	91.06
307.502	103.06
307.731	111.06
307.961	104.06
308.191	94.06
308.421	79.06
308.651	94.06
308.881	83.06
309.111	93.06
309.341	91.06
309.571	86.06
309.8	96.06
310.03	89.06
310.26	107.06
310.49	94.06
310.72	103.06
310.949	102.06
311.179	92.06
311.409	98.06
311.639	87.06
311.868	87.06
312.098	90.06
312.328	96.06
312.557	112.06
312.787	100.06
313.017	93.06
313.246	88.06
313.476	84.06
313.706	87.06
313.935	98.06
314.165	90.06
314.394	86.06
314.624	96.06
314.853	109.06
315.083	99.06
315.312	92.06
315.542	91.06
315.771	103.06
316.001	97.06
316.23	94.06
316.46	94.06
316.689	95.06
316.919	88.06
317.148	97.06
317.377	95.06
317.607	88.06
317.836	117.06
318.065	107.06
318.295	82.06
318.524	87.06
318.753	100.06
318.983	100.06
319.212	90.06
319.441	110.06
319.67	105.06
319.9	92.06
320.129	94.06
320.358	103.06
320.587	118.06
320.816	106.06
321.046	106.06
321.275	100.06
321.504	84.06
321.733	104.06
321.962	87.06
322.191	94.06
322.42	107.06
322.649	115.06
322.878	119.06
323.108	118.06
323.337	126.06
323.566	133.06
323.795	142.06
324.024	196.06
324.253	406.06
324.482	832.06
324.71	1708.06
324.939	2270.06
325.168	829.06
325.397	252.06
325.626	154.06
325.855	138.06
326.084	137.06
326.313	134.06
326.542	146.06
326.77	228.06
326.999	469.06
327.228	954.06
327.457	1767.06
327.686	1453.06
327.914	387.06
328.143	238.06
328.372	228.06
328.6	150.06
328.829	136.06
329.058	137.06
329.287	123.06
329.515	121.06
329.744	131.06
329.972	171.06
330.201	247.06
330.43	317.06
330.658	204.06
330.887	161.06
331.115	136.06
331.344	108.06
331.572	84.06
331.801	115.06
332.03	92.06
332.258	103.06
332.486	108.06
332.715	101.06
332.943	95.06
333.172	101.06
333.4	98.06
333.629	103.06
333.857	130.06
334.085	199.06
334.314	258.06
334.542	419.06
334.771	393.06
334.999	172.06
335.227	100.06
335.455	85.06
335.684	101.06
335.912	102.06
336.14	95.06
336.369	108.06
336.597	113.06
336.825	113.06
337.053	79.06
337.281	103.06
337.51	106.06
337.738	102.06
337.966	95.06
338.194	110.06
338.422	89.06
338.65	95.06
338.878	90.06
339.106	78.06
339.334	89.06
339.562	72.06
339.79	91.06
340.018	89.06
340.246	101.06
340.474	96.06
340.702	88.06
340.93	87.06
341.158	97.06
341.386	94.06
341.614	84.06
341.842	75.06
342.07	92.06
342.298	99.06
342.526	98.06
342.754	102.06
342.981	73.06
343.209	86.06
343.437	110.06
343.665	89.06
343.893	94.06
344.12	85.06
344.348	90.06
344.576	97.06
344.804	99.06
345.031	94.06
345.259	94.06
345.487	85.06
345.714	88.06
345.942	103.06
346.17	87.06
346.397	89.06
346.625	105.06
346.853	106.06
347.08	85.06
347.308	89.06
347.535	90.06
347.763	100.06
347.99	100.06
348.218	97.06
348.445	102.06
348.673	92.06
348.9	100.06
349.128	93.06
349.355	90.06
349.583	99.06
349.81	104.06
350.037	108.06
350.265	92.06
350.492	79.06
350.72	90.06
350.947	107.06
351.174	105.06
351.402	99.06
351.629	110.06
351.856	120.06
352.083	100.06
352.311	106.06
352.538	110.06
352.765	114.06
352.992	111.06
353.22	110.06
353.447	97.06
353.674	120.06
353.901	104.06
354.128	85.06
354.355	105.06
354.583	91.06
354.81	92.06
355.037	91.06
355.264	91.06
355.491	100.06
355.718	100.06
355.945	97.06
356.172	103.06
356.399	101.06
356.626	92.06
356.853	98.06
357.08	93.06
357.307	94.06
357.534	95.06
357.761	111.06
357.988	84.06
358.215	98.06
358.441	100.06
358.668	87.06
358.895	85.06
359.122	97.06
359.349	92.06
359.576	109.06
359.802	107.06
360.029	99.06
360.256	120.06
360.483	105.06
360.709	96.06
360.936	90.06
361.163	105.06
361.39	85.06
361.616	102.06
361.843	95.06
362.07	86.06
362.296	97.06
362.523	91.06
362.749	117.06
362.976	92.06
363.203	98.06
363.429	82.06
363.656	87.06
363.882	93.06
364.109	109.06
364.335	88.06
364.562	92.06
364.788	94.06
365.015	99.06
365.241	89.06
365.468	109.06
365.694	103.06
365.92	103.06
366.147	109.06
366.373	77.06
366.599	90.06
366.826	89.06
367.052	84.06
367.278	89.06
367.505	94.06
367.731	82.06
367.957	90.06
368.184	88.06
368.41	91.06
368.636	97.06
368.862	109.06
369.089	94.06
369.315	97.06
369.541	79.06
369.767	94.06
369.993	95.06
370.219	93.06
370.445	85.06
370.672	82.06
370.898	87.06
371.124	81.06
371.35	96.06
371.576	93.06
371.802	82.06
372.028	88.06
372.254	80.06
372.48	92.06
372.706	80.06
372.932	73.06
373.158	89.06
373.384	97.06
373.61	87.06
373.835	105.06
374.061	91.06
374.287	90.06
374.513	86.06
374.739	83.06
374.965	80.06
375.191	83.06
375.416	92.06
375.642	88.06
375.868	107.06
376.094	88.06
376.319	79.06
376.545	86.06
376.771	89.06
376.997	107.06
377.222	83.06
377.448	93.06
377.674	79.06
377.899	84.06
378.125	86.06
378.35	94.06
378.576	105.06
378.802	95.06
379.027	78.06
379.253	100.06
379.478	92.06
379.704	90.06
379.929	101.06
380.155	86.06
380.38	92.06
380.606	106.06
380.831	91.06
381.057	101.06
381.282	96.06
381.507	97.06
381.733	92.06
381.958	93.06
382.184	104.06
382.409	89.06
382.634	101.06
382.86	105.06
383.085	110.06
383.31	103.06
383.535	91.06
383.761	80.06
383.986	109.06
384.211	101.06
384.436	84.06
384.662	95.06
384.887	111.06
385.112	105.06
385.337	103.06
385.562	106.06
385.787	108.06
386.013	120.06
386.238	100.06
386.463	107.06
386.688	115.06
386.913	106.06
387.138	102.06
387.363	111.06
387.588	101.06
387.813	94.06
388.038	110.06
388.263	122.06
388.488	107.06
388.713	87.06
388.938	87.06
389.163	90.06
389.387	90.06
389.612	108.06
389.837	106.06
390.062	93.06
390.287	95.06
390.512	86.06
390.736	96.06
390.961	90.06
391.186	95.06
391.411	78.06
391.636	93.06
391.86	95.06
392.085	90.06
392.31	100.06
392.534	82.06
392.759	97.06
392.984	91.06
393.208	88.06
393.433	76.06
393.658	84.06
393.882	92.06
394.107	84.06
394.331	82.06
394.556	85.06
394.78	77.06
395.005	78.06
395.229	73.06
395.454	75.06
395.678	93.06
395.903	95.06
396.127	82.06
396.352	96.06
396.576	92.06
396.801	84.06
397.025	92.06
397.249	93.06
397.474	84.06
397.698	79.06
397.922	97.06
398.147	77.06
398.371	78.06
398.595	90.06
398.82	83.06
399.044	86.06
399.268	76.06
399.492	93.06
399.717	77.06
399.941	84.06
400.165	87.06
400.389	90.06
400.613	88.06
400.837	83.06
401.062	84.06
401.286	90.06
401.51	96.06
401.734	93.06
401.958	108.06
402.182	126.06
402.406	121.06
402.63	117.06
402.854	92.06
403.078	98.06
403.302	92.06
403.526	89.06
403.75	94.06
403.974	84.06
404.198	90.06
404.422	98.06
404.645	83.06
404.869	92.06
405.093	88.06
405.317	110.06
405.541	106.06
405.765	94.06
405.988	115.06
406.212	168.06
406.436	219.06
406.66	147.06
406.883	101.06
407.107	106.06
407.331	84.06
407.555	92.06
407.778	108.06
408.002	100.06
408.226	100.06
408.449	90.06
408.673	97.06
408.896	86.06
409.12	96.06
409.344	91.06
409.567	83.06
409.791	95.06
410.014	90.06
410.238	103.06
410.461	98.06
410.685	81.06
410.908	106.06
411.132	107.06
411.355	97.06
411.578	83.06
411.802	78.06
412.025	95.06
412.249	98.06
412.472	96.06
412.695	108.06
412.919	100.06
413.142	106.06
413.365	96.06
413.589	72.06
413.812	89.06
414.035	89.06
414.258	93.06
414.482	90.06
414.705	84.06
414.928	79.06
415.151	84.06
415.374	95.06
415.597	74.06
415.821	91.06
416.044	100.06
416.267	78.06
416.49	99.06
416.713	89.06
416.936	88.06
417.159	95.06
417.382	99.06
417.605	93.06
417.828	105.06
418.051	94.06
418.274	94.06
418.497	92.06
418.72	85.06
418.943	77.06
419.166	97.06
419.389	83.06
419.611	77.06
419.834	88.06
420.057	99.06
420.28	78.06
420.503	87.06
420.726	82.06
420.948	87.06
421.171	99.06
421.394	104.06
421.617	90.06
421.839	86.06
422.062	84.06
422.285	101.06
422.507	108.06
422.73	97.06
422.953	91.06
423.175	83.06
423.398	98.06
423.621	78.06
423.843	87.06
424.066	91.06
424.288	86.06
424.511	91.06
424.733	112.06
424.956	118.06
425.178	89.06
425.401	109.06
425.623	115.06
425.846	88.06
426.068	99.06
426.291	87.06
426.513	97.06
426.735	86.06
426.958	94.06
427.18	108.06
427.402	142.06
427.625	174.06
427.847	151.06
428.069	142.06
428.292	97.06
428.514	88.06
428.736	95.06
428.958	103.06
429.181	90.06
429.403	88.06
429.625	93.06
429.847	109.06
430.069	85.06
430.292	105.06
430.514	97.06
430.736	80.06
430.958	92.06
431.18	82.06
431.402	80.06
431.624	87.06
431.846	84.06
432.068	97.06
432.29	94.06
432.512	100.06
432.734	89.06
432.956	101.06
433.178	97.06
433.4	92.06
433.622	86.06
433.844	92.06
434.066	85.06
434.287	97.06
434.509	82.06
434.731	86.06
434.953	93.06
435.175	83.06
435.397	74.06
435.618	92.06
435.84	102.06
436.062	119.06
436.284	120.06
436.505	93.06
436.727	94.06
436.949	88.06
437.17	93.06
437.392	80.06
437.614	81.06
437.835	97.06
438.057	113.06
438.278	116.06
438.5	137.06
438.721	106.06
438.943	98.06
439.165	82.06
439.386	84.06
439.608	85.06
439.829	91.06
440.05	129.06
440.272	137.06
440.493	101.06
440.715	73.06
440.936	94.06
441.158	76.06
441.379	71.06
441.6	92.06
441.822	115.06
442.043	97.06
442.264	96.06
442.486	91.06
442.707	103.06
442.928	99.06
443.149	108.06
443.371	133.06
443.592	108.06
443.813	105.06
444.034	102.06
444.255	91.06
444.476	82.06
444.698	91.06
444.919	75.06
445.14	135.06
445.361	140.06
445.582	120.06
445.803	147.06
446.024	140.06
446.245	143.06
446.466	94.06
446.687	83.06
446.908	85.06
447.129	86.06
447.35	81.06
447.571	97.06
447.792	86.06
448.013	107.06
448.234	111.06
448.455	97.06
448.675	103.06
448.896	98.06
449.117	97.06
449.338	113.06
449.559	138.06
449.779	145.06
450	90.06
450.221	78.06
450.442	76.06
450.662	86.06
450.883	102.06
451.104	111.06
451.324	84.06
451.545	98.06
451.766	87.06
451.986	84.06
452.207	87.06
452.428	99.06
452.648	86.06
452.869	108.06
453.089	102.06
453.31	106.06
453.53	99.06
453.751	105.06
453.971	102.06
454.192	105.06
454.412	79.06
454.633	86.06
454.853	96.06
455.073	92.06
455.294	93.06
455.514	97.06
455.734	85.06
455.955	94.06
456.175	91.06
456.395	87.06
456.616	89.06
456.836	98.06
457.056	79.06
457.276	77.06
457.497	77.06
457.717	78.06
457.937	94.06
458.157	85.06
458.377	101.06
458.598	114.06
458.818	140.06
459.038	161.06
459.258	118.06
459.478	91.06
459.698	71.06
459.918	75.06
460.138	77.06
460.358	79.06
460.578	88.06
460.798	97.06
461.018	91.06
461.238	98.06
461.458	80.06
461.678	90.06
461.898	77.06
462.118	92.06
462.338	87.06
462.558	84.06
462.777	88.06
462.997	89.06
463.217	95.06
463.437	86.06
463.657	81.06
463.876	79.06
464.096	90.06
464.316	88.06
464.536	102.06
464.755	87.06
464.975	103.06
465.195	160.06
465.414	147.06
465.634	105.06
465.854	83.06
466.073	77.06
466.293	88.06
466.512	79.06
466.732	80.06
466.951	85.06
467.171	99.06
467.391	95.06
467.61	118.06
467.829	122.06
468.049	166.06
468.268	239.06
468.488	118.06
468.707	97.06
468.927	88.06
469.146	78.06
469.365	93.06
469.585	101.06
469.804	92.06
470.023	103.06
470.243	106.06
470.462	117.06
470.681	107.06
470.901	90.06
471.12	85.06
471.339	89.06
471.558	88.06
471.777	99.06
471.997	121.06
472.216	283.06
472.435	526.06
472.654	189.06
472.873	101.06
473.092	83.06
473.311	83.06
473.53	92.06
473.749	83.06
473.968	91.06
474.187	106.06
474.406	100.06
474.625	94.06
474.844	74.06
475.063	81.06
475.282	79.06
475.501	100.06
475.72	91.06
475.939	67.06
476.158	82.06
476.377	82.06
476.596	90.06
476.814	87.06
477.033	82.06
477.252	93.06
477.471	88.06
477.69	85.06
477.908	81.06
478.127	97.06
478.346	89.06
478.564	89.06
478.783	76.06
479.002	83.06
479.22	97.06
479.439	106.06
479.658	93.06
479.876	105.06
480.095	108.06
480.313	101.06
480.532	114.06
480.751	125.06
480.969	277.06
481.188	891.06
481.406	574.06
481.624	145.06
481.843	98.06
482.061	91.06
482.28	84.06
482.498	82.06
482.717	92.06
482.935	80.06
483.153	93.06
483.372	100.06
483.59	90.06
483.808	91.06
484.027	83.06
484.245	92.06
484.463	101.06
484.681	77.06
484.9	88.06
485.118	92.06
485.336	89.06
485.554	94.06
485.772	108.06
485.99	87.06
486.209	104.06
486.427	97.06
486.645	110.06
486.863	105.06
487.081	108.06
487.299	107.06
487.517	105.06
487.735	98.06
487.953	96.06
488.171	70.06
488.389	93.06
488.607	89.06
488.825	92.06
489.043	105.06
489.261	94.06
489.479	87.06
489.696	98.06
489.914	81.06
490.132	82.06
490.35	86.06
490.568	94.06
490.786	84.06
491.003	79.06
491.221	89.06
491.439	95.06
491.657	98.06
491.874	97.06
492.092	85.06
492.31	100.06
492.527	92.06
492.745	85.06
492.963	87.06
493.18	98.06
493.398	87.06
493.615	90.06
493.833	83.06
494.05	79.06
494.268	91.06
494.485	97.06
494.703	93.06
494.92	86.06
495.138	84.06
495.355	97.06
495.573	84.06
495.79	106.06
496.008	95.06
496.225	94.06
496.442	95.06
496.66	87.06
496.877	99.06
497.094	84.06
497.312	98.06
497.529	100.06
497.746	89.06
497.963	81.06
498.181	90.06
498.398	79.06
498.615	109.06
498.832	95.06
499.049	80.06
499.267	85.06
499.484	88.06
499.701	89.06
499.918	87.06
500.135	101.06
500.352	93.06
500.569	88.06
500.786	87.06
501.003	83.06
501.22	95.06
501.437	92.06
501.654	90.06
501.871	98.06
502.088	98.06
502.305	90.06
502.522	91.06
502.739	93.06
502.956	102.06
503.172	87.06
503.389	91.06
503.606	105.06
503.823	90.06
504.04	92.06
504.256	96.06
504.473	92.06
504.69	83.06
504.907	91.06
505.123	85.06
505.34	81.06
505.557	102.06
505.773	87.06
505.99	94.06
506.207	94.06
506.423	114.06
506.64	92.06
506.856	94.06
507.073	78.06
507.289	98.06
507.506	95.06
507.722	104.06
507.939	115.06
508.155	97.06
508.372	89.06
508.588	87.06
508.805	100.06
509.021	99.06
509.238	97.06
509.454	96.06
509.67	91.06
509.887	99.06
510.103	129.06
510.319	191.06
510.536	637.06
510.752	2181.06
510.968	634.06
511.184	158.06
511.401	121.06
511.617	104.06
511.833	107.06
512.049	95.06
512.265	109.06
512.481	86.06
512.698	90.06
512.914	92.06
513.13	100.06
513.346	85.06
513.562	105.06
513.778	95.06
513.994	105.06
514.21	105.06
514.426	101.06
514.642	144.06
514.858	127.06
515.074	155.06
