Data from Circ_2015_H10_HRD10591_00062.txt Node
Date: Wed Jan 03 10:00:35 EST 2024
User: Yrep
Spectrometer: HR+D1059
Trigger mode: 1
Integration Time (sec): 1.000000E-1
Scans to average: 1
Electric dark correction enabled: true
Nonlinearity correction enabled: false
Boxcar width: 0
XAxis mode: Wavelengths
Number of Pixels in Spectrum: 2048
>>>>>Begin Spectral Data<<<<<
223.165	-17.69
223.4	-17.69
223.635	-17.69
223.869	-15.69
224.104	-18.69
224.338	-25.69
224.573	-24.69
224.808	-11.69
225.042	-3.69
225.277	-1.69
225.511	-9.69
225.746	18.31
225.98	13.31
226.215	4.31
226.449	13.31
226.683	22.31
226.918	27.31
227.152	30.31
227.387	19.31
227.621	39.31
227.856	34.31
228.09	36.31
228.324	34.31
228.559	56.31
228.793	48.31
229.027	45.31
229.262	56.31
229.496	62.31
229.73	86.31
229.964	72.31
230.199	60.31
230.433	74.31
230.667	64.31
230.901	76.31
231.136	65.31
231.37	72.31
231.604	64.31
231.838	79.31
232.072	82.31
232.306	63.31
232.541	82.31
232.775	73.31
233.009	84.31
233.243	73.31
233.477	87.31
233.711	83.31
233.945	73.31
234.179	76.31
234.413	74.31
234.647	79.31
234.881	78.31
235.115	88.31
235.349	63.31
235.583	72.31
235.817	63.31
236.051	74.31
236.285	76.31
236.519	65.31
236.753	76.31
236.987	72.31
237.221	78.31
237.455	71.31
237.689	68.31
237.922	69.31
238.156	71.31
238.39	74.31
238.624	60.31
238.858	72.31
239.091	73.31
239.325	71.31
239.559	82.31
239.793	74.31
240.027	76.31
240.26	85.31
240.494	73.31
240.728	73.31
240.961	60.31
241.195	77.31
241.429	86.31
241.662	74.31
241.896	72.31
242.13	73.31
242.363	67.31
242.597	65.31
242.83	77.31
243.064	81.31
243.298	80.31
243.531	79.31
243.765	59.31
243.998	79.31
244.232	68.31
244.465	74.31
244.699	92.31
244.932	81.31
245.166	73.31
245.399	73.31
245.633	76.31
245.866	84.31
246.099	66.31
246.333	88.31
246.566	71.31
246.8	86.31
247.033	78.31
247.266	63.31
247.5	82.31
247.733	86.31
247.966	68.31
248.2	78.31
248.433	82.31
248.666	76.31
248.899	81.31
249.133	87.31
249.366	90.31
249.599	79.31
249.832	67.31
250.066	79.31
250.299	72.31
250.532	80.31
250.765	77.31
250.998	79.31
251.231	77.31
251.465	83.31
251.698	70.31
251.931	65.31
252.164	73.31
252.397	65.31
252.63	74.31
252.863	77.31
253.096	74.31
253.329	68.31
253.562	85.31
253.795	69.31
254.028	90.31
254.261	73.31
254.494	70.31
254.727	84.31
254.96	86.31
255.193	78.31
255.426	69.31
255.659	88.31
255.892	95.31
256.124	83.31
256.357	90.31
256.59	82.31
256.823	80.31
257.056	95.31
257.289	81.31
257.521	71.31
257.754	70.31
257.987	71.31
258.22	78.31
258.452	79.31
258.685	85.31
258.918	84.31
259.151	83.31
259.383	79.31
259.616	79.31
259.849	76.31
260.081	81.31
260.314	72.31
260.547	62.31
260.779	79.31
261.012	82.31
261.244	69.31
261.477	80.31
261.71	78.31
261.942	102.31
262.175	98.31
262.407	71.31
262.64	75.31
262.872	80.31
263.105	88.31
263.337	78.31
263.57	83.31
263.802	71.31
264.035	61.31
264.267	80.31
264.499	72.31
264.732	89.31
264.964	71.31
265.197	70.31
265.429	72.31
265.661	74.31
265.894	71.31
266.126	67.31
266.358	76.31
266.591	83.31
266.823	85.31
267.055	86.31
267.287	77.31
267.52	75.31
267.752	82.31
267.984	91.31
268.216	76.31
268.448	82.31
268.681	85.31
268.913	85.31
269.145	71.31
269.377	82.31
269.609	82.31
269.841	81.31
270.073	70.31
270.306	76.31
270.538	72.31
270.77	84.31
271.002	81.31
271.234	92.31
271.466	83.31
271.698	76.31
271.93	81.31
272.162	70.31
272.394	74.31
272.626	82.31
272.858	82.31
273.09	78.31
273.322	78.31
273.553	76.31
273.785	79.31
274.017	76.31
274.249	74.31
274.481	77.31
274.713	84.31
274.945	89.31
275.176	87.31
275.408	90.31
275.64	79.31
275.872	77.31
276.104	69.31
276.335	86.31
276.567	80.31
276.799	93.31
277.031	107.31
277.262	104.31
277.494	86.31
277.726	96.31
277.957	63.31
278.189	89.31
278.421	77.31
278.652	89.31
278.884	70.31
279.115	79.31
279.347	84.31
279.579	68.31
279.81	80.31
280.042	87.31
280.273	90.31
280.505	92.31
280.736	80.31
280.968	95.31
281.199	95.31
281.431	86.31
281.662	79.31
281.894	80.31
282.125	78.31
282.356	100.31
282.588	124.31
282.819	84.31
283.051	76.31
283.282	88.31
283.513	94.31
283.745	81.31
283.976	84.31
284.207	73.31
284.439	73.31
284.67	75.31
284.901	87.31
285.132	78.31
285.364	83.31
285.595	90.31
285.826	92.31
286.057	80.31
286.288	91.31
286.52	73.31
286.751	81.31
286.982	91.31
287.213	94.31
287.444	89.31
287.675	78.31
287.906	85.31
288.138	71.31
288.369	88.31
288.6	84.31
288.831	82.31
289.062	77.31
289.293	88.31
289.524	92.31
289.755	88.31
289.986	73.31
290.217	87.31
290.448	91.31
290.679	85.31
290.91	81.31
291.141	74.31
291.371	99.31
291.602	90.31
291.833	95.31
292.064	87.31
292.295	88.31
292.526	90.31
292.757	94.31
292.987	72.31
293.218	73.31
293.449	75.31
293.68	88.31
293.91	85.31
294.141	90.31
294.372	81.31
294.603	78.31
294.833	80.31
295.064	101.31
295.295	74.31
295.525	86.31
295.756	110.31
295.987	96.31
296.217	112.31
296.448	118.31
296.679	97.31
296.909	85.31
297.14	78.31
297.37	81.31
297.601	78.31
297.831	80.31
298.062	88.31
298.292	99.31
298.523	84.31
298.753	61.31
298.984	71.31
299.214	77.31
299.445	85.31
299.675	79.31
299.905	88.31
300.136	101.31
300.366	97.31
300.597	92.31
300.827	85.31
301.057	85.31
301.288	101.31
301.518	100.31
301.748	80.31
301.979	90.31
302.209	77.31
302.439	103.31
302.669	90.31
302.9	68.31
303.13	85.31
303.36	96.31
303.59	80.31
303.82	96.31
304.051	81.31
304.281	77.31
304.511	89.31
304.741	87.31
304.971	79.31
305.201	88.31
305.431	83.31
305.661	86.31
305.891	83.31
306.121	82.31
306.352	92.31
306.582	92.31
306.812	88.31
307.042	91.31
307.272	97.31
307.502	96.31
307.731	109.31
307.961	88.31
308.191	84.31
308.421	82.31
308.651	86.31
308.881	83.31
309.111	92.31
309.341	82.31
309.571	90.31
309.8	94.31
310.03	108.31
310.26	106.31
310.49	85.31
310.72	90.31
310.949	92.31
311.179	84.31
311.409	91.31
311.639	73.31
311.868	80.31
312.098	97.31
312.328	92.31
312.557	89.31
312.787	91.31
313.017	86.31
313.246	89.31
313.476	90.31
313.706	99.31
313.935	86.31
314.165	85.31
314.394	94.31
314.624	97.31
314.853	96.31
315.083	94.31
315.312	86.31
315.542	84.31
315.771	87.31
316.001	84.31
316.23	81.31
316.46	82.31
316.689	88.31
316.919	91.31
317.148	92.31
317.377	80.31
317.607	86.31
317.836	78.31
318.065	83.31
318.295	87.31
318.524	82.31
318.753	95.31
318.983	94.31
319.212	95.31
319.441	87.31
319.67	118.31
319.9	87.31
320.129	79.31
320.358	90.31
320.587	84.31
320.816	97.31
321.046	98.31
321.275	92.31
321.504	80.31
321.733	98.31
321.962	105.31
322.191	92.31
322.42	108.31
322.649	91.31
322.878	97.31
323.108	93.31
323.337	115.31
323.566	102.31
323.795	138.31
324.024	166.31
324.253	342.31
324.482	730.31
324.71	1445.31
324.939	1925.31
325.168	713.31
325.397	234.31
325.626	142.31
325.855	112.31
326.084	110.31
326.313	143.31
326.542	156.31
326.77	217.31
326.999	409.31
327.228	830.31
327.457	1521.31
327.686	1215.31
327.914	343.31
328.143	208.31
328.372	165.31
328.6	130.31
328.829	101.31
329.058	105.31
329.287	114.31
329.515	108.31
329.744	111.31
329.972	130.31
330.201	188.31
330.43	229.31
330.658	143.31
330.887	129.31
331.115	104.31
331.344	84.31
331.572	97.31
331.801	89.31
332.03	101.31
332.258	103.31
332.486	89.31
332.715	94.31
332.943	84.31
333.172	86.31
333.4	90.31
333.629	97.31
333.857	111.31
334.085	144.31
334.314	183.31
334.542	286.31
334.771	256.31
334.999	135.31
335.227	107.31
335.455	100.31
335.684	82.31
335.912	92.31
336.14	92.31
336.369	96.31
336.597	99.31
336.825	87.31
337.053	90.31
337.281	86.31
337.51	81.31
337.738	88.31
337.966	88.31
338.194	99.31
338.422	81.31
338.65	96.31
338.878	87.31
339.106	83.31
339.334	95.31
339.562	76.31
339.79	72.31
340.018	108.31
340.246	94.31
340.474	85.31
340.702	84.31
340.93	99.31
341.158	81.31
341.386	80.31
341.614	101.31
341.842	80.31
342.07	80.31
342.298	92.31
342.526	89.31
342.754	80.31
342.981	84.31
343.209	86.31
343.437	89.31
343.665	89.31
343.893	96.31
344.12	87.31
344.348	77.31
344.576	87.31
344.804	88.31
345.031	86.31
345.259	94.31
345.487	81.31
345.714	91.31
345.942	86.31
346.17	88.31
346.397	97.31
346.625	83.31
346.853	99.31
347.08	91.31
347.308	97.31
347.535	81.31
347.763	81.31
347.99	87.31
348.218	81.31
348.445	99.31
348.673	101.31
348.9	87.31
349.128	91.31
349.355	87.31
349.583	88.31
349.81	91.31
350.037	93.31
350.265	78.31
350.492	92.31
350.72	96.31
350.947	99.31
351.174	100.31
351.402	93.31
351.629	95.31
351.856	98.31
352.083	98.31
352.311	82.31
352.538	99.31
352.765	98.31
352.992	100.31
353.22	88.31
353.447	93.31
353.674	93.31
353.901	91.31
354.128	96.31
354.355	97.31
354.583	88.31
354.81	89.31
355.037	84.31
355.264	99.31
355.491	99.31
355.718	96.31
355.945	108.31
356.172	83.31
356.399	86.31
356.626	82.31
356.853	81.31
357.08	88.31
357.307	106.31
357.534	85.31
357.761	81.31
357.988	93.31
358.215	89.31
358.441	98.31
358.668	94.31
358.895	83.31
359.122	93.31
359.349	80.31
359.576	86.31
359.802	81.31
360.029	93.31
360.256	100.31
360.483	103.31
360.709	95.31
360.936	83.31
361.163	101.31
361.39	94.31
361.616	85.31
361.843	83.31
362.07	94.31
362.296	105.31
362.523	84.31
362.749	93.31
362.976	82.31
363.203	86.31
363.429	89.31
363.656	78.31
363.882	76.31
364.109	94.31
364.335	84.31
364.562	85.31
364.788	61.31
365.015	86.31
365.241	96.31
365.468	90.31
365.694	105.31
365.92	102.31
366.147	89.31
366.373	80.31
366.599	85.31
366.826	86.31
367.052	92.31
367.278	87.31
367.505	96.31
367.731	98.31
367.957	77.31
368.184	78.31
368.41	82.31
368.636	100.31
368.862	98.31
369.089	118.31
369.315	93.31
369.541	104.31
369.767	93.31
369.993	94.31
370.219	85.31
370.445	89.31
370.672	73.31
370.898	88.31
371.124	74.31
371.35	71.31
371.576	81.31
371.802	87.31
372.028	78.31
372.254	74.31
372.48	88.31
372.706	97.31
372.932	90.31
373.158	90.31
373.384	74.31
373.61	83.31
373.835	76.31
374.061	73.31
374.287	92.31
374.513	95.31
374.739	95.31
374.965	88.31
375.191	73.31
375.416	79.31
375.642	80.31
375.868	93.31
376.094	85.31
376.319	86.31
376.545	73.31
376.771	96.31
376.997	95.31
377.222	86.31
377.448	70.31
377.674	99.31
377.899	84.31
378.125	99.31
378.35	86.31
378.576	79.31
378.802	84.31
379.027	90.31
379.253	88.31
379.478	94.31
379.704	90.31
379.929	79.31
380.155	84.31
380.38	83.31
380.606	98.31
380.831	83.31
381.057	108.31
381.282	85.31
381.507	83.31
381.733	82.31
381.958	95.31
382.184	104.31
382.409	97.31
382.634	100.31
382.86	80.31
383.085	90.31
383.31	106.31
383.535	102.31
383.761	107.31
383.986	90.31
384.211	104.31
384.436	104.31
384.662	100.31
384.887	78.31
385.112	102.31
385.337	101.31
385.562	89.31
385.787	96.31
386.013	108.31
386.238	117.31
386.463	105.31
386.688	103.31
386.913	106.31
387.138	105.31
387.363	98.31
387.588	103.31
387.813	97.31
388.038	106.31
388.263	104.31
388.488	106.31
388.713	97.31
388.938	92.31
389.163	84.31
389.387	94.31
389.612	82.31
389.837	65.31
390.062	78.31
390.287	92.31
390.512	91.31
390.736	73.31
390.961	91.31
391.186	89.31
391.411	81.31
391.636	85.31
391.86	69.31
392.085	79.31
392.31	92.31
392.534	94.31
392.759	80.31
392.984	79.31
393.208	83.31
393.433	96.31
393.658	90.31
393.882	84.31
394.107	64.31
394.331	86.31
394.556	87.31
394.78	99.31
395.005	80.31
395.229	67.31
395.454	73.31
395.678	81.31
395.903	90.31
396.127	84.31
396.352	99.31
396.576	79.31
396.801	78.31
397.025	79.31
397.249	83.31
397.474	80.31
397.698	87.31
397.922	89.31
398.147	87.31
398.371	92.31
398.595	98.31
398.82	67.31
399.044	82.31
399.268	74.31
399.492	69.31
399.717	76.31
399.941	90.31
400.165	97.31
400.389	80.31
400.613	87.31
400.837	89.31
401.062	84.31
401.286	94.31
401.51	79.31
401.734	89.31
401.958	94.31
402.182	105.31
402.406	134.31
402.63	109.31
402.854	98.31
403.078	82.31
403.302	72.31
403.526	84.31
403.75	86.31
403.974	72.31
404.198	82.31
404.422	92.31
404.645	75.31
404.869	77.31
405.093	88.31
405.317	90.31
405.541	112.31
405.765	94.31
405.988	107.31
406.212	130.31
406.436	181.31
406.66	134.31
406.883	81.31
407.107	87.31
407.331	80.31
407.555	82.31
407.778	90.31
408.002	79.31
408.226	84.31
408.449	76.31
408.673	85.31
408.896	93.31
409.12	95.31
409.344	82.31
409.567	77.31
409.791	85.31
410.014	90.31
410.238	86.31
410.461	88.31
410.685	82.31
410.908	107.31
411.132	96.31
411.355	88.31
411.578	105.31
411.802	99.31
412.025	88.31
412.249	83.31
412.472	82.31
412.695	94.31
412.919	83.31
413.142	81.31
413.365	99.31
413.589	75.31
413.812	89.31
414.035	86.31
414.258	89.31
414.482	94.31
414.705	79.31
414.928	92.31
415.151	97.31
415.374	86.31
415.597	85.31
415.821	92.31
416.044	81.31
416.267	78.31
416.49	79.31
416.713	73.31
416.936	72.31
417.159	79.31
417.382	78.31
417.605	97.31
417.828	91.31
418.051	83.31
418.274	88.31
418.497	89.31
418.72	69.31
418.943	70.31
419.166	74.31
419.389	89.31
419.611	75.31
419.834	80.31
420.057	82.31
420.28	92.31
420.503	83.31
420.726	84.31
420.948	91.31
421.171	89.31
421.394	73.31
421.617	69.31
421.839	93.31
422.062	73.31
422.285	102.31
422.507	93.31
422.73	95.31
422.953	98.31
423.175	77.31
423.398	91.31
423.621	84.31
423.843	86.31
424.066	77.31
424.288	96.31
424.511	96.31
424.733	111.31
424.956	98.31
425.178	88.31
425.401	92.31
425.623	113.31
425.846	79.31
426.068	80.31
426.291	93.31
426.513	95.31
426.735	89.31
426.958	95.31
427.18	108.31
427.402	126.31
427.625	144.31
427.847	136.31
428.069	120.31
428.292	98.31
428.514	77.31
428.736	77.31
428.958	89.31
429.181	87.31
429.403	68.31
429.625	79.31
429.847	82.31
430.069	86.31
430.292	91.31
430.514	83.31
430.736	83.31
430.958	89.31
431.18	76.31
431.402	77.31
431.624	71.31
431.846	88.31
432.068	96.31
432.29	82.31
432.512	91.31
432.734	94.31
432.956	99.31
433.178	100.31
433.4	94.31
433.622	78.31
433.844	86.31
434.066	94.31
434.287	77.31
434.509	96.31
434.731	76.31
434.953	89.31
435.175	90.31
435.397	77.31
435.618	94.31
435.84	84.31
436.062	110.31
436.284	100.31
436.505	106.31
436.727	94.31
436.949	76.31
437.17	100.31
437.392	74.31
437.614	88.31
437.835	93.31
438.057	109.31
438.278	94.31
438.5	97.31
438.721	111.31
438.943	84.31
439.165	94.31
439.386	78.31
439.608	85.31
439.829	96.31
440.05	100.31
440.272	124.31
440.493	86.31
440.715	93.31
440.936	89.31
441.158	92.31
441.379	92.31
441.6	81.31
441.822	88.31
442.043	82.31
442.264	85.31
442.486	93.31
442.707	84.31
442.928	92.31
443.149	120.31
443.371	111.31
443.592	97.31
443.813	87.31
444.034	109.31
444.255	92.31
444.476	90.31
444.698	72.31
444.919	69.31
445.14	128.31
445.361	99.31
445.582	114.31
445.803	121.31
446.024	115.31
446.245	112.31
446.466	101.31
446.687	90.31
446.908	79.31
447.129	73.31
447.35	77.31
447.571	104.31
447.792	97.31
448.013	105.31
448.234	95.31
448.455	92.31
448.675	116.31
448.896	94.31
449.117	85.31
449.338	76.31
449.559	122.31
449.779	116.31
450	84.31
450.221	98.31
450.442	88.31
450.662	81.31
450.883	96.31
451.104	96.31
451.324	85.31
451.545	81.31
451.766	71.31
451.986	86.31
452.207	77.31
452.428	83.31
452.648	102.31
452.869	110.31
453.089	92.31
453.31	113.31
453.53	94.31
453.751	70.31
453.971	108.31
454.192	94.31
454.412	80.31
454.633	80.31
454.853	93.31
455.073	71.31
455.294	86.31
455.514	74.31
455.734	94.31
455.955	86.31
456.175	83.31
456.395	79.31
456.616	78.31
456.836	92.31
457.056	60.31
457.276	80.31
457.497	73.31
457.717	85.31
457.937	74.31
458.157	83.31
458.377	90.31
458.598	98.31
458.818	128.31
459.038	142.31
459.258	110.31
459.478	64.31
459.698	69.31
459.918	89.31
460.138	92.31
460.358	82.31
460.578	78.31
460.798	86.31
461.018	83.31
461.238	87.31
461.458	87.31
461.678	77.31
461.898	80.31
462.118	93.31
462.338	87.31
462.558	70.31
462.777	82.31
462.997	96.31
463.217	85.31
463.437	96.31
463.657	82.31
463.876	80.31
464.096	72.31
464.316	92.31
464.536	98.31
464.755	85.31
464.975	106.31
465.195	128.31
465.414	132.31
465.634	82.31
465.854	79.31
466.073	97.31
466.293	81.31
466.512	87.31
466.732	74.31
466.951	82.31
467.171	93.31
467.391	89.31
467.61	92.31
467.829	108.31
468.049	135.31
468.268	178.31
468.488	94.31
468.707	77.31
468.927	87.31
469.146	94.31
469.365	97.31
469.585	83.31
469.804	79.31
470.023	98.31
470.243	84.31
470.462	101.31
470.681	98.31
470.901	73.31
471.12	77.31
471.339	78.31
471.558	84.31
471.777	91.31
471.997	104.31
472.216	214.31
472.435	375.31
472.654	138.31
472.873	93.31
473.092	80.31
473.311	70.31
473.53	90.31
473.749	82.31
473.968	86.31
474.187	92.31
474.406	83.31
474.625	85.31
474.844	83.31
475.063	87.31
475.282	92.31
475.501	80.31
475.72	103.31
475.939	80.31
476.158	81.31
476.377	92.31
476.596	94.31
476.814	85.31
477.033	86.31
477.252	75.31
477.471	74.31
477.69	82.31
477.908	91.31
478.127	84.31
478.346	82.31
478.564	89.31
478.783	81.31
479.002	84.31
479.22	100.31
479.439	99.31
479.658	83.31
479.876	90.31
480.095	100.31
480.313	87.31
480.532	90.31
480.751	124.31
480.969	223.31
481.188	576.31
481.406	391.31
481.624	108.31
481.843	93.31
482.061	70.31
482.28	76.31
482.498	88.31
482.717	74.31
482.935	93.31
483.153	86.31
483.372	85.31
483.59	81.31
483.808	97.31
484.027	95.31
484.245	90.31
484.463	81.31
484.681	94.31
484.9	91.31
485.118	94.31
485.336	92.31
485.554	85.31
485.772	80.31
485.99	91.31
486.209	108.31
486.427	115.31
486.645	99.31
486.863	103.31
487.081	101.31
487.299	84.31
487.517	89.31
487.735	92.31
487.953	92.31
488.171	86.31
488.389	89.31
488.607	81.31
488.825	82.31
489.043	82.31
489.261	84.31
489.479	87.31
489.696	94.31
489.914	86.31
490.132	76.31
490.35	79.31
490.568	95.31
490.786	82.31
491.003	91.31
491.221	96.31
491.439	83.31
491.657	86.31
491.874	80.31
492.092	77.31
492.31	92.31
492.527	76.31
492.745	86.31
492.963	97.31
493.18	98.31
493.398	84.31
493.615	105.31
493.833	80.31
494.05	85.31
494.268	86.31
494.485	91.31
494.703	87.31
494.92	81.31
495.138	89.31
495.355	90.31
495.573	87.31
495.79	94.31
496.008	92.31
496.225	85.31
496.442	90.31
496.66	90.31
496.877	89.31
497.094	85.31
497.312	96.31
497.529	93.31
497.746	98.31
497.963	86.31
498.181	69.31
498.398	84.31
498.615	96.31
498.832	93.31
499.049	79.31
499.267	82.31
499.484	84.31
499.701	75.31
499.918	74.31
500.135	73.31
500.352	96.31
500.569	100.31
500.786	90.31
501.003	82.31
501.22	73.31
501.437	79.31
501.654	77.31
501.871	90.31
502.088	86.31
502.305	96.31
502.522	97.31
502.739	90.31
502.956	81.31
503.172	93.31
503.389	82.31
503.606	83.31
503.823	94.31
504.04	84.31
504.256	95.31
504.473	78.31
504.69	77.31
504.907	80.31
505.123	92.31
505.34	89.31
505.557	95.31
505.773	93.31
505.99	79.31
506.207	83.31
506.423	82.31
506.64	79.31
506.856	82.31
507.073	102.31
507.289	89.31
507.506	86.31
507.722	89.31
507.939	108.31
508.155	86.31
508.372	87.31
508.588	94.31
508.805	94.31
509.021	90.31
509.238	78.31
509.454	97.31
509.67	87.31
509.887	97.31
510.103	112.31
510.319	172.31
510.536	637.31
510.752	1906.31
510.968	568.31
511.184	143.31
511.401	96.31
511.617	95.31
511.833	96.31
512.049	93.31
512.265	88.31
512.481	99.31
512.698	92.31
512.914	93.31
513.13	90.31
513.346	93.31
513.562	89.31
513.778	91.31
513.994	85.31
514.21	87.31
514.426	102.31
514.642	121.31
514.858	113.31
515.074	144.31
515.29	343.31
515.506	1169.31
515.721	464.31
515.937	126.31
516.153	89.31
516.369	86.31
516.585	81.31
516.801	90.31
517.016	92.31
517.232	92.31
517.448	76.31
