Data from Circ_2015_H10_HRD10591_00059.txt Node
Date: Wed Jan 03 10:00:34 EST 2024
User: Yrep
Spectrometer: HR+D1059
Trigger mode: 1
Integration Time (sec): 1.000000E-1
Scans to average: 1
Electric dark correction enabled: true
Nonlinearity correction enabled: false
Boxcar width: 0
XAxis mode: Wavelengths
Number of Pixels in Spectrum: 2048
>>>>>Begin Spectral Data<<<<<
223.165	-10.81
223.4	-10.81
223.635	-10.81
223.869	-13.81
224.104	-26.81
224.338	-9.81
224.573	-15.81
224.808	-19.81
225.042	-3.81
225.277	4.19
225.511	-2.81
225.746	0.19
225.98	8.19
226.215	7.19
226.449	10.19
226.683	28.19
226.918	23.19
227.152	22.19
227.387	28.19
227.621	52.19
227.856	44.19
228.09	43.19
228.324	65.19
228.559	58.19
228.793	62.19
229.027	60.19
229.262	69.19
229.496	70.19
229.73	71.19
229.964	82.19
230.199	82.19
230.433	79.19
230.667	77.19
230.901	70.19
231.136	79.19
231.37	80.19
231.604	79.19
231.838	74.19
232.072	85.19
232.306	82.19
232.541	91.19
232.775	78.19
233.009	86.19
233.243	76.19
233.477	78.19
233.711	86.19
233.945	91.19
234.179	74.19
234.413	71.19
234.647	83.19
234.881	76.19
235.115	82.19
235.349	80.19
235.583	84.19
235.817	94.19
236.051	84.19
236.285	81.19
236.519	89.19
236.753	81.19
236.987	89.19
237.221	87.19
237.455	90.19
237.689	89.19
237.922	91.19
238.156	73.19
238.39	75.19
238.624	79.19
238.858	68.19
239.091	79.19
239.325	76.19
239.559	83.19
239.793	87.19
240.027	85.19
240.26	89.19
240.494	74.19
240.728	87.19
240.961	75.19
241.195	69.19
241.429	81.19
241.662	84.19
241.896	89.19
242.13	76.19
242.363	78.19
242.597	74.19
242.83	68.19
243.064	78.19
243.298	84.19
243.531	80.19
243.765	80.19
243.998	74.19
244.232	102.19
244.465	83.19
244.699	77.19
244.932	80.19
245.166	79.19
245.399	74.19
245.633	69.19
245.866	79.19
246.099	80.19
246.333	84.19
246.566	79.19
246.8	80.19
247.033	79.19
247.266	83.19
247.5	84.19
247.733	93.19
247.966	83.19
248.2	72.19
248.433	88.19
248.666	95.19
248.899	69.19
249.133	95.19
249.366	83.19
249.599	111.19
249.832	92.19
250.066	82.19
250.299	81.19
250.532	70.19
250.765	87.19
250.998	98.19
251.231	91.19
251.465	81.19
251.698	78.19
251.931	85.19
252.164	71.19
252.397	84.19
252.63	78.19
252.863	67.19
253.096	78.19
253.329	95.19
253.562	76.19
253.795	75.19
254.028	80.19
254.261	93.19
254.494	82.19
254.727	84.19
254.96	77.19
255.193	73.19
255.426	88.19
255.659	78.19
255.892	88.19
256.124	79.19
256.357	86.19
256.59	87.19
256.823	105.19
257.056	87.19
257.289	91.19
257.521	87.19
257.754	82.19
257.987	80.19
258.22	93.19
258.452	83.19
258.685	84.19
258.918	84.19
259.151	79.19
259.383	83.19
259.616	89.19
259.849	87.19
260.081	97.19
260.314	81.19
260.547	86.19
260.779	84.19
261.012	99.19
261.244	85.19
261.477	83.19
261.71	99.19
261.942	111.19
262.175	117.19
262.407	91.19
262.64	91.19
262.872	69.19
263.105	77.19
263.337	100.19
263.57	88.19
263.802	79.19
264.035	82.19
264.267	95.19
264.499	84.19
264.732	92.19
264.964	84.19
265.197	86.19
265.429	76.19
265.661	90.19
265.894	83.19
266.126	88.19
266.358	77.19
266.591	83.19
266.823	80.19
267.055	78.19
267.287	90.19
267.52	80.19
267.752	81.19
267.984	86.19
268.216	85.19
268.448	80.19
268.681	82.19
268.913	78.19
269.145	84.19
269.377	91.19
269.609	85.19
269.841	99.19
270.073	90.19
270.306	90.19
270.538	94.19
270.77	69.19
271.002	74.19
271.234	92.19
271.466	91.19
271.698	78.19
271.93	76.19
272.162	97.19
272.394	84.19
272.626	100.19
272.858	92.19
273.09	85.19
273.322	87.19
273.553	83.19
273.785	82.19
274.017	74.19
274.249	88.19
274.481	88.19
274.713	93.19
274.945	101.19
275.176	91.19
275.408	85.19
275.64	90.19
275.872	92.19
276.104	95.19
276.335	103.19
276.567	89.19
276.799	100.19
277.031	111.19
277.262	101.19
277.494	92.19
277.726	86.19
277.957	91.19
278.189	90.19
278.421	85.19
278.652	86.19
278.884	96.19
279.115	88.19
279.347	76.19
279.579	82.19
279.81	79.19
280.042	84.19
280.273	91.19
280.505	85.19
280.736	102.19
280.968	74.19
281.199	90.19
281.431	86.19
281.662	84.19
281.894	91.19
282.125	106.19
282.356	118.19
282.588	137.19
282.819	107.19
283.051	80.19
283.282	98.19
283.513	90.19
283.745	78.19
283.976	98.19
284.207	92.19
284.439	91.19
284.67	97.19
284.901	99.19
285.132	96.19
285.364	79.19
285.595	92.19
285.826	88.19
286.057	98.19
286.288	89.19
286.52	84.19
286.751	78.19
286.982	95.19
287.213	86.19
287.444	90.19
287.675	86.19
287.906	97.19
288.138	88.19
288.369	100.19
288.6	87.19
288.831	83.19
289.062	96.19
289.293	76.19
289.524	83.19
289.755	92.19
289.986	102.19
290.217	74.19
290.448	82.19
290.679	102.19
290.91	86.19
291.141	96.19
291.371	91.19
291.602	88.19
291.833	80.19
292.064	95.19
292.295	82.19
292.526	89.19
292.757	78.19
292.987	89.19
293.218	96.19
293.449	84.19
293.68	100.19
293.91	78.19
294.141	90.19
294.372	95.19
294.603	86.19
294.833	92.19
295.064	85.19
295.295	98.19
295.525	91.19
295.756	97.19
295.987	120.19
296.217	109.19
296.448	123.19
296.679	96.19
296.909	97.19
297.14	96.19
297.37	89.19
297.601	74.19
297.831	76.19
298.062	101.19
298.292	90.19
298.523	95.19
298.753	94.19
298.984	104.19
299.214	96.19
299.445	98.19
299.675	88.19
299.905	99.19
300.136	79.19
300.366	91.19
300.597	89.19
300.827	95.19
301.057	95.19
301.288	105.19
301.518	107.19
301.748	92.19
301.979	99.19
302.209	95.19
302.439	86.19
302.669	87.19
302.9	87.19
303.13	93.19
303.36	105.19
303.59	99.19
303.82	114.19
304.051	100.19
304.281	96.19
304.511	90.19
304.741	101.19
304.971	76.19
305.201	79.19
305.431	77.19
305.661	99.19
305.891	94.19
306.121	110.19
306.352	111.19
306.582	98.19
306.812	98.19
307.042	103.19
307.272	103.19
307.502	97.19
307.731	105.19
307.961	89.19
308.191	101.19
308.421	102.19
308.651	93.19
308.881	93.19
309.111	90.19
309.341	93.19
309.571	103.19
309.8	103.19
310.03	98.19
310.26	101.19
310.49	96.19
310.72	87.19
310.949	99.19
311.179	114.19
311.409	96.19
311.639	86.19
311.868	93.19
312.098	87.19
312.328	101.19
312.557	97.19
312.787	98.19
313.017	95.19
313.246	93.19
313.476	102.19
313.706	89.19
313.935	90.19
314.165	83.19
314.394	98.19
314.624	87.19
314.853	92.19
315.083	92.19
315.312	108.19
315.542	88.19
315.771	100.19
316.001	98.19
316.23	94.19
316.46	82.19
316.689	86.19
316.919	103.19
317.148	103.19
317.377	103.19
317.607	94.19
317.836	87.19
318.065	107.19
318.295	94.19
318.524	83.19
318.753	104.19
318.983	84.19
319.212	100.19
319.441	100.19
319.67	103.19
319.9	103.19
320.129	92.19
320.358	87.19
320.587	79.19
320.816	107.19
321.046	99.19
321.275	93.19
321.504	98.19
321.733	107.19
321.962	106.19
322.191	101.19
322.42	107.19
322.649	100.19
322.878	107.19
323.108	107.19
323.337	135.19
323.566	123.19
323.795	150.19
324.024	200.19
324.253	362.19
324.482	772.19
324.71	1601.19
324.939	2138.19
325.168	795.19
325.397	234.19
325.626	146.19
325.855	116.19
326.084	104.19
326.313	126.19
326.542	156.19
326.77	225.19
326.999	440.19
327.228	930.19
327.457	1660.19
327.686	1335.19
327.914	360.19
328.143	203.19
328.372	188.19
328.6	150.19
328.829	130.19
329.058	124.19
329.287	127.19
329.515	110.19
329.744	109.19
329.972	147.19
330.201	220.19
330.43	260.19
330.658	180.19
330.887	156.19
331.115	124.19
331.344	119.19
331.572	104.19
331.801	96.19
332.03	116.19
332.258	98.19
332.486	84.19
332.715	96.19
332.943	97.19
333.172	89.19
333.4	93.19
333.629	124.19
333.857	119.19
334.085	148.19
334.314	198.19
334.542	331.19
334.771	295.19
334.999	143.19
335.227	117.19
335.455	99.19
335.684	117.19
335.912	108.19
336.14	90.19
336.369	101.19
336.597	96.19
336.825	96.19
337.053	90.19
337.281	115.19
337.51	91.19
337.738	111.19
337.966	91.19
338.194	91.19
338.422	89.19
338.65	94.19
338.878	106.19
339.106	84.19
339.334	96.19
339.562	89.19
339.79	92.19
340.018	87.19
340.246	100.19
340.474	92.19
340.702	88.19
340.93	99.19
341.158	101.19
341.386	88.19
341.614	93.19
341.842	105.19
342.07	83.19
342.298	87.19
342.526	91.19
342.754	88.19
342.981	93.19
343.209	89.19
343.437	103.19
343.665	87.19
343.893	98.19
344.12	105.19
344.348	90.19
344.576	78.19
344.804	84.19
345.031	95.19
345.259	98.19
345.487	89.19
345.714	95.19
345.942	78.19
346.17	92.19
346.397	94.19
346.625	95.19
346.853	97.19
347.08	92.19
347.308	90.19
347.535	90.19
347.763	91.19
347.99	96.19
348.218	103.19
348.445	96.19
348.673	109.19
348.9	88.19
349.128	94.19
349.355	87.19
349.583	83.19
349.81	88.19
350.037	96.19
350.265	94.19
350.492	101.19
350.72	95.19
350.947	91.19
351.174	124.19
351.402	100.19
351.629	92.19
351.856	106.19
352.083	98.19
352.311	115.19
352.538	102.19
352.765	98.19
352.992	106.19
353.22	102.19
353.447	97.19
353.674	96.19
353.901	103.19
354.128	99.19
354.355	95.19
354.583	83.19
354.81	100.19
355.037	99.19
355.264	99.19
355.491	79.19
355.718	91.19
355.945	79.19
356.172	98.19
356.399	91.19
356.626	93.19
356.853	92.19
357.08	87.19
357.307	84.19
357.534	96.19
357.761	87.19
357.988	85.19
358.215	94.19
358.441	94.19
358.668	91.19
358.895	112.19
359.122	97.19
359.349	96.19
359.576	87.19
359.802	105.19
360.029	119.19
360.256	111.19
360.483	90.19
360.709	96.19
360.936	102.19
361.163	89.19
361.39	95.19
361.616	102.19
361.843	92.19
362.07	94.19
362.296	97.19
362.523	79.19
362.749	83.19
362.976	90.19
363.203	83.19
363.429	98.19
363.656	104.19
363.882	88.19
364.109	82.19
364.335	101.19
364.562	98.19
364.788	99.19
365.015	98.19
365.241	93.19
365.468	99.19
365.694	99.19
365.92	100.19
366.147	91.19
366.373	103.19
366.599	85.19
366.826	76.19
367.052	89.19
367.278	87.19
367.505	87.19
367.731	88.19
367.957	85.19
368.184	88.19
368.41	80.19
368.636	111.19
368.862	107.19
369.089	100.19
369.315	99.19
369.541	97.19
369.767	76.19
369.993	91.19
370.219	85.19
370.445	93.19
370.672	95.19
370.898	78.19
371.124	99.19
371.35	102.19
371.576	107.19
371.802	83.19
372.028	111.19
372.254	99.19
372.48	99.19
372.706	87.19
372.932	77.19
373.158	92.19
373.384	80.19
373.61	86.19
373.835	91.19
374.061	83.19
374.287	96.19
374.513	92.19
374.739	84.19
374.965	96.19
375.191	88.19
375.416	99.19
375.642	101.19
375.868	103.19
376.094	72.19
376.319	84.19
376.545	87.19
376.771	83.19
376.997	87.19
377.222	92.19
377.448	86.19
377.674	89.19
377.899	85.19
378.125	82.19
378.35	99.19
378.576	72.19
378.802	102.19
379.027	100.19
379.253	106.19
379.478	77.19
379.704	102.19
379.929	99.19
380.155	89.19
380.38	88.19
380.606	101.19
380.831	87.19
381.057	91.19
381.282	93.19
381.507	89.19
381.733	98.19
381.958	92.19
382.184	92.19
382.409	100.19
382.634	99.19
382.86	104.19
383.085	97.19
383.31	101.19
383.535	77.19
383.761	92.19
383.986	103.19
384.211	107.19
384.436	96.19
384.662	119.19
384.887	100.19
385.112	117.19
385.337	108.19
385.562	94.19
385.787	99.19
386.013	109.19
386.238	110.19
386.463	109.19
386.688	106.19
386.913	118.19
387.138	101.19
387.363	97.19
387.588	103.19
387.813	105.19
388.038	112.19
388.263	108.19
388.488	107.19
388.713	89.19
388.938	101.19
389.163	95.19
389.387	89.19
389.612	95.19
389.837	88.19
390.062	91.19
390.287	92.19
390.512	79.19
390.736	87.19
390.961	84.19
391.186	80.19
391.411	89.19
391.636	97.19
391.86	95.19
392.085	89.19
392.31	72.19
392.534	74.19
392.759	84.19
392.984	83.19
393.208	80.19
393.433	92.19
393.658	93.19
393.882	81.19
394.107	92.19
394.331	91.19
394.556	77.19
394.78	92.19
395.005	98.19
395.229	93.19
395.454	87.19
395.678	94.19
395.903	88.19
396.127	90.19
396.352	91.19
396.576	84.19
396.801	100.19
397.025	100.19
397.249	94.19
397.474	98.19
397.698	81.19
397.922	79.19
398.147	81.19
398.371	92.19
398.595	82.19
398.82	84.19
399.044	85.19
399.268	87.19
399.492	96.19
399.717	94.19
399.941	103.19
400.165	84.19
400.389	93.19
400.613	90.19
400.837	89.19
401.062	98.19
401.286	87.19
401.51	89.19
401.734	77.19
401.958	101.19
402.182	107.19
402.406	154.19
402.63	109.19
402.854	92.19
403.078	86.19
403.302	104.19
403.526	86.19
403.75	103.19
403.974	102.19
404.198	91.19
404.422	94.19
404.645	96.19
404.869	74.19
405.093	97.19
405.317	100.19
405.541	88.19
405.765	99.19
405.988	124.19
406.212	160.19
406.436	198.19
406.66	142.19
406.883	104.19
407.107	80.19
407.331	96.19
407.555	90.19
407.778	93.19
408.002	91.19
408.226	83.19
408.449	82.19
408.673	95.19
408.896	81.19
409.12	93.19
409.344	109.19
409.567	103.19
409.791	86.19
410.014	91.19
410.238	107.19
410.461	96.19
410.685	106.19
410.908	100.19
411.132	103.19
411.355	89.19
411.578	88.19
411.802	87.19
412.025	101.19
412.249	120.19
412.472	89.19
412.695	103.19
412.919	102.19
413.142	96.19
413.365	86.19
413.589	80.19
413.812	90.19
414.035	107.19
414.258	103.19
414.482	91.19
414.705	92.19
414.928	86.19
415.151	102.19
415.374	94.19
415.597	102.19
415.821	86.19
416.044	90.19
416.267	91.19
416.49	91.19
416.713	90.19
416.936	76.19
417.159	102.19
417.382	89.19
417.605	94.19
417.828	110.19
418.051	100.19
418.274	87.19
418.497	91.19
418.72	90.19
418.943	95.19
419.166	90.19
419.389	94.19
419.611	98.19
419.834	78.19
420.057	91.19
420.28	88.19
420.503	95.19
420.726	99.19
420.948	97.19
421.171	94.19
421.394	79.19
421.617	108.19
421.839	96.19
422.062	87.19
422.285	95.19
422.507	112.19
422.73	109.19
422.953	94.19
423.175	87.19
423.398	86.19
423.621	86.19
423.843	99.19
424.066	86.19
424.288	98.19
424.511	95.19
424.733	94.19
424.956	96.19
425.178	105.19
425.401	90.19
425.623	99.19
425.846	102.19
426.068	102.19
426.291	97.19
426.513	105.19
426.735	95.19
426.958	100.19
427.18	120.19
427.402	154.19
427.625	161.19
427.847	149.19
428.069	119.19
428.292	101.19
428.514	73.19
428.736	87.19
428.958	78.19
429.181	90.19
429.403	89.19
429.625	90.19
429.847	102.19
430.069	108.19
430.292	85.19
430.514	85.19
430.736	82.19
430.958	85.19
431.18	74.19
431.402	95.19
431.624	87.19
431.846	82.19
432.068	95.19
432.29	75.19
432.512	91.19
432.734	78.19
432.956	104.19
433.178	106.19
433.4	82.19
433.622	89.19
433.844	96.19
434.066	89.19
434.287	75.19
434.509	89.19
434.731	73.19
434.953	79.19
435.175	87.19
435.397	100.19
435.618	89.19
435.84	101.19
436.062	127.19
436.284	104.19
436.505	94.19
436.727	95.19
436.949	86.19
437.17	94.19
437.392	77.19
437.614	94.19
437.835	107.19
438.057	117.19
438.278	91.19
438.5	116.19
438.721	115.19
438.943	105.19
439.165	106.19
439.386	84.19
439.608	106.19
439.829	98.19
440.05	117.19
440.272	146.19
440.493	99.19
440.715	100.19
440.936	93.19
441.158	82.19
441.379	81.19
441.6	70.19
441.822	94.19
442.043	84.19
442.264	111.19
442.486	96.19
442.707	103.19
442.928	85.19
443.149	130.19
443.371	138.19
443.592	119.19
443.813	116.19
444.034	92.19
444.255	80.19
444.476	78.19
444.698	89.19
444.919	83.19
445.14	130.19
445.361	116.19
445.582	126.19
445.803	135.19
446.024	115.19
446.245	123.19
446.466	113.19
446.687	77.19
446.908	84.19
447.129	86.19
447.35	81.19
447.571	74.19
447.792	99.19
448.013	95.19
448.234	116.19
448.455	103.19
448.675	119.19
448.896	115.19
449.117	110.19
449.338	103.19
449.559	116.19
449.779	129.19
450	99.19
450.221	85.19
450.442	98.19
450.662	103.19
450.883	102.19
451.104	108.19
451.324	80.19
451.545	98.19
451.766	83.19
451.986	97.19
452.207	91.19
452.428	98.19
452.648	107.19
452.869	102.19
453.089	94.19
453.31	111.19
453.53	90.19
453.751	81.19
453.971	102.19
454.192	96.19
454.412	98.19
454.633	90.19
454.853	77.19
455.073	86.19
455.294	84.19
455.514	93.19
455.734	104.19
455.955	91.19
456.175	93.19
456.395	90.19
456.616	99.19
456.836	84.19
457.056	92.19
457.276	91.19
457.497	93.19
457.717	86.19
457.937	98.19
458.157	87.19
458.377	79.19
458.598	100.19
458.818	150.19
459.038	146.19
459.258	107.19
459.478	84.19
459.698	78.19
459.918	76.19
460.138	93.19
460.358	77.19
460.578	76.19
460.798	80.19
461.018	79.19
461.238	75.19
461.458	87.19
461.678	74.19
461.898	101.19
462.118	97.19
462.338	90.19
462.558	88.19
462.777	74.19
462.997	79.19
463.217	93.19
463.437	87.19
463.657	89.19
463.876	81.19
464.096	82.19
464.316	87.19
464.536	85.19
464.755	103.19
464.975	100.19
465.195	141.19
465.414	156.19
465.634	93.19
465.854	83.19
466.073	91.19
466.293	79.19
466.512	80.19
466.732	92.19
466.951	105.19
467.171	87.19
467.391	93.19
467.61	110.19
467.829	111.19
468.049	158.19
468.268	182.19
468.488	89.19
468.707	83.19
468.927	84.19
469.146	88.19
469.365	80.19
469.585	75.19
469.804	89.19
470.023	100.19
470.243	95.19
470.462	93.19
470.681	101.19
470.901	94.19
471.12	68.19
471.339	96.19
471.558	106.19
471.777	88.19
471.997	111.19
472.216	218.19
472.435	416.19
472.654	161.19
472.873	100.19
473.092	88.19
473.311	99.19
473.53	106.19
473.749	71.19
473.968	93.19
474.187	103.19
474.406	89.19
474.625	92.19
474.844	100.19
475.063	91.19
475.282	94.19
475.501	87.19
475.72	90.19
475.939	85.19
476.158	83.19
476.377	88.19
476.596	77.19
476.814	102.19
477.033	90.19
477.252	92.19
477.471	83.19
477.69	90.19
477.908	75.19
478.127	83.19
478.346	83.19
478.564	103.19
478.783	94.19
479.002	99.19
479.22	94.19
479.439	86.19
479.658	116.19
479.876	109.19
480.095	89.19
480.313	89.19
480.532	95.19
480.751	125.19
480.969	223.19
481.188	650.19
481.406	414.19
481.624	127.19
481.843	88.19
482.061	86.19
482.28	94.19
482.498	83.19
482.717	83.19
482.935	100.19
483.153	97.19
483.372	80.19
483.59	88.19
483.808	90.19
484.027	98.19
484.245	91.19
484.463	93.19
484.681	95.19
484.9	98.19
485.118	95.19
485.336	96.19
485.554	96.19
485.772	100.19
485.99	101.19
486.209	98.19
486.427	107.19
486.645	100.19
486.863	108.19
487.081	95.19
487.299	92.19
487.517	90.19
487.735	98.19
487.953	95.19
488.171	81.19
488.389	92.19
488.607	95.19
488.825	84.19
489.043	91.19
489.261	89.19
489.479	85.19
489.696	95.19
489.914	87.19
490.132	94.19
490.35	89.19
490.568	95.19
490.786	88.19
491.003	83.19
491.221	101.19
491.439	104.19
491.657	117.19
491.874	81.19
492.092	98.19
492.31	90.19
492.527	92.19
492.745	90.19
492.963	104.19
493.18	87.19
493.398	101.19
493.615	86.19
493.833	90.19
494.05	84.19
494.268	99.19
494.485	88.19
494.703	93.19
494.92	87.19
495.138	90.19
495.355	88.19
495.573	94.19
495.79	116.19
496.008	93.19
496.225	90.19
496.442	80.19
496.66	94.19
496.877	101.19
497.094	94.19
497.312	94.19
497.529	86.19
497.746	85.19
497.963	93.19
498.181	103.19
498.398	93.19
498.615	99.19
498.832	118.19
499.049	92.19
499.267	93.19
499.484	100.19
499.701	92.19
499.918	96.19
500.135	94.19
500.352	91.19
500.569	71.19
500.786	92.19
501.003	93.19
501.22	95.19
501.437	83.19
501.654	99.19
501.871	93.19
502.088	101.19
502.305	81.19
502.522	93.19
502.739	88.19
502.956	99.19
503.172	93.19
503.389	98.19
503.606	108.19
503.823	98.19
504.04	88.19
504.256	98.19
504.473	87.19
504.69	83.19
504.907	84.19
505.123	102.19
505.34	95.19
505.557	97.19
505.773	90.19
505.99	100.19
506.207	93.19
506.423	79.19
506.64	80.19
506.856	71.19
507.073	99.19
507.289	82.19
507.506	103.19
507.722	98.19
507.939	92.19
508.155	94.19
508.372	87.19
508.588	101.19
508.805	92.19
509.021	86.19
509.238	89.19
509.454	104.19
509.67	103.19
509.887	113.19
510.103	119.19
510.319	191.19
510.536	642.19
510.752	2087.19
510.968	615.19
511.184	153.19
511.401	101.19
511.617	96.19
511.833	108.19
512.049	94.19
512.265	95.19
512.481	104.19
512.698	88.19
512.914	108.19
513.13	105.19
513.346	89.19
513.562	105.19
513.778	95.19
513.994	93.19
514.21	84.19
514.426	103.19
514.642	134.19
514.858	109.19
515.074	150.19
515.29	369.19
