Data from Circ_2015_H10_HRD10591_00001.txt Node
Date: Wed Jan 03 10:00:23 EST 2024
User: Yrep
Spectrometer: HR+D1059
Trigger mode: 1
Integration Time (sec): 1.000000E-1
Scans to average: 1
Electric dark correction enabled: true
Nonlinearity correction enabled: false
Boxcar width: 0
XAxis mode: Wavelengths
Number of Pixels in Spectrum: 2048
>>>>>Begin Spectral Data<<<<<
223.165	-24.5
223.4	-24.5
223.635	-24.5
223.869	-14.5
224.104	-21.5
224.338	-16.5
224.573	-10.5
224.808	-9.5
225.042	12.5
225.277	-8.5
225.511	-8.5
225.746	-4.5
225.98	7.5
226.215	18.5
226.449	8.5
226.683	8.5
226.918	31.5
227.152	31.5
227.387	29.5
227.621	43.5
227.856	42.5
228.09	53.5
228.324	47.5
228.559	66.5
228.793	59.5
229.027	77.5
229.262	69.5
229.496	80.5
229.73	87.5
229.964	76.5
230.199	67.5
230.433	73.5
230.667	61.5
230.901	75.5
231.136	63.5
231.37	86.5
231.604	96.5
231.838	88.5
232.072	79.5
232.306	84.5
232.541	88.5
232.775	86.5
233.009	81.5
233.243	74.5
233.477	79.5
233.711	73.5
233.945	80.5
234.179	71.5
234.413	88.5
234.647	74.5
234.881	85.5
235.115	83.5
235.349	84.5
235.583	87.5
235.817	82.5
236.051	66.5
236.285	77.5
236.519	65.5
236.753	80.5
236.987	86.5
237.221	84.5
237.455	93.5
237.689	76.5
237.922	69.5
238.156	74.5
238.39	85.5
238.624	87.5
238.858	86.5
239.091	65.5
239.325	79.5
239.559	80.5
239.793	88.5
240.027	84.5
240.26	81.5
240.494	79.5
240.728	74.5
240.961	82.5
241.195	100.5
241.429	73.5
241.662	80.5
241.896	63.5
242.13	81.5
242.363	76.5
242.597	85.5
242.83	67.5
243.064	81.5
243.298	76.5
243.531	78.5
243.765	81.5
243.998	66.5
244.232	76.5
244.465	74.5
244.699	80.5
244.932	75.5
245.166	80.5
245.399	86.5
245.633	77.5
245.866	79.5
246.099	85.5
246.333	86.5
246.566	70.5
246.8	71.5
247.033	74.5
247.266	85.5
247.5	93.5
247.733	78.5
247.966	81.5
248.2	80.5
248.433	90.5
248.666	93.5
248.899	91.5
249.133	81.5
249.366	98.5
249.599	95.5
249.832	81.5
250.066	92.5
250.299	91.5
250.532	80.5
250.765	70.5
250.998	74.5
251.231	89.5
251.465	79.5
251.698	93.5
251.931	85.5
252.164	70.5
252.397	74.5
252.63	83.5
252.863	87.5
253.096	80.5
253.329	86.5
253.562	81.5
253.795	82.5
254.028	77.5
254.261	80.5
254.494	86.5
254.727	101.5
254.96	85.5
255.193	93.5
255.426	82.5
255.659	87.5
255.892	78.5
256.124	91.5
256.357	66.5
256.59	98.5
256.823	78.5
257.056	87.5
257.289	96.5
257.521	98.5
257.754	80.5
257.987	79.5
258.22	91.5
258.452	89.5
258.685	88.5
258.918	91.5
259.151	88.5
259.383	83.5
259.616	81.5
259.849	78.5
260.081	88.5
260.314	77.5
260.547	93.5
260.779	88.5
261.012	93.5
261.244	78.5
261.477	93.5
261.71	97.5
261.942	114.5
262.175	117.5
262.407	99.5
262.64	75.5
262.872	67.5
263.105	84.5
263.337	88.5
263.57	83.5
263.802	86.5
264.035	96.5
264.267	79.5
264.499	69.5
264.732	89.5
264.964	89.5
265.197	90.5
265.429	104.5
265.661	82.5
265.894	73.5
266.126	81.5
266.358	96.5
266.591	76.5
266.823	81.5
267.055	88.5
267.287	74.5
267.52	98.5
267.752	87.5
267.984	94.5
268.216	80.5
268.448	86.5
268.681	85.5
268.913	87.5
269.145	85.5
269.377	87.5
269.609	81.5
269.841	81.5
270.073	77.5
270.306	76.5
270.538	101.5
270.77	64.5
271.002	94.5
271.234	77.5
271.466	88.5
271.698	79.5
271.93	89.5
272.162	90.5
272.394	96.5
272.626	81.5
272.858	70.5
273.09	85.5
273.322	84.5
273.553	82.5
273.785	94.5
274.017	85.5
274.249	81.5
274.481	101.5
274.713	90.5
274.945	94.5
275.176	92.5
275.408	77.5
275.64	89.5
275.872	86.5
276.104	89.5
276.335	85.5
276.567	94.5
276.799	100.5
277.031	100.5
277.262	97.5
277.494	87.5
277.726	81.5
277.957	91.5
278.189	87.5
278.421	89.5
278.652	96.5
278.884	93.5
279.115	87.5
279.347	90.5
279.579	98.5
279.81	109.5
280.042	96.5
280.273	88.5
280.505	95.5
280.736	88.5
280.968	90.5
281.199	91.5
281.431	95.5
281.662	91.5
281.894	100.5
282.125	92.5
282.356	109.5
282.588	127.5
282.819	105.5
283.051	92.5
283.282	104.5
283.513	79.5
283.745	88.5
283.976	96.5
284.207	98.5
284.439	82.5
284.67	96.5
284.901	92.5
285.132	88.5
285.364	91.5
285.595	103.5
285.826	94.5
286.057	92.5
286.288	96.5
286.52	88.5
286.751	84.5
286.982	84.5
287.213	74.5
287.444	97.5
287.675	101.5
287.906	88.5
288.138	87.5
288.369	103.5
288.6	103.5
288.831	101.5
289.062	86.5
289.293	95.5
289.524	86.5
289.755	92.5
289.986	105.5
290.217	92.5
290.448	83.5
290.679	90.5
290.91	90.5
291.141	93.5
291.371	91.5
291.602	85.5
291.833	89.5
292.064	91.5
292.295	93.5
292.526	80.5
292.757	86.5
292.987	76.5
293.218	80.5
293.449	94.5
293.68	90.5
293.91	93.5
294.141	96.5
294.372	90.5
294.603	95.5
294.833	94.5
295.064	88.5
295.295	95.5
295.525	100.5
295.756	101.5
295.987	95.5
296.217	129.5
296.448	97.5
296.679	98.5
296.909	96.5
297.14	96.5
297.37	96.5
297.601	104.5
297.831	87.5
298.062	101.5
298.292	103.5
298.523	87.5
298.753	99.5
298.984	87.5
299.214	72.5
299.445	90.5
299.675	97.5
299.905	89.5
300.136	91.5
300.366	96.5
300.597	89.5
300.827	110.5
301.057	100.5
301.288	96.5
301.518	108.5
301.748	101.5
301.979	104.5
302.209	73.5
302.439	79.5
302.669	96.5
302.9	92.5
303.13	94.5
303.36	91.5
303.59	86.5
303.82	110.5
304.051	78.5
304.281	85.5
304.511	91.5
304.741	84.5
304.971	93.5
305.201	106.5
305.431	95.5
305.661	97.5
305.891	97.5
306.121	103.5
306.352	95.5
306.582	89.5
306.812	98.5
307.042	107.5
307.272	89.5
307.502	107.5
307.731	94.5
307.961	100.5
308.191	102.5
308.421	87.5
308.651	95.5
308.881	95.5
309.111	99.5
309.341	93.5
309.571	88.5
309.8	88.5
310.03	100.5
310.26	93.5
310.49	97.5
310.72	108.5
310.949	109.5
311.179	113.5
311.409	111.5
311.639	105.5
311.868	107.5
312.098	102.5
312.328	87.5
312.557	98.5
312.787	111.5
313.017	96.5
313.246	92.5
313.476	79.5
313.706	111.5
313.935	96.5
314.165	85.5
314.394	98.5
314.624	89.5
314.853	90.5
315.083	77.5
315.312	85.5
315.542	98.5
315.771	103.5
316.001	89.5
316.23	94.5
316.46	97.5
316.689	96.5
316.919	91.5
317.148	111.5
317.377	94.5
317.607	100.5
317.836	90.5
318.065	103.5
318.295	90.5
318.524	82.5
318.753	98.5
318.983	107.5
319.212	89.5
319.441	96.5
319.67	88.5
319.9	101.5
320.129	94.5
320.358	89.5
320.587	91.5
320.816	94.5
321.046	105.5
321.275	107.5
321.504	102.5
321.733	100.5
321.962	99.5
322.191	112.5
322.42	103.5
322.649	105.5
322.878	108.5
323.108	110.5
323.337	122.5
323.566	136.5
323.795	142.5
324.024	173.5
324.253	361.5
324.482	715.5
324.71	1392.5
324.939	1947.5
325.168	717.5
325.397	216.5
325.626	124.5
325.855	144.5
326.084	112.5
326.313	145.5
326.542	129.5
326.77	231.5
326.999	391.5
327.228	849.5
327.457	1466.5
327.686	1197.5
327.914	327.5
328.143	168.5
328.372	128.5
328.6	132.5
328.829	120.5
329.058	130.5
329.287	115.5
329.515	121.5
329.744	111.5
329.972	117.5
330.201	102.5
330.43	112.5
330.658	129.5
330.887	126.5
331.115	105.5
331.344	103.5
331.572	107.5
331.801	106.5
332.03	104.5
332.258	105.5
332.486	102.5
332.715	87.5
332.943	93.5
333.172	88.5
333.4	112.5
333.629	121.5
333.857	111.5
334.085	107.5
334.314	101.5
334.542	112.5
334.771	108.5
334.999	100.5
335.227	94.5
335.455	86.5
335.684	106.5
335.912	107.5
336.14	96.5
336.369	114.5
336.597	105.5
336.825	110.5
337.053	104.5
337.281	91.5
337.51	92.5
337.738	87.5
337.966	100.5
338.194	101.5
338.422	97.5
338.65	103.5
338.878	102.5
339.106	90.5
339.334	94.5
339.562	89.5
339.79	97.5
340.018	94.5
340.246	96.5
340.474	101.5
340.702	97.5
340.93	87.5
341.158	91.5
341.386	103.5
341.614	98.5
341.842	86.5
342.07	85.5
342.298	103.5
342.526	111.5
342.754	106.5
342.981	100.5
343.209	98.5
343.437	101.5
343.665	87.5
343.893	95.5
344.12	87.5
344.348	94.5
344.576	87.5
344.804	96.5
345.031	100.5
345.259	95.5
345.487	90.5
345.714	100.5
345.942	93.5
346.17	92.5
346.397	89.5
346.625	97.5
346.853	95.5
347.08	77.5
347.308	90.5
347.535	101.5
347.763	94.5
347.99	99.5
348.218	96.5
348.445	101.5
348.673	99.5
348.9	98.5
349.128	99.5
349.355	105.5
349.583	101.5
349.81	103.5
350.037	104.5
350.265	98.5
350.492	113.5
350.72	89.5
350.947	101.5
351.174	104.5
351.402	106.5
351.629	104.5
351.856	97.5
352.083	106.5
352.311	101.5
352.538	114.5
352.765	92.5
352.992	110.5
353.22	99.5
353.447	100.5
353.674	109.5
353.901	101.5
354.128	107.5
354.355	112.5
354.583	100.5
354.81	101.5
355.037	103.5
355.264	112.5
355.491	103.5
355.718	94.5
355.945	107.5
356.172	95.5
356.399	96.5
356.626	107.5
356.853	88.5
357.08	104.5
357.307	96.5
357.534	92.5
357.761	118.5
357.988	105.5
358.215	101.5
358.441	98.5
358.668	103.5
358.895	100.5
359.122	81.5
359.349	92.5
359.576	94.5
359.802	107.5
360.029	101.5
360.256	100.5
360.483	85.5
360.709	87.5
360.936	97.5
361.163	93.5
361.39	91.5
361.616	96.5
361.843	97.5
362.07	102.5
362.296	103.5
362.523	92.5
362.749	91.5
362.976	93.5
363.203	90.5
363.429	94.5
363.656	94.5
363.882	82.5
364.109	110.5
364.335	109.5
364.562	106.5
364.788	91.5
365.015	107.5
365.241	107.5
365.468	112.5
365.694	104.5
365.92	100.5
366.147	97.5
366.373	96.5
366.599	93.5
366.826	76.5
367.052	89.5
367.278	91.5
367.505	100.5
367.731	96.5
367.957	85.5
368.184	87.5
368.41	100.5
368.636	107.5
368.862	101.5
369.089	89.5
369.315	89.5
369.541	91.5
369.767	96.5
369.993	102.5
370.219	97.5
370.445	76.5
370.672	82.5
370.898	84.5
371.124	82.5
371.35	92.5
371.576	102.5
371.802	87.5
372.028	108.5
372.254	98.5
372.48	89.5
372.706	77.5
372.932	85.5
373.158	94.5
373.384	84.5
373.61	110.5
373.835	101.5
374.061	112.5
374.287	91.5
374.513	105.5
374.739	97.5
374.965	96.5
375.191	100.5
375.416	95.5
375.642	79.5
375.868	104.5
376.094	93.5
376.319	95.5
376.545	95.5
376.771	92.5
376.997	97.5
377.222	101.5
377.448	102.5
377.674	106.5
377.899	94.5
378.125	97.5
378.35	111.5
378.576	103.5
378.802	100.5
379.027	94.5
379.253	98.5
379.478	109.5
379.704	125.5
379.929	103.5
380.155	107.5
380.38	101.5
380.606	117.5
380.831	108.5
381.057	130.5
381.282	102.5
381.507	121.5
381.733	107.5
381.958	101.5
382.184	113.5
382.409	123.5
382.634	134.5
382.86	109.5
383.085	121.5
383.31	123.5
383.535	104.5
383.761	113.5
383.986	110.5
384.211	111.5
384.436	123.5
384.662	123.5
384.887	125.5
385.112	152.5
385.337	144.5
385.562	124.5
385.787	125.5
386.013	150.5
386.238	155.5
386.463	128.5
386.688	124.5
386.913	128.5
387.138	141.5
387.363	142.5
387.588	124.5
387.813	125.5
388.038	140.5
388.263	142.5
388.488	136.5
388.713	106.5
388.938	97.5
389.163	96.5
389.387	108.5
389.612	90.5
389.837	97.5
390.062	98.5
390.287	97.5
390.512	93.5
390.736	86.5
390.961	88.5
391.186	110.5
391.411	92.5
391.636	103.5
391.86	88.5
392.085	91.5
392.31	86.5
392.534	82.5
392.759	97.5
392.984	91.5
393.208	102.5
393.433	139.5
393.658	121.5
393.882	81.5
394.107	89.5
394.331	86.5
394.556	73.5
394.78	99.5
395.005	101.5
395.229	80.5
395.454	93.5
395.678	98.5
395.903	88.5
396.127	92.5
396.352	92.5
396.576	90.5
396.801	111.5
397.025	106.5
397.249	90.5
397.474	93.5
397.698	89.5
397.922	87.5
398.147	106.5
398.371	105.5
398.595	98.5
398.82	88.5
399.044	92.5
399.268	90.5
399.492	98.5
399.717	93.5
399.941	79.5
400.165	88.5
400.389	95.5
400.613	96.5
400.837	90.5
401.062	91.5
401.286	89.5
401.51	81.5
401.734	86.5
401.958	108.5
402.182	114.5
402.406	121.5
402.63	120.5
402.854	89.5
403.078	92.5
403.302	86.5
403.526	97.5
403.75	102.5
403.974	95.5
404.198	84.5
404.422	90.5
404.645	94.5
404.869	95.5
405.093	87.5
405.317	92.5
405.541	95.5
405.765	101.5
405.988	108.5
406.212	143.5
406.436	186.5
406.66	132.5
406.883	106.5
407.107	95.5
407.331	100.5
407.555	97.5
407.778	94.5
408.002	91.5
408.226	98.5
408.449	80.5
408.673	84.5
408.896	100.5
409.12	97.5
409.344	89.5
409.567	99.5
409.791	97.5
410.014	112.5
410.238	98.5
410.461	91.5
410.685	100.5
410.908	101.5
411.132	104.5
411.355	102.5
411.578	89.5
411.802	96.5
412.025	106.5
412.249	101.5
412.472	89.5
412.695	90.5
412.919	97.5
413.142	86.5
413.365	86.5
413.589	103.5
413.812	83.5
414.035	101.5
414.258	98.5
414.482	98.5
414.705	80.5
414.928	102.5
415.151	97.5
415.374	101.5
415.597	78.5
415.821	102.5
416.044	93.5
416.267	97.5
416.49	96.5
416.713	88.5
416.936	91.5
417.159	81.5
417.382	91.5
417.605	102.5
417.828	88.5
418.051	103.5
418.274	101.5
418.497	100.5
418.72	95.5
418.943	103.5
419.166	113.5
419.389	88.5
419.611	88.5
419.834	97.5
420.057	90.5
420.28	92.5
420.503	97.5
420.726	93.5
420.948	91.5
421.171	82.5
421.394	90.5
421.617	92.5
421.839	91.5
422.062	90.5
422.285	97.5
422.507	100.5
422.73	109.5
422.953	91.5
423.175	79.5
423.398	87.5
423.621	92.5
423.843	92.5
424.066	101.5
424.288	91.5
424.511	100.5
424.733	97.5
424.956	96.5
425.178	105.5
425.401	95.5
425.623	98.5
425.846	91.5
426.068	88.5
426.291	93.5
426.513	91.5
426.735	81.5
426.958	95.5
427.18	85.5
427.402	124.5
427.625	146.5
427.847	117.5
428.069	116.5
428.292	97.5
428.514	90.5
428.736	95.5
428.958	94.5
429.181	102.5
429.403	94.5
429.625	92.5
429.847	85.5
430.069	103.5
430.292	87.5
430.514	81.5
430.736	86.5
430.958	89.5
431.18	74.5
431.402	89.5
431.624	87.5
431.846	88.5
432.068	100.5
432.29	85.5
432.512	85.5
432.734	109.5
432.956	92.5
433.178	101.5
433.4	101.5
433.622	86.5
433.844	108.5
434.066	87.5
434.287	90.5
434.509	85.5
434.731	101.5
434.953	97.5
435.175	82.5
435.397	98.5
435.618	90.5
435.84	84.5
436.062	109.5
436.284	120.5
436.505	103.5
436.727	93.5
436.949	100.5
437.17	77.5
437.392	97.5
437.614	89.5
437.835	91.5
438.057	111.5
438.278	112.5
438.5	105.5
438.721	116.5
438.943	113.5
439.165	92.5
439.386	102.5
439.608	104.5
439.829	94.5
440.05	100.5
440.272	129.5
440.493	102.5
440.715	95.5
440.936	109.5
441.158	88.5
441.379	75.5
441.6	89.5
441.822	89.5
442.043	101.5
442.264	98.5
442.486	101.5
442.707	88.5
442.928	108.5
443.149	119.5
443.371	111.5
443.592	109.5
443.813	103.5
444.034	112.5
444.255	90.5
444.476	97.5
444.698	98.5
444.919	93.5
445.14	133.5
445.361	118.5
445.582	109.5
445.803	121.5
446.024	115.5
446.245	117.5
446.466	117.5
446.687	84.5
446.908	91.5
447.129	88.5
447.35	85.5
447.571	97.5
447.792	107.5
448.013	113.5
448.234	96.5
448.455	91.5
448.675	94.5
448.896	110.5
449.117	106.5
449.338	99.5
449.559	116.5
449.779	116.5
450	104.5
450.221	100.5
450.442	85.5
450.662	95.5
450.883	81.5
451.104	109.5
451.324	92.5
451.545	81.5
451.766	89.5
451.986	85.5
452.207	89.5
452.428	102.5
452.648	95.5
452.869	100.5
453.089	112.5
453.31	128.5
453.53	90.5
453.751	79.5
453.971	100.5
454.192	113.5
454.412	94.5
454.633	98.5
454.853	88.5
455.073	96.5
455.294	100.5
455.514	102.5
455.734	94.5
455.955	97.5
456.175	80.5
456.395	95.5
456.616	87.5
456.836	72.5
457.056	75.5
457.276	84.5
457.497	100.5
457.717	71.5
457.937	86.5
458.157	94.5
458.377	85.5
458.598	100.5
458.818	125.5
459.038	126.5
459.258	101.5
459.478	95.5
459.698	93.5
459.918	93.5
460.138	92.5
460.358	92.5
460.578	100.5
460.798	100.5
461.018	103.5
461.238	90.5
461.458	89.5
461.678	78.5
461.898	77.5
462.118	83.5
462.338	86.5
462.558	93.5
462.777	90.5
462.997	93.5
463.217	86.5
463.437	102.5
463.657	78.5
463.876	90.5
464.096	91.5
464.316	95.5
464.536	95.5
464.755	79.5
464.975	118.5
465.195	154.5
465.414	136.5
465.634	100.5
465.854	85.5
466.073	87.5
466.293	74.5
466.512	88.5
466.732	95.5
466.951	101.5
467.171	99.5
467.391	89.5
467.61	100.5
467.829	99.5
468.049	87.5
468.268	99.5
468.488	78.5
468.707	88.5
468.927	92.5
469.146	86.5
469.365	98.5
469.585	90.5
469.804	98.5
470.023	103.5
470.243	91.5
470.462	94.5
470.681	100.5
470.901	95.5
471.12	92.5
471.339	96.5
471.558	101.5
471.777	94.5
471.997	89.5
472.216	90.5
472.435	112.5
472.654	103.5
472.873	89.5
473.092	89.5
473.311	95.5
473.53	91.5
473.749	89.5
473.968	87.5
474.187	95.5
474.406	101.5
474.625	95.5
474.844	93.5
475.063	81.5
475.282	94.5
475.501	98.5
475.72	79.5
475.939	93.5
476.158	91.5
476.377	85.5
476.596	74.5
476.814	90.5
477.033	93.5
477.252	89.5
477.471	79.5
477.69	101.5
477.908	102.5
478.127	94.5
478.346	92.5
478.564	98.5
478.783	101.5
479.002	88.5
479.22	69.5
479.439	100.5
479.658	91.5
479.876	110.5
480.095	92.5
480.313	80.5
480.532	74.5
480.751	88.5
480.969	119.5
481.188	125.5
481.406	114.5
481.624	98.5
481.843	86.5
482.061	93.5
482.28	89.5
482.498	92.5
482.717	98.5
482.935	103.5
483.153	86.5
483.372	89.5
483.59	82.5
483.808	92.5
484.027	94.5
484.245	96.5
484.463	94.5
484.681	96.5
484.9	86.5
485.118	85.5
485.336	88.5
485.554	116.5
485.772	98.5
485.99	105.5
486.209	110.5
486.427	110.5
486.645	108.5
486.863	120.5
487.081	100.5
487.299	88.5
487.517	93.5
487.735	97.5
487.953	97.5
488.171	99.5
488.389	98.5
488.607	77.5
488.825	98.5
489.043	100.5
489.261	95.5
489.479	101.5
489.696	97.5
489.914	95.5
490.132	78.5
490.35	103.5
490.568	94.5
490.786	113.5
491.003	85.5
491.221	102.5
491.439	107.5
491.657	92.5
491.874	103.5
492.092	89.5
492.31	98.5
492.527	103.5
492.745	102.5
492.963	88.5
493.18	86.5
493.398	100.5
493.615	94.5
493.833	105.5
494.05	84.5
494.268	94.5
494.485	103.5
494.703	104.5
494.92	109.5
495.138	79.5
495.355	81.5
495.573	93.5
495.79	87.5
496.008	104.5
496.225	102.5
496.442	97.5
496.66	87.5
496.877	81.5
497.094	103.5
497.312	106.5
497.529	98.5
497.746	100.5
497.963	86.5
498.181	99.5
498.398	94.5
498.615	107.5
498.832	108.5
499.049	94.5
499.267	93.5
499.484	100.5
499.701	113.5
499.918	81.5
500.135	99.5
500.352	94.5
500.569	79.5
500.786	94.5
501.003	106.5
501.22	82.5
501.437	98.5
501.654	110.5
501.871	97.5
502.088	75.5
502.305	102.5
502.522	93.5
502.739	105.5
502.956	88.5
503.172	90.5
503.389	92.5
503.606	104.5
503.823	111.5
504.04	107.5
504.256	96.5
504.473	95.5
504.69	103.5
504.907	92.5
505.123	90.5
505.34	89.5
505.557	106.5
505.773	107.5
505.99	88.5
506.207	77.5
506.423	102.5
506.64	100.5
506.856	92.5
507.073	84.5
507.289	86.5
507.506	97.5
507.722	100.5
507.939	93.5
508.155	107.5
508.372	106.5
508.588	107.5
508.805	78.5
509.021	100.5
509.238	105.5
509.454	79.5
509.67	98.5
509.887	101.5
510.103	142.5
510.319	181.5
510.536	594.5
510.752	1834.5
510.968	578.5
511.184	143.5
511.401	121.5
511.617	100.5
511.833	104.5
512.049	92.5
512.265	109.5
512.481	90.5
512.698	78.5
512.914	104.5
513.13	97.5
513.346	85.5
513.562	99.5
513.778	101.5
513.994	100.5
514.21	126.5
514.426	102.5
514.642	128.5
514.858	123.5
515.074	151.5
515.29	321.5
515.506	1021.5
515.721	414.5
515.937	143.5
516.153	111.5
516.369	96.5
516.585	95.5
516.801	102.5
517.016	103.5
517.232	101.5
517.448	97.5
517.664	95.5
517.879	93.5
518.095	100.5
518.311	96.5
518.527	93.5
518.742	92.5
518.958	88.5
519.173	103.5
519.389	94.5
519.605	85.5
519.82	82.5
520.036	105.5
520.251	111.5
520.467	108.5
520.682	107.5
520.898	101.5
521.113	109.5
521.329	136.5
521.544	166.5
521.76	412.5
521.975	1673.5
522.19	1090.5
522.406	246.5
522.621	113.5
522.836	97.5
523.052	98.5
523.267	92.5
523.482	102.5
523.698	93.5
523.913	117.5
524.128	102.5
524.343	91.5
524.559	101.5
524.774	85.5
524.989	110.5
525.204	99.5
525.419	92.5
525.634	93.5
525.849	93.5
526.064	92.5
526.28	92.5
526.495	93.5
526.71	104.5
526.925	98.5
527.14	82.5
527.355	91.5
527.57	95.5
527.785	90.5
527.999	100.5
528.214	95.5
528.429	105.5
528.644	96.5
528.859	92.5
529.074	112.5
529.289	132.5
529.503	152.5
529.718	105.5
529.933	88.5
530.148	91.5
530.363	90.5
530.577	93.5
530.792	101.5
531.007	83.5
531.221	96.5
531.436	81.5
531.651	88.5
531.865	104.5
532.08	98.5
532.295	104.5
532.509	101.5
532.724	102.5
532.938	102.5
533.153	101.5
