Data from Circ_2015_H10_HRD10591_00081.txt Node
Date: Wed Jan 03 10:00:39 EST 2024
User: Yrep
Spectrometer: HR+D1059
Trigger mode: 1
Integration Time (sec): 1.000000E-1
Scans to average: 1
Electric dark correction enabled: true
Nonlinearity correction enabled: false
Boxcar width: 0
XAxis mode: Wavelengths
Number of Pixels in Spectrum: 2048
>>>>>Begin Spectral Data<<<<<
223.165	-21.25
223.4	-21.25
223.635	-21.25
223.869	-28.25
224.104	-15.25
224.338	-19.25
224.573	-17.25
224.808	-14.25
225.042	-10.25
225.277	-4.25
225.511	-11.25
225.746	16.75
225.98	6.75
226.215	16.75
226.449	21.75
226.683	17.75
226.918	26.75
227.152	34.75
227.387	27.75
227.621	37.75
227.856	50.75
228.09	51.75
228.324	35.75
228.559	64.75
228.793	42.75
229.027	63.75
229.262	75.75
229.496	68.75
229.73	97.75
229.964	90.75
230.199	76.75
230.433	63.75
230.667	69.75
230.901	77.75
231.136	75.75
231.37	75.75
231.604	80.75
231.838	71.75
232.072	80.75
232.306	78.75
232.541	88.75
232.775	76.75
233.009	76.75
233.243	80.75
233.477	79.75
233.711	80.75
233.945	66.75
234.179	85.75
234.413	77.75
234.647	67.75
234.881	86.75
235.115	84.75
235.349	75.75
235.583	76.75
235.817	78.75
236.051	83.75
236.285	82.75
236.519	69.75
236.753	78.75
236.987	77.75
237.221	87.75
237.455	86.75
237.689	81.75
237.922	65.75
238.156	67.75
238.39	73.75
238.624	61.75
238.858	68.75
239.091	77.75
239.325	78.75
239.559	85.75
239.793	82.75
240.027	82.75
240.26	79.75
240.494	68.75
240.728	71.75
240.961	64.75
241.195	80.75
241.429	71.75
241.662	67.75
241.896	73.75
242.13	78.75
242.363	71.75
242.597	95.75
242.83	75.75
243.064	58.75
243.298	63.75
243.531	90.75
243.765	66.75
243.998	89.75
244.232	92.75
244.465	86.75
244.699	84.75
244.932	81.75
245.166	69.75
245.399	66.75
245.633	72.75
245.866	72.75
246.099	75.75
246.333	83.75
246.566	75.75
246.8	74.75
247.033	72.75
247.266	69.75
247.5	82.75
247.733	70.75
247.966	85.75
248.2	67.75
248.433	79.75
248.666	79.75
248.899	77.75
249.133	79.75
249.366	99.75
249.599	89.75
249.832	80.75
250.066	87.75
250.299	81.75
250.532	83.75
250.765	92.75
250.998	63.75
251.231	75.75
251.465	63.75
251.698	79.75
251.931	73.75
252.164	75.75
252.397	85.75
252.63	76.75
252.863	79.75
253.096	77.75
253.329	84.75
253.562	77.75
253.795	72.75
254.028	74.75
254.261	88.75
254.494	85.75
254.727	78.75
254.96	77.75
255.193	83.75
255.426	79.75
255.659	94.75
255.892	96.75
256.124	85.75
256.357	84.75
256.59	76.75
256.823	64.75
257.056	100.75
257.289	64.75
257.521	84.75
257.754	80.75
257.987	104.75
258.22	62.75
258.452	88.75
258.685	89.75
258.918	79.75
259.151	80.75
259.383	71.75
259.616	75.75
259.849	84.75
260.081	63.75
260.314	85.75
260.547	78.75
260.779	80.75
261.012	71.75
261.244	86.75
261.477	102.75
261.71	89.75
261.942	105.75
262.175	116.75
262.407	81.75
262.64	79.75
262.872	82.75
263.105	74.75
263.337	82.75
263.57	81.75
263.802	87.75
264.035	82.75
264.267	75.75
264.499	84.75
264.732	83.75
264.964	93.75
265.197	83.75
265.429	91.75
265.661	73.75
265.894	81.75
266.126	70.75
266.358	77.75
266.591	84.75
266.823	87.75
267.055	83.75
267.287	80.75
267.52	87.75
267.752	72.75
267.984	73.75
268.216	71.75
268.448	80.75
268.681	83.75
268.913	87.75
269.145	84.75
269.377	75.75
269.609	80.75
269.841	92.75
270.073	92.75
270.306	78.75
270.538	79.75
270.77	88.75
271.002	78.75
271.234	82.75
271.466	85.75
271.698	76.75
271.93	91.75
272.162	98.75
272.394	92.75
272.626	81.75
272.858	68.75
273.09	86.75
273.322	91.75
273.553	85.75
273.785	79.75
274.017	80.75
274.249	83.75
274.481	83.75
274.713	83.75
274.945	91.75
275.176	101.75
275.408	100.75
275.64	84.75
275.872	101.75
276.104	90.75
276.335	99.75
276.567	102.75
276.799	94.75
277.031	110.75
277.262	103.75
277.494	92.75
277.726	90.75
277.957	83.75
278.189	75.75
278.421	80.75
278.652	80.75
278.884	84.75
279.115	80.75
279.347	88.75
279.579	91.75
279.81	90.75
280.042	102.75
280.273	98.75
280.505	91.75
280.736	91.75
280.968	83.75
281.199	94.75
281.431	92.75
281.662	91.75
281.894	89.75
282.125	107.75
282.356	108.75
282.588	122.75
282.819	112.75
283.051	88.75
283.282	84.75
283.513	86.75
283.745	89.75
283.976	96.75
284.207	81.75
284.439	73.75
284.67	77.75
284.901	92.75
285.132	92.75
285.364	87.75
285.595	59.75
285.826	75.75
286.057	83.75
286.288	76.75
286.52	87.75
286.751	64.75
286.982	91.75
287.213	82.75
287.444	90.75
287.675	95.75
287.906	89.75
288.138	78.75
288.369	93.75
288.6	79.75
288.831	71.75
289.062	74.75
289.293	77.75
289.524	90.75
289.755	91.75
289.986	90.75
290.217	90.75
290.448	78.75
290.679	74.75
290.91	95.75
291.141	85.75
291.371	86.75
291.602	81.75
291.833	91.75
292.064	84.75
292.295	90.75
292.526	79.75
292.757	77.75
292.987	75.75
293.218	91.75
293.449	100.75
293.68	85.75
293.91	91.75
294.141	81.75
294.372	83.75
294.603	90.75
294.833	82.75
295.064	92.75
295.295	85.75
295.525	102.75
295.756	100.75
295.987	123.75
296.217	125.75
296.448	113.75
296.679	106.75
296.909	95.75
297.14	92.75
297.37	95.75
297.601	76.75
297.831	83.75
298.062	99.75
298.292	84.75
298.523	79.75
298.753	83.75
298.984	84.75
299.214	84.75
299.445	87.75
299.675	77.75
299.905	87.75
300.136	87.75
300.366	102.75
300.597	87.75
300.827	93.75
301.057	84.75
301.288	98.75
301.518	99.75
301.748	89.75
301.979	89.75
302.209	91.75
302.439	77.75
302.669	92.75
302.9	83.75
303.13	91.75
303.36	82.75
303.59	111.75
303.82	113.75
304.051	96.75
304.281	93.75
304.511	84.75
304.741	92.75
304.971	92.75
305.201	85.75
305.431	75.75
305.661	81.75
305.891	90.75
306.121	101.75
306.352	97.75
306.582	99.75
306.812	98.75
307.042	89.75
307.272	108.75
307.502	93.75
307.731	117.75
307.961	87.75
308.191	87.75
308.421	72.75
308.651	78.75
308.881	85.75
309.111	87.75
309.341	99.75
309.571	93.75
309.8	89.75
310.03	82.75
310.26	82.75
310.49	89.75
310.72	96.75
310.949	94.75
311.179	88.75
311.409	79.75
311.639	80.75
311.868	108.75
312.098	103.75
312.328	86.75
312.557	92.75
312.787	95.75
313.017	103.75
313.246	90.75
313.476	92.75
313.706	81.75
313.935	102.75
314.165	79.75
314.394	78.75
314.624	103.75
314.853	96.75
315.083	93.75
315.312	91.75
315.542	72.75
315.771	90.75
316.001	86.75
316.23	92.75
316.46	97.75
316.689	82.75
316.919	97.75
317.148	87.75
317.377	97.75
317.607	91.75
317.836	80.75
318.065	83.75
318.295	93.75
318.524	89.75
318.753	92.75
318.983	91.75
319.212	100.75
319.441	99.75
319.67	100.75
319.9	103.75
320.129	85.75
320.358	86.75
320.587	78.75
320.816	83.75
321.046	105.75
321.275	96.75
321.504	80.75
321.733	91.75
321.962	86.75
322.191	92.75
322.42	109.75
322.649	116.75
322.878	105.75
323.108	115.75
323.337	135.75
323.566	123.75
323.795	165.75
324.024	215.75
324.253	442.75
324.482	969.75
324.71	2019.75
324.939	2683.75
325.168	945.75
325.397	250.75
325.626	157.75
325.855	124.75
326.084	116.75
326.313	154.75
326.542	160.75
326.77	241.75
326.999	536.75
327.228	1131.75
327.457	2090.75
327.686	1692.75
327.914	466.75
328.143	261.75
328.372	247.75
328.6	189.75
328.829	143.75
329.058	148.75
329.287	135.75
329.515	129.75
329.744	145.75
329.972	188.75
330.201	301.75
330.43	369.75
330.658	227.75
330.887	164.75
331.115	148.75
331.344	109.75
331.572	95.75
331.801	130.75
332.03	98.75
332.258	96.75
332.486	89.75
332.715	98.75
332.943	104.75
333.172	111.75
333.4	99.75
333.629	123.75
333.857	136.75
334.085	182.75
334.314	301.75
334.542	509.75
334.771	439.75
334.999	187.75
335.227	117.75
335.455	90.75
335.684	104.75
335.912	106.75
336.14	96.75
336.369	107.75
336.597	91.75
336.825	105.75
337.053	98.75
337.281	99.75
337.51	95.75
337.738	88.75
337.966	95.75
338.194	107.75
338.422	93.75
338.65	93.75
338.878	92.75
339.106	75.75
339.334	93.75
339.562	71.75
339.79	85.75
340.018	96.75
340.246	82.75
340.474	86.75
340.702	85.75
340.93	89.75
341.158	84.75
341.386	81.75
341.614	96.75
341.842	82.75
342.07	78.75
342.298	79.75
342.526	78.75
342.754	85.75
342.981	93.75
343.209	93.75
343.437	111.75
343.665	83.75
343.893	98.75
344.12	87.75
344.348	95.75
344.576	76.75
344.804	84.75
345.031	89.75
345.259	103.75
345.487	101.75
345.714	91.75
345.942	95.75
346.17	85.75
346.397	90.75
346.625	93.75
346.853	99.75
347.08	99.75
347.308	95.75
347.535	87.75
347.763	96.75
347.99	90.75
348.218	91.75
348.445	98.75
348.673	97.75
348.9	94.75
349.128	96.75
349.355	107.75
349.583	86.75
349.81	77.75
350.037	81.75
350.265	99.75
350.492	105.75
350.72	96.75
350.947	92.75
351.174	111.75
351.402	102.75
351.629	81.75
351.856	97.75
352.083	104.75
352.311	105.75
352.538	103.75
352.765	103.75
352.992	105.75
353.22	108.75
353.447	78.75
353.674	104.75
353.901	95.75
354.128	82.75
354.355	92.75
354.583	97.75
354.81	95.75
355.037	88.75
355.264	85.75
355.491	93.75
355.718	99.75
355.945	99.75
356.172	85.75
356.399	106.75
356.626	103.75
356.853	84.75
357.08	88.75
357.307	85.75
357.534	92.75
357.761	91.75
357.988	92.75
358.215	84.75
358.441	89.75
358.668	76.75
358.895	89.75
359.122	90.75
359.349	82.75
359.576	87.75
359.802	93.75
360.029	127.75
360.256	97.75
360.483	102.75
360.709	82.75
360.936	87.75
361.163	98.75
361.39	101.75
361.616	98.75
361.843	83.75
362.07	91.75
362.296	87.75
362.523	89.75
362.749	92.75
362.976	85.75
363.203	88.75
363.429	73.75
363.656	87.75
363.882	84.75
364.109	101.75
364.335	87.75
364.562	97.75
364.788	88.75
365.015	84.75
365.241	105.75
365.468	106.75
365.694	94.75
365.92	100.75
366.147	102.75
366.373	81.75
366.599	82.75
366.826	84.75
367.052	77.75
367.278	89.75
367.505	91.75
367.731	85.75
367.957	85.75
368.184	86.75
368.41	96.75
368.636	109.75
368.862	111.75
369.089	101.75
369.315	99.75
369.541	79.75
369.767	77.75
369.993	95.75
370.219	85.75
370.445	98.75
370.672	88.75
370.898	88.75
371.124	80.75
371.35	105.75
371.576	87.75
371.802	98.75
372.028	82.75
372.254	90.75
372.48	95.75
372.706	79.75
372.932	92.75
373.158	89.75
373.384	83.75
373.61	84.75
373.835	94.75
374.061	80.75
374.287	94.75
374.513	84.75
374.739	81.75
374.965	89.75
375.191	76.75
375.416	85.75
375.642	97.75
375.868	87.75
376.094	86.75
376.319	92.75
376.545	87.75
376.771	86.75
376.997	80.75
377.222	88.75
377.448	91.75
377.674	76.75
377.899	96.75
378.125	91.75
378.35	96.75
378.576	93.75
378.802	95.75
379.027	97.75
379.253	95.75
379.478	96.75
379.704	89.75
379.929	88.75
380.155	99.75
380.38	92.75
380.606	85.75
380.831	88.75
381.057	99.75
381.282	84.75
381.507	101.75
381.733	92.75
381.958	96.75
382.184	97.75
382.409	100.75
382.634	103.75
382.86	90.75
383.085	103.75
383.31	94.75
383.535	88.75
383.761	91.75
383.986	87.75
384.211	78.75
384.436	83.75
384.662	87.75
384.887	94.75
385.112	98.75
385.337	91.75
385.562	102.75
385.787	89.75
386.013	92.75
386.238	115.75
386.463	91.75
386.688	115.75
386.913	95.75
387.138	96.75
387.363	96.75
387.588	95.75
387.813	90.75
388.038	99.75
388.263	103.75
388.488	97.75
388.713	84.75
388.938	92.75
389.163	97.75
389.387	103.75
389.612	89.75
389.837	85.75
390.062	81.75
390.287	96.75
390.512	87.75
390.736	85.75
390.961	83.75
391.186	84.75
391.411	91.75
391.636	79.75
391.86	85.75
392.085	76.75
392.31	76.75
392.534	84.75
392.759	84.75
392.984	82.75
393.208	79.75
393.433	88.75
393.658	87.75
393.882	88.75
394.107	91.75
394.331	85.75
394.556	91.75
394.78	74.75
395.005	90.75
395.229	93.75
395.454	87.75
395.678	102.75
395.903	81.75
396.127	83.75
396.352	100.75
396.576	93.75
396.801	89.75
397.025	92.75
397.249	101.75
397.474	78.75
397.698	92.75
397.922	91.75
398.147	96.75
398.371	88.75
398.595	90.75
398.82	89.75
399.044	79.75
399.268	90.75
399.492	90.75
399.717	85.75
399.941	86.75
400.165	105.75
400.389	84.75
400.613	83.75
400.837	75.75
401.062	74.75
401.286	83.75
401.51	81.75
401.734	81.75
401.958	92.75
402.182	112.75
402.406	157.75
402.63	127.75
402.854	99.75
403.078	85.75
403.302	99.75
403.526	87.75
403.75	89.75
403.974	75.75
404.198	74.75
404.422	74.75
404.645	85.75
404.869	87.75
405.093	83.75
405.317	100.75
405.541	120.75
405.765	98.75
405.988	117.75
406.212	167.75
406.436	209.75
406.66	146.75
406.883	108.75
407.107	92.75
407.331	112.75
407.555	98.75
407.778	92.75
408.002	78.75
408.226	88.75
408.449	100.75
408.673	95.75
408.896	93.75
409.12	88.75
409.344	82.75
409.567	85.75
409.791	99.75
410.014	88.75
410.238	83.75
410.461	86.75
410.685	87.75
410.908	92.75
411.132	111.75
411.355	90.75
411.578	102.75
411.802	93.75
412.025	87.75
412.249	97.75
412.472	100.75
412.695	115.75
412.919	91.75
413.142	102.75
413.365	85.75
413.589	74.75
413.812	83.75
414.035	83.75
414.258	83.75
414.482	99.75
414.705	92.75
414.928	88.75
415.151	75.75
415.374	91.75
415.597	102.75
415.821	94.75
416.044	87.75
416.267	85.75
416.49	81.75
416.713	92.75
416.936	79.75
417.159	95.75
417.382	92.75
417.605	95.75
417.828	91.75
418.051	88.75
418.274	88.75
418.497	78.75
418.72	85.75
418.943	99.75
419.166	91.75
419.389	92.75
419.611	80.75
419.834	92.75
420.057	96.75
420.28	98.75
420.503	88.75
420.726	82.75
420.948	67.75
421.171	93.75
421.394	96.75
421.617	90.75
421.839	87.75
422.062	90.75
422.285	99.75
422.507	100.75
422.73	89.75
422.953	97.75
423.175	91.75
423.398	92.75
423.621	92.75
423.843	89.75
424.066	80.75
424.288	87.75
424.511	88.75
424.733	93.75
424.956	112.75
425.178	111.75
425.401	98.75
425.623	94.75
425.846	81.75
426.068	99.75
426.291	100.75
426.513	94.75
426.735	82.75
426.958	96.75
427.18	101.75
427.402	147.75
427.625	190.75
427.847	164.75
428.069	163.75
428.292	94.75
428.514	89.75
428.736	72.75
428.958	82.75
429.181	70.75
429.403	93.75
429.625	88.75
429.847	82.75
430.069	102.75
430.292	72.75
430.514	67.75
430.736	73.75
430.958	77.75
431.18	85.75
431.402	95.75
431.624	76.75
431.846	87.75
432.068	95.75
432.29	80.75
432.512	94.75
432.734	71.75
432.956	89.75
433.178	91.75
433.4	95.75
433.622	91.75
433.844	86.75
434.066	84.75
434.287	89.75
434.509	81.75
434.731	90.75
434.953	84.75
435.175	76.75
435.397	82.75
435.618	81.75
435.84	103.75
436.062	138.75
436.284	137.75
436.505	106.75
436.727	115.75
436.949	96.75
437.17	93.75
437.392	82.75
437.614	92.75
437.835	100.75
438.057	117.75
438.278	129.75
438.5	104.75
438.721	137.75
438.943	102.75
439.165	81.75
439.386	95.75
439.608	96.75
439.829	114.75
440.05	122.75
440.272	149.75
440.493	94.75
440.715	87.75
440.936	90.75
441.158	77.75
441.379	81.75
441.6	97.75
441.822	103.75
442.043	82.75
442.264	110.75
442.486	104.75
442.707	89.75
442.928	104.75
443.149	149.75
443.371	135.75
443.592	116.75
443.813	112.75
444.034	141.75
444.255	94.75
444.476	89.75
444.698	73.75
444.919	85.75
445.14	131.75
445.361	111.75
445.582	123.75
445.803	140.75
446.024	141.75
446.245	141.75
446.466	131.75
446.687	83.75
446.908	75.75
447.129	94.75
447.35	88.75
447.571	89.75
447.792	96.75
448.013	97.75
448.234	102.75
448.455	111.75
448.675	116.75
448.896	132.75
449.117	100.75
449.338	109.75
449.559	113.75
449.779	133.75
450	96.75
450.221	85.75
450.442	81.75
450.662	78.75
450.883	108.75
451.104	113.75
451.324	106.75
451.545	100.75
451.766	79.75
451.986	73.75
452.207	91.75
452.428	87.75
452.648	85.75
452.869	102.75
453.089	115.75
453.31	107.75
453.53	90.75
453.751	86.75
453.971	111.75
454.192	113.75
454.412	87.75
454.633	85.75
454.853	92.75
455.073	68.75
455.294	81.75
455.514	103.75
455.734	100.75
455.955	87.75
456.175	93.75
456.395	98.75
456.616	93.75
456.836	79.75
457.056	84.75
457.276	88.75
457.497	88.75
457.717	75.75
457.937	84.75
458.157	90.75
458.377	96.75
458.598	104.75
458.818	131.75
459.038	165.75
459.258	124.75
459.478	88.75
459.698	74.75
459.918	83.75
460.138	81.75
460.358	92.75
460.578	96.75
460.798	91.75
461.018	98.75
461.238	82.75
461.458	90.75
461.678	89.75
461.898	89.75
462.118	104.75
462.338	98.75
462.558	83.75
462.777	81.75
462.997	77.75
463.217	91.75
463.437	95.75
463.657	89.75
463.876	94.75
464.096	87.75
464.316	89.75
464.536	95.75
464.755	90.75
464.975	101.75
465.195	133.75
465.414	151.75
465.634	85.75
465.854	96.75
466.073	84.75
466.293	82.75
466.512	82.75
466.732	89.75
466.951	91.75
467.171	97.75
467.391	90.75
467.61	111.75
467.829	114.75
468.049	195.75
468.268	253.75
468.488	112.75
468.707	85.75
468.927	87.75
469.146	72.75
469.365	86.75
469.585	98.75
469.804	92.75
470.023	97.75
470.243	85.75
470.462	104.75
470.681	111.75
470.901	106.75
471.12	82.75
471.339	96.75
471.558	81.75
471.777	106.75
471.997	140.75
472.216	336.75
472.435	616.75
472.654	195.75
472.873	108.75
473.092	86.75
473.311	79.75
473.53	90.75
473.749	91.75
473.968	95.75
474.187	95.75
474.406	100.75
474.625	99.75
474.844	90.75
475.063	87.75
475.282	79.75
475.501	100.75
475.72	103.75
475.939	64.75
476.158	85.75
476.377	96.75
476.596	91.75
476.814	101.75
477.033	99.75
477.252	95.75
477.471	91.75
477.69	86.75
477.908	87.75
478.127	93.75
478.346	77.75
478.564	87.75
478.783	99.75
479.002	109.75
479.22	92.75
479.439	89.75
479.658	92.75
479.876	99.75
480.095	87.75
480.313	99.75
480.532	97.75
480.751	127.75
480.969	319.75
481.188	1053.75
481.406	687.75
481.624	162.75
481.843	90.75
482.061	99.75
482.28	93.75
482.498	91.75
482.717	85.75
482.935	96.75
483.153	82.75
483.372	81.75
483.59	93.75
483.808	82.75
484.027	78.75
484.245	96.75
484.463	92.75
484.681	79.75
484.9	102.75
485.118	81.75
485.336	87.75
485.554	83.75
485.772	89.75
485.99	101.75
486.209	104.75
486.427	105.75
486.645	102.75
486.863	112.75
487.081	87.75
487.299	85.75
487.517	95.75
487.735	93.75
487.953	90.75
488.171	92.75
488.389	95.75
488.607	115.75
488.825	92.75
489.043	96.75
489.261	82.75
489.479	90.75
489.696	96.75
489.914	71.75
490.132	84.75
490.35	84.75
490.568	85.75
490.786	83.75
491.003	72.75
491.221	91.75
491.439	96.75
491.657	92.75
491.874	88.75
492.092	95.75
492.31	77.75
492.527	94.75
492.745	80.75
492.963	102.75
493.18	83.75
493.398	95.75
493.615	103.75
493.833	90.75
494.05	83.75
494.268	96.75
494.485	88.75
494.703	85.75
494.92	89.75
495.138	104.75
495.355	96.75
495.573	91.75
495.79	94.75
496.008	93.75
496.225	99.75
496.442	93.75
496.66	92.75
496.877	104.75
497.094	92.75
497.312	86.75
497.529	90.75
497.746	82.75
497.963	91.75
498.181	87.75
498.398	85.75
498.615	107.75
498.832	103.75
499.049	98.75
499.267	96.75
499.484	95.75
499.701	96.75
499.918	88.75
500.135	76.75
500.352	93.75
500.569	81.75
500.786	88.75
501.003	90.75
501.22	86.75
501.437	93.75
501.654	91.75
501.871	117.75
502.088	98.75
502.305	97.75
502.522	87.75
502.739	91.75
502.956	87.75
503.172	84.75
503.389	82.75
503.606	92.75
503.823	90.75
504.04	84.75
504.256	97.75
504.473	80.75
504.69	91.75
504.907	75.75
505.123	93.75
505.34	97.75
505.557	91.75
505.773	94.75
505.99	96.75
506.207	87.75
506.423	85.75
506.64	90.75
506.856	90.75
507.073	78.75
507.289	69.75
507.506	106.75
507.722	101.75
507.939	110.75
508.155	98.75
508.372	85.75
508.588	102.75
508.805	88.75
509.021	100.75
509.238	100.75
509.454	117.75
509.67	82.75
509.887	97.75
510.103	117.75
510.319	201.75
510.536	643.75
510.752	2187.75
510.968	626.75
511.184	140.75
511.401	117.75
511.617	97.75
511.833	90.75
512.049	87.75
512.265	83.75
512.481	89.75
512.698	83.75
512.914	88.75
513.13	87.75
513.346	77.75
513.562	98.75
513.778	93.75
513.994	83.75
514.21	95.75
514.426	129.75
514.642	145.75
514.858	136.75
515.074	168.75
515.29	411.75
515.506	1413.75
515.721	551.75
515.937	175.75
