Data from Circ_2015_H10_HRD10591_00085.txt Node
Date: Wed Jan 03 10:00:39 EST 2024
User: Yrep
Spectrometer: HR+D1059
Trigger mode: 1
Integration Time (sec): 1.000000E-1
Scans to average: 1
Electric dark correction enabled: true
Nonlinearity correction enabled: false
Boxcar width: 0
XAxis mode: Wavelengths
Number of Pixels in Spectrum: 2048
>>>>>Begin Spectral Data<<<<<
223.165	-4.38
223.4	-4.38
223.635	-4.38
223.869	-20.38
224.104	-12.38
224.338	-11.38
224.573	-17.38
224.808	-12.38
225.042	2.62
225.277	-8.38
225.511	-6.38
225.746	1.62
225.98	9.62
226.215	7.62
226.449	12.62
226.683	16.62
226.918	16.62
227.152	25.62
227.387	39.62
227.621	54.62
227.856	51.62
228.09	54.62
228.324	53.62
228.559	58.62
228.793	59.62
229.027	70.62
229.262	79.62
229.496	77.62
229.73	91.62
229.964	76.62
230.199	81.62
230.433	82.62
230.667	94.62
230.901	84.62
231.136	75.62
231.37	89.62
231.604	66.62
231.838	74.62
232.072	75.62
232.306	76.62
232.541	80.62
232.775	87.62
233.009	76.62
233.243	87.62
233.477	88.62
233.711	94.62
233.945	92.62
234.179	78.62
234.413	91.62
234.647	84.62
234.881	84.62
235.115	71.62
235.349	87.62
235.583	95.62
235.817	71.62
236.051	95.62
236.285	89.62
236.519	84.62
236.753	85.62
236.987	73.62
237.221	86.62
237.455	94.62
237.689	87.62
237.922	79.62
238.156	94.62
238.39	93.62
238.624	82.62
238.858	80.62
239.091	77.62
239.325	87.62
239.559	93.62
239.793	92.62
240.027	86.62
240.26	80.62
240.494	79.62
240.728	91.62
240.961	82.62
241.195	75.62
241.429	69.62
241.662	64.62
241.896	78.62
242.13	81.62
242.363	78.62
242.597	77.62
242.83	80.62
243.064	70.62
243.298	83.62
243.531	90.62
243.765	69.62
243.998	75.62
244.232	64.62
244.465	78.62
244.699	82.62
244.932	83.62
245.166	77.62
245.399	84.62
245.633	87.62
245.866	85.62
246.099	69.62
246.333	87.62
246.566	75.62
246.8	77.62
247.033	80.62
247.266	68.62
247.5	79.62
247.733	74.62
247.966	62.62
248.2	94.62
248.433	99.62
248.666	81.62
248.899	86.62
249.133	88.62
249.366	90.62
249.599	107.62
249.832	80.62
250.066	86.62
250.299	79.62
250.532	74.62
250.765	87.62
250.998	81.62
251.231	84.62
251.465	78.62
251.698	82.62
251.931	75.62
252.164	107.62
252.397	71.62
252.63	79.62
252.863	79.62
253.096	71.62
253.329	86.62
253.562	87.62
253.795	84.62
254.028	92.62
254.261	83.62
254.494	78.62
254.727	76.62
254.96	87.62
255.193	78.62
255.426	81.62
255.659	80.62
255.892	74.62
256.124	74.62
256.357	90.62
256.59	89.62
256.823	70.62
257.056	82.62
257.289	77.62
257.521	93.62
257.754	94.62
257.987	93.62
258.22	80.62
258.452	80.62
258.685	84.62
258.918	66.62
259.151	68.62
259.383	75.62
259.616	86.62
259.849	89.62
260.081	81.62
260.314	77.62
260.547	88.62
260.779	90.62
261.012	72.62
261.244	80.62
261.477	91.62
261.71	76.62
261.942	120.62
262.175	118.62
262.407	99.62
262.64	83.62
262.872	91.62
263.105	77.62
263.337	83.62
263.57	78.62
263.802	104.62
264.035	85.62
264.267	77.62
264.499	72.62
264.732	74.62
264.964	86.62
265.197	80.62
265.429	91.62
265.661	93.62
265.894	91.62
266.126	87.62
266.358	104.62
266.591	86.62
266.823	85.62
267.055	83.62
267.287	68.62
267.52	74.62
267.752	86.62
267.984	88.62
268.216	92.62
268.448	86.62
268.681	90.62
268.913	84.62
269.145	85.62
269.377	82.62
269.609	83.62
269.841	83.62
270.073	86.62
270.306	88.62
270.538	96.62
270.77	84.62
271.002	93.62
271.234	74.62
271.466	87.62
271.698	77.62
271.93	79.62
272.162	73.62
272.394	85.62
272.626	92.62
272.858	83.62
273.09	77.62
273.322	96.62
273.553	84.62
273.785	100.62
274.017	89.62
274.249	84.62
274.481	86.62
274.713	88.62
274.945	81.62
275.176	91.62
275.408	99.62
275.64	93.62
275.872	103.62
276.104	98.62
276.335	101.62
276.567	94.62
276.799	108.62
277.031	108.62
277.262	88.62
277.494	74.62
277.726	98.62
277.957	98.62
278.189	91.62
278.421	78.62
278.652	86.62
278.884	77.62
279.115	95.62
279.347	101.62
279.579	97.62
279.81	94.62
280.042	84.62
280.273	116.62
280.505	99.62
280.736	103.62
280.968	91.62
281.199	88.62
281.431	82.62
281.662	91.62
281.894	91.62
282.125	96.62
282.356	107.62
282.588	141.62
282.819	120.62
283.051	99.62
283.282	81.62
283.513	92.62
283.745	97.62
283.976	97.62
284.207	83.62
284.439	69.62
284.67	79.62
284.901	90.62
285.132	89.62
285.364	91.62
285.595	102.62
285.826	99.62
286.057	106.62
286.288	93.62
286.52	91.62
286.751	74.62
286.982	87.62
287.213	84.62
287.444	90.62
287.675	91.62
287.906	97.62
288.138	79.62
288.369	92.62
288.6	88.62
288.831	83.62
289.062	88.62
289.293	88.62
289.524	77.62
289.755	87.62
289.986	94.62
290.217	84.62
290.448	91.62
290.679	84.62
290.91	88.62
291.141	91.62
291.371	90.62
291.602	92.62
291.833	85.62
292.064	70.62
292.295	91.62
292.526	87.62
292.757	94.62
292.987	93.62
293.218	83.62
293.449	83.62
293.68	93.62
293.91	79.62
294.141	92.62
294.372	95.62
294.603	86.62
294.833	91.62
295.064	87.62
295.295	86.62
295.525	98.62
295.756	101.62
295.987	131.62
296.217	120.62
296.448	111.62
296.679	99.62
296.909	93.62
297.14	78.62
297.37	93.62
297.601	85.62
297.831	74.62
298.062	95.62
298.292	103.62
298.523	90.62
298.753	92.62
298.984	94.62
299.214	83.62
299.445	93.62
299.675	99.62
299.905	85.62
300.136	87.62
300.366	82.62
300.597	88.62
300.827	102.62
301.057	100.62
301.288	106.62
301.518	88.62
301.748	90.62
301.979	119.62
302.209	100.62
302.439	101.62
302.669	84.62
302.9	91.62
303.13	85.62
303.36	79.62
303.59	91.62
303.82	117.62
304.051	101.62
304.281	89.62
304.511	91.62
304.741	92.62
304.971	86.62
305.201	95.62
305.431	72.62
305.661	94.62
305.891	87.62
306.121	101.62
306.352	88.62
306.582	95.62
306.812	92.62
307.042	104.62
307.272	108.62
307.502	101.62
307.731	111.62
307.961	97.62
308.191	109.62
308.421	93.62
308.651	90.62
308.881	83.62
309.111	87.62
309.341	111.62
309.571	102.62
309.8	103.62
310.03	107.62
310.26	95.62
310.49	99.62
310.72	90.62
310.949	88.62
311.179	93.62
311.409	96.62
311.639	102.62
311.868	103.62
312.098	100.62
312.328	102.62
312.557	88.62
312.787	91.62
313.017	116.62
313.246	105.62
313.476	97.62
313.706	95.62
313.935	80.62
314.165	104.62
314.394	106.62
314.624	94.62
314.853	100.62
315.083	83.62
315.312	101.62
315.542	89.62
315.771	93.62
316.001	77.62
316.23	92.62
316.46	92.62
316.689	91.62
316.919	79.62
317.148	103.62
317.377	83.62
317.607	93.62
317.836	95.62
318.065	95.62
318.295	93.62
318.524	70.62
318.753	93.62
318.983	98.62
319.212	100.62
319.441	107.62
319.67	111.62
319.9	100.62
320.129	100.62
320.358	100.62
320.587	108.62
320.816	111.62
321.046	92.62
321.275	93.62
321.504	94.62
321.733	84.62
321.962	98.62
322.191	94.62
322.42	117.62
322.649	112.62
322.878	108.62
323.108	114.62
323.337	119.62
323.566	129.62
323.795	147.62
324.024	199.62
324.253	389.62
324.482	816.62
324.71	1631.62
324.939	2176.62
325.168	788.62
325.397	252.62
325.626	163.62
325.855	133.62
326.084	117.62
326.313	145.62
326.542	141.62
326.77	227.62
326.999	445.62
327.228	929.62
327.457	1645.62
327.686	1341.62
327.914	401.62
328.143	242.62
328.372	203.62
328.6	153.62
328.829	127.62
329.058	109.62
329.287	139.62
329.515	113.62
329.744	122.62
329.972	159.62
330.201	226.62
330.43	283.62
330.658	184.62
330.887	144.62
331.115	124.62
331.344	96.62
331.572	100.62
331.801	110.62
332.03	114.62
332.258	109.62
332.486	106.62
332.715	87.62
332.943	85.62
333.172	95.62
333.4	98.62
333.629	116.62
333.857	125.62
334.085	173.62
334.314	251.62
334.542	381.62
334.771	376.62
334.999	153.62
335.227	105.62
335.455	105.62
335.684	113.62
335.912	105.62
336.14	99.62
336.369	105.62
336.597	102.62
336.825	87.62
337.053	111.62
337.281	112.62
337.51	91.62
337.738	97.62
337.966	89.62
338.194	104.62
338.422	100.62
338.65	87.62
338.878	95.62
339.106	88.62
339.334	93.62
339.562	99.62
339.79	86.62
340.018	88.62
340.246	107.62
340.474	98.62
340.702	105.62
340.93	103.62
341.158	101.62
341.386	107.62
341.614	103.62
341.842	98.62
342.07	89.62
342.298	98.62
342.526	84.62
342.754	79.62
342.981	99.62
343.209	103.62
343.437	98.62
343.665	88.62
343.893	107.62
344.12	96.62
344.348	102.62
344.576	92.62
344.804	93.62
345.031	87.62
345.259	90.62
345.487	88.62
345.714	91.62
345.942	93.62
346.17	86.62
346.397	101.62
346.625	99.62
346.853	83.62
347.08	88.62
347.308	114.62
347.535	107.62
347.763	87.62
347.99	101.62
348.218	102.62
348.445	105.62
348.673	101.62
348.9	88.62
349.128	91.62
349.355	77.62
349.583	92.62
349.81	109.62
350.037	114.62
350.265	93.62
350.492	84.62
350.72	82.62
350.947	96.62
351.174	111.62
351.402	111.62
351.629	98.62
351.856	105.62
352.083	101.62
352.311	90.62
352.538	128.62
352.765	126.62
352.992	114.62
353.22	122.62
353.447	110.62
353.674	98.62
353.901	100.62
354.128	88.62
354.355	94.62
354.583	91.62
354.81	100.62
355.037	92.62
355.264	92.62
355.491	94.62
355.718	89.62
355.945	90.62
356.172	105.62
356.399	93.62
356.626	104.62
356.853	83.62
357.08	93.62
357.307	98.62
357.534	84.62
357.761	75.62
357.988	99.62
358.215	106.62
358.441	98.62
358.668	99.62
358.895	96.62
359.122	96.62
359.349	87.62
359.576	89.62
359.802	90.62
360.029	111.62
360.256	106.62
360.483	105.62
360.709	101.62
360.936	84.62
361.163	95.62
361.39	96.62
361.616	91.62
361.843	106.62
362.07	77.62
362.296	90.62
362.523	97.62
362.749	87.62
362.976	89.62
363.203	96.62
363.429	89.62
363.656	93.62
363.882	79.62
364.109	74.62
364.335	99.62
364.562	92.62
364.788	101.62
365.015	95.62
365.241	98.62
365.468	93.62
365.694	92.62
365.92	90.62
366.147	72.62
366.373	101.62
366.599	84.62
366.826	89.62
367.052	92.62
367.278	99.62
367.505	90.62
367.731	91.62
367.957	75.62
368.184	94.62
368.41	98.62
368.636	107.62
368.862	98.62
369.089	93.62
369.315	97.62
369.541	87.62
369.767	98.62
369.993	90.62
370.219	100.62
370.445	93.62
370.672	78.62
370.898	91.62
371.124	71.62
371.35	90.62
371.576	77.62
371.802	89.62
372.028	94.62
372.254	89.62
372.48	87.62
372.706	90.62
372.932	85.62
373.158	93.62
373.384	96.62
373.61	91.62
373.835	88.62
374.061	99.62
374.287	101.62
374.513	98.62
374.739	109.62
374.965	90.62
375.191	88.62
375.416	95.62
375.642	92.62
375.868	101.62
376.094	105.62
376.319	84.62
376.545	106.62
376.771	87.62
376.997	95.62
377.222	95.62
377.448	86.62
377.674	86.62
377.899	94.62
378.125	101.62
378.35	81.62
378.576	79.62
378.802	92.62
379.027	98.62
379.253	85.62
379.478	82.62
379.704	102.62
379.929	99.62
380.155	81.62
380.38	86.62
380.606	96.62
380.831	94.62
381.057	104.62
381.282	89.62
381.507	93.62
381.733	94.62
381.958	101.62
382.184	100.62
382.409	106.62
382.634	84.62
382.86	104.62
383.085	105.62
383.31	89.62
383.535	102.62
383.761	96.62
383.986	103.62
384.211	100.62
384.436	108.62
384.662	99.62
384.887	109.62
385.112	104.62
385.337	98.62
385.562	98.62
385.787	94.62
386.013	110.62
386.238	119.62
386.463	109.62
386.688	111.62
386.913	99.62
387.138	109.62
387.363	117.62
387.588	107.62
387.813	104.62
388.038	109.62
388.263	108.62
388.488	99.62
388.713	104.62
388.938	91.62
389.163	99.62
389.387	103.62
389.612	100.62
389.837	91.62
390.062	113.62
390.287	93.62
390.512	97.62
390.736	106.62
390.961	88.62
391.186	88.62
391.411	92.62
391.636	91.62
391.86	98.62
392.085	86.62
392.31	92.62
392.534	85.62
392.759	86.62
392.984	69.62
393.208	79.62
393.433	85.62
393.658	98.62
393.882	91.62
394.107	75.62
394.331	92.62
394.556	95.62
394.78	90.62
395.005	91.62
395.229	93.62
395.454	88.62
395.678	80.62
395.903	89.62
396.127	91.62
396.352	83.62
396.576	79.62
396.801	87.62
397.025	84.62
397.249	87.62
397.474	93.62
397.698	89.62
397.922	86.62
398.147	93.62
398.371	82.62
398.595	84.62
398.82	87.62
399.044	98.62
399.268	80.62
399.492	99.62
399.717	90.62
399.941	95.62
400.165	91.62
400.389	100.62
400.613	88.62
400.837	93.62
401.062	94.62
401.286	87.62
401.51	76.62
401.734	90.62
401.958	101.62
402.182	129.62
402.406	151.62
402.63	112.62
402.854	93.62
403.078	98.62
403.302	101.62
403.526	91.62
403.75	93.62
403.974	85.62
404.198	95.62
404.422	95.62
404.645	93.62
404.869	90.62
405.093	92.62
405.317	109.62
405.541	100.62
405.765	94.62
405.988	112.62
406.212	157.62
406.436	212.62
406.66	131.62
406.883	90.62
407.107	91.62
407.331	95.62
407.555	94.62
407.778	94.62
408.002	102.62
408.226	89.62
408.449	95.62
408.673	88.62
408.896	104.62
409.12	95.62
409.344	91.62
409.567	89.62
409.791	91.62
410.014	97.62
410.238	94.62
410.461	104.62
410.685	92.62
410.908	100.62
411.132	96.62
411.355	95.62
411.578	86.62
411.802	98.62
412.025	94.62
412.249	90.62
412.472	93.62
412.695	104.62
412.919	111.62
413.142	91.62
413.365	100.62
413.589	78.62
413.812	92.62
414.035	98.62
414.258	100.62
414.482	96.62
414.705	80.62
414.928	90.62
415.151	80.62
415.374	96.62
415.597	88.62
415.821	98.62
416.044	104.62
416.267	90.62
416.49	99.62
416.713	82.62
416.936	95.62
417.159	83.62
417.382	93.62
417.605	108.62
417.828	95.62
418.051	83.62
418.274	104.62
418.497	89.62
418.72	86.62
418.943	92.62
419.166	93.62
419.389	107.62
419.611	94.62
419.834	97.62
420.057	92.62
420.28	87.62
420.503	96.62
420.726	86.62
420.948	82.62
421.171	88.62
421.394	95.62
421.617	80.62
421.839	96.62
422.062	93.62
422.285	94.62
422.507	94.62
422.73	95.62
422.953	80.62
423.175	80.62
423.398	88.62
423.621	84.62
423.843	98.62
424.066	81.62
424.288	95.62
424.511	100.62
424.733	91.62
424.956	94.62
425.178	94.62
425.401	98.62
425.623	84.62
425.846	93.62
426.068	84.62
426.291	86.62
426.513	89.62
426.735	93.62
426.958	92.62
427.18	100.62
427.402	134.62
427.625	157.62
427.847	142.62
428.069	141.62
428.292	94.62
428.514	94.62
428.736	82.62
428.958	78.62
429.181	97.62
429.403	92.62
429.625	82.62
429.847	94.62
430.069	88.62
430.292	86.62
430.514	85.62
430.736	90.62
430.958	93.62
431.18	97.62
431.402	93.62
431.624	79.62
431.846	88.62
432.068	88.62
432.29	88.62
432.512	75.62
432.734	80.62
432.956	89.62
433.178	105.62
433.4	93.62
433.622	99.62
433.844	99.62
434.066	94.62
434.287	83.62
434.509	97.62
434.731	90.62
434.953	103.62
435.175	97.62
435.397	89.62
435.618	91.62
435.84	101.62
436.062	100.62
436.284	104.62
436.505	95.62
436.727	104.62
436.949	92.62
437.17	112.62
437.392	98.62
437.614	90.62
437.835	94.62
438.057	104.62
438.278	126.62
438.5	112.62
438.721	105.62
438.943	100.62
439.165	86.62
439.386	88.62
439.608	99.62
439.829	95.62
440.05	106.62
440.272	131.62
440.493	117.62
440.715	78.62
440.936	98.62
441.158	85.62
441.379	98.62
441.6	92.62
441.822	86.62
442.043	80.62
442.264	98.62
442.486	95.62
442.707	89.62
442.928	123.62
443.149	123.62
443.371	123.62
443.592	119.62
443.813	106.62
444.034	105.62
444.255	95.62
444.476	99.62
444.698	90.62
444.919	93.62
445.14	114.62
445.361	117.62
445.582	120.62
445.803	136.62
446.024	135.62
446.245	139.62
446.466	129.62
446.687	87.62
446.908	100.62
447.129	91.62
447.35	81.62
447.571	85.62
447.792	98.62
448.013	87.62
448.234	103.62
448.455	108.62
448.675	101.62
448.896	117.62
449.117	105.62
449.338	97.62
449.559	131.62
449.779	125.62
450	100.62
450.221	77.62
450.442	71.62
450.662	86.62
450.883	85.62
451.104	114.62
451.324	92.62
451.545	83.62
451.766	79.62
451.986	79.62
452.207	98.62
452.428	104.62
452.648	101.62
452.869	101.62
453.089	121.62
453.31	118.62
453.53	99.62
453.751	79.62
453.971	97.62
454.192	100.62
454.412	89.62
454.633	91.62
454.853	88.62
455.073	92.62
455.294	102.62
455.514	90.62
455.734	86.62
455.955	86.62
456.175	98.62
456.395	93.62
456.616	92.62
456.836	86.62
457.056	96.62
457.276	85.62
457.497	80.62
457.717	90.62
457.937	81.62
458.157	94.62
458.377	107.62
458.598	109.62
458.818	139.62
459.038	159.62
459.258	104.62
459.478	86.62
459.698	90.62
459.918	81.62
460.138	87.62
460.358	92.62
460.578	92.62
460.798	93.62
461.018	73.62
461.238	99.62
461.458	82.62
461.678	96.62
461.898	94.62
462.118	98.62
462.338	87.62
462.558	87.62
462.777	88.62
462.997	80.62
463.217	90.62
463.437	89.62
463.657	84.62
463.876	88.62
464.096	91.62
464.316	73.62
464.536	87.62
464.755	103.62
464.975	95.62
465.195	144.62
465.414	140.62
465.634	89.62
465.854	82.62
466.073	106.62
466.293	87.62
466.512	90.62
466.732	83.62
466.951	91.62
467.171	84.62
467.391	96.62
467.61	101.62
467.829	106.62
468.049	162.62
468.268	205.62
468.488	111.62
468.707	82.62
468.927	78.62
469.146	93.62
469.365	82.62
469.585	99.62
469.804	89.62
470.023	104.62
470.243	84.62
470.462	97.62
470.681	100.62
470.901	93.62
471.12	93.62
471.339	109.62
471.558	95.62
471.777	108.62
471.997	124.62
472.216	279.62
472.435	520.62
472.654	175.62
472.873	85.62
473.092	98.62
473.311	81.62
473.53	99.62
473.749	95.62
473.968	100.62
474.187	100.62
474.406	89.62
474.625	89.62
474.844	94.62
475.063	99.62
475.282	88.62
475.501	92.62
475.72	82.62
475.939	80.62
476.158	99.62
476.377	88.62
476.596	86.62
476.814	95.62
477.033	96.62
477.252	97.62
477.471	100.62
477.69	109.62
477.908	80.62
478.127	91.62
478.346	91.62
478.564	90.62
478.783	104.62
479.002	96.62
479.22	94.62
479.439	96.62
479.658	95.62
479.876	103.62
480.095	91.62
480.313	94.62
480.532	85.62
480.751	130.62
480.969	288.62
481.188	855.62
481.406	536.62
481.624	135.62
481.843	109.62
482.061	85.62
482.28	98.62
482.498	101.62
482.717	83.62
482.935	91.62
483.153	85.62
483.372	88.62
483.59	92.62
483.808	93.62
484.027	91.62
484.245	109.62
484.463	96.62
484.681	91.62
484.9	84.62
485.118	86.62
485.336	78.62
485.554	91.62
485.772	86.62
485.99	95.62
486.209	106.62
486.427	103.62
486.645	111.62
486.863	97.62
487.081	104.62
487.299	95.62
487.517	99.62
487.735	82.62
487.953	87.62
488.171	111.62
488.389	93.62
488.607	87.62
488.825	112.62
489.043	96.62
489.261	87.62
489.479	101.62
489.696	93.62
489.914	90.62
490.132	94.62
490.35	97.62
490.568	92.62
490.786	86.62
491.003	90.62
491.221	102.62
491.439	92.62
491.657	100.62
491.874	104.62
492.092	88.62
492.31	92.62
492.527	96.62
492.745	90.62
492.963	98.62
493.18	86.62
493.398	84.62
493.615	80.62
493.833	99.62
494.05	90.62
494.268	93.62
494.485	94.62
494.703	93.62
494.92	90.62
495.138	85.62
495.355	88.62
495.573	98.62
495.79	101.62
496.008	89.62
496.225	92.62
496.442	97.62
496.66	109.62
496.877	86.62
497.094	88.62
497.312	93.62
497.529	93.62
497.746	109.62
497.963	94.62
498.181	105.62
498.398	92.62
498.615	93.62
498.832	114.62
499.049	104.62
499.267	80.62
499.484	91.62
499.701	80.62
499.918	92.62
500.135	88.62
500.352	84.62
500.569	89.62
500.786	96.62
501.003	87.62
501.22	100.62
501.437	97.62
501.654	99.62
501.871	102.62
502.088	79.62
502.305	78.62
502.522	72.62
502.739	92.62
502.956	103.62
503.172	92.62
503.389	98.62
503.606	102.62
503.823	105.62
504.04	96.62
504.256	102.62
504.473	86.62
504.69	95.62
504.907	94.62
505.123	94.62
505.34	75.62
505.557	103.62
505.773	84.62
505.99	96.62
506.207	110.62
506.423	101.62
506.64	95.62
506.856	92.62
507.073	89.62
507.289	93.62
507.506	96.62
507.722	105.62
507.939	86.62
508.155	113.62
508.372	94.62
508.588	93.62
508.805	87.62
509.021	104.62
509.238	104.62
509.454	91.62
509.67	103.62
509.887	95.62
510.103	117.62
510.319	193.62
510.536	698.62
510.752	2251.62
510.968	662.62
511.184	158.62
511.401	114.62
511.617	101.62
511.833	96.62
512.049	104.62
512.265	98.62
512.481	103.62
512.698	108.62
512.914	91.62
513.13	103.62
513.346	87.62
513.562	89.62
513.778	79.62
513.994	102.62
514.21	107.62
514.426	109.62
514.642	115.62
514.858	135.62
515.074	168.62
