Data from Circ_2015_H10_HRD10591_00068.txt Node
Date: Wed Jan 03 10:00:36 EST 2024
User: Yrep
Spectrometer: HR+D1059
Trigger mode: 1
Integration Time (sec): 1.000000E-1
Scans to average: 1
Electric dark correction enabled: true
Nonlinearity correction enabled: false
Boxcar width: 0
XAxis mode: Wavelengths
Number of Pixels in Spectrum: 2048
>>>>>Begin Spectral Data<<<<<
223.165	-9.31
223.4	-9.31
223.635	-9.31
223.869	-9.31
224.104	-27.31
224.338	-13.31
224.573	-15.31
224.808	-6.31
225.042	-2.31
225.277	-7.31
225.511	0.69
225.746	5.69
225.98	-6.31
226.215	5.69
226.449	13.69
226.683	18.69
226.918	20.69
227.152	31.69
227.387	34.69
227.621	29.69
227.856	45.69
228.09	47.69
228.324	49.69
228.559	53.69
228.793	53.69
229.027	52.69
229.262	72.69
229.496	75.69
229.73	71.69
229.964	78.69
230.199	65.69
230.433	74.69
230.667	77.69
230.901	75.69
231.136	70.69
231.37	81.69
231.604	86.69
231.838	69.69
232.072	70.69
232.306	81.69
232.541	77.69
232.775	79.69
233.009	73.69
233.243	81.69
233.477	77.69
233.711	68.69
233.945	73.69
234.179	82.69
234.413	81.69
234.647	63.69
234.881	74.69
235.115	72.69
235.349	74.69
235.583	84.69
235.817	66.69
236.051	75.69
236.285	66.69
236.519	73.69
236.753	78.69
236.987	83.69
237.221	66.69
237.455	69.69
237.689	65.69
237.922	70.69
238.156	70.69
238.39	74.69
238.624	85.69
238.858	72.69
239.091	64.69
239.325	79.69
239.559	78.69
239.793	72.69
240.027	71.69
240.26	65.69
240.494	67.69
240.728	52.69
240.961	73.69
241.195	91.69
241.429	67.69
241.662	69.69
241.896	86.69
242.13	72.69
242.363	69.69
242.597	60.69
242.83	73.69
243.064	82.69
243.298	81.69
243.531	75.69
243.765	70.69
243.998	78.69
244.232	81.69
244.465	81.69
244.699	73.69
244.932	83.69
245.166	73.69
245.399	74.69
245.633	90.69
245.866	80.69
246.099	80.69
246.333	79.69
246.566	77.69
246.8	86.69
247.033	70.69
247.266	77.69
247.5	77.69
247.733	68.69
247.966	73.69
248.2	77.69
248.433	71.69
248.666	70.69
248.899	84.69
249.133	63.69
249.366	76.69
249.599	83.69
249.832	80.69
250.066	74.69
250.299	72.69
250.532	81.69
250.765	79.69
250.998	75.69
251.231	90.69
251.465	89.69
251.698	103.69
251.931	71.69
252.164	69.69
252.397	78.69
252.63	83.69
252.863	79.69
253.096	73.69
253.329	79.69
253.562	72.69
253.795	83.69
254.028	74.69
254.261	83.69
254.494	71.69
254.727	73.69
254.96	80.69
255.193	69.69
255.426	95.69
255.659	74.69
255.892	68.69
256.124	78.69
256.357	69.69
256.59	61.69
256.823	70.69
257.056	75.69
257.289	93.69
257.521	73.69
257.754	83.69
257.987	77.69
258.22	72.69
258.452	71.69
258.685	72.69
258.918	91.69
259.151	75.69
259.383	95.69
259.616	85.69
259.849	77.69
260.081	86.69
260.314	73.69
260.547	69.69
260.779	82.69
261.012	97.69
261.244	86.69
261.477	94.69
261.71	89.69
261.942	99.69
262.175	100.69
262.407	75.69
262.64	90.69
262.872	82.69
263.105	74.69
263.337	80.69
263.57	90.69
263.802	83.69
264.035	86.69
264.267	81.69
264.499	90.69
264.732	83.69
264.964	85.69
265.197	96.69
265.429	83.69
265.661	74.69
265.894	74.69
266.126	90.69
266.358	79.69
266.591	71.69
266.823	77.69
267.055	76.69
267.287	85.69
267.52	86.69
267.752	74.69
267.984	82.69
268.216	80.69
268.448	88.69
268.681	79.69
268.913	75.69
269.145	85.69
269.377	85.69
269.609	86.69
269.841	59.69
270.073	88.69
270.306	75.69
270.538	68.69
270.77	90.69
271.002	79.69
271.234	87.69
271.466	87.69
271.698	73.69
271.93	91.69
272.162	97.69
272.394	85.69
272.626	84.69
272.858	78.69
273.09	89.69
273.322	79.69
273.553	81.69
273.785	89.69
274.017	78.69
274.249	89.69
274.481	92.69
274.713	81.69
274.945	80.69
275.176	75.69
275.408	85.69
275.64	84.69
275.872	74.69
276.104	93.69
276.335	69.69
276.567	95.69
276.799	91.69
277.031	113.69
277.262	96.69
277.494	77.69
277.726	91.69
277.957	75.69
278.189	78.69
278.421	79.69
278.652	83.69
278.884	69.69
279.115	68.69
279.347	92.69
279.579	80.69
279.81	104.69
280.042	99.69
280.273	104.69
280.505	89.69
280.736	93.69
280.968	82.69
281.199	88.69
281.431	82.69
281.662	83.69
281.894	69.69
282.125	82.69
282.356	109.69
282.588	110.69
282.819	113.69
283.051	83.69
283.282	74.69
283.513	83.69
283.745	79.69
283.976	94.69
284.207	83.69
284.439	88.69
284.67	95.69
284.901	73.69
285.132	84.69
285.364	74.69
285.595	89.69
285.826	86.69
286.057	81.69
286.288	91.69
286.52	89.69
286.751	77.69
286.982	78.69
287.213	75.69
287.444	80.69
287.675	90.69
287.906	92.69
288.138	79.69
288.369	84.69
288.6	81.69
288.831	69.69
289.062	74.69
289.293	96.69
289.524	94.69
289.755	76.69
289.986	88.69
290.217	83.69
290.448	89.69
290.679	78.69
290.91	66.69
291.141	80.69
291.371	79.69
291.602	86.69
291.833	80.69
292.064	68.69
292.295	75.69
292.526	73.69
292.757	75.69
292.987	92.69
293.218	85.69
293.449	74.69
293.68	102.69
293.91	77.69
294.141	105.69
294.372	91.69
294.603	87.69
294.833	82.69
295.064	87.69
295.295	78.69
295.525	80.69
295.756	80.69
295.987	109.69
296.217	119.69
296.448	109.69
296.679	87.69
296.909	94.69
297.14	93.69
297.37	68.69
297.601	74.69
297.831	76.69
298.062	81.69
298.292	91.69
298.523	86.69
298.753	73.69
298.984	82.69
299.214	91.69
299.445	81.69
299.675	88.69
299.905	84.69
300.136	87.69
300.366	87.69
300.597	74.69
300.827	97.69
301.057	101.69
301.288	96.69
301.518	92.69
301.748	75.69
301.979	107.69
302.209	91.69
302.439	85.69
302.669	84.69
302.9	89.69
303.13	77.69
303.36	93.69
303.59	113.69
303.82	102.69
304.051	77.69
304.281	90.69
304.511	88.69
304.741	79.69
304.971	91.69
305.201	85.69
305.431	87.69
305.661	93.69
305.891	83.69
306.121	85.69
306.352	84.69
306.582	88.69
306.812	99.69
307.042	89.69
307.272	95.69
307.502	89.69
307.731	93.69
307.961	90.69
308.191	85.69
308.421	84.69
308.651	87.69
308.881	67.69
309.111	87.69
309.341	89.69
309.571	104.69
309.8	94.69
310.03	101.69
310.26	78.69
310.49	98.69
310.72	102.69
310.949	97.69
311.179	90.69
311.409	80.69
311.639	88.69
311.868	74.69
312.098	93.69
312.328	91.69
312.557	94.69
312.787	97.69
313.017	76.69
313.246	87.69
313.476	88.69
313.706	77.69
313.935	78.69
314.165	98.69
314.394	99.69
314.624	89.69
314.853	103.69
315.083	100.69
315.312	82.69
315.542	98.69
315.771	89.69
316.001	88.69
316.23	98.69
316.46	83.69
316.689	87.69
316.919	93.69
317.148	94.69
317.377	98.69
317.607	94.69
317.836	88.69
318.065	86.69
318.295	82.69
318.524	100.69
318.753	87.69
318.983	77.69
319.212	83.69
319.441	117.69
319.67	102.69
319.9	87.69
320.129	87.69
320.358	83.69
320.587	95.69
320.816	87.69
321.046	98.69
321.275	103.69
321.504	105.69
321.733	101.69
321.962	89.69
322.191	81.69
322.42	96.69
322.649	96.69
322.878	90.69
323.108	113.69
323.337	119.69
323.566	130.69
323.795	157.69
324.024	200.69
324.253	405.69
324.482	872.69
324.71	1777.69
324.939	2397.69
325.168	867.69
325.397	246.69
325.626	146.69
325.855	135.69
326.084	145.69
326.313	138.69
326.542	153.69
326.77	231.69
326.999	489.69
327.228	1016.69
327.457	1903.69
327.686	1454.69
327.914	405.69
328.143	239.69
328.372	203.69
328.6	155.69
328.829	104.69
329.058	127.69
329.287	141.69
329.515	120.69
329.744	133.69
329.972	160.69
330.201	229.69
330.43	284.69
330.658	191.69
330.887	137.69
331.115	114.69
331.344	86.69
331.572	96.69
331.801	104.69
332.03	94.69
332.258	96.69
332.486	94.69
332.715	88.69
332.943	75.69
333.172	71.69
333.4	108.69
333.629	102.69
333.857	96.69
334.085	164.69
334.314	223.69
334.542	361.69
334.771	327.69
334.999	133.69
335.227	111.69
335.455	86.69
335.684	99.69
335.912	105.69
336.14	89.69
336.369	94.69
336.597	99.69
336.825	93.69
337.053	80.69
337.281	74.69
337.51	98.69
337.738	96.69
337.966	101.69
338.194	99.69
338.422	88.69
338.65	100.69
338.878	86.69
339.106	80.69
339.334	90.69
339.562	99.69
339.79	97.69
340.018	87.69
340.246	85.69
340.474	101.69
340.702	92.69
340.93	84.69
341.158	85.69
341.386	90.69
341.614	73.69
341.842	80.69
342.07	98.69
342.298	93.69
342.526	81.69
342.754	77.69
342.981	74.69
343.209	85.69
343.437	77.69
343.665	88.69
343.893	98.69
344.12	90.69
344.348	79.69
344.576	102.69
344.804	91.69
345.031	85.69
345.259	94.69
345.487	81.69
345.714	97.69
345.942	99.69
346.17	89.69
346.397	99.69
346.625	81.69
346.853	87.69
347.08	91.69
347.308	86.69
347.535	85.69
347.763	98.69
347.99	95.69
348.218	83.69
348.445	112.69
348.673	89.69
348.9	87.69
349.128	83.69
349.355	94.69
349.583	83.69
349.81	88.69
350.037	85.69
350.265	88.69
350.492	100.69
350.72	90.69
350.947	86.69
351.174	95.69
351.402	109.69
351.629	83.69
351.856	87.69
352.083	88.69
352.311	99.69
352.538	115.69
352.765	93.69
352.992	101.69
353.22	110.69
353.447	98.69
353.674	91.69
353.901	79.69
354.128	89.69
354.355	81.69
354.583	95.69
354.81	101.69
355.037	83.69
355.264	93.69
355.491	88.69
355.718	85.69
355.945	90.69
356.172	89.69
356.399	96.69
356.626	81.69
356.853	83.69
357.08	92.69
357.307	80.69
357.534	88.69
357.761	91.69
357.988	88.69
358.215	88.69
358.441	94.69
358.668	85.69
358.895	104.69
359.122	87.69
359.349	92.69
359.576	81.69
359.802	96.69
360.029	110.69
360.256	95.69
360.483	83.69
360.709	77.69
360.936	90.69
361.163	93.69
361.39	74.69
361.616	85.69
361.843	95.69
362.07	88.69
362.296	73.69
362.523	71.69
362.749	81.69
362.976	97.69
363.203	88.69
363.429	93.69
363.656	78.69
363.882	82.69
364.109	96.69
364.335	78.69
364.562	87.69
364.788	82.69
365.015	87.69
365.241	99.69
365.468	97.69
365.694	113.69
365.92	95.69
366.147	96.69
366.373	75.69
366.599	81.69
366.826	70.69
367.052	89.69
367.278	88.69
367.505	87.69
367.731	91.69
367.957	89.69
368.184	86.69
368.41	84.69
368.636	101.69
368.862	111.69
369.089	99.69
369.315	82.69
369.541	92.69
369.767	82.69
369.993	89.69
370.219	86.69
370.445	90.69
370.672	80.69
370.898	98.69
371.124	89.69
371.35	79.69
371.576	91.69
371.802	93.69
372.028	73.69
372.254	90.69
372.48	82.69
372.706	81.69
372.932	73.69
373.158	88.69
373.384	89.69
373.61	87.69
373.835	76.69
374.061	98.69
374.287	86.69
374.513	76.69
374.739	101.69
374.965	78.69
375.191	90.69
375.416	76.69
375.642	90.69
375.868	86.69
376.094	101.69
376.319	89.69
376.545	81.69
376.771	82.69
376.997	82.69
377.222	90.69
377.448	72.69
377.674	90.69
377.899	90.69
378.125	79.69
378.35	96.69
378.576	86.69
378.802	89.69
379.027	81.69
379.253	79.69
379.478	89.69
379.704	91.69
379.929	94.69
380.155	87.69
380.38	77.69
380.606	89.69
380.831	97.69
381.057	103.69
381.282	100.69
381.507	86.69
381.733	88.69
381.958	101.69
382.184	91.69
382.409	94.69
382.634	112.69
382.86	97.69
383.085	93.69
383.31	81.69
383.535	99.69
383.761	90.69
383.986	82.69
384.211	95.69
384.436	112.69
384.662	87.69
384.887	98.69
385.112	87.69
385.337	87.69
385.562	86.69
385.787	93.69
386.013	94.69
386.238	125.69
386.463	103.69
386.688	111.69
386.913	113.69
387.138	106.69
387.363	77.69
387.588	102.69
387.813	92.69
388.038	91.69
388.263	107.69
388.488	105.69
388.713	98.69
388.938	97.69
389.163	99.69
389.387	92.69
389.612	97.69
389.837	93.69
390.062	82.69
390.287	83.69
390.512	90.69
390.736	86.69
390.961	91.69
391.186	89.69
391.411	80.69
391.636	75.69
391.86	88.69
392.085	74.69
392.31	88.69
392.534	77.69
392.759	89.69
392.984	73.69
393.208	78.69
393.433	88.69
393.658	86.69
393.882	81.69
394.107	89.69
394.331	74.69
394.556	86.69
394.78	82.69
395.005	78.69
395.229	80.69
395.454	80.69
395.678	92.69
395.903	75.69
396.127	93.69
396.352	89.69
396.576	80.69
396.801	93.69
397.025	75.69
397.249	99.69
397.474	95.69
397.698	94.69
397.922	75.69
398.147	77.69
398.371	79.69
398.595	84.69
398.82	80.69
399.044	78.69
399.268	72.69
399.492	90.69
399.717	90.69
399.941	87.69
400.165	78.69
400.389	75.69
400.613	79.69
400.837	90.69
401.062	77.69
401.286	72.69
401.51	92.69
401.734	67.69
401.958	100.69
402.182	116.69
402.406	151.69
402.63	97.69
402.854	85.69
403.078	75.69
403.302	83.69
403.526	87.69
403.75	85.69
403.974	82.69
404.198	101.69
404.422	95.69
404.645	80.69
404.869	91.69
405.093	110.69
405.317	93.69
405.541	89.69
405.765	100.69
405.988	99.69
406.212	166.69
406.436	204.69
406.66	126.69
406.883	97.69
407.107	94.69
407.331	96.69
407.555	83.69
407.778	99.69
408.002	88.69
408.226	86.69
408.449	86.69
408.673	93.69
408.896	79.69
409.12	88.69
409.344	87.69
409.567	93.69
409.791	90.69
410.014	84.69
410.238	87.69
410.461	68.69
410.685	87.69
410.908	92.69
411.132	90.69
411.355	96.69
411.578	85.69
411.802	93.69
412.025	94.69
412.249	96.69
412.472	96.69
412.695	112.69
412.919	98.69
413.142	81.69
413.365	83.69
413.589	62.69
413.812	85.69
414.035	70.69
414.258	92.69
414.482	98.69
414.705	81.69
414.928	99.69
415.151	67.69
415.374	80.69
415.597	85.69
415.821	87.69
416.044	82.69
416.267	83.69
416.49	93.69
416.713	80.69
416.936	91.69
417.159	81.69
417.382	75.69
417.605	73.69
417.828	81.69
418.051	87.69
418.274	90.69
418.497	81.69
418.72	77.69
418.943	88.69
419.166	91.69
419.389	89.69
419.611	86.69
419.834	61.69
420.057	96.69
420.28	89.69
420.503	77.69
420.726	75.69
420.948	88.69
421.171	79.69
421.394	100.69
421.617	93.69
421.839	75.69
422.062	87.69
422.285	83.69
422.507	96.69
422.73	79.69
422.953	98.69
423.175	95.69
423.398	81.69
423.621	71.69
423.843	83.69
424.066	84.69
424.288	89.69
424.511	96.69
424.733	81.69
424.956	112.69
425.178	109.69
425.401	97.69
425.623	102.69
425.846	99.69
426.068	96.69
426.291	92.69
426.513	81.69
426.735	91.69
426.958	96.69
427.18	103.69
427.402	132.69
427.625	154.69
427.847	143.69
428.069	137.69
428.292	101.69
428.514	91.69
428.736	74.69
428.958	94.69
429.181	71.69
429.403	85.69
429.625	85.69
429.847	82.69
430.069	84.69
430.292	82.69
430.514	69.69
430.736	98.69
430.958	94.69
431.18	84.69
431.402	91.69
431.624	86.69
431.846	70.69
432.068	83.69
432.29	74.69
432.512	88.69
432.734	83.69
432.956	89.69
433.178	86.69
433.4	97.69
433.622	97.69
433.844	86.69
434.066	88.69
434.287	86.69
434.509	68.69
434.731	84.69
434.953	77.69
435.175	91.69
435.397	62.69
435.618	92.69
435.84	94.69
436.062	98.69
436.284	107.69
436.505	120.69
436.727	90.69
436.949	90.69
437.17	92.69
437.392	85.69
437.614	95.69
437.835	90.69
438.057	103.69
438.278	100.69
438.5	95.69
438.721	114.69
438.943	88.69
439.165	85.69
439.386	75.69
439.608	87.69
439.829	89.69
440.05	123.69
440.272	140.69
440.493	90.69
440.715	93.69
440.936	65.69
441.158	84.69
441.379	87.69
441.6	82.69
441.822	80.69
442.043	89.69
442.264	94.69
442.486	81.69
442.707	99.69
442.928	102.69
443.149	129.69
443.371	127.69
443.592	103.69
443.813	98.69
444.034	95.69
444.255	96.69
444.476	82.69
444.698	74.69
444.919	71.69
445.14	118.69
445.361	105.69
445.582	100.69
445.803	125.69
446.024	130.69
446.245	129.69
446.466	99.69
446.687	90.69
446.908	80.69
447.129	80.69
447.35	86.69
447.571	87.69
447.792	82.69
448.013	86.69
448.234	100.69
448.455	104.69
448.675	119.69
448.896	106.69
449.117	105.69
449.338	103.69
449.559	112.69
449.779	129.69
450	83.69
450.221	76.69
450.442	94.69
450.662	82.69
450.883	95.69
451.104	96.69
451.324	89.69
451.545	86.69
451.766	80.69
451.986	80.69
452.207	79.69
452.428	84.69
452.648	90.69
452.869	99.69
453.089	112.69
453.31	109.69
453.53	98.69
453.751	103.69
453.971	105.69
454.192	102.69
454.412	84.69
454.633	84.69
454.853	82.69
455.073	75.69
455.294	97.69
455.514	93.69
455.734	81.69
455.955	75.69
456.175	87.69
456.395	85.69
456.616	82.69
456.836	79.69
457.056	96.69
457.276	73.69
457.497	89.69
457.717	79.69
457.937	93.69
458.157	75.69
458.377	90.69
458.598	93.69
458.818	143.69
459.038	136.69
459.258	104.69
459.478	94.69
459.698	87.69
459.918	86.69
460.138	70.69
460.358	71.69
460.578	74.69
460.798	76.69
461.018	71.69
461.238	69.69
461.458	88.69
461.678	70.69
461.898	82.69
462.118	82.69
462.338	79.69
462.558	70.69
462.777	71.69
462.997	76.69
463.217	84.69
463.437	77.69
463.657	79.69
463.876	84.69
464.096	85.69
464.316	81.69
464.536	92.69
464.755	87.69
464.975	100.69
465.195	147.69
465.414	149.69
465.634	102.69
465.854	82.69
466.073	83.69
466.293	89.69
466.512	90.69
466.732	74.69
466.951	93.69
467.171	88.69
467.391	82.69
467.61	106.69
467.829	117.69
468.049	166.69
468.268	189.69
468.488	99.69
468.707	81.69
468.927	90.69
469.146	72.69
469.365	69.69
469.585	84.69
469.804	92.69
470.023	84.69
470.243	71.69
470.462	71.69
470.681	98.69
470.901	95.69
471.12	78.69
471.339	82.69
471.558	77.69
471.777	97.69
471.997	130.69
472.216	252.69
472.435	482.69
472.654	174.69
472.873	97.69
473.092	99.69
473.311	71.69
473.53	82.69
473.749	85.69
473.968	75.69
474.187	104.69
474.406	86.69
474.625	74.69
474.844	95.69
475.063	86.69
475.282	81.69
475.501	73.69
475.72	95.69
475.939	90.69
476.158	86.69
476.377	83.69
476.596	85.69
476.814	92.69
477.033	93.69
477.252	94.69
477.471	82.69
477.69	74.69
477.908	96.69
478.127	88.69
478.346	90.69
478.564	80.69
478.783	84.69
479.002	87.69
479.22	88.69
479.439	98.69
479.658	115.69
479.876	96.69
480.095	99.69
480.313	93.69
480.532	103.69
480.751	131.69
480.969	248.69
481.188	761.69
481.406	488.69
481.624	137.69
481.843	87.69
482.061	90.69
482.28	89.69
482.498	95.69
482.717	82.69
482.935	91.69
483.153	86.69
483.372	99.69
483.59	93.69
483.808	85.69
484.027	83.69
484.245	71.69
484.463	85.69
484.681	84.69
484.9	85.69
485.118	97.69
485.336	81.69
485.554	86.69
485.772	79.69
485.99	103.69
486.209	110.69
486.427	110.69
486.645	98.69
486.863	107.69
487.081	100.69
487.299	108.69
487.517	94.69
487.735	84.69
487.953	90.69
488.171	95.69
488.389	83.69
488.607	88.69
488.825	76.69
489.043	81.69
489.261	86.69
489.479	75.69
489.696	99.69
489.914	96.69
490.132	82.69
490.35	84.69
490.568	90.69
490.786	91.69
491.003	99.69
491.221	83.69
491.439	84.69
491.657	90.69
491.874	86.69
492.092	79.69
492.31	91.69
492.527	98.69
492.745	86.69
492.963	85.69
493.18	80.69
493.398	96.69
493.615	89.69
493.833	87.69
494.05	92.69
494.268	82.69
494.485	95.69
494.703	92.69
494.92	83.69
495.138	87.69
495.355	89.69
495.573	95.69
495.79	86.69
496.008	80.69
496.225	85.69
496.442	88.69
496.66	101.69
496.877	86.69
497.094	91.69
497.312	86.69
497.529	81.69
497.746	89.69
497.963	78.69
498.181	86.69
498.398	82.69
498.615	113.69
498.832	101.69
499.049	78.69
499.267	90.69
499.484	88.69
499.701	84.69
499.918	89.69
500.135	82.69
500.352	85.69
500.569	78.69
500.786	90.69
501.003	89.69
501.22	93.69
501.437	86.69
501.654	86.69
501.871	95.69
502.088	93.69
502.305	86.69
502.522	95.69
502.739	87.69
502.956	75.69
503.172	96.69
503.389	97.69
503.606	96.69
503.823	99.69
504.04	89.69
504.256	92.69
504.473	89.69
504.69	73.69
504.907	90.69
505.123	95.69
505.34	86.69
505.557	85.69
505.773	77.69
505.99	83.69
506.207	81.69
506.423	87.69
506.64	96.69
506.856	80.69
507.073	63.69
507.289	88.69
507.506	86.69
507.722	115.69
507.939	107.69
508.155	78.69
508.372	95.69
508.588	93.69
508.805	101.69
509.021	74.69
509.238	105.69
509.454	87.69
509.67	95.69
509.887	107.69
510.103	127.69
510.319	181.69
510.536	683.69
510.752	2259.69
510.968	671.69
511.184	152.69
511.401	104.69
511.617	80.69
511.833	113.69
512.049	92.69
512.265	84.69
512.481	113.69
512.698	100.69
512.914	79.69
513.13	93.69
513.346	86.69
513.562	86.69
513.778	82.69
513.994	96.69
514.21	92.69
514.426	125.69
514.642	125.69
514.858	116.69
515.074	150.69
515.29	405.69
515.506	1325.69
515.721	544.69
515.937	137.69
516.153	96.69
516.369	94.69
516.585	95.69
516.801	88.69
517.016	101.69
517.232	83.69
