Data from Circ_2015_H10_HRD10591_00077.txt Node
Date: Wed Jan 03 10:00:38 EST 2024
User: Yrep
Spectrometer: HR+D1059
Trigger mode: 1
Integration Time (sec): 1.000000E-1
Scans to average: 1
Electric dark correction enabled: true
Nonlinearity correction enabled: false
Boxcar width: 0
XAxis mode: Wavelengths
Number of Pixels in Spectrum: 2048
>>>>>Begin Spectral Data<<<<<
223.165	-17.94
223.4	-17.94
223.635	-17.94
223.869	-27.94
224.104	-23.94
224.338	-10.94
224.573	-17.94
224.808	-19.94
225.042	-10.94
225.277	3.06
225.511	4.06
225.746	3.06
225.98	12.06
226.215	12.06
226.449	19.06
226.683	13.06
226.918	21.06
227.152	42.06
227.387	30.06
227.621	20.06
227.856	51.06
228.09	51.06
228.324	45.06
228.559	43.06
228.793	63.06
229.027	54.06
229.262	73.06
229.496	80.06
229.73	71.06
229.964	76.06
230.199	73.06
230.433	87.06
230.667	77.06
230.901	72.06
231.136	97.06
231.37	77.06
231.604	67.06
231.838	95.06
232.072	78.06
232.306	97.06
232.541	79.06
232.775	91.06
233.009	88.06
233.243	77.06
233.477	81.06
233.711	75.06
233.945	95.06
234.179	76.06
234.413	77.06
234.647	72.06
234.881	83.06
235.115	80.06
235.349	79.06
235.583	84.06
235.817	71.06
236.051	71.06
236.285	90.06
236.519	76.06
236.753	83.06
236.987	87.06
237.221	74.06
237.455	84.06
237.689	79.06
237.922	74.06
238.156	90.06
238.39	72.06
238.624	71.06
238.858	81.06
239.091	89.06
239.325	88.06
239.559	80.06
239.793	79.06
240.027	83.06
240.26	66.06
240.494	89.06
240.728	92.06
240.961	80.06
241.195	83.06
241.429	71.06
241.662	70.06
241.896	69.06
242.13	70.06
242.363	65.06
242.597	69.06
242.83	87.06
243.064	59.06
243.298	76.06
243.531	89.06
243.765	83.06
243.998	83.06
244.232	76.06
244.465	84.06
244.699	82.06
244.932	72.06
245.166	72.06
245.399	77.06
245.633	76.06
245.866	72.06
246.099	79.06
246.333	78.06
246.566	73.06
246.8	64.06
247.033	70.06
247.266	73.06
247.5	62.06
247.733	77.06
247.966	67.06
248.2	82.06
248.433	85.06
248.666	98.06
248.899	89.06
249.133	69.06
249.366	99.06
249.599	90.06
249.832	82.06
250.066	83.06
250.299	79.06
250.532	87.06
250.765	80.06
250.998	71.06
251.231	93.06
251.465	85.06
251.698	74.06
251.931	85.06
252.164	98.06
252.397	90.06
252.63	84.06
252.863	82.06
253.096	85.06
253.329	73.06
253.562	90.06
253.795	76.06
254.028	95.06
254.261	105.06
254.494	87.06
254.727	73.06
254.96	84.06
255.193	94.06
255.426	90.06
255.659	86.06
255.892	91.06
256.124	85.06
256.357	78.06
256.59	90.06
256.823	92.06
257.056	89.06
257.289	90.06
257.521	76.06
257.754	90.06
257.987	87.06
258.22	92.06
258.452	77.06
258.685	77.06
258.918	73.06
259.151	85.06
259.383	82.06
259.616	78.06
259.849	91.06
260.081	73.06
260.314	75.06
260.547	84.06
260.779	91.06
261.012	86.06
261.244	91.06
261.477	79.06
261.71	84.06
261.942	95.06
262.175	99.06
262.407	88.06
262.64	102.06
262.872	93.06
263.105	81.06
263.337	80.06
263.57	86.06
263.802	85.06
264.035	86.06
264.267	77.06
264.499	87.06
264.732	82.06
264.964	81.06
265.197	68.06
265.429	91.06
265.661	91.06
265.894	85.06
266.126	89.06
266.358	90.06
266.591	99.06
266.823	88.06
267.055	94.06
267.287	76.06
267.52	85.06
267.752	76.06
267.984	79.06
268.216	85.06
268.448	94.06
268.681	85.06
268.913	87.06
269.145	104.06
269.377	81.06
269.609	85.06
269.841	80.06
270.073	81.06
270.306	79.06
270.538	88.06
270.77	94.06
271.002	94.06
271.234	87.06
271.466	94.06
271.698	73.06
271.93	87.06
272.162	90.06
272.394	100.06
272.626	93.06
272.858	79.06
273.09	65.06
273.322	83.06
273.553	84.06
273.785	77.06
274.017	82.06
274.249	90.06
274.481	85.06
274.713	94.06
274.945	90.06
275.176	83.06
275.408	95.06
275.64	84.06
275.872	80.06
276.104	91.06
276.335	99.06
276.567	89.06
276.799	99.06
277.031	115.06
277.262	106.06
277.494	88.06
277.726	94.06
277.957	87.06
278.189	91.06
278.421	90.06
278.652	102.06
278.884	77.06
279.115	95.06
279.347	91.06
279.579	78.06
279.81	90.06
280.042	101.06
280.273	99.06
280.505	94.06
280.736	95.06
280.968	86.06
281.199	73.06
281.431	81.06
281.662	88.06
281.894	102.06
282.125	109.06
282.356	106.06
282.588	118.06
282.819	115.06
283.051	87.06
283.282	94.06
283.513	97.06
283.745	94.06
283.976	85.06
284.207	91.06
284.439	78.06
284.67	82.06
284.901	93.06
285.132	83.06
285.364	88.06
285.595	84.06
285.826	77.06
286.057	91.06
286.288	86.06
286.52	83.06
286.751	90.06
286.982	92.06
287.213	93.06
287.444	79.06
287.675	96.06
287.906	83.06
288.138	89.06
288.369	91.06
288.6	89.06
288.831	92.06
289.062	89.06
289.293	101.06
289.524	88.06
289.755	84.06
289.986	94.06
290.217	97.06
290.448	89.06
290.679	98.06
290.91	98.06
291.141	89.06
291.371	95.06
291.602	76.06
291.833	81.06
292.064	86.06
292.295	96.06
292.526	93.06
292.757	86.06
292.987	97.06
293.218	93.06
293.449	86.06
293.68	84.06
293.91	90.06
294.141	104.06
294.372	97.06
294.603	90.06
294.833	102.06
295.064	86.06
295.295	91.06
295.525	91.06
295.756	91.06
295.987	117.06
296.217	132.06
296.448	115.06
296.679	97.06
296.909	92.06
297.14	86.06
297.37	104.06
297.601	101.06
297.831	74.06
298.062	88.06
298.292	92.06
298.523	101.06
298.753	85.06
298.984	89.06
299.214	80.06
299.445	76.06
299.675	86.06
299.905	93.06
300.136	89.06
300.366	84.06
300.597	100.06
300.827	91.06
301.057	91.06
301.288	95.06
301.518	94.06
301.748	80.06
301.979	101.06
302.209	78.06
302.439	94.06
302.669	98.06
302.9	95.06
303.13	77.06
303.36	97.06
303.59	106.06
303.82	103.06
304.051	102.06
304.281	89.06
304.511	103.06
304.741	79.06
304.971	77.06
305.201	96.06
305.431	79.06
305.661	88.06
305.891	81.06
306.121	95.06
306.352	88.06
306.582	86.06
306.812	89.06
307.042	100.06
307.272	106.06
307.502	98.06
307.731	97.06
307.961	98.06
308.191	94.06
308.421	90.06
308.651	93.06
308.881	86.06
309.111	112.06
309.341	97.06
309.571	106.06
309.8	91.06
310.03	108.06
310.26	77.06
310.49	80.06
310.72	103.06
310.949	103.06
311.179	110.06
311.409	93.06
311.639	83.06
311.868	84.06
312.098	91.06
312.328	95.06
312.557	94.06
312.787	103.06
313.017	107.06
313.246	93.06
313.476	91.06
313.706	90.06
313.935	91.06
314.165	85.06
314.394	88.06
314.624	91.06
314.853	106.06
315.083	94.06
315.312	93.06
315.542	88.06
315.771	95.06
316.001	87.06
316.23	91.06
316.46	85.06
316.689	91.06
316.919	106.06
317.148	72.06
317.377	93.06
317.607	95.06
317.836	97.06
318.065	89.06
318.295	73.06
318.524	84.06
318.753	99.06
318.983	94.06
319.212	103.06
319.441	105.06
319.67	92.06
319.9	108.06
320.129	88.06
320.358	102.06
320.587	94.06
320.816	98.06
321.046	105.06
321.275	105.06
321.504	89.06
321.733	98.06
321.962	110.06
322.191	100.06
322.42	107.06
322.649	104.06
322.878	98.06
323.108	119.06
323.337	120.06
323.566	135.06
323.795	156.06
324.024	200.06
324.253	374.06
324.482	782.06
324.71	1561.06
324.939	2135.06
325.168	773.06
325.397	230.06
325.626	138.06
325.855	121.06
326.084	124.06
326.313	137.06
326.542	156.06
326.77	220.06
326.999	444.06
327.228	921.06
327.457	1654.06
327.686	1333.06
327.914	378.06
328.143	218.06
328.372	181.06
328.6	143.06
328.829	109.06
329.058	116.06
329.287	119.06
329.515	103.06
329.744	114.06
329.972	139.06
330.201	212.06
330.43	265.06
330.658	165.06
330.887	143.06
331.115	129.06
331.344	104.06
331.572	109.06
331.801	90.06
332.03	78.06
332.258	100.06
332.486	82.06
332.715	99.06
332.943	105.06
333.172	107.06
333.4	108.06
333.629	97.06
333.857	123.06
334.085	152.06
334.314	222.06
334.542	307.06
334.771	302.06
334.999	141.06
335.227	115.06
335.455	90.06
335.684	102.06
335.912	90.06
336.14	99.06
336.369	102.06
336.597	99.06
336.825	102.06
337.053	99.06
337.281	95.06
337.51	72.06
337.738	95.06
337.966	105.06
338.194	81.06
338.422	74.06
338.65	93.06
338.878	99.06
339.106	72.06
339.334	110.06
339.562	84.06
339.79	91.06
340.018	98.06
340.246	87.06
340.474	92.06
340.702	92.06
340.93	94.06
341.158	89.06
341.386	106.06
341.614	79.06
341.842	107.06
342.07	94.06
342.298	91.06
342.526	87.06
342.754	87.06
342.981	95.06
343.209	89.06
343.437	92.06
343.665	87.06
343.893	75.06
344.12	87.06
344.348	94.06
344.576	101.06
344.804	81.06
345.031	84.06
345.259	108.06
345.487	91.06
345.714	79.06
345.942	68.06
346.17	84.06
346.397	91.06
346.625	109.06
346.853	109.06
347.08	92.06
347.308	103.06
347.535	112.06
347.763	97.06
347.99	102.06
348.218	89.06
348.445	108.06
348.673	90.06
348.9	96.06
349.128	87.06
349.355	108.06
349.583	98.06
349.81	104.06
350.037	106.06
350.265	85.06
350.492	93.06
350.72	81.06
350.947	98.06
351.174	104.06
351.402	106.06
351.629	108.06
351.856	91.06
352.083	104.06
352.311	88.06
352.538	110.06
352.765	93.06
352.992	103.06
353.22	106.06
353.447	82.06
353.674	90.06
353.901	102.06
354.128	91.06
354.355	91.06
354.583	101.06
354.81	86.06
355.037	97.06
355.264	108.06
355.491	85.06
355.718	93.06
355.945	100.06
356.172	89.06
356.399	93.06
356.626	98.06
356.853	104.06
357.08	94.06
357.307	87.06
357.534	95.06
357.761	96.06
357.988	104.06
358.215	89.06
358.441	93.06
358.668	93.06
358.895	103.06
359.122	102.06
359.349	105.06
359.576	112.06
359.802	111.06
360.029	97.06
360.256	97.06
360.483	89.06
360.709	77.06
360.936	90.06
361.163	97.06
361.39	94.06
361.616	96.06
361.843	90.06
362.07	94.06
362.296	93.06
362.523	76.06
362.749	102.06
362.976	97.06
363.203	99.06
363.429	90.06
363.656	84.06
363.882	89.06
364.109	79.06
364.335	92.06
364.562	91.06
364.788	87.06
365.015	82.06
365.241	81.06
365.468	107.06
365.694	85.06
365.92	97.06
366.147	100.06
366.373	91.06
366.599	93.06
366.826	91.06
367.052	105.06
367.278	94.06
367.505	85.06
367.731	74.06
367.957	92.06
368.184	97.06
368.41	95.06
368.636	103.06
368.862	105.06
369.089	87.06
369.315	86.06
369.541	89.06
369.767	85.06
369.993	83.06
370.219	93.06
370.445	77.06
370.672	86.06
370.898	96.06
371.124	65.06
371.35	86.06
371.576	80.06
371.802	73.06
372.028	76.06
372.254	82.06
372.48	89.06
372.706	82.06
372.932	94.06
373.158	94.06
373.384	96.06
373.61	107.06
373.835	103.06
374.061	99.06
374.287	91.06
374.513	80.06
374.739	86.06
374.965	87.06
375.191	80.06
375.416	94.06
375.642	79.06
375.868	79.06
376.094	86.06
376.319	99.06
376.545	83.06
376.771	87.06
376.997	90.06
377.222	79.06
377.448	83.06
377.674	96.06
377.899	79.06
378.125	94.06
378.35	87.06
378.576	100.06
378.802	85.06
379.027	74.06
379.253	80.06
379.478	89.06
379.704	95.06
379.929	94.06
380.155	95.06
380.38	85.06
380.606	108.06
380.831	105.06
381.057	100.06
381.282	106.06
381.507	99.06
381.733	94.06
381.958	94.06
382.184	101.06
382.409	87.06
382.634	119.06
382.86	93.06
383.085	107.06
383.31	96.06
383.535	96.06
383.761	108.06
383.986	85.06
384.211	110.06
384.436	105.06
384.662	97.06
384.887	99.06
385.112	94.06
385.337	95.06
385.562	109.06
385.787	108.06
386.013	105.06
386.238	114.06
386.463	96.06
386.688	102.06
386.913	101.06
387.138	83.06
387.363	96.06
387.588	89.06
387.813	88.06
388.038	94.06
388.263	109.06
388.488	111.06
388.713	79.06
388.938	86.06
389.163	83.06
389.387	93.06
389.612	94.06
389.837	90.06
390.062	93.06
390.287	79.06
390.512	74.06
390.736	87.06
390.961	94.06
391.186	88.06
391.411	88.06
391.636	94.06
391.86	92.06
392.085	83.06
392.31	90.06
392.534	89.06
392.759	85.06
392.984	88.06
393.208	101.06
393.433	88.06
393.658	98.06
393.882	99.06
394.107	77.06
394.331	81.06
394.556	87.06
394.78	84.06
395.005	84.06
395.229	75.06
395.454	83.06
395.678	79.06
395.903	84.06
396.127	79.06
396.352	97.06
396.576	85.06
396.801	81.06
397.025	94.06
397.249	93.06
397.474	98.06
397.698	94.06
397.922	74.06
398.147	92.06
398.371	100.06
398.595	96.06
398.82	88.06
399.044	86.06
399.268	89.06
399.492	85.06
399.717	104.06
399.941	96.06
400.165	93.06
400.389	92.06
400.613	87.06
400.837	81.06
401.062	87.06
401.286	90.06
401.51	102.06
401.734	89.06
401.958	115.06
402.182	109.06
402.406	137.06
402.63	121.06
402.854	103.06
403.078	96.06
403.302	86.06
403.526	86.06
403.75	107.06
403.974	98.06
404.198	100.06
404.422	94.06
404.645	84.06
404.869	91.06
405.093	96.06
405.317	108.06
405.541	101.06
405.765	92.06
405.988	102.06
406.212	141.06
406.436	181.06
406.66	125.06
406.883	100.06
407.107	92.06
407.331	86.06
407.555	96.06
407.778	102.06
408.002	86.06
408.226	86.06
408.449	105.06
408.673	92.06
408.896	98.06
409.12	106.06
409.344	91.06
409.567	99.06
409.791	88.06
410.014	89.06
410.238	92.06
410.461	86.06
410.685	96.06
410.908	120.06
411.132	108.06
411.355	104.06
411.578	90.06
411.802	102.06
412.025	87.06
412.249	85.06
412.472	93.06
412.695	118.06
412.919	89.06
413.142	102.06
413.365	82.06
413.589	79.06
413.812	82.06
414.035	102.06
414.258	87.06
414.482	90.06
414.705	102.06
414.928	100.06
415.151	85.06
415.374	93.06
415.597	90.06
415.821	89.06
416.044	87.06
416.267	83.06
416.49	105.06
416.713	72.06
416.936	89.06
417.159	93.06
417.382	89.06
417.605	98.06
417.828	99.06
418.051	82.06
418.274	80.06
418.497	93.06
418.72	89.06
418.943	81.06
419.166	98.06
419.389	109.06
419.611	77.06
419.834	87.06
420.057	80.06
420.28	89.06
420.503	88.06
420.726	88.06
420.948	89.06
421.171	100.06
421.394	91.06
421.617	81.06
421.839	83.06
422.062	83.06
422.285	99.06
422.507	82.06
422.73	101.06
422.953	91.06
423.175	89.06
423.398	78.06
423.621	87.06
423.843	74.06
424.066	85.06
424.288	89.06
424.511	82.06
424.733	87.06
424.956	78.06
425.178	100.06
425.401	86.06
425.623	111.06
425.846	77.06
426.068	92.06
426.291	96.06
426.513	91.06
426.735	102.06
426.958	99.06
427.18	89.06
427.402	129.06
427.625	151.06
427.847	147.06
428.069	136.06
428.292	109.06
428.514	70.06
428.736	102.06
428.958	97.06
429.181	80.06
429.403	87.06
429.625	90.06
429.847	80.06
430.069	106.06
430.292	101.06
430.514	77.06
430.736	73.06
430.958	94.06
431.18	84.06
431.402	79.06
431.624	88.06
431.846	85.06
432.068	106.06
432.29	93.06
432.512	77.06
432.734	74.06
432.956	87.06
433.178	101.06
433.4	95.06
433.622	86.06
433.844	79.06
434.066	83.06
434.287	98.06
434.509	91.06
434.731	94.06
434.953	87.06
435.175	88.06
435.397	81.06
435.618	83.06
435.84	90.06
436.062	117.06
436.284	100.06
436.505	94.06
436.727	101.06
436.949	84.06
437.17	101.06
437.392	102.06
437.614	82.06
437.835	110.06
438.057	107.06
438.278	107.06
438.5	94.06
438.721	112.06
438.943	107.06
439.165	98.06
439.386	77.06
439.608	81.06
439.829	107.06
440.05	111.06
440.272	114.06
440.493	100.06
440.715	70.06
440.936	87.06
441.158	92.06
441.379	82.06
441.6	80.06
441.822	93.06
442.043	79.06
442.264	107.06
442.486	97.06
442.707	103.06
442.928	90.06
443.149	109.06
443.371	113.06
443.592	110.06
443.813	94.06
444.034	97.06
444.255	81.06
444.476	89.06
444.698	79.06
444.919	95.06
445.14	132.06
445.361	121.06
445.582	119.06
445.803	121.06
446.024	131.06
446.245	120.06
446.466	95.06
446.687	82.06
446.908	93.06
447.129	100.06
447.35	81.06
447.571	95.06
447.792	93.06
448.013	80.06
448.234	85.06
448.455	105.06
448.675	109.06
448.896	107.06
449.117	100.06
449.338	108.06
449.559	134.06
449.779	131.06
450	90.06
450.221	83.06
450.442	85.06
450.662	96.06
450.883	94.06
451.104	93.06
451.324	80.06
451.545	89.06
451.766	85.06
451.986	92.06
452.207	89.06
452.428	95.06
452.648	82.06
452.869	90.06
453.089	109.06
453.31	102.06
453.53	91.06
453.751	75.06
453.971	91.06
454.192	93.06
454.412	93.06
454.633	78.06
454.853	91.06
455.073	80.06
455.294	70.06
455.514	85.06
455.734	79.06
455.955	99.06
456.175	70.06
456.395	89.06
456.616	99.06
456.836	70.06
457.056	74.06
457.276	92.06
457.497	100.06
457.717	79.06
457.937	86.06
458.157	90.06
458.377	88.06
458.598	89.06
458.818	125.06
459.038	147.06
459.258	107.06
459.478	92.06
459.698	87.06
459.918	88.06
460.138	93.06
460.358	86.06
460.578	95.06
460.798	90.06
461.018	84.06
461.238	76.06
461.458	90.06
461.678	74.06
461.898	81.06
462.118	86.06
462.338	87.06
462.558	82.06
462.777	95.06
462.997	79.06
463.217	71.06
463.437	90.06
463.657	75.06
463.876	81.06
464.096	94.06
464.316	95.06
464.536	95.06
464.755	92.06
464.975	107.06
465.195	131.06
465.414	136.06
465.634	97.06
465.854	86.06
466.073	93.06
466.293	96.06
466.512	83.06
466.732	78.06
466.951	79.06
467.171	82.06
467.391	85.06
467.61	103.06
467.829	104.06
468.049	151.06
468.268	183.06
468.488	102.06
468.707	89.06
468.927	78.06
469.146	85.06
469.365	82.06
469.585	84.06
469.804	101.06
470.023	104.06
470.243	94.06
470.462	98.06
470.681	94.06
470.901	90.06
471.12	88.06
471.339	74.06
471.558	100.06
471.777	93.06
471.997	108.06
472.216	233.06
472.435	411.06
472.654	174.06
472.873	107.06
473.092	84.06
473.311	92.06
473.53	78.06
473.749	111.06
473.968	89.06
474.187	99.06
474.406	106.06
474.625	88.06
474.844	82.06
475.063	77.06
475.282	87.06
475.501	98.06
475.72	81.06
475.939	81.06
476.158	99.06
476.377	82.06
476.596	78.06
476.814	105.06
477.033	87.06
477.252	98.06
477.471	84.06
477.69	98.06
477.908	100.06
478.127	93.06
478.346	108.06
478.564	90.06
478.783	100.06
479.002	80.06
479.22	90.06
479.439	101.06
479.658	107.06
479.876	85.06
480.095	97.06
480.313	98.06
480.532	96.06
480.751	130.06
480.969	250.06
481.188	697.06
481.406	443.06
481.624	138.06
481.843	94.06
482.061	85.06
482.28	100.06
482.498	91.06
482.717	95.06
482.935	93.06
483.153	84.06
483.372	94.06
483.59	86.06
483.808	105.06
484.027	78.06
484.245	92.06
484.463	80.06
484.681	101.06
484.9	86.06
485.118	95.06
485.336	106.06
485.554	95.06
485.772	95.06
485.99	98.06
486.209	109.06
486.427	106.06
486.645	110.06
486.863	103.06
487.081	86.06
487.299	108.06
487.517	97.06
487.735	94.06
487.953	101.06
488.171	105.06
488.389	79.06
488.607	86.06
488.825	90.06
489.043	103.06
489.261	101.06
489.479	87.06
489.696	75.06
489.914	88.06
490.132	92.06
490.35	96.06
490.568	93.06
490.786	92.06
491.003	92.06
491.221	87.06
491.439	106.06
491.657	86.06
491.874	88.06
492.092	93.06
492.31	99.06
492.527	101.06
492.745	86.06
492.963	89.06
493.18	90.06
493.398	86.06
493.615	83.06
493.833	92.06
494.05	83.06
494.268	88.06
494.485	96.06
494.703	94.06
494.92	93.06
495.138	80.06
495.355	78.06
495.573	79.06
495.79	89.06
496.008	100.06
496.225	90.06
496.442	90.06
496.66	96.06
496.877	84.06
497.094	82.06
497.312	87.06
497.529	99.06
497.746	92.06
497.963	84.06
498.181	87.06
498.398	90.06
498.615	116.06
498.832	98.06
499.049	97.06
499.267	90.06
499.484	105.06
499.701	95.06
499.918	76.06
500.135	88.06
500.352	93.06
500.569	89.06
500.786	101.06
501.003	100.06
501.22	100.06
501.437	101.06
501.654	89.06
501.871	88.06
502.088	100.06
502.305	93.06
502.522	87.06
502.739	83.06
502.956	83.06
503.172	86.06
503.389	104.06
503.606	109.06
503.823	93.06
504.04	98.06
504.256	92.06
504.473	92.06
504.69	102.06
504.907	80.06
505.123	93.06
505.34	92.06
505.557	88.06
505.773	85.06
505.99	101.06
506.207	90.06
506.423	90.06
506.64	95.06
506.856	100.06
507.073	86.06
507.289	94.06
507.506	94.06
507.722	108.06
507.939	102.06
508.155	90.06
508.372	93.06
508.588	83.06
508.805	89.06
509.021	86.06
509.238	99.06
509.454	82.06
509.67	100.06
509.887	95.06
510.103	121.06
510.319	189.06
510.536	600.06
510.752	1909.06
510.968	582.06
511.184	157.06
511.401	115.06
511.617	89.06
511.833	91.06
512.049	90.06
512.265	88.06
512.481	85.06
512.698	93.06
512.914	82.06
513.13	102.06
513.346	93.06
513.562	80.06
513.778	102.06
513.994	92.06
514.21	105.06
514.426	114.06
514.642	127.06
514.858	103.06
515.074	141.06
515.29	351.06
515.506	1103.06
