Data from Circ_2015_H10_HRD10591_00025.txt Node
Date: Wed Jan 03 10:00:27 EST 2024
User: Yrep
Spectrometer: HR+D1059
Trigger mode: 1
Integration Time (sec): 1.000000E-1
Scans to average: 1
Electric dark correction enabled: true
Nonlinearity correction enabled: false
Boxcar width: 0
XAxis mode: Wavelengths
Number of Pixels in Spectrum: 2048
>>>>>Begin Spectral Data<<<<<
223.165	-11.94
223.4	-11.94
223.635	-11.94
223.869	-10.94
224.104	-12.94
224.338	-8.94
224.573	-4.94
224.808	-22.94
225.042	-1.94
225.277	-10.94
225.511	2.06
225.746	4.06
225.98	6.06
226.215	6.06
226.449	9.06
226.683	16.06
226.918	15.06
227.152	27.06
227.387	39.06
227.621	33.06
227.856	52.06
228.09	44.06
228.324	71.06
228.559	58.06
228.793	52.06
229.027	74.06
229.262	79.06
229.496	81.06
229.73	72.06
229.964	71.06
230.199	85.06
230.433	78.06
230.667	67.06
230.901	82.06
231.136	83.06
231.37	79.06
231.604	75.06
231.838	71.06
232.072	81.06
232.306	90.06
232.541	87.06
232.775	77.06
233.009	90.06
233.243	81.06
233.477	73.06
233.711	83.06
233.945	73.06
234.179	83.06
234.413	85.06
234.647	86.06
234.881	84.06
235.115	75.06
235.349	72.06
235.583	90.06
235.817	91.06
236.051	82.06
236.285	68.06
236.519	81.06
236.753	73.06
236.987	76.06
237.221	83.06
237.455	96.06
237.689	89.06
237.922	78.06
238.156	70.06
238.39	71.06
238.624	70.06
238.858	74.06
239.091	78.06
239.325	84.06
239.559	68.06
239.793	81.06
240.027	69.06
240.26	75.06
240.494	63.06
240.728	74.06
240.961	68.06
241.195	66.06
241.429	68.06
241.662	74.06
241.896	82.06
242.13	89.06
242.363	75.06
242.597	75.06
242.83	65.06
243.064	70.06
243.298	55.06
243.531	92.06
243.765	74.06
243.998	72.06
244.232	66.06
244.465	88.06
244.699	79.06
244.932	72.06
245.166	77.06
245.399	70.06
245.633	88.06
245.866	94.06
246.099	93.06
246.333	77.06
246.566	76.06
246.8	79.06
247.033	76.06
247.266	80.06
247.5	70.06
247.733	91.06
247.966	86.06
248.2	69.06
248.433	78.06
248.666	84.06
248.899	84.06
249.133	91.06
249.366	94.06
249.599	86.06
249.832	72.06
250.066	75.06
250.299	67.06
250.532	92.06
250.765	81.06
250.998	73.06
251.231	86.06
251.465	81.06
251.698	84.06
251.931	86.06
252.164	84.06
252.397	77.06
252.63	88.06
252.863	79.06
253.096	90.06
253.329	73.06
253.562	79.06
253.795	86.06
254.028	75.06
254.261	71.06
254.494	89.06
254.727	101.06
254.96	79.06
255.193	99.06
255.426	77.06
255.659	67.06
255.892	92.06
256.124	79.06
256.357	97.06
256.59	86.06
256.823	85.06
257.056	85.06
257.289	85.06
257.521	70.06
257.754	83.06
257.987	76.06
258.22	74.06
258.452	66.06
258.685	86.06
258.918	83.06
259.151	70.06
259.383	84.06
259.616	83.06
259.849	87.06
260.081	70.06
260.314	80.06
260.547	78.06
260.779	73.06
261.012	79.06
261.244	86.06
261.477	77.06
261.71	100.06
261.942	99.06
262.175	106.06
262.407	89.06
262.64	83.06
262.872	91.06
263.105	76.06
263.337	84.06
263.57	89.06
263.802	77.06
264.035	72.06
264.267	77.06
264.499	76.06
264.732	86.06
264.964	86.06
265.197	85.06
265.429	77.06
265.661	89.06
265.894	82.06
266.126	90.06
266.358	76.06
266.591	91.06
266.823	93.06
267.055	83.06
267.287	76.06
267.52	67.06
267.752	83.06
267.984	79.06
268.216	88.06
268.448	82.06
268.681	90.06
268.913	77.06
269.145	76.06
269.377	86.06
269.609	76.06
269.841	84.06
270.073	81.06
270.306	91.06
270.538	76.06
270.77	70.06
271.002	85.06
271.234	99.06
271.466	94.06
271.698	87.06
271.93	92.06
272.162	93.06
272.394	82.06
272.626	86.06
272.858	89.06
273.09	101.06
273.322	84.06
273.553	90.06
273.785	97.06
274.017	77.06
274.249	78.06
274.481	79.06
274.713	81.06
274.945	85.06
275.176	59.06
275.408	77.06
275.64	78.06
275.872	87.06
276.104	85.06
276.335	84.06
276.567	94.06
276.799	117.06
277.031	100.06
277.262	89.06
277.494	82.06
277.726	85.06
277.957	90.06
278.189	78.06
278.421	79.06
278.652	91.06
278.884	88.06
279.115	64.06
279.347	82.06
279.579	86.06
279.81	85.06
280.042	74.06
280.273	95.06
280.505	95.06
280.736	91.06
280.968	86.06
281.199	83.06
281.431	91.06
281.662	84.06
281.894	96.06
282.125	89.06
282.356	98.06
282.588	129.06
282.819	114.06
283.051	74.06
283.282	86.06
283.513	73.06
283.745	75.06
283.976	87.06
284.207	80.06
284.439	85.06
284.67	85.06
284.901	83.06
285.132	94.06
285.364	84.06
285.595	79.06
285.826	92.06
286.057	84.06
286.288	83.06
286.52	84.06
286.751	82.06
286.982	94.06
287.213	90.06
287.444	94.06
287.675	73.06
287.906	88.06
288.138	82.06
288.369	82.06
288.6	80.06
288.831	83.06
289.062	56.06
289.293	92.06
289.524	83.06
289.755	96.06
289.986	75.06
290.217	70.06
290.448	81.06
290.679	86.06
290.91	91.06
291.141	86.06
291.371	85.06
291.602	84.06
291.833	87.06
292.064	76.06
292.295	92.06
292.526	100.06
292.757	78.06
292.987	94.06
293.218	92.06
293.449	93.06
293.68	82.06
293.91	79.06
294.141	98.06
294.372	96.06
294.603	93.06
294.833	83.06
295.064	101.06
295.295	92.06
295.525	77.06
295.756	90.06
295.987	105.06
296.217	118.06
296.448	119.06
296.679	93.06
296.909	97.06
297.14	85.06
297.37	82.06
297.601	89.06
297.831	87.06
298.062	98.06
298.292	95.06
298.523	94.06
298.753	91.06
298.984	77.06
299.214	85.06
299.445	98.06
299.675	105.06
299.905	93.06
300.136	82.06
300.366	85.06
300.597	91.06
300.827	89.06
301.057	94.06
301.288	107.06
301.518	102.06
301.748	81.06
301.979	101.06
302.209	77.06
302.439	86.06
302.669	95.06
302.9	83.06
303.13	103.06
303.36	88.06
303.59	81.06
303.82	91.06
304.051	76.06
304.281	95.06
304.511	75.06
304.741	107.06
304.971	89.06
305.201	106.06
305.431	87.06
305.661	88.06
305.891	100.06
306.121	93.06
306.352	92.06
306.582	99.06
306.812	97.06
307.042	102.06
307.272	99.06
307.502	84.06
307.731	99.06
307.961	93.06
308.191	103.06
308.421	88.06
308.651	90.06
308.881	91.06
309.111	96.06
309.341	86.06
309.571	101.06
309.8	110.06
310.03	86.06
310.26	94.06
310.49	82.06
310.72	118.06
310.949	84.06
311.179	84.06
311.409	91.06
311.639	100.06
311.868	90.06
312.098	90.06
312.328	89.06
312.557	103.06
312.787	93.06
313.017	86.06
313.246	84.06
313.476	97.06
313.706	93.06
313.935	81.06
314.165	93.06
314.394	83.06
314.624	97.06
314.853	109.06
315.083	103.06
315.312	112.06
315.542	98.06
315.771	90.06
316.001	87.06
316.23	102.06
316.46	96.06
316.689	91.06
316.919	87.06
317.148	95.06
317.377	86.06
317.607	90.06
317.836	94.06
318.065	95.06
318.295	90.06
318.524	104.06
318.753	95.06
318.983	84.06
319.212	99.06
319.441	101.06
319.67	113.06
319.9	89.06
320.129	109.06
320.358	88.06
320.587	87.06
320.816	100.06
321.046	93.06
321.275	89.06
321.504	75.06
321.733	84.06
321.962	103.06
322.191	113.06
322.42	99.06
322.649	107.06
322.878	99.06
323.108	106.06
323.337	129.06
323.566	108.06
323.795	150.06
324.024	189.06
324.253	352.06
324.482	727.06
324.71	1506.06
324.939	1958.06
325.168	728.06
325.397	236.06
325.626	145.06
325.855	116.06
326.084	126.06
326.313	115.06
326.542	149.06
326.77	221.06
326.999	429.06
327.228	844.06
327.457	1539.06
327.686	1258.06
327.914	346.06
328.143	189.06
328.372	155.06
328.6	115.06
328.829	109.06
329.058	132.06
329.287	115.06
329.515	108.06
329.744	102.06
329.972	103.06
330.201	142.06
330.43	160.06
330.658	126.06
330.887	121.06
331.115	118.06
331.344	88.06
331.572	88.06
331.801	84.06
332.03	97.06
332.258	88.06
332.486	90.06
332.715	97.06
332.943	105.06
333.172	89.06
333.4	82.06
333.629	105.06
333.857	117.06
334.085	128.06
334.314	130.06
334.542	175.06
334.771	161.06
334.999	91.06
335.227	100.06
335.455	104.06
335.684	83.06
335.912	97.06
336.14	97.06
336.369	90.06
336.597	95.06
336.825	102.06
337.053	92.06
337.281	89.06
337.51	109.06
337.738	97.06
337.966	90.06
338.194	88.06
338.422	109.06
338.65	90.06
338.878	96.06
339.106	80.06
339.334	94.06
339.562	90.06
339.79	90.06
340.018	88.06
340.246	85.06
340.474	91.06
340.702	98.06
340.93	97.06
341.158	83.06
341.386	98.06
341.614	95.06
341.842	98.06
342.07	106.06
342.298	86.06
342.526	95.06
342.754	79.06
342.981	84.06
343.209	96.06
343.437	92.06
343.665	102.06
343.893	90.06
344.12	90.06
344.348	94.06
344.576	93.06
344.804	108.06
345.031	99.06
345.259	86.06
345.487	105.06
345.714	100.06
345.942	82.06
346.17	86.06
346.397	82.06
346.625	93.06
346.853	81.06
347.08	90.06
347.308	113.06
347.535	83.06
347.763	89.06
347.99	93.06
348.218	100.06
348.445	102.06
348.673	91.06
348.9	100.06
349.128	86.06
349.355	89.06
349.583	92.06
349.81	106.06
350.037	99.06
350.265	82.06
350.492	106.06
350.72	89.06
350.947	99.06
351.174	105.06
351.402	113.06
351.629	110.06
351.856	95.06
352.083	96.06
352.311	98.06
352.538	113.06
352.765	108.06
352.992	111.06
353.22	110.06
353.447	104.06
353.674	93.06
353.901	92.06
354.128	100.06
354.355	105.06
354.583	115.06
354.81	108.06
355.037	100.06
355.264	100.06
355.491	89.06
355.718	99.06
355.945	107.06
356.172	87.06
356.399	106.06
356.626	94.06
356.853	100.06
357.08	97.06
357.307	75.06
357.534	92.06
357.761	108.06
357.988	85.06
358.215	92.06
358.441	91.06
358.668	102.06
358.895	86.06
359.122	87.06
359.349	80.06
359.576	97.06
359.802	95.06
360.029	119.06
360.256	117.06
360.483	102.06
360.709	95.06
360.936	90.06
361.163	100.06
361.39	94.06
361.616	97.06
361.843	80.06
362.07	85.06
362.296	101.06
362.523	91.06
362.749	88.06
362.976	87.06
363.203	93.06
363.429	83.06
363.656	82.06
363.882	82.06
364.109	94.06
364.335	90.06
364.562	92.06
364.788	79.06
365.015	95.06
365.241	99.06
365.468	106.06
365.694	91.06
365.92	94.06
366.147	98.06
366.373	86.06
366.599	77.06
366.826	86.06
367.052	84.06
367.278	85.06
367.505	97.06
367.731	103.06
367.957	68.06
368.184	96.06
368.41	89.06
368.636	114.06
368.862	108.06
369.089	99.06
369.315	92.06
369.541	94.06
369.767	97.06
369.993	96.06
370.219	82.06
370.445	82.06
370.672	89.06
370.898	92.06
371.124	80.06
371.35	93.06
371.576	102.06
371.802	91.06
372.028	86.06
372.254	85.06
372.48	86.06
372.706	92.06
372.932	91.06
373.158	86.06
373.384	88.06
373.61	107.06
373.835	95.06
374.061	86.06
374.287	97.06
374.513	109.06
374.739	87.06
374.965	89.06
375.191	89.06
375.416	87.06
375.642	99.06
375.868	81.06
376.094	85.06
376.319	82.06
376.545	83.06
376.771	93.06
376.997	104.06
377.222	96.06
377.448	82.06
377.674	93.06
377.899	92.06
378.125	84.06
378.35	97.06
378.576	88.06
378.802	109.06
379.027	91.06
379.253	95.06
379.478	94.06
379.704	88.06
379.929	94.06
380.155	105.06
380.38	104.06
380.606	96.06
380.831	95.06
381.057	86.06
381.282	112.06
381.507	108.06
381.733	92.06
381.958	105.06
382.184	99.06
382.409	114.06
382.634	101.06
382.86	109.06
383.085	117.06
383.31	109.06
383.535	99.06
383.761	100.06
383.986	100.06
384.211	114.06
384.436	99.06
384.662	111.06
384.887	93.06
385.112	118.06
385.337	108.06
385.562	115.06
385.787	121.06
386.013	112.06
386.238	121.06
386.463	118.06
386.688	121.06
386.913	127.06
387.138	120.06
387.363	112.06
387.588	104.06
387.813	104.06
388.038	117.06
388.263	127.06
388.488	111.06
388.713	103.06
388.938	109.06
389.163	92.06
389.387	99.06
389.612	91.06
389.837	104.06
390.062	102.06
390.287	109.06
390.512	94.06
390.736	82.06
390.961	88.06
391.186	93.06
391.411	86.06
391.636	92.06
391.86	89.06
392.085	86.06
392.31	85.06
392.534	92.06
392.759	94.06
392.984	97.06
393.208	94.06
393.433	125.06
393.658	120.06
393.882	100.06
394.107	97.06
394.331	79.06
394.556	101.06
394.78	75.06
395.005	70.06
395.229	83.06
395.454	96.06
395.678	93.06
395.903	98.06
396.127	81.06
396.352	88.06
396.576	92.06
396.801	83.06
397.025	114.06
397.249	83.06
397.474	99.06
397.698	96.06
397.922	95.06
398.147	83.06
398.371	85.06
398.595	97.06
398.82	79.06
399.044	89.06
399.268	82.06
399.492	97.06
399.717	88.06
399.941	94.06
400.165	91.06
400.389	82.06
400.613	83.06
400.837	93.06
401.062	89.06
401.286	83.06
401.51	91.06
401.734	98.06
401.958	93.06
402.182	109.06
402.406	141.06
402.63	104.06
402.854	89.06
403.078	104.06
403.302	99.06
403.526	94.06
403.75	90.06
403.974	82.06
404.198	89.06
404.422	91.06
404.645	92.06
404.869	77.06
405.093	96.06
405.317	105.06
405.541	101.06
405.765	96.06
405.988	107.06
406.212	152.06
406.436	186.06
406.66	127.06
406.883	95.06
407.107	91.06
407.331	94.06
407.555	97.06
407.778	89.06
408.002	84.06
408.226	81.06
408.449	83.06
408.673	95.06
408.896	87.06
409.12	102.06
409.344	93.06
409.567	81.06
409.791	91.06
410.014	98.06
410.238	93.06
410.461	90.06
410.685	97.06
410.908	84.06
411.132	106.06
411.355	97.06
411.578	97.06
411.802	91.06
412.025	79.06
412.249	94.06
412.472	90.06
412.695	85.06
412.919	93.06
413.142	100.06
413.365	92.06
413.589	73.06
413.812	83.06
414.035	103.06
414.258	87.06
414.482	87.06
414.705	83.06
414.928	77.06
415.151	102.06
415.374	101.06
415.597	98.06
415.821	93.06
416.044	91.06
416.267	88.06
416.49	93.06
416.713	90.06
416.936	84.06
417.159	85.06
417.382	92.06
417.605	92.06
417.828	93.06
418.051	95.06
418.274	92.06
418.497	86.06
418.72	80.06
418.943	98.06
419.166	91.06
419.389	96.06
419.611	89.06
419.834	107.06
420.057	92.06
420.28	100.06
420.503	82.06
420.726	90.06
420.948	98.06
421.171	97.06
421.394	86.06
421.617	79.06
421.839	88.06
422.062	92.06
422.285	98.06
422.507	91.06
422.73	97.06
422.953	86.06
423.175	68.06
423.398	102.06
423.621	94.06
423.843	90.06
424.066	78.06
424.288	90.06
424.511	79.06
424.733	93.06
424.956	103.06
425.178	90.06
425.401	100.06
425.623	101.06
425.846	87.06
426.068	86.06
426.291	93.06
426.513	94.06
426.735	94.06
426.958	85.06
427.18	102.06
427.402	126.06
427.625	150.06
427.847	110.06
428.069	108.06
428.292	104.06
428.514	89.06
428.736	79.06
428.958	98.06
429.181	87.06
429.403	92.06
429.625	82.06
429.847	84.06
430.069	100.06
430.292	99.06
430.514	82.06
430.736	89.06
430.958	94.06
431.18	79.06
431.402	94.06
431.624	84.06
431.846	93.06
432.068	94.06
432.29	78.06
432.512	90.06
432.734	76.06
432.956	76.06
433.178	102.06
433.4	92.06
433.622	93.06
433.844	97.06
434.066	83.06
434.287	101.06
434.509	92.06
434.731	88.06
434.953	93.06
435.175	83.06
435.397	94.06
435.618	107.06
435.84	104.06
436.062	119.06
436.284	121.06
436.505	92.06
436.727	90.06
436.949	93.06
437.17	86.06
437.392	76.06
437.614	91.06
437.835	102.06
438.057	109.06
438.278	106.06
438.5	84.06
438.721	112.06
438.943	97.06
439.165	88.06
439.386	97.06
439.608	87.06
439.829	92.06
440.05	103.06
440.272	123.06
440.493	95.06
440.715	88.06
440.936	84.06
441.158	85.06
441.379	87.06
441.6	90.06
441.822	89.06
442.043	99.06
442.264	98.06
442.486	75.06
442.707	92.06
442.928	107.06
443.149	117.06
443.371	119.06
443.592	85.06
443.813	96.06
444.034	107.06
444.255	93.06
444.476	84.06
444.698	85.06
444.919	85.06
445.14	128.06
445.361	109.06
445.582	118.06
445.803	137.06
446.024	138.06
446.245	127.06
446.466	99.06
446.687	83.06
446.908	104.06
447.129	94.06
447.35	102.06
447.571	96.06
447.792	83.06
448.013	99.06
448.234	98.06
448.455	90.06
448.675	112.06
448.896	110.06
449.117	95.06
449.338	111.06
449.559	122.06
449.779	125.06
450	103.06
450.221	98.06
450.442	105.06
450.662	93.06
450.883	96.06
451.104	103.06
451.324	92.06
451.545	94.06
451.766	96.06
451.986	97.06
452.207	82.06
452.428	99.06
452.648	93.06
452.869	93.06
453.089	98.06
453.31	113.06
453.53	89.06
453.751	96.06
453.971	97.06
454.192	103.06
454.412	85.06
454.633	85.06
454.853	76.06
455.073	87.06
455.294	94.06
455.514	102.06
455.734	90.06
455.955	82.06
456.175	97.06
456.395	98.06
456.616	86.06
456.836	76.06
457.056	77.06
457.276	79.06
457.497	89.06
457.717	82.06
457.937	76.06
458.157	86.06
458.377	88.06
458.598	101.06
458.818	133.06
459.038	136.06
459.258	109.06
459.478	87.06
459.698	86.06
459.918	90.06
460.138	92.06
460.358	93.06
460.578	80.06
460.798	87.06
461.018	89.06
461.238	81.06
461.458	81.06
461.678	98.06
461.898	95.06
462.118	93.06
462.338	100.06
462.558	90.06
462.777	92.06
462.997	75.06
463.217	97.06
463.437	88.06
463.657	93.06
463.876	84.06
464.096	91.06
464.316	91.06
464.536	83.06
464.755	102.06
464.975	108.06
465.195	146.06
465.414	127.06
465.634	114.06
465.854	77.06
466.073	96.06
466.293	85.06
466.512	79.06
466.732	81.06
466.951	85.06
467.171	91.06
467.391	99.06
467.61	98.06
467.829	110.06
468.049	98.06
468.268	108.06
468.488	91.06
468.707	75.06
468.927	83.06
469.146	86.06
469.365	86.06
469.585	98.06
469.804	88.06
470.023	92.06
470.243	99.06
470.462	84.06
470.681	99.06
470.901	96.06
471.12	80.06
471.339	87.06
471.558	99.06
471.777	101.06
471.997	99.06
472.216	129.06
472.435	193.06
472.654	97.06
472.873	90.06
473.092	88.06
473.311	85.06
473.53	90.06
473.749	77.06
473.968	94.06
474.187	98.06
474.406	95.06
474.625	91.06
474.844	89.06
475.063	94.06
475.282	86.06
475.501	84.06
475.72	84.06
475.939	82.06
476.158	69.06
476.377	85.06
476.596	82.06
476.814	78.06
477.033	95.06
477.252	95.06
477.471	92.06
477.69	75.06
477.908	87.06
478.127	85.06
478.346	92.06
478.564	92.06
478.783	77.06
479.002	87.06
479.22	105.06
479.439	97.06
479.658	99.06
479.876	97.06
480.095	94.06
480.313	94.06
480.532	93.06
480.751	93.06
480.969	136.06
481.188	288.06
481.406	214.06
481.624	94.06
481.843	86.06
482.061	76.06
482.28	94.06
482.498	86.06
482.717	90.06
482.935	96.06
483.153	94.06
483.372	90.06
483.59	85.06
483.808	98.06
484.027	92.06
484.245	89.06
484.463	103.06
484.681	89.06
484.9	100.06
485.118	95.06
485.336	94.06
485.554	91.06
485.772	92.06
485.99	87.06
486.209	104.06
486.427	86.06
486.645	95.06
486.863	98.06
487.081	90.06
487.299	94.06
487.517	87.06
487.735	94.06
487.953	84.06
488.171	81.06
488.389	90.06
488.607	106.06
488.825	97.06
489.043	91.06
489.261	81.06
489.479	78.06
489.696	85.06
489.914	87.06
490.132	85.06
490.35	96.06
490.568	88.06
490.786	90.06
491.003	79.06
491.221	94.06
491.439	89.06
491.657	93.06
491.874	86.06
492.092	98.06
492.31	92.06
492.527	88.06
492.745	78.06
492.963	80.06
493.18	87.06
493.398	80.06
493.615	95.06
493.833	93.06
494.05	88.06
494.268	81.06
494.485	105.06
494.703	77.06
494.92	84.06
495.138	88.06
495.355	100.06
495.573	97.06
495.79	89.06
496.008	88.06
496.225	90.06
496.442	85.06
496.66	85.06
496.877	91.06
497.094	90.06
497.312	86.06
497.529	87.06
497.746	84.06
497.963	95.06
498.181	98.06
498.398	104.06
498.615	99.06
498.832	95.06
499.049	73.06
499.267	85.06
499.484	93.06
499.701	95.06
499.918	96.06
500.135	98.06
500.352	97.06
500.569	78.06
500.786	94.06
501.003	91.06
501.22	94.06
501.437	84.06
501.654	109.06
501.871	104.06
502.088	90.06
502.305	79.06
502.522	81.06
502.739	87.06
502.956	75.06
503.172	93.06
503.389	92.06
503.606	107.06
503.823	100.06
504.04	94.06
504.256	72.06
504.473	106.06
504.69	94.06
504.907	106.06
505.123	100.06
505.34	101.06
505.557	97.06
505.773	80.06
505.99	93.06
506.207	86.06
506.423	79.06
506.64	92.06
506.856	92.06
507.073	102.06
507.289	90.06
507.506	93.06
507.722	101.06
507.939	103.06
508.155	92.06
508.372	97.06
508.588	97.06
508.805	102.06
509.021	94.06
509.238	100.06
509.454	113.06
509.67	108.06
509.887	105.06
510.103	116.06
510.319	195.06
510.536	607.06
510.752	2015.06
510.968	618.06
511.184	160.06
511.401	101.06
511.617	96.06
511.833	105.06
512.049	96.06
512.265	95.06
512.481	90.06
512.698	98.06
512.914	91.06
513.13	96.06
513.346	98.06
513.562	104.06
513.778	86.06
513.994	93.06
514.21	105.06
514.426	116.06
514.642	135.06
514.858	113.06
515.074	146.06
515.29	340.06
515.506	1120.06
515.721	454.06
515.937	131.06
