Data from Circ_2015_H10_HRD10591_00004.txt Node
Date: Wed Jan 03 10:00:23 EST 2024
User: Yrep
Spectrometer: HR+D1059
Trigger mode: 1
Integration Time (sec): 1.000000E-1
Scans to average: 1
Electric dark correction enabled: true
Nonlinearity correction enabled: false
Boxcar width: 0
XAxis mode: Wavelengths
Number of Pixels in Spectrum: 2048
>>>>>Begin Spectral Data<<<<<
223.165	-8.56
223.4	-8.56
223.635	-8.56
223.869	-20.56
224.104	-25.56
224.338	-20.56
224.573	-21.56
224.808	-9.56
225.042	-9.56
225.277	-0.56
225.511	-14.56
225.746	11.44
225.98	7.44
226.215	12.44
226.449	13.44
226.683	24.44
226.918	38.44
227.152	23.44
227.387	34.44
227.621	29.44
227.856	49.44
228.09	47.44
228.324	50.44
228.559	66.44
228.793	68.44
229.027	68.44
229.262	61.44
229.496	67.44
229.73	73.44
229.964	71.44
230.199	70.44
230.433	82.44
230.667	74.44
230.901	79.44
231.136	81.44
231.37	84.44
231.604	82.44
231.838	85.44
232.072	71.44
232.306	82.44
232.541	79.44
232.775	92.44
233.009	75.44
233.243	84.44
233.477	83.44
233.711	93.44
233.945	84.44
234.179	79.44
234.413	94.44
234.647	90.44
234.881	77.44
235.115	72.44
235.349	73.44
235.583	78.44
235.817	71.44
236.051	66.44
236.285	68.44
236.519	79.44
236.753	84.44
236.987	75.44
237.221	84.44
237.455	78.44
237.689	78.44
237.922	69.44
238.156	67.44
238.39	71.44
238.624	70.44
238.858	78.44
239.091	79.44
239.325	74.44
239.559	85.44
239.793	83.44
240.027	79.44
240.26	76.44
240.494	81.44
240.728	76.44
240.961	87.44
241.195	73.44
241.429	73.44
241.662	79.44
241.896	76.44
242.13	82.44
242.363	71.44
242.597	78.44
242.83	84.44
243.064	76.44
243.298	78.44
243.531	79.44
243.765	86.44
243.998	77.44
244.232	82.44
244.465	82.44
244.699	79.44
244.932	74.44
245.166	70.44
245.399	82.44
245.633	85.44
245.866	73.44
246.099	72.44
246.333	74.44
246.566	82.44
246.8	70.44
247.033	87.44
247.266	84.44
247.5	90.44
247.733	78.44
247.966	74.44
248.2	85.44
248.433	65.44
248.666	67.44
248.899	73.44
249.133	82.44
249.366	89.44
249.599	95.44
249.832	82.44
250.066	93.44
250.299	85.44
250.532	82.44
250.765	78.44
250.998	74.44
251.231	74.44
251.465	82.44
251.698	81.44
251.931	81.44
252.164	69.44
252.397	85.44
252.63	87.44
252.863	73.44
253.096	82.44
253.329	79.44
253.562	79.44
253.795	83.44
254.028	83.44
254.261	84.44
254.494	77.44
254.727	77.44
254.96	76.44
255.193	86.44
255.426	86.44
255.659	93.44
255.892	91.44
256.124	98.44
256.357	84.44
256.59	78.44
256.823	85.44
257.056	83.44
257.289	72.44
257.521	83.44
257.754	86.44
257.987	65.44
258.22	85.44
258.452	91.44
258.685	92.44
258.918	84.44
259.151	79.44
259.383	57.44
259.616	84.44
259.849	77.44
260.081	77.44
260.314	91.44
260.547	85.44
260.779	80.44
261.012	76.44
261.244	80.44
261.477	83.44
261.71	90.44
261.942	110.44
262.175	110.44
262.407	85.44
262.64	78.44
262.872	79.44
263.105	73.44
263.337	78.44
263.57	92.44
263.802	70.44
264.035	76.44
264.267	78.44
264.499	81.44
264.732	86.44
264.964	93.44
265.197	74.44
265.429	78.44
265.661	76.44
265.894	95.44
266.126	90.44
266.358	82.44
266.591	74.44
266.823	83.44
267.055	98.44
267.287	73.44
267.52	81.44
267.752	86.44
267.984	85.44
268.216	83.44
268.448	78.44
268.681	89.44
268.913	76.44
269.145	73.44
269.377	78.44
269.609	91.44
269.841	83.44
270.073	87.44
270.306	88.44
270.538	87.44
270.77	77.44
271.002	78.44
271.234	84.44
271.466	85.44
271.698	88.44
271.93	78.44
272.162	93.44
272.394	86.44
272.626	73.44
272.858	89.44
273.09	89.44
273.322	90.44
273.553	74.44
273.785	74.44
274.017	75.44
274.249	90.44
274.481	85.44
274.713	75.44
274.945	81.44
275.176	88.44
275.408	87.44
275.64	95.44
275.872	82.44
276.104	79.44
276.335	84.44
276.567	86.44
276.799	99.44
277.031	81.44
277.262	69.44
277.494	85.44
277.726	90.44
277.957	93.44
278.189	87.44
278.421	102.44
278.652	87.44
278.884	84.44
279.115	80.44
279.347	73.44
279.579	86.44
279.81	104.44
280.042	62.44
280.273	95.44
280.505	75.44
280.736	90.44
280.968	85.44
281.199	81.44
281.431	79.44
281.662	90.44
281.894	90.44
282.125	101.44
282.356	110.44
282.588	112.44
282.819	102.44
283.051	89.44
283.282	79.44
283.513	86.44
283.745	86.44
283.976	83.44
284.207	83.44
284.439	87.44
284.67	101.44
284.901	94.44
285.132	77.44
285.364	79.44
285.595	85.44
285.826	94.44
286.057	83.44
286.288	72.44
286.52	83.44
286.751	88.44
286.982	91.44
287.213	100.44
287.444	84.44
287.675	86.44
287.906	86.44
288.138	102.44
288.369	91.44
288.6	95.44
288.831	95.44
289.062	94.44
289.293	80.44
289.524	76.44
289.755	94.44
289.986	96.44
290.217	87.44
290.448	77.44
290.679	82.44
290.91	98.44
291.141	101.44
291.371	85.44
291.602	90.44
291.833	87.44
292.064	68.44
292.295	95.44
292.526	108.44
292.757	89.44
292.987	92.44
293.218	89.44
293.449	88.44
293.68	77.44
293.91	85.44
294.141	87.44
294.372	86.44
294.603	92.44
294.833	92.44
295.064	90.44
295.295	84.44
295.525	76.44
295.756	84.44
295.987	122.44
296.217	121.44
296.448	115.44
296.679	85.44
296.909	82.44
297.14	92.44
297.37	103.44
297.601	72.44
297.831	84.44
298.062	83.44
298.292	80.44
298.523	89.44
298.753	85.44
298.984	89.44
299.214	92.44
299.445	104.44
299.675	86.44
299.905	91.44
300.136	72.44
300.366	89.44
300.597	85.44
300.827	91.44
301.057	91.44
301.288	91.44
301.518	98.44
301.748	83.44
301.979	107.44
302.209	77.44
302.439	79.44
302.669	86.44
302.9	82.44
303.13	91.44
303.36	94.44
303.59	94.44
303.82	91.44
304.051	99.44
304.281	99.44
304.511	98.44
304.741	99.44
304.971	78.44
305.201	85.44
305.431	85.44
305.661	88.44
305.891	102.44
306.121	101.44
306.352	105.44
306.582	107.44
306.812	93.44
307.042	102.44
307.272	88.44
307.502	89.44
307.731	91.44
307.961	94.44
308.191	89.44
308.421	77.44
308.651	79.44
308.881	89.44
309.111	82.44
309.341	87.44
309.571	80.44
309.8	102.44
310.03	110.44
310.26	111.44
310.49	93.44
310.72	92.44
310.949	92.44
311.179	91.44
311.409	75.44
311.639	107.44
311.868	92.44
312.098	91.44
312.328	100.44
312.557	105.44
312.787	101.44
313.017	88.44
313.246	95.44
313.476	102.44
313.706	94.44
313.935	104.44
314.165	106.44
314.394	104.44
314.624	83.44
314.853	89.44
315.083	104.44
315.312	96.44
315.542	91.44
315.771	80.44
316.001	100.44
316.23	73.44
316.46	115.44
316.689	101.44
316.919	97.44
317.148	102.44
317.377	100.44
317.607	105.44
317.836	100.44
318.065	88.44
318.295	87.44
318.524	84.44
318.753	94.44
318.983	96.44
319.212	84.44
319.441	97.44
319.67	87.44
319.9	91.44
320.129	103.44
320.358	103.44
320.587	82.44
320.816	97.44
321.046	97.44
321.275	99.44
321.504	89.44
321.733	111.44
321.962	111.44
322.191	87.44
322.42	94.44
322.649	99.44
322.878	116.44
323.108	109.44
323.337	119.44
323.566	113.44
323.795	157.44
324.024	203.44
324.253	342.44
324.482	722.44
324.71	1406.44
324.939	1893.44
325.168	702.44
325.397	211.44
325.626	143.44
325.855	126.44
326.084	117.44
326.313	114.44
326.542	147.44
326.77	213.44
326.999	409.44
327.228	814.44
327.457	1451.44
327.686	1197.44
327.914	334.44
328.143	171.44
328.372	144.44
328.6	120.44
328.829	105.44
329.058	117.44
329.287	111.44
329.515	98.44
329.744	116.44
329.972	114.44
330.201	94.44
330.43	120.44
330.658	106.44
330.887	116.44
331.115	113.44
331.344	88.44
331.572	96.44
331.801	98.44
332.03	100.44
332.258	94.44
332.486	98.44
332.715	98.44
332.943	90.44
333.172	97.44
333.4	91.44
333.629	109.44
333.857	95.44
334.085	104.44
334.314	107.44
334.542	116.44
334.771	124.44
334.999	96.44
335.227	97.44
335.455	101.44
335.684	89.44
335.912	90.44
336.14	89.44
336.369	102.44
336.597	90.44
336.825	91.44
337.053	94.44
337.281	94.44
337.51	84.44
337.738	102.44
337.966	91.44
338.194	89.44
338.422	103.44
338.65	81.44
338.878	97.44
339.106	93.44
339.334	106.44
339.562	84.44
339.79	74.44
340.018	85.44
340.246	78.44
340.474	85.44
340.702	87.44
340.93	86.44
341.158	99.44
341.386	98.44
341.614	100.44
341.842	88.44
342.07	98.44
342.298	84.44
342.526	101.44
342.754	94.44
342.981	86.44
343.209	100.44
343.437	94.44
343.665	96.44
343.893	98.44
344.12	91.44
344.348	98.44
344.576	82.44
344.804	90.44
345.031	89.44
345.259	107.44
345.487	104.44
345.714	106.44
345.942	91.44
346.17	98.44
346.397	93.44
346.625	98.44
346.853	103.44
347.08	91.44
347.308	79.44
347.535	78.44
347.763	92.44
347.99	98.44
348.218	95.44
348.445	98.44
348.673	101.44
348.9	110.44
349.128	106.44
349.355	92.44
349.583	108.44
349.81	92.44
350.037	87.44
350.265	94.44
350.492	88.44
350.72	90.44
350.947	97.44
351.174	110.44
351.402	108.44
351.629	102.44
351.856	100.44
352.083	114.44
352.311	103.44
352.538	97.44
352.765	99.44
352.992	105.44
353.22	121.44
353.447	105.44
353.674	118.44
353.901	106.44
354.128	94.44
354.355	93.44
354.583	94.44
354.81	108.44
355.037	104.44
355.264	96.44
355.491	86.44
355.718	101.44
355.945	91.44
356.172	83.44
356.399	96.44
356.626	100.44
356.853	99.44
357.08	101.44
357.307	106.44
357.534	97.44
357.761	74.44
357.988	91.44
358.215	113.44
358.441	98.44
358.668	92.44
358.895	94.44
359.122	109.44
359.349	91.44
359.576	82.44
359.802	92.44
360.029	108.44
360.256	110.44
360.483	97.44
360.709	93.44
360.936	85.44
361.163	83.44
361.39	84.44
361.616	104.44
361.843	83.44
362.07	99.44
362.296	95.44
362.523	91.44
362.749	86.44
362.976	89.44
363.203	110.44
363.429	83.44
363.656	84.44
363.882	86.44
364.109	94.44
364.335	97.44
364.562	99.44
364.788	93.44
365.015	105.44
365.241	100.44
365.468	99.44
365.694	108.44
365.92	88.44
366.147	93.44
366.373	97.44
366.599	97.44
366.826	89.44
367.052	79.44
367.278	82.44
367.505	94.44
367.731	86.44
367.957	99.44
368.184	105.44
368.41	90.44
368.636	106.44
368.862	124.44
369.089	85.44
369.315	113.44
369.541	98.44
369.767	83.44
369.993	82.44
370.219	90.44
370.445	74.44
370.672	91.44
370.898	93.44
371.124	84.44
371.35	96.44
371.576	98.44
371.802	87.44
372.028	100.44
372.254	108.44
372.48	96.44
372.706	88.44
372.932	80.44
373.158	86.44
373.384	84.44
373.61	90.44
373.835	90.44
374.061	85.44
374.287	94.44
374.513	108.44
374.739	92.44
374.965	98.44
375.191	88.44
375.416	102.44
375.642	93.44
375.868	94.44
376.094	95.44
376.319	77.44
376.545	76.44
376.771	90.44
376.997	92.44
377.222	90.44
377.448	101.44
377.674	82.44
377.899	96.44
378.125	92.44
378.35	108.44
378.576	101.44
378.802	89.44
379.027	87.44
379.253	99.44
379.478	94.44
379.704	103.44
379.929	117.44
380.155	102.44
380.38	102.44
380.606	91.44
380.831	100.44
381.057	103.44
381.282	108.44
381.507	103.44
381.733	98.44
381.958	113.44
382.184	100.44
382.409	112.44
382.634	101.44
382.86	104.44
383.085	97.44
383.31	107.44
383.535	124.44
383.761	111.44
383.986	104.44
384.211	116.44
384.436	118.44
384.662	108.44
384.887	119.44
385.112	126.44
385.337	130.44
385.562	110.44
385.787	127.44
386.013	133.44
386.238	117.44
386.463	119.44
386.688	127.44
386.913	126.44
387.138	119.44
387.363	125.44
387.588	119.44
387.813	116.44
388.038	121.44
388.263	142.44
388.488	130.44
388.713	104.44
388.938	98.44
389.163	112.44
389.387	99.44
389.612	91.44
389.837	101.44
390.062	85.44
390.287	90.44
390.512	92.44
390.736	102.44
390.961	92.44
391.186	94.44
391.411	95.44
391.636	90.44
391.86	77.44
392.085	96.44
392.31	74.44
392.534	93.44
392.759	93.44
392.984	75.44
393.208	113.44
393.433	119.44
393.658	118.44
393.882	106.44
394.107	92.44
394.331	90.44
394.556	80.44
394.78	82.44
395.005	89.44
395.229	89.44
395.454	98.44
395.678	90.44
395.903	80.44
396.127	80.44
396.352	100.44
396.576	97.44
396.801	97.44
397.025	116.44
397.249	98.44
397.474	91.44
397.698	93.44
397.922	90.44
398.147	84.44
398.371	74.44
398.595	87.44
398.82	96.44
399.044	74.44
399.268	87.44
399.492	102.44
399.717	107.44
399.941	87.44
400.165	83.44
400.389	91.44
400.613	76.44
400.837	97.44
401.062	85.44
401.286	95.44
401.51	81.44
401.734	90.44
401.958	101.44
402.182	117.44
402.406	152.44
402.63	116.44
402.854	93.44
403.078	79.44
403.302	79.44
403.526	79.44
403.75	77.44
403.974	98.44
404.198	85.44
404.422	93.44
404.645	79.44
404.869	79.44
405.093	97.44
405.317	87.44
405.541	93.44
405.765	93.44
405.988	105.44
406.212	138.44
406.436	182.44
406.66	143.44
406.883	103.44
407.107	108.44
407.331	85.44
407.555	100.44
407.778	101.44
408.002	84.44
408.226	93.44
408.449	97.44
408.673	87.44
408.896	91.44
409.12	99.44
409.344	93.44
409.567	81.44
409.791	84.44
410.014	97.44
410.238	78.44
410.461	93.44
410.685	88.44
410.908	99.44
411.132	95.44
411.355	105.44
411.578	97.44
411.802	92.44
412.025	88.44
412.249	87.44
412.472	104.44
412.695	86.44
412.919	108.44
413.142	95.44
413.365	90.44
413.589	88.44
413.812	84.44
414.035	98.44
414.258	89.44
414.482	93.44
414.705	90.44
414.928	108.44
415.151	90.44
415.374	94.44
415.597	88.44
415.821	81.44
416.044	90.44
416.267	94.44
416.49	98.44
416.713	89.44
416.936	97.44
417.159	86.44
417.382	86.44
417.605	102.44
417.828	97.44
418.051	79.44
418.274	95.44
418.497	87.44
418.72	112.44
418.943	86.44
419.166	87.44
419.389	84.44
419.611	86.44
419.834	90.44
420.057	83.44
420.28	77.44
420.503	102.44
420.726	84.44
420.948	94.44
421.171	101.44
421.394	90.44
421.617	100.44
421.839	86.44
422.062	93.44
422.285	90.44
422.507	99.44
422.73	105.44
422.953	101.44
423.175	89.44
423.398	89.44
423.621	81.44
423.843	82.44
424.066	87.44
424.288	87.44
424.511	89.44
424.733	94.44
424.956	102.44
425.178	99.44
425.401	102.44
425.623	88.44
425.846	92.44
426.068	81.44
426.291	88.44
426.513	98.44
426.735	94.44
426.958	94.44
427.18	102.44
427.402	121.44
427.625	147.44
427.847	117.44
428.069	101.44
428.292	74.44
428.514	78.44
428.736	81.44
428.958	69.44
429.181	94.44
429.403	92.44
429.625	98.44
429.847	93.44
430.069	87.44
430.292	87.44
430.514	84.44
430.736	88.44
430.958	74.44
431.18	96.44
431.402	82.44
431.624	94.44
431.846	76.44
432.068	77.44
432.29	91.44
432.512	84.44
432.734	96.44
432.956	100.44
433.178	99.44
433.4	100.44
433.622	84.44
433.844	92.44
434.066	91.44
434.287	88.44
434.509	81.44
434.731	90.44
434.953	79.44
435.175	77.44
435.397	77.44
435.618	93.44
435.84	110.44
436.062	115.44
436.284	114.44
436.505	106.44
436.727	103.44
436.949	86.44
437.17	90.44
437.392	74.44
437.614	92.44
437.835	98.44
438.057	102.44
438.278	105.44
438.5	92.44
438.721	113.44
438.943	101.44
439.165	79.44
439.386	90.44
439.608	95.44
439.829	91.44
440.05	118.44
440.272	116.44
440.493	102.44
440.715	88.44
440.936	94.44
441.158	99.44
441.379	87.44
441.6	106.44
441.822	92.44
442.043	89.44
442.264	94.44
442.486	102.44
442.707	100.44
442.928	101.44
443.149	110.44
443.371	125.44
443.592	110.44
443.813	115.44
444.034	100.44
444.255	101.44
444.476	79.44
444.698	100.44
444.919	86.44
445.14	141.44
445.361	115.44
445.582	111.44
445.803	138.44
446.024	123.44
446.245	114.44
446.466	115.44
446.687	102.44
446.908	82.44
447.129	93.44
447.35	94.44
447.571	84.44
447.792	95.44
448.013	86.44
448.234	89.44
448.455	100.44
448.675	108.44
448.896	126.44
449.117	98.44
449.338	92.44
449.559	135.44
449.779	132.44
450	95.44
450.221	84.44
450.442	87.44
450.662	91.44
450.883	93.44
451.104	107.44
451.324	84.44
451.545	78.44
451.766	64.44
451.986	80.44
452.207	100.44
452.428	86.44
452.648	102.44
452.869	98.44
453.089	103.44
453.31	118.44
453.53	82.44
453.751	85.44
453.971	99.44
454.192	96.44
454.412	83.44
454.633	85.44
454.853	87.44
455.073	91.44
455.294	85.44
455.514	97.44
455.734	95.44
455.955	91.44
456.175	77.44
456.395	94.44
456.616	85.44
456.836	91.44
457.056	76.44
457.276	87.44
457.497	85.44
457.717	91.44
457.937	87.44
458.157	91.44
458.377	86.44
458.598	114.44
458.818	129.44
459.038	139.44
459.258	108.44
459.478	92.44
459.698	89.44
459.918	81.44
460.138	97.44
460.358	76.44
460.578	94.44
460.798	86.44
461.018	93.44
461.238	85.44
461.458	85.44
461.678	85.44
461.898	92.44
462.118	90.44
462.338	78.44
462.558	91.44
462.777	91.44
462.997	77.44
463.217	93.44
463.437	92.44
463.657	78.44
463.876	79.44
464.096	103.44
464.316	92.44
464.536	102.44
464.755	86.44
464.975	105.44
465.195	135.44
465.414	133.44
465.634	93.44
465.854	94.44
466.073	75.44
466.293	84.44
466.512	95.44
466.732	84.44
466.951	80.44
467.171	90.44
467.391	94.44
467.61	95.44
467.829	96.44
468.049	107.44
468.268	89.44
468.488	89.44
468.707	84.44
468.927	83.44
469.146	86.44
469.365	93.44
469.585	92.44
469.804	100.44
470.023	115.44
470.243	91.44
470.462	91.44
470.681	99.44
470.901	101.44
471.12	89.44
471.339	80.44
471.558	85.44
471.777	84.44
471.997	103.44
472.216	108.44
472.435	120.44
472.654	97.44
472.873	89.44
473.092	77.44
473.311	94.44
473.53	87.44
473.749	98.44
473.968	94.44
474.187	110.44
474.406	92.44
474.625	83.44
474.844	89.44
475.063	78.44
475.282	97.44
475.501	89.44
475.72	95.44
475.939	90.44
476.158	82.44
476.377	87.44
476.596	67.44
476.814	89.44
477.033	105.44
477.252	91.44
477.471	89.44
477.69	69.44
477.908	87.44
478.127	94.44
478.346	105.44
478.564	87.44
478.783	100.44
479.002	89.44
479.22	97.44
479.439	86.44
479.658	95.44
479.876	92.44
480.095	86.44
480.313	87.44
480.532	96.44
480.751	97.44
480.969	103.44
481.188	156.44
481.406	134.44
481.624	99.44
481.843	77.44
482.061	93.44
482.28	95.44
482.498	78.44
482.717	99.44
482.935	89.44
483.153	102.44
483.372	90.44
483.59	95.44
483.808	90.44
484.027	93.44
484.245	87.44
484.463	87.44
484.681	94.44
484.9	109.44
485.118	103.44
485.336	88.44
485.554	104.44
485.772	98.44
485.99	99.44
486.209	91.44
486.427	101.44
486.645	113.44
486.863	100.44
487.081	98.44
487.299	115.44
487.517	98.44
487.735	79.44
487.953	90.44
488.171	103.44
488.389	114.44
488.607	97.44
488.825	81.44
489.043	86.44
489.261	101.44
489.479	86.44
489.696	93.44
489.914	78.44
490.132	102.44
490.35	87.44
490.568	93.44
490.786	85.44
491.003	83.44
491.221	90.44
491.439	99.44
491.657	98.44
491.874	101.44
492.092	90.44
492.31	98.44
492.527	86.44
492.745	84.44
492.963	93.44
493.18	91.44
493.398	73.44
493.615	94.44
493.833	88.44
494.05	83.44
494.268	88.44
494.485	98.44
494.703	100.44
494.92	90.44
495.138	91.44
495.355	89.44
495.573	87.44
495.79	94.44
496.008	106.44
496.225	90.44
496.442	89.44
496.66	93.44
496.877	98.44
497.094	97.44
497.312	88.44
497.529	88.44
497.746	78.44
497.963	86.44
498.181	108.44
498.398	98.44
498.615	91.44
498.832	112.44
499.049	91.44
499.267	83.44
499.484	89.44
499.701	97.44
499.918	92.44
500.135	100.44
500.352	88.44
500.569	99.44
500.786	92.44
501.003	91.44
501.22	90.44
501.437	102.44
501.654	89.44
501.871	102.44
502.088	100.44
502.305	87.44
502.522	78.44
502.739	75.44
502.956	97.44
503.172	89.44
503.389	85.44
503.606	84.44
503.823	98.44
504.04	73.44
504.256	83.44
504.473	90.44
504.69	83.44
504.907	111.44
505.123	105.44
505.34	97.44
505.557	77.44
505.773	87.44
505.99	86.44
506.207	81.44
506.423	83.44
506.64	103.44
506.856	94.44
507.073	88.44
507.289	87.44
507.506	97.44
507.722	110.44
507.939	107.44
508.155	93.44
508.372	99.44
508.588	85.44
508.805	99.44
509.021	85.44
509.238	96.44
509.454	96.44
509.67	97.44
509.887	105.44
510.103	130.44
510.319	189.44
510.536	617.44
510.752	1988.44
510.968	590.44
511.184	152.44
511.401	108.44
511.617	100.44
511.833	99.44
512.049	101.44
512.265	96.44
512.481	85.44
512.698	104.44
512.914	93.44
513.13	113.44
513.346	89.44
513.562	99.44
513.778	93.44
513.994	91.44
514.21	98.44
514.426	100.44
514.642	127.44
514.858	111.44
515.074	143.44
515.29	349.44
515.506	1137.44
