Data from Circ_2015_H10_HRD10591_00028.txt Node
Date: Wed Jan 03 10:00:28 EST 2024
User: Yrep
Spectrometer: HR+D1059
Trigger mode: 1
Integration Time (sec): 1.000000E-1
Scans to average: 1
Electric dark correction enabled: true
Nonlinearity correction enabled: false
Boxcar width: 0
XAxis mode: Wavelengths
Number of Pixels in Spectrum: 2048
>>>>>Begin Spectral Data<<<<<
223.165	-17.94
223.4	-17.94
223.635	-17.94
223.869	-24.94
224.104	-5.94
224.338	-16.94
224.573	-20.94
224.808	-9.94
225.042	-18.94
225.277	1.06
225.511	-8.94
225.746	4.06
225.98	-1.94
226.215	24.06
226.449	26.06
226.683	18.06
226.918	23.06
227.152	30.06
227.387	29.06
227.621	45.06
227.856	39.06
228.09	47.06
228.324	41.06
228.559	48.06
228.793	57.06
229.027	68.06
229.262	62.06
229.496	61.06
229.73	78.06
229.964	92.06
230.199	73.06
230.433	74.06
230.667	74.06
230.901	70.06
231.136	91.06
231.37	74.06
231.604	88.06
231.838	70.06
232.072	81.06
232.306	75.06
232.541	65.06
232.775	71.06
233.009	79.06
233.243	83.06
233.477	70.06
233.711	79.06
233.945	73.06
234.179	82.06
234.413	74.06
234.647	86.06
234.881	84.06
235.115	83.06
235.349	70.06
235.583	86.06
235.817	71.06
236.051	75.06
236.285	85.06
236.519	64.06
236.753	91.06
236.987	60.06
237.221	87.06
237.455	84.06
237.689	68.06
237.922	82.06
238.156	75.06
238.39	73.06
238.624	69.06
238.858	85.06
239.091	64.06
239.325	76.06
239.559	80.06
239.793	74.06
240.027	85.06
240.26	74.06
240.494	70.06
240.728	73.06
240.961	72.06
241.195	80.06
241.429	73.06
241.662	93.06
241.896	87.06
242.13	75.06
242.363	62.06
242.597	76.06
242.83	69.06
243.064	75.06
243.298	80.06
243.531	92.06
243.765	82.06
243.998	65.06
244.232	85.06
244.465	84.06
244.699	86.06
244.932	90.06
245.166	68.06
245.399	72.06
245.633	74.06
245.866	63.06
246.099	82.06
246.333	87.06
246.566	78.06
246.8	90.06
247.033	79.06
247.266	79.06
247.5	71.06
247.733	81.06
247.966	95.06
248.2	72.06
248.433	76.06
248.666	71.06
248.899	86.06
249.133	86.06
249.366	91.06
249.599	92.06
249.832	82.06
250.066	79.06
250.299	76.06
250.532	74.06
250.765	79.06
250.998	80.06
251.231	75.06
251.465	97.06
251.698	73.06
251.931	66.06
252.164	78.06
252.397	83.06
252.63	90.06
252.863	88.06
253.096	82.06
253.329	83.06
253.562	79.06
253.795	76.06
254.028	85.06
254.261	70.06
254.494	81.06
254.727	83.06
254.96	87.06
255.193	99.06
255.426	80.06
255.659	92.06
255.892	89.06
256.124	82.06
256.357	83.06
256.59	93.06
256.823	65.06
257.056	90.06
257.289	74.06
257.521	77.06
257.754	81.06
257.987	92.06
258.22	83.06
258.452	92.06
258.685	79.06
258.918	77.06
259.151	72.06
259.383	101.06
259.616	83.06
259.849	89.06
260.081	69.06
260.314	86.06
260.547	82.06
260.779	88.06
261.012	79.06
261.244	78.06
261.477	89.06
261.71	85.06
261.942	110.06
262.175	117.06
262.407	100.06
262.64	72.06
262.872	71.06
263.105	73.06
263.337	81.06
263.57	71.06
263.802	84.06
264.035	86.06
264.267	91.06
264.499	94.06
264.732	74.06
264.964	89.06
265.197	66.06
265.429	79.06
265.661	91.06
265.894	97.06
266.126	84.06
266.358	93.06
266.591	84.06
266.823	88.06
267.055	82.06
267.287	67.06
267.52	73.06
267.752	92.06
267.984	85.06
268.216	89.06
268.448	88.06
268.681	70.06
268.913	90.06
269.145	99.06
269.377	80.06
269.609	83.06
269.841	78.06
270.073	74.06
270.306	90.06
270.538	81.06
270.77	76.06
271.002	87.06
271.234	83.06
271.466	85.06
271.698	75.06
271.93	82.06
272.162	84.06
272.394	83.06
272.626	79.06
272.858	73.06
273.09	83.06
273.322	88.06
273.553	76.06
273.785	78.06
274.017	85.06
274.249	88.06
274.481	85.06
274.713	87.06
274.945	66.06
275.176	77.06
275.408	97.06
275.64	84.06
275.872	67.06
276.104	92.06
276.335	91.06
276.567	106.06
276.799	97.06
277.031	92.06
277.262	103.06
277.494	97.06
277.726	76.06
277.957	85.06
278.189	85.06
278.421	79.06
278.652	84.06
278.884	93.06
279.115	81.06
279.347	79.06
279.579	84.06
279.81	84.06
280.042	79.06
280.273	86.06
280.505	82.06
280.736	86.06
280.968	72.06
281.199	79.06
281.431	83.06
281.662	94.06
281.894	84.06
282.125	98.06
282.356	111.06
282.588	124.06
282.819	90.06
283.051	90.06
283.282	83.06
283.513	80.06
283.745	84.06
283.976	90.06
284.207	75.06
284.439	78.06
284.67	85.06
284.901	93.06
285.132	88.06
285.364	78.06
285.595	83.06
285.826	89.06
286.057	74.06
286.288	92.06
286.52	85.06
286.751	100.06
286.982	87.06
287.213	91.06
287.444	97.06
287.675	93.06
287.906	79.06
288.138	73.06
288.369	85.06
288.6	87.06
288.831	90.06
289.062	86.06
289.293	98.06
289.524	88.06
289.755	111.06
289.986	82.06
290.217	89.06
290.448	89.06
290.679	79.06
290.91	97.06
291.141	84.06
291.371	98.06
291.602	83.06
291.833	89.06
292.064	95.06
292.295	101.06
292.526	80.06
292.757	78.06
292.987	77.06
293.218	82.06
293.449	89.06
293.68	92.06
293.91	87.06
294.141	99.06
294.372	78.06
294.603	80.06
294.833	83.06
295.064	92.06
295.295	89.06
295.525	82.06
295.756	94.06
295.987	110.06
296.217	139.06
296.448	106.06
296.679	91.06
296.909	89.06
297.14	68.06
297.37	92.06
297.601	91.06
297.831	88.06
298.062	93.06
298.292	95.06
298.523	80.06
298.753	85.06
298.984	91.06
299.214	104.06
299.445	87.06
299.675	90.06
299.905	99.06
300.136	85.06
300.366	72.06
300.597	75.06
300.827	96.06
301.057	85.06
301.288	97.06
301.518	85.06
301.748	104.06
301.979	108.06
302.209	92.06
302.439	91.06
302.669	82.06
302.9	74.06
303.13	94.06
303.36	99.06
303.59	93.06
303.82	113.06
304.051	95.06
304.281	94.06
304.511	85.06
304.741	82.06
304.971	79.06
305.201	97.06
305.431	97.06
305.661	69.06
305.891	103.06
306.121	83.06
306.352	106.06
306.582	118.06
306.812	87.06
307.042	98.06
307.272	92.06
307.502	98.06
307.731	90.06
307.961	103.06
308.191	94.06
308.421	75.06
308.651	89.06
308.881	78.06
309.111	92.06
309.341	94.06
309.571	83.06
309.8	89.06
310.03	101.06
310.26	93.06
310.49	105.06
310.72	98.06
310.949	102.06
311.179	98.06
311.409	94.06
311.639	94.06
311.868	86.06
312.098	92.06
312.328	90.06
312.557	90.06
312.787	93.06
313.017	99.06
313.246	92.06
313.476	88.06
313.706	86.06
313.935	105.06
314.165	90.06
314.394	106.06
314.624	94.06
314.853	103.06
315.083	100.06
315.312	93.06
315.542	94.06
315.771	95.06
316.001	91.06
316.23	89.06
316.46	84.06
316.689	97.06
316.919	94.06
317.148	91.06
317.377	86.06
317.607	91.06
317.836	96.06
318.065	94.06
318.295	98.06
318.524	96.06
318.753	89.06
318.983	79.06
319.212	85.06
319.441	94.06
319.67	102.06
319.9	93.06
320.129	88.06
320.358	83.06
320.587	99.06
320.816	103.06
321.046	93.06
321.275	94.06
321.504	92.06
321.733	82.06
321.962	89.06
322.191	100.06
322.42	106.06
322.649	122.06
322.878	92.06
323.108	108.06
323.337	105.06
323.566	114.06
323.795	142.06
324.024	189.06
324.253	351.06
324.482	709.06
324.71	1417.06
324.939	1872.06
325.168	707.06
325.397	233.06
325.626	125.06
325.855	126.06
326.084	101.06
326.313	136.06
326.542	141.06
326.77	211.06
326.999	403.06
327.228	794.06
327.457	1491.06
327.686	1170.06
327.914	331.06
328.143	185.06
328.372	163.06
328.6	116.06
328.829	113.06
329.058	113.06
329.287	117.06
329.515	98.06
329.744	110.06
329.972	124.06
330.201	134.06
330.43	151.06
330.658	110.06
330.887	119.06
331.115	113.06
331.344	81.06
331.572	105.06
331.801	91.06
332.03	101.06
332.258	84.06
332.486	89.06
332.715	92.06
332.943	103.06
333.172	94.06
333.4	90.06
333.629	103.06
333.857	103.06
334.085	116.06
334.314	121.06
334.542	166.06
334.771	174.06
334.999	111.06
335.227	101.06
335.455	91.06
335.684	89.06
335.912	99.06
336.14	92.06
336.369	91.06
336.597	98.06
336.825	89.06
337.053	100.06
337.281	94.06
337.51	93.06
337.738	92.06
337.966	89.06
338.194	88.06
338.422	93.06
338.65	96.06
338.878	101.06
339.106	94.06
339.334	93.06
339.562	78.06
339.79	89.06
340.018	87.06
340.246	94.06
340.474	86.06
340.702	87.06
340.93	100.06
341.158	89.06
341.386	94.06
341.614	95.06
341.842	87.06
342.07	88.06
342.298	97.06
342.526	99.06
342.754	96.06
342.981	98.06
343.209	91.06
343.437	92.06
343.665	81.06
343.893	85.06
344.12	94.06
344.348	95.06
344.576	94.06
344.804	102.06
345.031	91.06
345.259	95.06
345.487	93.06
345.714	97.06
345.942	79.06
346.17	79.06
346.397	92.06
346.625	90.06
346.853	83.06
347.08	82.06
347.308	87.06
347.535	103.06
347.763	94.06
347.99	109.06
348.218	107.06
348.445	90.06
348.673	87.06
348.9	100.06
349.128	84.06
349.355	90.06
349.583	99.06
349.81	91.06
350.037	90.06
350.265	101.06
350.492	96.06
350.72	93.06
350.947	92.06
351.174	92.06
351.402	114.06
351.629	107.06
351.856	94.06
352.083	88.06
352.311	104.06
352.538	102.06
352.765	95.06
352.992	93.06
353.22	100.06
353.447	93.06
353.674	98.06
353.901	103.06
354.128	99.06
354.355	109.06
354.583	114.06
354.81	90.06
355.037	97.06
355.264	94.06
355.491	95.06
355.718	102.06
355.945	83.06
356.172	101.06
356.399	93.06
356.626	107.06
356.853	100.06
357.08	102.06
357.307	109.06
357.534	90.06
357.761	100.06
357.988	105.06
358.215	104.06
358.441	92.06
358.668	110.06
358.895	87.06
359.122	92.06
359.349	89.06
359.576	81.06
359.802	103.06
360.029	93.06
360.256	98.06
360.483	86.06
360.709	90.06
360.936	92.06
361.163	98.06
361.39	92.06
361.616	82.06
361.843	85.06
362.07	94.06
362.296	91.06
362.523	79.06
362.749	97.06
362.976	88.06
363.203	81.06
363.429	98.06
363.656	91.06
363.882	104.06
364.109	101.06
364.335	101.06
364.562	82.06
364.788	92.06
365.015	87.06
365.241	96.06
365.468	82.06
365.694	110.06
365.92	83.06
366.147	85.06
366.373	85.06
366.599	78.06
366.826	80.06
367.052	93.06
367.278	79.06
367.505	100.06
367.731	82.06
367.957	91.06
368.184	106.06
368.41	97.06
368.636	99.06
368.862	111.06
369.089	98.06
369.315	95.06
369.541	106.06
369.767	95.06
369.993	85.06
370.219	99.06
370.445	109.06
370.672	104.06
370.898	80.06
371.124	99.06
371.35	93.06
371.576	82.06
371.802	91.06
372.028	85.06
372.254	89.06
372.48	102.06
372.706	94.06
372.932	81.06
373.158	97.06
373.384	102.06
373.61	95.06
373.835	95.06
374.061	74.06
374.287	79.06
374.513	96.06
374.739	89.06
374.965	85.06
375.191	84.06
375.416	96.06
375.642	89.06
375.868	76.06
376.094	77.06
376.319	90.06
376.545	94.06
376.771	91.06
376.997	87.06
377.222	94.06
377.448	94.06
377.674	98.06
377.899	95.06
378.125	91.06
378.35	87.06
378.576	90.06
378.802	99.06
379.027	81.06
379.253	89.06
379.478	91.06
379.704	95.06
379.929	105.06
380.155	87.06
380.38	93.06
380.606	98.06
380.831	100.06
381.057	96.06
381.282	115.06
381.507	90.06
381.733	102.06
381.958	102.06
382.184	105.06
382.409	102.06
382.634	107.06
382.86	110.06
383.085	100.06
383.31	106.06
383.535	78.06
383.761	115.06
383.986	108.06
384.211	95.06
384.436	99.06
384.662	106.06
384.887	82.06
385.112	99.06
385.337	109.06
385.562	109.06
385.787	111.06
386.013	101.06
386.238	120.06
386.463	110.06
386.688	98.06
386.913	114.06
387.138	123.06
387.363	121.06
387.588	102.06
387.813	105.06
388.038	108.06
388.263	110.06
388.488	101.06
388.713	93.06
388.938	89.06
389.163	83.06
389.387	90.06
389.612	90.06
389.837	89.06
390.062	97.06
390.287	76.06
390.512	102.06
390.736	94.06
390.961	101.06
391.186	84.06
391.411	92.06
391.636	83.06
391.86	82.06
392.085	97.06
392.31	101.06
392.534	95.06
392.759	95.06
392.984	86.06
393.208	89.06
393.433	116.06
393.658	91.06
393.882	84.06
394.107	69.06
394.331	76.06
394.556	89.06
394.78	94.06
395.005	86.06
395.229	90.06
395.454	89.06
395.678	96.06
395.903	85.06
396.127	87.06
396.352	89.06
396.576	103.06
396.801	100.06
397.025	90.06
397.249	90.06
397.474	83.06
397.698	78.06
397.922	76.06
398.147	71.06
398.371	83.06
398.595	92.06
398.82	100.06
399.044	83.06
399.268	81.06
399.492	81.06
399.717	90.06
399.941	86.06
400.165	102.06
400.389	91.06
400.613	104.06
400.837	100.06
401.062	103.06
401.286	84.06
401.51	84.06
401.734	90.06
401.958	105.06
402.182	109.06
402.406	118.06
402.63	114.06
402.854	105.06
403.078	93.06
403.302	81.06
403.526	91.06
403.75	96.06
403.974	92.06
404.198	75.06
404.422	91.06
404.645	89.06
404.869	86.06
405.093	101.06
405.317	92.06
405.541	114.06
405.765	92.06
405.988	100.06
406.212	138.06
406.436	191.06
406.66	127.06
406.883	112.06
407.107	81.06
407.331	94.06
407.555	83.06
407.778	93.06
408.002	91.06
408.226	90.06
408.449	94.06
408.673	82.06
408.896	78.06
409.12	88.06
409.344	73.06
409.567	91.06
409.791	98.06
410.014	89.06
410.238	94.06
410.461	98.06
410.685	118.06
410.908	99.06
411.132	101.06
411.355	103.06
411.578	86.06
411.802	97.06
412.025	78.06
412.249	87.06
412.472	97.06
412.695	99.06
412.919	96.06
413.142	91.06
413.365	83.06
413.589	89.06
413.812	97.06
414.035	93.06
414.258	82.06
414.482	92.06
414.705	92.06
414.928	90.06
415.151	94.06
415.374	96.06
415.597	94.06
415.821	93.06
416.044	98.06
416.267	89.06
416.49	81.06
416.713	75.06
416.936	94.06
417.159	67.06
417.382	98.06
417.605	86.06
417.828	93.06
418.051	95.06
418.274	92.06
418.497	74.06
418.72	83.06
418.943	76.06
419.166	81.06
419.389	91.06
419.611	109.06
419.834	86.06
420.057	81.06
420.28	86.06
420.503	83.06
420.726	79.06
420.948	84.06
421.171	88.06
421.394	80.06
421.617	95.06
421.839	92.06
422.062	88.06
422.285	92.06
422.507	83.06
422.73	100.06
422.953	103.06
423.175	89.06
423.398	92.06
423.621	106.06
423.843	91.06
424.066	73.06
424.288	98.06
424.511	92.06
424.733	85.06
424.956	111.06
425.178	102.06
425.401	92.06
425.623	81.06
425.846	88.06
426.068	90.06
426.291	93.06
426.513	80.06
426.735	81.06
426.958	89.06
427.18	101.06
427.402	136.06
427.625	147.06
427.847	118.06
428.069	113.06
428.292	94.06
428.514	99.06
428.736	83.06
428.958	82.06
429.181	88.06
429.403	92.06
429.625	81.06
429.847	102.06
430.069	85.06
430.292	92.06
430.514	99.06
430.736	75.06
430.958	83.06
431.18	91.06
431.402	77.06
431.624	91.06
431.846	100.06
432.068	90.06
432.29	83.06
432.512	101.06
432.734	84.06
432.956	91.06
433.178	99.06
433.4	90.06
433.622	86.06
433.844	73.06
434.066	91.06
434.287	93.06
434.509	76.06
434.731	95.06
434.953	75.06
435.175	91.06
435.397	94.06
435.618	99.06
435.84	86.06
436.062	108.06
436.284	114.06
436.505	79.06
436.727	104.06
436.949	93.06
437.17	96.06
437.392	92.06
437.614	87.06
437.835	104.06
438.057	104.06
438.278	84.06
438.5	98.06
438.721	117.06
438.943	96.06
439.165	92.06
439.386	85.06
439.608	81.06
439.829	93.06
440.05	107.06
440.272	118.06
440.493	91.06
440.715	101.06
440.936	77.06
441.158	73.06
441.379	99.06
441.6	85.06
441.822	93.06
442.043	96.06
442.264	101.06
442.486	100.06
442.707	82.06
442.928	88.06
443.149	118.06
443.371	130.06
443.592	115.06
443.813	114.06
444.034	103.06
444.255	106.06
444.476	93.06
444.698	99.06
444.919	101.06
445.14	126.06
445.361	127.06
445.582	94.06
445.803	119.06
446.024	114.06
446.245	127.06
446.466	101.06
446.687	92.06
446.908	86.06
447.129	90.06
447.35	95.06
447.571	77.06
447.792	94.06
448.013	98.06
448.234	96.06
448.455	96.06
448.675	110.06
448.896	104.06
449.117	100.06
449.338	94.06
449.559	131.06
449.779	115.06
450	82.06
450.221	94.06
450.442	73.06
450.662	101.06
450.883	109.06
451.104	108.06
451.324	89.06
451.545	89.06
451.766	90.06
451.986	91.06
452.207	85.06
452.428	99.06
452.648	94.06
452.869	106.06
453.089	114.06
453.31	107.06
453.53	99.06
453.751	89.06
453.971	104.06
454.192	93.06
454.412	94.06
454.633	94.06
454.853	77.06
455.073	85.06
455.294	81.06
455.514	81.06
455.734	89.06
455.955	83.06
456.175	85.06
456.395	95.06
456.616	82.06
456.836	83.06
457.056	86.06
457.276	86.06
457.497	86.06
457.717	84.06
457.937	93.06
458.157	79.06
458.377	92.06
458.598	106.06
458.818	129.06
459.038	141.06
459.258	108.06
459.478	76.06
459.698	89.06
459.918	76.06
460.138	92.06
460.358	94.06
460.578	69.06
460.798	72.06
461.018	93.06
461.238	89.06
461.458	73.06
461.678	95.06
461.898	85.06
462.118	81.06
462.338	92.06
462.558	88.06
462.777	87.06
462.997	93.06
463.217	78.06
463.437	85.06
463.657	81.06
463.876	85.06
464.096	92.06
464.316	88.06
464.536	87.06
464.755	96.06
464.975	94.06
465.195	125.06
465.414	142.06
465.634	103.06
465.854	92.06
466.073	77.06
466.293	96.06
466.512	77.06
466.732	99.06
466.951	84.06
467.171	91.06
467.391	87.06
467.61	88.06
467.829	80.06
468.049	95.06
468.268	110.06
468.488	93.06
468.707	84.06
468.927	70.06
469.146	82.06
469.365	106.06
469.585	84.06
469.804	99.06
470.023	97.06
470.243	78.06
470.462	76.06
470.681	108.06
470.901	89.06
471.12	78.06
471.339	100.06
471.558	83.06
471.777	85.06
471.997	104.06
472.216	117.06
472.435	177.06
472.654	100.06
472.873	91.06
473.092	82.06
473.311	87.06
473.53	72.06
473.749	84.06
473.968	101.06
474.187	94.06
474.406	103.06
474.625	92.06
474.844	91.06
475.063	75.06
475.282	102.06
475.501	89.06
475.72	93.06
475.939	83.06
476.158	79.06
476.377	64.06
476.596	78.06
476.814	88.06
477.033	105.06
477.252	82.06
477.471	94.06
477.69	85.06
477.908	91.06
478.127	95.06
478.346	74.06
478.564	80.06
478.783	83.06
479.002	83.06
479.22	87.06
479.439	82.06
479.658	96.06
479.876	109.06
480.095	78.06
480.313	97.06
480.532	90.06
480.751	101.06
480.969	141.06
481.188	292.06
481.406	219.06
481.624	106.06
481.843	76.06
482.061	91.06
482.28	90.06
482.498	74.06
482.717	87.06
482.935	103.06
483.153	91.06
483.372	89.06
483.59	85.06
483.808	89.06
484.027	93.06
484.245	93.06
484.463	75.06
484.681	85.06
484.9	86.06
485.118	82.06
485.336	70.06
485.554	88.06
485.772	82.06
485.99	92.06
486.209	99.06
486.427	101.06
486.645	101.06
486.863	85.06
487.081	77.06
487.299	86.06
487.517	92.06
487.735	86.06
487.953	96.06
488.171	94.06
488.389	99.06
488.607	91.06
488.825	93.06
489.043	82.06
489.261	94.06
489.479	86.06
489.696	90.06
489.914	85.06
490.132	89.06
490.35	81.06
490.568	96.06
490.786	79.06
491.003	76.06
491.221	82.06
491.439	81.06
491.657	92.06
491.874	114.06
492.092	104.06
492.31	100.06
492.527	86.06
492.745	102.06
492.963	86.06
493.18	90.06
493.398	83.06
493.615	107.06
493.833	102.06
494.05	89.06
494.268	99.06
494.485	90.06
494.703	86.06
494.92	90.06
495.138	94.06
495.355	106.06
495.573	78.06
495.79	84.06
496.008	76.06
496.225	94.06
496.442	87.06
496.66	86.06
496.877	106.06
497.094	103.06
497.312	84.06
497.529	83.06
497.746	91.06
497.963	76.06
498.181	85.06
498.398	93.06
498.615	95.06
498.832	99.06
499.049	94.06
499.267	84.06
499.484	99.06
499.701	79.06
499.918	85.06
500.135	90.06
500.352	93.06
500.569	79.06
500.786	88.06
501.003	92.06
501.22	87.06
501.437	101.06
501.654	90.06
501.871	106.06
502.088	98.06
502.305	108.06
502.522	86.06
502.739	102.06
502.956	89.06
503.172	90.06
503.389	86.06
503.606	109.06
503.823	89.06
504.04	91.06
504.256	87.06
504.473	93.06
504.69	82.06
504.907	91.06
505.123	85.06
505.34	83.06
505.557	86.06
505.773	88.06
505.99	86.06
506.207	94.06
506.423	94.06
506.64	82.06
506.856	93.06
507.073	71.06
507.289	86.06
507.506	101.06
507.722	105.06
507.939	110.06
508.155	93.06
508.372	96.06
508.588	114.06
508.805	96.06
509.021	88.06
509.238	94.06
509.454	99.06
509.67	85.06
509.887	102.06
510.103	116.06
510.319	173.06
510.536	608.06
510.752	1880.06
510.968	578.06
511.184	138.06
511.401	104.06
511.617	102.06
511.833	91.06
512.049	97.06
512.265	87.06
512.481	82.06
512.698	90.06
512.914	93.06
513.13	86.06
513.346	89.06
513.562	90.06
513.778	89.06
513.994	94.06
514.21	111.06
514.426	110.06
514.642	138.06
514.858	98.06
515.074	146.06
515.29	336.06
515.506	1060.06
515.721	435.06
515.937	146.06
