Data from Circ_2015_H10_HRD10591_00069.txt Node
Date: Wed Jan 03 10:00:36 EST 2024
User: Yrep
Spectrometer: HR+D1059
Trigger mode: 1
Integration Time (sec): 1.000000E-1
Scans to average: 1
Electric dark correction enabled: true
Nonlinearity correction enabled: false
Boxcar width: 0
XAxis mode: Wavelengths
Number of Pixels in Spectrum: 2048
>>>>>Begin Spectral Data<<<<<
223.165	-30.5
223.4	-30.5
223.635	-30.5
223.869	-28.5
224.104	-14.5
224.338	-20.5
224.573	-17.5
224.808	-7.5
225.042	-6.5
225.277	-3.5
225.511	-0.5
225.746	7.5
225.98	1.5
226.215	5.5
226.449	13.5
226.683	32.5
226.918	22.5
227.152	46.5
227.387	30.5
227.621	36.5
227.856	51.5
228.09	42.5
228.324	36.5
228.559	52.5
228.793	56.5
229.027	67.5
229.262	49.5
229.496	55.5
229.73	88.5
229.964	80.5
230.199	77.5
230.433	68.5
230.667	90.5
230.901	65.5
231.136	73.5
231.37	76.5
231.604	70.5
231.838	67.5
232.072	71.5
232.306	85.5
232.541	81.5
232.775	86.5
233.009	87.5
233.243	78.5
233.477	76.5
233.711	85.5
233.945	75.5
234.179	69.5
234.413	76.5
234.647	70.5
234.881	74.5
235.115	73.5
235.349	73.5
235.583	80.5
235.817	75.5
236.051	71.5
236.285	74.5
236.519	73.5
236.753	78.5
236.987	76.5
237.221	79.5
237.455	75.5
237.689	77.5
237.922	69.5
238.156	71.5
238.39	59.5
238.624	57.5
238.858	64.5
239.091	67.5
239.325	69.5
239.559	91.5
239.793	81.5
240.027	81.5
240.26	77.5
240.494	80.5
240.728	76.5
240.961	76.5
241.195	77.5
241.429	78.5
241.662	84.5
241.896	65.5
242.13	72.5
242.363	85.5
242.597	70.5
242.83	68.5
243.064	78.5
243.298	83.5
243.531	70.5
243.765	72.5
243.998	79.5
244.232	70.5
244.465	73.5
244.699	82.5
244.932	74.5
245.166	78.5
245.399	63.5
245.633	79.5
245.866	69.5
246.099	71.5
246.333	92.5
246.566	60.5
246.8	84.5
247.033	68.5
247.266	84.5
247.5	76.5
247.733	86.5
247.966	63.5
248.2	77.5
248.433	76.5
248.666	83.5
248.899	95.5
249.133	103.5
249.366	96.5
249.599	108.5
249.832	75.5
250.066	67.5
250.299	88.5
250.532	92.5
250.765	85.5
250.998	98.5
251.231	73.5
251.465	74.5
251.698	70.5
251.931	80.5
252.164	82.5
252.397	86.5
252.63	73.5
252.863	73.5
253.096	76.5
253.329	92.5
253.562	78.5
253.795	80.5
254.028	75.5
254.261	73.5
254.494	88.5
254.727	87.5
254.96	85.5
255.193	78.5
255.426	79.5
255.659	79.5
255.892	73.5
256.124	93.5
256.357	73.5
256.59	67.5
256.823	83.5
257.056	89.5
257.289	88.5
257.521	92.5
257.754	84.5
257.987	67.5
258.22	73.5
258.452	90.5
258.685	88.5
258.918	77.5
259.151	81.5
259.383	90.5
259.616	66.5
259.849	80.5
260.081	77.5
260.314	86.5
260.547	86.5
260.779	75.5
261.012	82.5
261.244	88.5
261.477	74.5
261.71	96.5
261.942	93.5
262.175	115.5
262.407	95.5
262.64	84.5
262.872	103.5
263.105	84.5
263.337	74.5
263.57	73.5
263.802	71.5
264.035	71.5
264.267	76.5
264.499	62.5
264.732	78.5
264.964	75.5
265.197	72.5
265.429	90.5
265.661	71.5
265.894	70.5
266.126	88.5
266.358	81.5
266.591	71.5
266.823	93.5
267.055	80.5
267.287	79.5
267.52	81.5
267.752	85.5
267.984	69.5
268.216	88.5
268.448	85.5
268.681	91.5
268.913	98.5
269.145	82.5
269.377	89.5
269.609	80.5
269.841	72.5
270.073	79.5
270.306	84.5
270.538	89.5
270.77	86.5
271.002	80.5
271.234	77.5
271.466	91.5
271.698	82.5
271.93	82.5
272.162	88.5
272.394	88.5
272.626	80.5
272.858	81.5
273.09	88.5
273.322	76.5
273.553	83.5
273.785	88.5
274.017	98.5
274.249	82.5
274.481	80.5
274.713	81.5
274.945	86.5
275.176	81.5
275.408	99.5
275.64	75.5
275.872	88.5
276.104	80.5
276.335	83.5
276.567	97.5
276.799	105.5
277.031	99.5
277.262	104.5
277.494	84.5
277.726	89.5
277.957	75.5
278.189	75.5
278.421	76.5
278.652	78.5
278.884	84.5
279.115	82.5
279.347	92.5
279.579	88.5
279.81	86.5
280.042	96.5
280.273	109.5
280.505	104.5
280.736	85.5
280.968	81.5
281.199	102.5
281.431	88.5
281.662	91.5
281.894	92.5
282.125	96.5
282.356	109.5
282.588	114.5
282.819	123.5
283.051	93.5
283.282	73.5
283.513	95.5
283.745	90.5
283.976	71.5
284.207	76.5
284.439	88.5
284.67	90.5
284.901	84.5
285.132	82.5
285.364	99.5
285.595	95.5
285.826	76.5
286.057	76.5
286.288	95.5
286.52	90.5
286.751	81.5
286.982	83.5
287.213	87.5
287.444	87.5
287.675	85.5
287.906	95.5
288.138	96.5
288.369	81.5
288.6	81.5
288.831	97.5
289.062	81.5
289.293	81.5
289.524	82.5
289.755	95.5
289.986	90.5
290.217	80.5
290.448	80.5
290.679	76.5
290.91	100.5
291.141	81.5
291.371	80.5
291.602	80.5
291.833	75.5
292.064	98.5
292.295	102.5
292.526	85.5
292.757	90.5
292.987	82.5
293.218	90.5
293.449	89.5
293.68	100.5
293.91	84.5
294.141	80.5
294.372	77.5
294.603	91.5
294.833	84.5
295.064	99.5
295.295	79.5
295.525	85.5
295.756	99.5
295.987	101.5
296.217	120.5
296.448	126.5
296.679	85.5
296.909	87.5
297.14	83.5
297.37	86.5
297.601	98.5
297.831	89.5
298.062	82.5
298.292	95.5
298.523	82.5
298.753	80.5
298.984	99.5
299.214	92.5
299.445	87.5
299.675	89.5
299.905	88.5
300.136	79.5
300.366	84.5
300.597	84.5
300.827	105.5
301.057	92.5
301.288	90.5
301.518	90.5
301.748	99.5
301.979	86.5
302.209	80.5
302.439	90.5
302.669	90.5
302.9	91.5
303.13	87.5
303.36	76.5
303.59	101.5
303.82	94.5
304.051	89.5
304.281	96.5
304.511	93.5
304.741	101.5
304.971	97.5
305.201	81.5
305.431	92.5
305.661	70.5
305.891	82.5
306.121	91.5
306.352	102.5
306.582	93.5
306.812	94.5
307.042	85.5
307.272	103.5
307.502	102.5
307.731	105.5
307.961	104.5
308.191	91.5
308.421	98.5
308.651	107.5
308.881	99.5
309.111	83.5
309.341	85.5
309.571	97.5
309.8	91.5
310.03	88.5
310.26	99.5
310.49	98.5
310.72	99.5
310.949	86.5
311.179	86.5
311.409	91.5
311.639	85.5
311.868	104.5
312.098	100.5
312.328	112.5
312.557	95.5
312.787	94.5
313.017	101.5
313.246	97.5
313.476	84.5
313.706	67.5
313.935	88.5
314.165	83.5
314.394	99.5
314.624	93.5
314.853	94.5
315.083	95.5
315.312	97.5
315.542	96.5
315.771	81.5
316.001	87.5
316.23	99.5
316.46	83.5
316.689	92.5
316.919	104.5
317.148	96.5
317.377	91.5
317.607	81.5
317.836	88.5
318.065	81.5
318.295	92.5
318.524	95.5
318.753	94.5
318.983	105.5
319.212	96.5
319.441	94.5
319.67	102.5
319.9	91.5
320.129	95.5
320.358	86.5
320.587	96.5
320.816	91.5
321.046	90.5
321.275	92.5
321.504	76.5
321.733	94.5
321.962	91.5
322.191	99.5
322.42	93.5
322.649	116.5
322.878	119.5
323.108	112.5
323.337	123.5
323.566	131.5
323.795	143.5
324.024	209.5
324.253	395.5
324.482	860.5
324.71	1759.5
324.939	2365.5
325.168	859.5
325.397	260.5
325.626	135.5
325.855	135.5
326.084	135.5
326.313	129.5
326.542	148.5
326.77	242.5
326.999	480.5
327.228	1001.5
327.457	1852.5
327.686	1468.5
327.914	403.5
328.143	240.5
328.372	203.5
328.6	142.5
328.829	118.5
329.058	112.5
329.287	120.5
329.515	114.5
329.744	123.5
329.972	159.5
330.201	231.5
330.43	291.5
330.658	192.5
330.887	159.5
331.115	112.5
331.344	99.5
331.572	92.5
331.801	110.5
332.03	92.5
332.258	104.5
332.486	102.5
332.715	99.5
332.943	82.5
333.172	95.5
333.4	98.5
333.629	123.5
333.857	126.5
334.085	150.5
334.314	218.5
334.542	361.5
334.771	319.5
334.999	135.5
335.227	110.5
335.455	78.5
335.684	99.5
335.912	92.5
336.14	84.5
336.369	100.5
336.597	96.5
336.825	99.5
337.053	83.5
337.281	91.5
337.51	84.5
337.738	97.5
337.966	89.5
338.194	98.5
338.422	94.5
338.65	102.5
338.878	103.5
339.106	78.5
339.334	83.5
339.562	93.5
339.79	83.5
340.018	97.5
340.246	98.5
340.474	90.5
340.702	90.5
340.93	96.5
341.158	89.5
341.386	90.5
341.614	96.5
341.842	105.5
342.07	94.5
342.298	93.5
342.526	96.5
342.754	82.5
342.981	75.5
343.209	82.5
343.437	90.5
343.665	82.5
343.893	89.5
344.12	95.5
344.348	80.5
344.576	94.5
344.804	100.5
345.031	91.5
345.259	90.5
345.487	87.5
345.714	93.5
345.942	90.5
346.17	84.5
346.397	80.5
346.625	90.5
346.853	90.5
347.08	96.5
347.308	103.5
347.535	92.5
347.763	79.5
347.99	99.5
348.218	106.5
348.445	98.5
348.673	98.5
348.9	87.5
349.128	92.5
349.355	99.5
349.583	95.5
349.81	91.5
350.037	104.5
350.265	85.5
350.492	106.5
350.72	103.5
350.947	100.5
351.174	103.5
351.402	103.5
351.629	93.5
351.856	89.5
352.083	106.5
352.311	94.5
352.538	103.5
352.765	99.5
352.992	104.5
353.22	105.5
353.447	103.5
353.674	88.5
353.901	107.5
354.128	92.5
354.355	86.5
354.583	98.5
354.81	97.5
355.037	83.5
355.264	90.5
355.491	101.5
355.718	89.5
355.945	86.5
356.172	84.5
356.399	98.5
356.626	104.5
356.853	99.5
357.08	93.5
357.307	84.5
357.534	105.5
357.761	90.5
357.988	83.5
358.215	89.5
358.441	100.5
358.668	76.5
358.895	80.5
359.122	96.5
359.349	104.5
359.576	85.5
359.802	91.5
360.029	99.5
360.256	101.5
360.483	105.5
360.709	77.5
360.936	92.5
361.163	84.5
361.39	93.5
361.616	83.5
361.843	94.5
362.07	85.5
362.296	78.5
362.523	81.5
362.749	104.5
362.976	87.5
363.203	104.5
363.429	99.5
363.656	92.5
363.882	85.5
364.109	96.5
364.335	92.5
364.562	95.5
364.788	100.5
365.015	85.5
365.241	103.5
365.468	88.5
365.694	102.5
365.92	100.5
366.147	88.5
366.373	73.5
366.599	72.5
366.826	82.5
367.052	81.5
367.278	93.5
367.505	97.5
367.731	89.5
367.957	97.5
368.184	93.5
368.41	81.5
368.636	100.5
368.862	101.5
369.089	97.5
369.315	81.5
369.541	94.5
369.767	97.5
369.993	88.5
370.219	82.5
370.445	97.5
370.672	90.5
370.898	87.5
371.124	84.5
371.35	78.5
371.576	79.5
371.802	79.5
372.028	95.5
372.254	80.5
372.48	83.5
372.706	85.5
372.932	92.5
373.158	82.5
373.384	73.5
373.61	96.5
373.835	90.5
374.061	82.5
374.287	94.5
374.513	97.5
374.739	80.5
374.965	103.5
375.191	86.5
375.416	75.5
375.642	79.5
375.868	94.5
376.094	91.5
376.319	78.5
376.545	87.5
376.771	79.5
376.997	92.5
377.222	87.5
377.448	100.5
377.674	80.5
377.899	79.5
378.125	89.5
378.35	85.5
378.576	73.5
378.802	90.5
379.027	79.5
379.253	99.5
379.478	101.5
379.704	81.5
379.929	97.5
380.155	82.5
380.38	91.5
380.606	97.5
380.831	88.5
381.057	101.5
381.282	91.5
381.507	91.5
381.733	98.5
381.958	97.5
382.184	90.5
382.409	76.5
382.634	100.5
382.86	90.5
383.085	89.5
383.31	99.5
383.535	95.5
383.761	67.5
383.986	96.5
384.211	92.5
384.436	102.5
384.662	111.5
384.887	92.5
385.112	89.5
385.337	100.5
385.562	108.5
385.787	105.5
386.013	107.5
386.238	96.5
386.463	118.5
386.688	98.5
386.913	106.5
387.138	103.5
387.363	85.5
387.588	92.5
387.813	85.5
388.038	106.5
388.263	97.5
388.488	100.5
388.713	103.5
388.938	96.5
389.163	72.5
389.387	110.5
389.612	97.5
389.837	92.5
390.062	77.5
390.287	82.5
390.512	97.5
390.736	98.5
390.961	89.5
391.186	88.5
391.411	95.5
391.636	87.5
391.86	99.5
392.085	94.5
392.31	77.5
392.534	83.5
392.759	95.5
392.984	103.5
393.208	91.5
393.433	82.5
393.658	102.5
393.882	76.5
394.107	87.5
394.331	80.5
394.556	96.5
394.78	98.5
395.005	87.5
395.229	81.5
395.454	76.5
395.678	71.5
395.903	87.5
396.127	84.5
396.352	90.5
396.576	90.5
396.801	100.5
397.025	85.5
397.249	87.5
397.474	79.5
397.698	90.5
397.922	75.5
398.147	77.5
398.371	76.5
398.595	75.5
398.82	88.5
399.044	83.5
399.268	75.5
399.492	79.5
399.717	92.5
399.941	102.5
400.165	79.5
400.389	78.5
400.613	98.5
400.837	80.5
401.062	72.5
401.286	90.5
401.51	85.5
401.734	84.5
401.958	98.5
402.182	128.5
402.406	150.5
402.63	93.5
402.854	87.5
403.078	80.5
403.302	88.5
403.526	86.5
403.75	80.5
403.974	91.5
404.198	91.5
404.422	102.5
404.645	80.5
404.869	85.5
405.093	99.5
405.317	100.5
405.541	110.5
405.765	98.5
405.988	100.5
406.212	168.5
406.436	204.5
406.66	132.5
406.883	104.5
407.107	96.5
407.331	100.5
407.555	96.5
407.778	88.5
408.002	84.5
408.226	66.5
408.449	77.5
408.673	83.5
408.896	97.5
409.12	90.5
409.344	89.5
409.567	82.5
409.791	80.5
410.014	89.5
410.238	84.5
410.461	90.5
410.685	82.5
410.908	85.5
411.132	106.5
411.355	99.5
411.578	76.5
411.802	83.5
412.025	99.5
412.249	86.5
412.472	85.5
412.695	89.5
412.919	106.5
413.142	101.5
413.365	95.5
413.589	86.5
413.812	84.5
414.035	76.5
414.258	87.5
414.482	85.5
414.705	89.5
414.928	78.5
415.151	98.5
415.374	96.5
415.597	89.5
415.821	78.5
416.044	80.5
416.267	96.5
416.49	82.5
416.713	87.5
416.936	86.5
417.159	88.5
417.382	90.5
417.605	86.5
417.828	93.5
418.051	96.5
418.274	80.5
418.497	90.5
418.72	68.5
418.943	93.5
419.166	83.5
419.389	87.5
419.611	88.5
419.834	99.5
420.057	96.5
420.28	71.5
420.503	94.5
420.726	99.5
420.948	83.5
421.171	92.5
421.394	94.5
421.617	88.5
421.839	90.5
422.062	97.5
422.285	80.5
422.507	100.5
422.73	91.5
422.953	103.5
423.175	84.5
423.398	79.5
423.621	94.5
423.843	94.5
424.066	86.5
424.288	88.5
424.511	88.5
424.733	100.5
424.956	88.5
425.178	101.5
425.401	92.5
425.623	91.5
425.846	83.5
426.068	103.5
426.291	95.5
426.513	79.5
426.735	88.5
426.958	86.5
427.18	107.5
427.402	123.5
427.625	147.5
427.847	140.5
428.069	125.5
428.292	97.5
428.514	82.5
428.736	76.5
428.958	76.5
429.181	79.5
429.403	74.5
429.625	91.5
429.847	82.5
430.069	86.5
430.292	89.5
430.514	92.5
430.736	89.5
430.958	99.5
431.18	76.5
431.402	79.5
431.624	75.5
431.846	78.5
432.068	71.5
432.29	79.5
432.512	80.5
432.734	105.5
432.956	96.5
433.178	103.5
433.4	97.5
433.622	81.5
433.844	94.5
434.066	100.5
434.287	101.5
434.509	81.5
434.731	79.5
434.953	82.5
435.175	87.5
435.397	86.5
435.618	80.5
435.84	88.5
436.062	105.5
436.284	125.5
436.505	108.5
436.727	90.5
436.949	102.5
437.17	92.5
437.392	84.5
437.614	83.5
437.835	101.5
438.057	113.5
438.278	98.5
438.5	102.5
438.721	117.5
438.943	103.5
439.165	86.5
439.386	77.5
439.608	90.5
439.829	91.5
440.05	120.5
440.272	142.5
440.493	110.5
440.715	84.5
440.936	85.5
441.158	76.5
441.379	81.5
441.6	97.5
441.822	95.5
442.043	84.5
442.264	113.5
442.486	99.5
442.707	87.5
442.928	96.5
443.149	126.5
443.371	136.5
443.592	111.5
443.813	99.5
444.034	110.5
444.255	102.5
444.476	82.5
444.698	103.5
444.919	91.5
445.14	110.5
445.361	120.5
445.582	120.5
445.803	131.5
446.024	135.5
446.245	132.5
446.466	107.5
446.687	83.5
446.908	85.5
447.129	95.5
447.35	78.5
447.571	85.5
447.792	94.5
448.013	89.5
448.234	90.5
448.455	89.5
448.675	103.5
448.896	117.5
449.117	105.5
449.338	110.5
449.559	114.5
449.779	126.5
450	84.5
450.221	89.5
450.442	94.5
450.662	86.5
450.883	102.5
451.104	101.5
451.324	80.5
451.545	105.5
451.766	92.5
451.986	78.5
452.207	89.5
452.428	90.5
452.648	81.5
452.869	97.5
453.089	121.5
453.31	105.5
453.53	84.5
453.751	86.5
453.971	107.5
454.192	103.5
454.412	81.5
454.633	87.5
454.853	84.5
455.073	90.5
455.294	97.5
455.514	92.5
455.734	82.5
455.955	75.5
456.175	88.5
456.395	73.5
456.616	87.5
456.836	72.5
457.056	81.5
457.276	79.5
457.497	82.5
457.717	87.5
457.937	81.5
458.157	91.5
458.377	89.5
458.598	106.5
458.818	133.5
459.038	143.5
459.258	115.5
459.478	91.5
459.698	95.5
459.918	79.5
460.138	79.5
460.358	80.5
460.578	74.5
460.798	75.5
461.018	83.5
461.238	86.5
461.458	86.5
461.678	68.5
461.898	83.5
462.118	81.5
462.338	91.5
462.558	83.5
462.777	89.5
462.997	73.5
463.217	81.5
463.437	87.5
463.657	82.5
463.876	91.5
464.096	92.5
464.316	80.5
464.536	95.5
464.755	89.5
464.975	106.5
465.195	142.5
465.414	146.5
465.634	87.5
465.854	83.5
466.073	90.5
466.293	93.5
466.512	93.5
466.732	91.5
466.951	82.5
467.171	74.5
467.391	92.5
467.61	86.5
467.829	102.5
468.049	164.5
468.268	184.5
468.488	111.5
468.707	73.5
468.927	96.5
469.146	78.5
469.365	89.5
469.585	92.5
469.804	79.5
470.023	88.5
470.243	101.5
470.462	102.5
470.681	104.5
470.901	94.5
471.12	88.5
471.339	77.5
471.558	72.5
471.777	105.5
471.997	129.5
472.216	264.5
472.435	484.5
472.654	167.5
472.873	104.5
473.092	88.5
473.311	81.5
473.53	90.5
473.749	80.5
473.968	88.5
474.187	104.5
474.406	90.5
474.625	84.5
474.844	89.5
475.063	91.5
475.282	64.5
475.501	69.5
475.72	76.5
475.939	94.5
476.158	92.5
476.377	95.5
476.596	85.5
476.814	89.5
477.033	90.5
477.252	79.5
477.471	96.5
477.69	99.5
477.908	83.5
478.127	90.5
478.346	93.5
478.564	92.5
478.783	91.5
479.002	75.5
479.22	86.5
479.439	97.5
479.658	101.5
479.876	103.5
480.095	96.5
480.313	100.5
480.532	100.5
480.751	115.5
480.969	261.5
481.188	783.5
481.406	500.5
481.624	139.5
481.843	98.5
482.061	95.5
482.28	88.5
482.498	97.5
482.717	87.5
482.935	89.5
483.153	91.5
483.372	72.5
483.59	89.5
483.808	86.5
484.027	76.5
484.245	86.5
484.463	96.5
484.681	111.5
484.9	90.5
485.118	93.5
485.336	104.5
485.554	110.5
485.772	81.5
485.99	93.5
486.209	97.5
486.427	94.5
486.645	91.5
486.863	103.5
487.081	98.5
487.299	80.5
487.517	88.5
487.735	94.5
487.953	89.5
488.171	93.5
488.389	100.5
488.607	101.5
488.825	74.5
489.043	91.5
489.261	98.5
489.479	85.5
489.696	90.5
489.914	95.5
490.132	80.5
490.35	70.5
490.568	70.5
490.786	88.5
491.003	99.5
491.221	85.5
491.439	75.5
491.657	90.5
491.874	91.5
492.092	96.5
492.31	92.5
492.527	72.5
492.745	87.5
492.963	91.5
493.18	87.5
493.398	89.5
493.615	91.5
493.833	82.5
494.05	85.5
494.268	95.5
494.485	110.5
494.703	85.5
494.92	83.5
495.138	92.5
495.355	67.5
495.573	87.5
495.79	86.5
496.008	87.5
496.225	94.5
496.442	79.5
496.66	99.5
496.877	98.5
497.094	81.5
497.312	88.5
497.529	95.5
497.746	74.5
497.963	86.5
498.181	83.5
498.398	88.5
498.615	106.5
498.832	83.5
499.049	88.5
499.267	94.5
499.484	74.5
499.701	77.5
499.918	82.5
500.135	83.5
500.352	89.5
500.569	86.5
500.786	89.5
501.003	90.5
501.22	72.5
501.437	83.5
501.654	100.5
501.871	93.5
502.088	93.5
502.305	87.5
502.522	90.5
502.739	86.5
502.956	83.5
503.172	82.5
503.389	82.5
503.606	90.5
503.823	90.5
504.04	91.5
504.256	99.5
504.473	94.5
504.69	87.5
504.907	84.5
505.123	90.5
505.34	83.5
505.557	82.5
505.773	87.5
505.99	93.5
506.207	89.5
506.423	95.5
506.64	100.5
506.856	84.5
507.073	98.5
507.289	90.5
507.506	100.5
507.722	98.5
507.939	104.5
508.155	100.5
508.372	103.5
508.588	96.5
508.805	88.5
509.021	86.5
509.238	97.5
509.454	98.5
509.67	99.5
509.887	99.5
510.103	113.5
510.319	190.5
510.536	670.5
510.752	2208.5
510.968	646.5
511.184	160.5
511.401	102.5
511.617	89.5
511.833	89.5
512.049	95.5
512.265	79.5
512.481	95.5
512.698	96.5
512.914	83.5
513.13	98.5
513.346	92.5
513.562	87.5
513.778	94.5
513.994	94.5
514.21	111.5
514.426	114.5
514.642	131.5
514.858	106.5
515.074	159.5
515.29	411.5
515.506	1285.5
515.721	522.5
515.937	150.5
516.153	118.5
516.369	93.5
516.585	88.5
516.801	101.5
517.016	93.5
517.232	81.5
517.448	96.5
517.664	91.5
517.879	96.5
518.095	79.5
518.311	80.5
518.527	88.5
518.742	99.5
518.958	77.5
519.173	96.5
519.389	93.5
519.605	96.5
519.82	88.5
520.036	84.5
520.251	111.5
520.467	114.5
520.682	100.5
520.898	105.5
521.113	112.5
521.329	136.5
521.544	178.5
521.76	503.5
521.975	2194.5
522.19	1350.5
522.406	287.5
522.621	126.5
522.836	113.5
523.052	99.5
523.267	78.5
523.482	89.5
523.698	99.5
523.913	123.5
524.128	101.5
524.343	114.5
524.559	91.5
524.774	93.5
524.989	100.5
525.204	93.5
525.419	89.5
525.634	82.5
525.849	87.5
526.064	91.5
526.28	91.5
526.495	88.5
526.71	94.5
526.925	83.5
527.14	90.5
527.355	97.5
527.57	94.5
527.785	103.5
527.999	79.5
528.214	99.5
528.429	101.5
528.644	101.5
528.859	94.5
529.074	80.5
529.289	123.5
529.503	170.5
529.718	96.5
529.933	83.5
530.148	92.5
530.363	88.5
530.577	84.5
530.792	81.5
531.007	91.5
531.221	80.5
531.436	90.5
531.651	80.5
531.865	84.5
532.08	88.5
532.295	87.5
532.509	77.5
532.724	89.5
532.938	100.5
533.153	87.5
533.367	83.5
533.582	96.5
533.796	86.5
534.011	89.5
534.225	97.5
534.44	88.5
534.654	88.5
534.868	76.5
535.083	72.5
535.297	87.5
535.511	99.5
535.726	95.5
535.94	85.5
