Data from Circ_2015_H10_HRD10591_00078.txt Node
Date: Wed Jan 03 10:00:38 EST 2024
User: Yrep
Spectrometer: HR+D1059
Trigger mode: 1
Integration Time (sec): 1.000000E-1
Scans to average: 1
Electric dark correction enabled: true
Nonlinearity correction enabled: false
Boxcar width: 0
XAxis mode: Wavelengths
Number of Pixels in Spectrum: 2048
>>>>>Begin Spectral Data<<<<<
223.165	-30.81
223.4	-30.81
223.635	-30.81
223.869	-12.81
224.104	-25.81
224.338	-12.81
224.573	0.19
224.808	-18.81
225.042	-11.81
225.277	-4.81
225.511	2.19
225.746	11.19
225.98	1.19
226.215	16.19
226.449	13.19
226.683	23.19
226.918	16.19
227.152	34.19
227.387	39.19
227.621	29.19
227.856	45.19
228.09	53.19
228.324	40.19
228.559	54.19
228.793	61.19
229.027	65.19
229.262	85.19
229.496	87.19
229.73	89.19
229.964	81.19
230.199	76.19
230.433	75.19
230.667	88.19
230.901	66.19
231.136	83.19
231.37	90.19
231.604	87.19
231.838	72.19
232.072	77.19
232.306	76.19
232.541	95.19
232.775	81.19
233.009	78.19
233.243	84.19
233.477	92.19
233.711	88.19
233.945	87.19
234.179	78.19
234.413	86.19
234.647	76.19
234.881	74.19
235.115	92.19
235.349	77.19
235.583	83.19
235.817	84.19
236.051	94.19
236.285	80.19
236.519	91.19
236.753	75.19
236.987	85.19
237.221	75.19
237.455	82.19
237.689	87.19
237.922	78.19
238.156	79.19
238.39	84.19
238.624	82.19
238.858	76.19
239.091	74.19
239.325	87.19
239.559	76.19
239.793	80.19
240.027	93.19
240.26	69.19
240.494	67.19
240.728	78.19
240.961	71.19
241.195	71.19
241.429	88.19
241.662	86.19
241.896	70.19
242.13	90.19
242.363	83.19
242.597	80.19
242.83	87.19
243.064	80.19
243.298	80.19
243.531	81.19
243.765	75.19
243.998	85.19
244.232	92.19
244.465	91.19
244.699	76.19
244.932	72.19
245.166	86.19
245.399	69.19
245.633	81.19
245.866	68.19
246.099	73.19
246.333	76.19
246.566	86.19
246.8	96.19
247.033	85.19
247.266	86.19
247.5	80.19
247.733	83.19
247.966	69.19
248.2	75.19
248.433	70.19
248.666	97.19
248.899	82.19
249.133	95.19
249.366	104.19
249.599	99.19
249.832	80.19
250.066	89.19
250.299	89.19
250.532	91.19
250.765	80.19
250.998	76.19
251.231	83.19
251.465	82.19
251.698	75.19
251.931	77.19
252.164	77.19
252.397	87.19
252.63	81.19
252.863	73.19
253.096	77.19
253.329	88.19
253.562	91.19
253.795	83.19
254.028	91.19
254.261	85.19
254.494	61.19
254.727	77.19
254.96	75.19
255.193	78.19
255.426	80.19
255.659	80.19
255.892	88.19
256.124	89.19
256.357	83.19
256.59	80.19
256.823	83.19
257.056	97.19
257.289	91.19
257.521	84.19
257.754	75.19
257.987	88.19
258.22	83.19
258.452	100.19
258.685	91.19
258.918	86.19
259.151	89.19
259.383	80.19
259.616	82.19
259.849	75.19
260.081	72.19
260.314	83.19
260.547	90.19
260.779	79.19
261.012	79.19
261.244	91.19
261.477	105.19
261.71	94.19
261.942	99.19
262.175	117.19
262.407	89.19
262.64	76.19
262.872	90.19
263.105	85.19
263.337	72.19
263.57	79.19
263.802	83.19
264.035	77.19
264.267	89.19
264.499	86.19
264.732	94.19
264.964	79.19
265.197	88.19
265.429	84.19
265.661	80.19
265.894	92.19
266.126	78.19
266.358	89.19
266.591	85.19
266.823	86.19
267.055	85.19
267.287	100.19
267.52	66.19
267.752	101.19
267.984	93.19
268.216	74.19
268.448	81.19
268.681	94.19
268.913	88.19
269.145	81.19
269.377	80.19
269.609	90.19
269.841	95.19
270.073	78.19
270.306	87.19
270.538	80.19
270.77	70.19
271.002	95.19
271.234	80.19
271.466	77.19
271.698	89.19
271.93	77.19
272.162	86.19
272.394	81.19
272.626	77.19
272.858	88.19
273.09	85.19
273.322	83.19
273.553	95.19
273.785	99.19
274.017	85.19
274.249	90.19
274.481	85.19
274.713	94.19
274.945	71.19
275.176	87.19
275.408	95.19
275.64	85.19
275.872	95.19
276.104	104.19
276.335	89.19
276.567	97.19
276.799	115.19
277.031	109.19
277.262	103.19
277.494	88.19
277.726	99.19
277.957	89.19
278.189	87.19
278.421	98.19
278.652	118.19
278.884	85.19
279.115	76.19
279.347	84.19
279.579	91.19
279.81	93.19
280.042	100.19
280.273	133.19
280.505	100.19
280.736	93.19
280.968	84.19
281.199	86.19
281.431	105.19
281.662	99.19
281.894	98.19
282.125	95.19
282.356	124.19
282.588	148.19
282.819	113.19
283.051	101.19
283.282	88.19
283.513	84.19
283.745	89.19
283.976	90.19
284.207	84.19
284.439	89.19
284.67	87.19
284.901	73.19
285.132	99.19
285.364	87.19
285.595	100.19
285.826	97.19
286.057	85.19
286.288	106.19
286.52	93.19
286.751	74.19
286.982	89.19
287.213	88.19
287.444	80.19
287.675	76.19
287.906	91.19
288.138	80.19
288.369	88.19
288.6	100.19
288.831	91.19
289.062	92.19
289.293	99.19
289.524	89.19
289.755	76.19
289.986	81.19
290.217	98.19
290.448	93.19
290.679	83.19
290.91	89.19
291.141	96.19
291.371	92.19
291.602	74.19
291.833	95.19
292.064	99.19
292.295	81.19
292.526	89.19
292.757	87.19
292.987	96.19
293.218	94.19
293.449	91.19
293.68	79.19
293.91	87.19
294.141	87.19
294.372	95.19
294.603	97.19
294.833	73.19
295.064	91.19
295.295	105.19
295.525	103.19
295.756	104.19
295.987	100.19
296.217	140.19
296.448	137.19
296.679	88.19
296.909	110.19
297.14	83.19
297.37	78.19
297.601	92.19
297.831	88.19
298.062	92.19
298.292	90.19
298.523	96.19
298.753	87.19
298.984	81.19
299.214	105.19
299.445	90.19
299.675	93.19
299.905	100.19
300.136	95.19
300.366	100.19
300.597	86.19
300.827	94.19
301.057	109.19
301.288	83.19
301.518	96.19
301.748	104.19
301.979	107.19
302.209	89.19
302.439	98.19
302.669	106.19
302.9	97.19
303.13	103.19
303.36	86.19
303.59	111.19
303.82	101.19
304.051	96.19
304.281	81.19
304.511	95.19
304.741	105.19
304.971	79.19
305.201	89.19
305.431	101.19
305.661	92.19
305.891	97.19
306.121	101.19
306.352	99.19
306.582	104.19
306.812	106.19
307.042	104.19
307.272	101.19
307.502	103.19
307.731	111.19
307.961	101.19
308.191	101.19
308.421	83.19
308.651	83.19
308.881	96.19
309.111	84.19
309.341	100.19
309.571	85.19
309.8	110.19
310.03	104.19
310.26	106.19
310.49	105.19
310.72	92.19
310.949	104.19
311.179	109.19
311.409	99.19
311.639	85.19
311.868	84.19
312.098	94.19
312.328	93.19
312.557	99.19
312.787	112.19
313.017	113.19
313.246	92.19
313.476	88.19
313.706	86.19
313.935	104.19
314.165	95.19
314.394	109.19
314.624	96.19
314.853	109.19
315.083	94.19
315.312	87.19
315.542	112.19
315.771	91.19
316.001	88.19
316.23	95.19
316.46	92.19
316.689	84.19
316.919	83.19
317.148	96.19
317.377	86.19
317.607	96.19
317.836	95.19
318.065	104.19
318.295	106.19
318.524	92.19
318.753	95.19
318.983	95.19
319.212	103.19
319.441	108.19
319.67	99.19
319.9	104.19
320.129	91.19
320.358	99.19
320.587	98.19
320.816	84.19
321.046	102.19
321.275	96.19
321.504	103.19
321.733	85.19
321.962	96.19
322.191	105.19
322.42	107.19
322.649	124.19
322.878	117.19
323.108	115.19
323.337	108.19
323.566	136.19
323.795	158.19
324.024	210.19
324.253	415.19
324.482	873.19
324.71	1797.19
324.939	2381.19
325.168	849.19
325.397	255.19
325.626	146.19
325.855	128.19
326.084	135.19
326.313	138.19
326.542	158.19
326.77	238.19
326.999	487.19
327.228	1045.19
327.457	1823.19
327.686	1452.19
327.914	412.19
328.143	256.19
328.372	237.19
328.6	175.19
328.829	123.19
329.058	140.19
329.287	138.19
329.515	133.19
329.744	129.19
329.972	183.19
330.201	285.19
330.43	373.19
330.658	222.19
330.887	155.19
331.115	139.19
331.344	105.19
331.572	103.19
331.801	118.19
332.03	99.19
332.258	96.19
332.486	100.19
332.715	113.19
332.943	90.19
333.172	115.19
333.4	100.19
333.629	106.19
333.857	133.19
334.085	181.19
334.314	291.19
334.542	479.19
334.771	439.19
334.999	164.19
335.227	119.19
335.455	120.19
335.684	110.19
335.912	93.19
336.14	90.19
336.369	95.19
336.597	103.19
336.825	94.19
337.053	81.19
337.281	107.19
337.51	94.19
337.738	91.19
337.966	96.19
338.194	78.19
338.422	103.19
338.65	85.19
338.878	91.19
339.106	104.19
339.334	87.19
339.562	95.19
339.79	90.19
340.018	92.19
340.246	96.19
340.474	100.19
340.702	103.19
340.93	99.19
341.158	90.19
341.386	92.19
341.614	93.19
341.842	99.19
342.07	93.19
342.298	90.19
342.526	94.19
342.754	103.19
342.981	97.19
343.209	88.19
343.437	91.19
343.665	87.19
343.893	91.19
344.12	100.19
344.348	100.19
344.576	81.19
344.804	99.19
345.031	100.19
345.259	103.19
345.487	96.19
345.714	107.19
345.942	89.19
346.17	85.19
346.397	93.19
346.625	91.19
346.853	89.19
347.08	103.19
347.308	104.19
347.535	89.19
347.763	91.19
347.99	111.19
348.218	109.19
348.445	107.19
348.673	106.19
348.9	91.19
349.128	97.19
349.355	98.19
349.583	98.19
349.81	107.19
350.037	106.19
350.265	94.19
350.492	102.19
350.72	94.19
350.947	109.19
351.174	109.19
351.402	116.19
351.629	121.19
351.856	102.19
352.083	119.19
352.311	131.19
352.538	101.19
352.765	115.19
352.992	119.19
353.22	115.19
353.447	121.19
353.674	110.19
353.901	112.19
354.128	105.19
354.355	94.19
354.583	102.19
354.81	107.19
355.037	102.19
355.264	80.19
355.491	102.19
355.718	102.19
355.945	101.19
356.172	89.19
356.399	92.19
356.626	96.19
356.853	92.19
357.08	112.19
357.307	96.19
357.534	94.19
357.761	102.19
357.988	104.19
358.215	98.19
358.441	94.19
358.668	90.19
358.895	80.19
359.122	88.19
359.349	78.19
359.576	90.19
359.802	109.19
360.029	102.19
360.256	125.19
360.483	107.19
360.709	94.19
360.936	105.19
361.163	103.19
361.39	102.19
361.616	103.19
361.843	97.19
362.07	113.19
362.296	70.19
362.523	89.19
362.749	93.19
362.976	84.19
363.203	86.19
363.429	85.19
363.656	87.19
363.882	99.19
364.109	89.19
364.335	94.19
364.562	101.19
364.788	101.19
365.015	91.19
365.241	107.19
365.468	128.19
365.694	90.19
365.92	90.19
366.147	96.19
366.373	87.19
366.599	94.19
366.826	98.19
367.052	87.19
367.278	100.19
367.505	94.19
367.731	82.19
367.957	98.19
368.184	89.19
368.41	106.19
368.636	113.19
368.862	116.19
369.089	96.19
369.315	85.19
369.541	93.19
369.767	94.19
369.993	100.19
370.219	91.19
370.445	99.19
370.672	88.19
370.898	96.19
371.124	91.19
371.35	78.19
371.576	78.19
371.802	84.19
372.028	85.19
372.254	100.19
372.48	86.19
372.706	91.19
372.932	86.19
373.158	95.19
373.384	87.19
373.61	85.19
373.835	92.19
374.061	88.19
374.287	80.19
374.513	89.19
374.739	76.19
374.965	85.19
375.191	80.19
375.416	84.19
375.642	97.19
375.868	94.19
376.094	90.19
376.319	92.19
376.545	95.19
376.771	94.19
376.997	96.19
377.222	98.19
377.448	96.19
377.674	80.19
377.899	101.19
378.125	87.19
378.35	80.19
378.576	96.19
378.802	96.19
379.027	87.19
379.253	89.19
379.478	82.19
379.704	104.19
379.929	94.19
380.155	83.19
380.38	97.19
380.606	92.19
380.831	99.19
381.057	108.19
381.282	75.19
381.507	106.19
381.733	95.19
381.958	92.19
382.184	97.19
382.409	99.19
382.634	95.19
382.86	113.19
383.085	93.19
383.31	92.19
383.535	103.19
383.761	100.19
383.986	91.19
384.211	95.19
384.436	105.19
384.662	121.19
384.887	101.19
385.112	92.19
385.337	101.19
385.562	101.19
385.787	110.19
386.013	101.19
386.238	127.19
386.463	110.19
386.688	108.19
386.913	112.19
387.138	106.19
387.363	104.19
387.588	102.19
387.813	106.19
388.038	100.19
388.263	105.19
388.488	126.19
388.713	94.19
388.938	107.19
389.163	91.19
389.387	99.19
389.612	100.19
389.837	86.19
390.062	102.19
390.287	94.19
390.512	101.19
390.736	99.19
390.961	87.19
391.186	94.19
391.411	93.19
391.636	95.19
391.86	93.19
392.085	79.19
392.31	91.19
392.534	92.19
392.759	93.19
392.984	98.19
393.208	88.19
393.433	88.19
393.658	94.19
393.882	81.19
394.107	85.19
394.331	80.19
394.556	80.19
394.78	95.19
395.005	87.19
395.229	101.19
395.454	84.19
395.678	88.19
395.903	97.19
396.127	80.19
396.352	101.19
396.576	104.19
396.801	86.19
397.025	78.19
397.249	88.19
397.474	89.19
397.698	77.19
397.922	93.19
398.147	92.19
398.371	80.19
398.595	93.19
398.82	101.19
399.044	76.19
399.268	99.19
399.492	104.19
399.717	88.19
399.941	95.19
400.165	108.19
400.389	97.19
400.613	103.19
400.837	80.19
401.062	87.19
401.286	79.19
401.51	90.19
401.734	94.19
401.958	112.19
402.182	120.19
402.406	153.19
402.63	115.19
402.854	100.19
403.078	91.19
403.302	75.19
403.526	102.19
403.75	91.19
403.974	78.19
404.198	88.19
404.422	99.19
404.645	89.19
404.869	109.19
405.093	100.19
405.317	113.19
405.541	113.19
405.765	106.19
405.988	109.19
406.212	147.19
406.436	208.19
406.66	161.19
406.883	115.19
407.107	103.19
407.331	99.19
407.555	95.19
407.778	90.19
408.002	95.19
408.226	102.19
408.449	96.19
408.673	82.19
408.896	94.19
409.12	91.19
409.344	89.19
409.567	84.19
409.791	105.19
410.014	110.19
410.238	97.19
410.461	90.19
410.685	94.19
410.908	101.19
411.132	113.19
411.355	106.19
411.578	93.19
411.802	96.19
412.025	81.19
412.249	98.19
412.472	91.19
412.695	108.19
412.919	107.19
413.142	105.19
413.365	89.19
413.589	84.19
413.812	86.19
414.035	87.19
414.258	95.19
414.482	84.19
414.705	84.19
414.928	98.19
415.151	90.19
415.374	106.19
415.597	112.19
415.821	86.19
416.044	80.19
416.267	92.19
416.49	100.19
416.713	95.19
416.936	99.19
417.159	106.19
417.382	95.19
417.605	93.19
417.828	90.19
418.051	95.19
418.274	84.19
418.497	82.19
418.72	94.19
418.943	99.19
419.166	90.19
419.389	98.19
419.611	90.19
419.834	90.19
420.057	106.19
420.28	83.19
420.503	79.19
420.726	76.19
420.948	109.19
421.171	109.19
421.394	98.19
421.617	81.19
421.839	95.19
422.062	80.19
422.285	89.19
422.507	89.19
422.73	111.19
422.953	94.19
423.175	84.19
423.398	88.19
423.621	85.19
423.843	83.19
424.066	84.19
424.288	91.19
424.511	100.19
424.733	104.19
424.956	104.19
425.178	102.19
425.401	97.19
425.623	107.19
425.846	81.19
426.068	92.19
426.291	91.19
426.513	96.19
426.735	105.19
426.958	108.19
427.18	103.19
427.402	141.19
427.625	172.19
427.847	158.19
428.069	169.19
428.292	99.19
428.514	101.19
428.736	75.19
428.958	94.19
429.181	93.19
429.403	95.19
429.625	85.19
429.847	109.19
430.069	104.19
430.292	89.19
430.514	88.19
430.736	107.19
430.958	101.19
431.18	81.19
431.402	90.19
431.624	89.19
431.846	81.19
432.068	93.19
432.29	85.19
432.512	95.19
432.734	88.19
432.956	96.19
433.178	99.19
433.4	98.19
433.622	98.19
433.844	90.19
434.066	97.19
434.287	89.19
434.509	97.19
434.731	92.19
434.953	84.19
435.175	75.19
435.397	81.19
435.618	91.19
435.84	108.19
436.062	137.19
436.284	114.19
436.505	107.19
436.727	98.19
436.949	91.19
437.17	96.19
437.392	84.19
437.614	77.19
437.835	125.19
438.057	126.19
438.278	119.19
438.5	113.19
438.721	145.19
438.943	100.19
439.165	99.19
439.386	86.19
439.608	100.19
439.829	99.19
440.05	133.19
440.272	148.19
440.493	102.19
440.715	87.19
440.936	81.19
441.158	90.19
441.379	100.19
441.6	112.19
441.822	108.19
442.043	98.19
442.264	98.19
442.486	101.19
442.707	101.19
442.928	106.19
443.149	150.19
443.371	133.19
443.592	125.19
443.813	120.19
444.034	117.19
444.255	106.19
444.476	86.19
444.698	93.19
444.919	87.19
445.14	132.19
445.361	121.19
445.582	128.19
445.803	150.19
446.024	152.19
446.245	143.19
446.466	119.19
446.687	92.19
446.908	80.19
447.129	94.19
447.35	74.19
447.571	82.19
447.792	90.19
448.013	95.19
448.234	102.19
448.455	90.19
448.675	123.19
448.896	127.19
449.117	95.19
449.338	99.19
449.559	133.19
449.779	150.19
450	104.19
450.221	88.19
450.442	81.19
450.662	100.19
450.883	117.19
451.104	128.19
451.324	92.19
451.545	105.19
451.766	86.19
451.986	92.19
452.207	84.19
452.428	87.19
452.648	96.19
452.869	97.19
453.089	105.19
453.31	103.19
453.53	97.19
453.751	95.19
453.971	106.19
454.192	112.19
454.412	91.19
454.633	103.19
454.853	91.19
455.073	89.19
455.294	92.19
455.514	104.19
455.734	80.19
455.955	89.19
456.175	92.19
456.395	83.19
456.616	77.19
456.836	97.19
457.056	95.19
457.276	96.19
457.497	104.19
457.717	72.19
457.937	93.19
458.157	92.19
458.377	102.19
458.598	106.19
458.818	169.19
459.038	154.19
459.258	121.19
459.478	87.19
459.698	98.19
459.918	92.19
460.138	100.19
460.358	100.19
460.578	103.19
460.798	97.19
461.018	86.19
461.238	89.19
461.458	82.19
461.678	86.19
461.898	95.19
462.118	97.19
462.338	84.19
462.558	96.19
462.777	83.19
462.997	79.19
463.217	101.19
463.437	84.19
463.657	86.19
463.876	97.19
464.096	97.19
464.316	109.19
464.536	99.19
464.755	88.19
464.975	112.19
465.195	165.19
465.414	167.19
465.634	93.19
465.854	80.19
466.073	78.19
466.293	96.19
466.512	81.19
466.732	88.19
466.951	100.19
467.171	87.19
467.391	98.19
467.61	114.19
467.829	116.19
468.049	189.19
468.268	238.19
468.488	115.19
468.707	102.19
468.927	102.19
469.146	90.19
469.365	87.19
469.585	85.19
469.804	92.19
470.023	93.19
470.243	92.19
470.462	103.19
470.681	110.19
470.901	91.19
471.12	93.19
471.339	73.19
471.558	97.19
471.777	99.19
471.997	129.19
472.216	303.19
472.435	569.19
472.654	195.19
472.873	109.19
473.092	96.19
473.311	82.19
473.53	83.19
473.749	87.19
473.968	99.19
474.187	102.19
474.406	89.19
474.625	75.19
474.844	81.19
475.063	98.19
475.282	94.19
475.501	94.19
475.72	93.19
475.939	92.19
476.158	92.19
476.377	100.19
476.596	77.19
476.814	107.19
477.033	110.19
477.252	93.19
477.471	86.19
477.69	93.19
477.908	93.19
478.127	88.19
478.346	110.19
478.564	100.19
478.783	72.19
479.002	96.19
479.22	96.19
479.439	91.19
479.658	116.19
479.876	111.19
480.095	94.19
480.313	100.19
480.532	106.19
480.751	126.19
480.969	307.19
481.188	987.19
481.406	620.19
481.624	145.19
481.843	99.19
482.061	93.19
482.28	98.19
482.498	95.19
482.717	93.19
482.935	85.19
483.153	83.19
483.372	75.19
483.59	102.19
483.808	93.19
484.027	84.19
484.245	76.19
484.463	105.19
484.681	92.19
484.9	96.19
485.118	98.19
485.336	112.19
485.554	110.19
485.772	98.19
485.99	103.19
486.209	99.19
486.427	110.19
486.645	113.19
486.863	109.19
487.081	98.19
487.299	109.19
487.517	88.19
487.735	94.19
487.953	98.19
488.171	83.19
488.389	103.19
488.607	96.19
488.825	79.19
489.043	97.19
489.261	99.19
489.479	95.19
489.696	88.19
489.914	77.19
490.132	89.19
490.35	89.19
490.568	95.19
490.786	99.19
491.003	99.19
491.221	104.19
491.439	107.19
491.657	90.19
491.874	88.19
492.092	90.19
492.31	100.19
492.527	100.19
492.745	108.19
492.963	94.19
493.18	101.19
493.398	87.19
493.615	94.19
493.833	99.19
494.05	89.19
494.268	95.19
494.485	92.19
494.703	88.19
494.92	95.19
495.138	96.19
495.355	78.19
495.573	89.19
495.79	101.19
496.008	91.19
496.225	94.19
496.442	87.19
496.66	81.19
496.877	94.19
497.094	91.19
497.312	99.19
497.529	91.19
497.746	90.19
497.963	96.19
498.181	99.19
498.398	94.19
498.615	107.19
498.832	110.19
499.049	99.19
499.267	91.19
499.484	85.19
499.701	90.19
499.918	90.19
500.135	97.19
500.352	104.19
500.569	82.19
500.786	90.19
501.003	88.19
501.22	95.19
501.437	97.19
501.654	97.19
501.871	117.19
502.088	95.19
502.305	102.19
502.522	87.19
502.739	87.19
502.956	89.19
503.172	92.19
503.389	80.19
503.606	97.19
503.823	106.19
504.04	100.19
504.256	95.19
504.473	84.19
504.69	93.19
504.907	103.19
505.123	92.19
505.34	87.19
505.557	73.19
505.773	78.19
505.99	89.19
506.207	98.19
506.423	92.19
506.64	101.19
506.856	96.19
507.073	83.19
507.289	96.19
507.506	96.19
507.722	97.19
507.939	128.19
508.155	93.19
508.372	96.19
508.588	120.19
508.805	91.19
509.021	92.19
509.238	94.19
509.454	108.19
509.67	92.19
509.887	106.19
510.103	122.19
510.319	187.19
510.536	664.19
510.752	2174.19
510.968	651.19
511.184	163.19
511.401	112.19
511.617	101.19
511.833	115.19
512.049	104.19
512.265	91.19
512.481	93.19
512.698	88.19
512.914	88.19
513.13	88.19
513.346	97.19
513.562	84.19
513.778	102.19
513.994	107.19
514.21	115.19
