Data from Circ_2015_H10_HRD10591_00007.txt Node
Date: Wed Jan 03 10:00:24 EST 2024
User: Yrep
Spectrometer: HR+D1059
Trigger mode: 1
Integration Time (sec): 1.000000E-1
Scans to average: 1
Electric dark correction enabled: true
Nonlinearity correction enabled: false
Boxcar width: 0
XAxis mode: Wavelengths
Number of Pixels in Spectrum: 2048
>>>>>Begin Spectral Data<<<<<
223.165	-16.75
223.4	-16.75
223.635	-16.75
223.869	-21.75
224.104	-22.75
224.338	-17.75
224.573	-16.75
224.808	-15.75
225.042	-6.75
225.277	3.25
225.511	-7.75
225.746	4.25
225.98	24.25
226.215	5.25
226.449	13.25
226.683	26.25
226.918	17.25
227.152	32.25
227.387	43.25
227.621	57.25
227.856	47.25
228.09	55.25
228.324	37.25
228.559	39.25
228.793	59.25
229.027	67.25
229.262	67.25
229.496	81.25
229.73	73.25
229.964	71.25
230.199	76.25
230.433	76.25
230.667	79.25
230.901	87.25
231.136	90.25
231.37	81.25
231.604	82.25
231.838	82.25
232.072	66.25
232.306	78.25
232.541	79.25
232.775	60.25
233.009	79.25
233.243	85.25
233.477	78.25
233.711	88.25
233.945	77.25
234.179	83.25
234.413	84.25
234.647	96.25
234.881	84.25
235.115	88.25
235.349	77.25
235.583	95.25
235.817	67.25
236.051	81.25
236.285	82.25
236.519	81.25
236.753	83.25
236.987	87.25
237.221	80.25
237.455	90.25
237.689	82.25
237.922	82.25
238.156	92.25
238.39	74.25
238.624	57.25
238.858	70.25
239.091	70.25
239.325	87.25
239.559	80.25
239.793	80.25
240.027	81.25
240.26	86.25
240.494	78.25
240.728	65.25
240.961	87.25
241.195	80.25
241.429	80.25
241.662	84.25
241.896	75.25
242.13	85.25
242.363	71.25
242.597	81.25
242.83	79.25
243.064	79.25
243.298	80.25
243.531	73.25
243.765	89.25
243.998	81.25
244.232	82.25
244.465	77.25
244.699	82.25
244.932	87.25
245.166	95.25
245.399	92.25
245.633	68.25
245.866	85.25
246.099	69.25
246.333	88.25
246.566	82.25
246.8	80.25
247.033	68.25
247.266	70.25
247.5	77.25
247.733	85.25
247.966	83.25
248.2	69.25
248.433	88.25
248.666	73.25
248.899	87.25
249.133	81.25
249.366	96.25
249.599	87.25
249.832	74.25
250.066	65.25
250.299	81.25
250.532	77.25
250.765	74.25
250.998	97.25
251.231	80.25
251.465	80.25
251.698	86.25
251.931	80.25
252.164	77.25
252.397	96.25
252.63	98.25
252.863	78.25
253.096	70.25
253.329	92.25
253.562	81.25
253.795	94.25
254.028	88.25
254.261	81.25
254.494	60.25
254.727	85.25
254.96	60.25
255.193	84.25
255.426	82.25
255.659	90.25
255.892	89.25
256.124	89.25
256.357	96.25
256.59	88.25
256.823	88.25
257.056	92.25
257.289	86.25
257.521	83.25
257.754	78.25
257.987	73.25
258.22	89.25
258.452	69.25
258.685	86.25
258.918	89.25
259.151	90.25
259.383	89.25
259.616	93.25
259.849	93.25
260.081	88.25
260.314	81.25
260.547	79.25
260.779	89.25
261.012	76.25
261.244	82.25
261.477	82.25
261.71	88.25
261.942	115.25
262.175	113.25
262.407	93.25
262.64	81.25
262.872	87.25
263.105	78.25
263.337	86.25
263.57	78.25
263.802	86.25
264.035	81.25
264.267	80.25
264.499	97.25
264.732	89.25
264.964	81.25
265.197	78.25
265.429	83.25
265.661	85.25
265.894	84.25
266.126	99.25
266.358	87.25
266.591	77.25
266.823	87.25
267.055	95.25
267.287	75.25
267.52	89.25
267.752	95.25
267.984	89.25
268.216	78.25
268.448	78.25
268.681	84.25
268.913	84.25
269.145	86.25
269.377	93.25
269.609	79.25
269.841	81.25
270.073	82.25
270.306	85.25
270.538	91.25
270.77	81.25
271.002	82.25
271.234	88.25
271.466	86.25
271.698	89.25
271.93	84.25
272.162	84.25
272.394	91.25
272.626	79.25
272.858	84.25
273.09	76.25
273.322	94.25
273.553	87.25
273.785	80.25
274.017	92.25
274.249	76.25
274.481	96.25
274.713	87.25
274.945	89.25
275.176	79.25
275.408	84.25
275.64	91.25
275.872	84.25
276.104	83.25
276.335	78.25
276.567	92.25
276.799	115.25
277.031	96.25
277.262	82.25
277.494	80.25
277.726	81.25
277.957	80.25
278.189	87.25
278.421	86.25
278.652	85.25
278.884	83.25
279.115	85.25
279.347	88.25
279.579	86.25
279.81	94.25
280.042	100.25
280.273	85.25
280.505	80.25
280.736	73.25
280.968	98.25
281.199	81.25
281.431	101.25
281.662	93.25
281.894	88.25
282.125	85.25
282.356	104.25
282.588	122.25
282.819	100.25
283.051	87.25
283.282	93.25
283.513	100.25
283.745	84.25
283.976	101.25
284.207	82.25
284.439	62.25
284.67	95.25
284.901	90.25
285.132	76.25
285.364	80.25
285.595	97.25
285.826	82.25
286.057	93.25
286.288	90.25
286.52	79.25
286.751	89.25
286.982	81.25
287.213	85.25
287.444	80.25
287.675	91.25
287.906	96.25
288.138	99.25
288.369	101.25
288.6	103.25
288.831	103.25
289.062	104.25
289.293	86.25
289.524	100.25
289.755	92.25
289.986	94.25
290.217	86.25
290.448	82.25
290.679	86.25
290.91	81.25
291.141	90.25
291.371	96.25
291.602	85.25
291.833	92.25
292.064	103.25
292.295	85.25
292.526	85.25
292.757	92.25
292.987	101.25
293.218	88.25
293.449	81.25
293.68	86.25
293.91	88.25
294.141	85.25
294.372	85.25
294.603	90.25
294.833	84.25
295.064	81.25
295.295	87.25
295.525	96.25
295.756	93.25
295.987	113.25
296.217	139.25
296.448	111.25
296.679	93.25
296.909	87.25
297.14	92.25
297.37	93.25
297.601	83.25
297.831	99.25
298.062	91.25
298.292	93.25
298.523	91.25
298.753	88.25
298.984	90.25
299.214	91.25
299.445	89.25
299.675	104.25
299.905	86.25
300.136	87.25
300.366	85.25
300.597	95.25
300.827	95.25
301.057	100.25
301.288	102.25
301.518	89.25
301.748	86.25
301.979	99.25
302.209	88.25
302.439	103.25
302.669	106.25
302.9	77.25
303.13	86.25
303.36	94.25
303.59	99.25
303.82	97.25
304.051	78.25
304.281	89.25
304.511	95.25
304.741	96.25
304.971	100.25
305.201	97.25
305.431	90.25
305.661	88.25
305.891	93.25
306.121	107.25
306.352	94.25
306.582	101.25
306.812	98.25
307.042	89.25
307.272	96.25
307.502	96.25
307.731	97.25
307.961	99.25
308.191	94.25
308.421	93.25
308.651	85.25
308.881	101.25
309.111	92.25
309.341	93.25
309.571	99.25
309.8	91.25
310.03	100.25
310.26	99.25
310.49	82.25
310.72	84.25
310.949	107.25
311.179	95.25
311.409	85.25
311.639	85.25
311.868	105.25
312.098	112.25
312.328	115.25
312.557	100.25
312.787	90.25
313.017	102.25
313.246	93.25
313.476	91.25
313.706	96.25
313.935	97.25
314.165	89.25
314.394	95.25
314.624	89.25
314.853	104.25
315.083	95.25
315.312	81.25
315.542	89.25
315.771	86.25
316.001	99.25
316.23	99.25
316.46	95.25
316.689	78.25
316.919	95.25
317.148	93.25
317.377	100.25
317.607	94.25
317.836	87.25
318.065	97.25
318.295	104.25
318.524	96.25
318.753	92.25
318.983	89.25
319.212	99.25
319.441	92.25
319.67	112.25
319.9	93.25
320.129	86.25
320.358	98.25
320.587	94.25
320.816	104.25
321.046	98.25
321.275	101.25
321.504	94.25
321.733	91.25
321.962	100.25
322.191	105.25
322.42	98.25
322.649	108.25
322.878	108.25
323.108	105.25
323.337	126.25
323.566	125.25
323.795	142.25
324.024	182.25
324.253	359.25
324.482	709.25
324.71	1433.25
324.939	1943.25
325.168	736.25
325.397	224.25
325.626	124.25
325.855	115.25
326.084	126.25
326.313	135.25
326.542	153.25
326.77	193.25
326.999	408.25
327.228	864.25
327.457	1469.25
327.686	1209.25
327.914	334.25
328.143	177.25
328.372	135.25
328.6	136.25
328.829	103.25
329.058	115.25
329.287	111.25
329.515	92.25
329.744	91.25
329.972	101.25
330.201	94.25
330.43	111.25
330.658	120.25
330.887	138.25
331.115	105.25
331.344	101.25
331.572	97.25
331.801	89.25
332.03	91.25
332.258	97.25
332.486	86.25
332.715	89.25
332.943	100.25
333.172	91.25
333.4	95.25
333.629	96.25
333.857	93.25
334.085	111.25
334.314	107.25
334.542	130.25
334.771	117.25
334.999	94.25
335.227	86.25
335.455	91.25
335.684	98.25
335.912	116.25
336.14	103.25
336.369	89.25
336.597	100.25
336.825	111.25
337.053	102.25
337.281	117.25
337.51	85.25
337.738	100.25
337.966	84.25
338.194	97.25
338.422	114.25
338.65	96.25
338.878	99.25
339.106	87.25
339.334	94.25
339.562	92.25
339.79	84.25
340.018	82.25
340.246	88.25
340.474	94.25
340.702	104.25
340.93	97.25
341.158	94.25
341.386	101.25
341.614	96.25
341.842	88.25
342.07	99.25
342.298	85.25
342.526	95.25
342.754	86.25
342.981	86.25
343.209	90.25
343.437	92.25
343.665	81.25
343.893	88.25
344.12	92.25
344.348	85.25
344.576	94.25
344.804	94.25
345.031	96.25
345.259	96.25
345.487	98.25
345.714	90.25
345.942	96.25
346.17	99.25
346.397	109.25
346.625	101.25
346.853	94.25
347.08	86.25
347.308	93.25
347.535	99.25
347.763	93.25
347.99	95.25
348.218	95.25
348.445	105.25
348.673	99.25
348.9	103.25
349.128	92.25
349.355	75.25
349.583	98.25
349.81	84.25
350.037	101.25
350.265	104.25
350.492	109.25
350.72	85.25
350.947	102.25
351.174	103.25
351.402	102.25
351.629	106.25
351.856	109.25
352.083	94.25
352.311	104.25
352.538	96.25
352.765	104.25
352.992	115.25
353.22	101.25
353.447	99.25
353.674	97.25
353.901	97.25
354.128	94.25
354.355	99.25
354.583	100.25
354.81	94.25
355.037	75.25
355.264	93.25
355.491	101.25
355.718	99.25
355.945	102.25
356.172	103.25
356.399	110.25
356.626	110.25
356.853	95.25
357.08	94.25
357.307	92.25
357.534	95.25
357.761	89.25
357.988	86.25
358.215	95.25
358.441	97.25
358.668	107.25
358.895	106.25
359.122	88.25
359.349	82.25
359.576	87.25
359.802	106.25
360.029	106.25
360.256	109.25
360.483	104.25
360.709	91.25
360.936	81.25
361.163	97.25
361.39	79.25
361.616	114.25
361.843	93.25
362.07	99.25
362.296	96.25
362.523	84.25
362.749	112.25
362.976	90.25
363.203	83.25
363.429	100.25
363.656	95.25
363.882	85.25
364.109	78.25
364.335	99.25
364.562	85.25
364.788	79.25
365.015	88.25
365.241	87.25
365.468	108.25
365.694	100.25
365.92	100.25
366.147	100.25
366.373	76.25
366.599	90.25
366.826	98.25
367.052	92.25
367.278	86.25
367.505	81.25
367.731	94.25
367.957	96.25
368.184	95.25
368.41	95.25
368.636	112.25
368.862	117.25
369.089	115.25
369.315	106.25
369.541	79.25
369.767	97.25
369.993	87.25
370.219	93.25
370.445	81.25
370.672	93.25
370.898	84.25
371.124	99.25
371.35	94.25
371.576	107.25
371.802	96.25
372.028	94.25
372.254	87.25
372.48	78.25
372.706	91.25
372.932	97.25
373.158	91.25
373.384	94.25
373.61	86.25
373.835	98.25
374.061	91.25
374.287	92.25
374.513	84.25
374.739	105.25
374.965	89.25
375.191	93.25
375.416	97.25
375.642	103.25
375.868	107.25
376.094	86.25
376.319	89.25
376.545	92.25
376.771	99.25
376.997	79.25
377.222	88.25
377.448	101.25
377.674	99.25
377.899	99.25
378.125	103.25
378.35	96.25
378.576	103.25
378.802	83.25
379.027	92.25
379.253	102.25
379.478	102.25
379.704	101.25
379.929	92.25
380.155	108.25
380.38	109.25
380.606	114.25
380.831	101.25
381.057	109.25
381.282	99.25
381.507	102.25
381.733	102.25
381.958	105.25
382.184	110.25
382.409	119.25
382.634	107.25
382.86	110.25
383.085	106.25
383.31	110.25
383.535	101.25
383.761	123.25
383.986	96.25
384.211	95.25
384.436	110.25
384.662	103.25
384.887	112.25
385.112	121.25
385.337	110.25
385.562	133.25
385.787	108.25
386.013	115.25
386.238	129.25
386.463	105.25
386.688	135.25
386.913	118.25
387.138	129.25
387.363	115.25
387.588	100.25
387.813	108.25
388.038	108.25
388.263	127.25
388.488	135.25
388.713	92.25
388.938	84.25
389.163	81.25
389.387	91.25
389.612	92.25
389.837	87.25
390.062	89.25
390.287	102.25
390.512	83.25
390.736	98.25
390.961	100.25
391.186	86.25
391.411	95.25
391.636	78.25
391.86	92.25
392.085	87.25
392.31	86.25
392.534	84.25
392.759	89.25
392.984	97.25
393.208	102.25
393.433	121.25
393.658	115.25
393.882	77.25
394.107	85.25
394.331	91.25
394.556	84.25
394.78	92.25
395.005	96.25
395.229	100.25
395.454	86.25
395.678	92.25
395.903	90.25
396.127	95.25
396.352	84.25
396.576	101.25
396.801	101.25
397.025	104.25
397.249	104.25
397.474	92.25
397.698	96.25
397.922	92.25
398.147	84.25
398.371	92.25
398.595	95.25
398.82	86.25
399.044	95.25
399.268	89.25
399.492	82.25
399.717	95.25
399.941	101.25
400.165	95.25
400.389	99.25
400.613	94.25
400.837	84.25
401.062	95.25
401.286	77.25
401.51	99.25
401.734	90.25
401.958	102.25
402.182	127.25
402.406	157.25
402.63	122.25
402.854	86.25
403.078	96.25
403.302	99.25
403.526	76.25
403.75	87.25
403.974	82.25
404.198	84.25
404.422	81.25
404.645	90.25
404.869	90.25
405.093	106.25
405.317	99.25
405.541	93.25
405.765	74.25
405.988	96.25
406.212	156.25
406.436	196.25
406.66	129.25
406.883	102.25
407.107	84.25
407.331	102.25
407.555	98.25
407.778	109.25
408.002	98.25
408.226	90.25
408.449	88.25
408.673	89.25
408.896	100.25
409.12	91.25
409.344	109.25
409.567	99.25
409.791	95.25
410.014	88.25
410.238	97.25
410.461	94.25
410.685	102.25
410.908	105.25
411.132	85.25
411.355	94.25
411.578	96.25
411.802	90.25
412.025	100.25
412.249	96.25
412.472	87.25
412.695	96.25
412.919	85.25
413.142	69.25
413.365	71.25
413.589	86.25
413.812	98.25
414.035	71.25
414.258	100.25
414.482	102.25
414.705	102.25
414.928	82.25
415.151	91.25
415.374	84.25
415.597	95.25
415.821	106.25
416.044	95.25
416.267	95.25
416.49	96.25
416.713	89.25
416.936	91.25
417.159	87.25
417.382	88.25
417.605	83.25
417.828	115.25
418.051	94.25
418.274	92.25
418.497	97.25
418.72	94.25
418.943	82.25
419.166	96.25
419.389	88.25
419.611	84.25
419.834	95.25
420.057	88.25
420.28	88.25
420.503	82.25
420.726	94.25
420.948	91.25
421.171	100.25
421.394	91.25
421.617	83.25
421.839	79.25
422.062	109.25
422.285	93.25
422.507	91.25
422.73	101.25
422.953	97.25
423.175	86.25
423.398	93.25
423.621	98.25
423.843	82.25
424.066	82.25
424.288	86.25
424.511	96.25
424.733	86.25
424.956	104.25
425.178	108.25
425.401	94.25
425.623	81.25
425.846	86.25
426.068	102.25
426.291	96.25
426.513	99.25
426.735	79.25
426.958	95.25
427.18	121.25
427.402	131.25
427.625	148.25
427.847	127.25
428.069	113.25
428.292	93.25
428.514	93.25
428.736	96.25
428.958	93.25
429.181	91.25
429.403	107.25
429.625	81.25
429.847	88.25
430.069	90.25
430.292	87.25
430.514	94.25
430.736	68.25
430.958	83.25
431.18	87.25
431.402	112.25
431.624	79.25
431.846	81.25
432.068	96.25
432.29	85.25
432.512	104.25
432.734	91.25
432.956	83.25
433.178	94.25
433.4	98.25
433.622	94.25
433.844	84.25
434.066	85.25
434.287	96.25
434.509	96.25
434.731	95.25
434.953	104.25
435.175	91.25
435.397	104.25
435.618	95.25
435.84	108.25
436.062	109.25
436.284	112.25
436.505	106.25
436.727	96.25
436.949	97.25
437.17	91.25
437.392	96.25
437.614	96.25
437.835	86.25
438.057	114.25
438.278	100.25
438.5	104.25
438.721	106.25
438.943	98.25
439.165	80.25
439.386	87.25
439.608	86.25
439.829	85.25
440.05	109.25
440.272	132.25
440.493	116.25
440.715	96.25
440.936	72.25
441.158	81.25
441.379	85.25
441.6	102.25
441.822	81.25
442.043	89.25
442.264	103.25
442.486	89.25
442.707	91.25
442.928	118.25
443.149	104.25
443.371	100.25
443.592	111.25
443.813	95.25
444.034	103.25
444.255	94.25
444.476	88.25
444.698	80.25
444.919	93.25
445.14	136.25
445.361	115.25
445.582	101.25
445.803	123.25
446.024	112.25
446.245	123.25
446.466	110.25
446.687	87.25
446.908	102.25
447.129	81.25
447.35	89.25
447.571	93.25
447.792	107.25
448.013	89.25
448.234	101.25
448.455	102.25
448.675	92.25
448.896	113.25
449.117	104.25
449.338	91.25
449.559	108.25
449.779	129.25
450	89.25
450.221	91.25
450.442	107.25
450.662	81.25
450.883	90.25
451.104	102.25
451.324	78.25
451.545	97.25
451.766	89.25
451.986	78.25
452.207	79.25
452.428	101.25
452.648	98.25
452.869	115.25
453.089	103.25
453.31	107.25
453.53	92.25
453.751	78.25
453.971	105.25
454.192	103.25
454.412	90.25
454.633	83.25
454.853	86.25
455.073	89.25
455.294	93.25
455.514	93.25
455.734	96.25
455.955	91.25
456.175	84.25
456.395	81.25
456.616	78.25
456.836	70.25
457.056	88.25
457.276	104.25
457.497	92.25
457.717	85.25
457.937	75.25
458.157	83.25
458.377	92.25
458.598	103.25
458.818	118.25
459.038	135.25
459.258	115.25
459.478	96.25
459.698	89.25
459.918	74.25
460.138	86.25
460.358	84.25
460.578	80.25
460.798	93.25
461.018	83.25
461.238	94.25
461.458	94.25
461.678	92.25
461.898	101.25
462.118	79.25
462.338	78.25
462.558	87.25
462.777	96.25
462.997	81.25
463.217	85.25
463.437	89.25
463.657	99.25
463.876	81.25
464.096	88.25
464.316	95.25
464.536	87.25
464.755	96.25
464.975	94.25
465.195	126.25
465.414	128.25
465.634	95.25
465.854	87.25
466.073	92.25
466.293	88.25
466.512	95.25
466.732	85.25
466.951	96.25
467.171	87.25
467.391	78.25
467.61	88.25
467.829	99.25
468.049	86.25
468.268	88.25
468.488	86.25
468.707	91.25
468.927	80.25
469.146	78.25
469.365	90.25
469.585	95.25
469.804	93.25
470.023	88.25
470.243	110.25
470.462	80.25
470.681	95.25
470.901	74.25
471.12	85.25
471.339	97.25
471.558	104.25
471.777	95.25
471.997	97.25
472.216	98.25
472.435	132.25
472.654	87.25
472.873	80.25
473.092	88.25
473.311	87.25
473.53	81.25
473.749	92.25
473.968	103.25
474.187	91.25
474.406	101.25
474.625	84.25
474.844	104.25
475.063	99.25
475.282	84.25
475.501	96.25
475.72	79.25
475.939	91.25
476.158	75.25
476.377	87.25
476.596	103.25
476.814	89.25
477.033	86.25
477.252	91.25
477.471	81.25
477.69	91.25
477.908	94.25
478.127	85.25
478.346	80.25
478.564	76.25
478.783	95.25
479.002	86.25
479.22	96.25
479.439	97.25
479.658	87.25
479.876	83.25
480.095	90.25
480.313	86.25
480.532	91.25
480.751	107.25
480.969	110.25
481.188	131.25
481.406	133.25
481.624	88.25
481.843	102.25
482.061	89.25
482.28	95.25
482.498	88.25
482.717	93.25
482.935	77.25
483.153	91.25
483.372	99.25
483.59	99.25
483.808	91.25
484.027	88.25
484.245	91.25
484.463	88.25
484.681	81.25
484.9	89.25
485.118	85.25
485.336	107.25
485.554	93.25
485.772	100.25
485.99	110.25
486.209	100.25
486.427	92.25
486.645	112.25
486.863	109.25
487.081	112.25
487.299	99.25
487.517	108.25
487.735	100.25
487.953	96.25
488.171	92.25
488.389	93.25
488.607	89.25
488.825	96.25
489.043	87.25
489.261	99.25
489.479	82.25
489.696	92.25
489.914	96.25
490.132	94.25
490.35	100.25
490.568	86.25
490.786	82.25
491.003	102.25
491.221	80.25
491.439	95.25
491.657	92.25
491.874	84.25
492.092	82.25
492.31	82.25
492.527	69.25
492.745	70.25
492.963	104.25
493.18	93.25
493.398	102.25
493.615	99.25
493.833	87.25
494.05	94.25
494.268	89.25
494.485	88.25
494.703	91.25
494.92	77.25
495.138	81.25
495.355	100.25
495.573	100.25
495.79	99.25
496.008	96.25
496.225	88.25
496.442	87.25
496.66	89.25
496.877	94.25
497.094	97.25
497.312	92.25
497.529	82.25
497.746	87.25
497.963	90.25
498.181	96.25
498.398	109.25
498.615	112.25
498.832	96.25
499.049	97.25
499.267	99.25
499.484	90.25
499.701	105.25
499.918	84.25
500.135	89.25
500.352	92.25
500.569	100.25
500.786	94.25
501.003	88.25
501.22	96.25
501.437	109.25
501.654	101.25
501.871	103.25
502.088	105.25
502.305	104.25
502.522	89.25
502.739	87.25
502.956	96.25
503.172	95.25
503.389	89.25
503.606	100.25
503.823	81.25
504.04	93.25
504.256	95.25
504.473	79.25
504.69	94.25
504.907	104.25
505.123	77.25
505.34	85.25
505.557	89.25
505.773	72.25
505.99	92.25
506.207	99.25
506.423	91.25
506.64	101.25
506.856	85.25
507.073	91.25
507.289	79.25
507.506	106.25
507.722	108.25
507.939	105.25
508.155	113.25
508.372	100.25
508.588	92.25
508.805	89.25
509.021	103.25
509.238	95.25
509.454	91.25
509.67	90.25
509.887	107.25
510.103	123.25
510.319	176.25
510.536	596.25
510.752	1943.25
510.968	582.25
511.184	145.25
511.401	115.25
511.617	104.25
511.833	84.25
512.049	105.25
512.265	94.25
512.481	85.25
512.698	86.25
512.914	100.25
513.13	110.25
513.346	87.25
513.562	97.25
513.778	92.25
513.994	97.25
514.21	98.25
514.426	110.25
514.642	101.25
514.858	105.25
515.074	139.25
515.29	341.25
