Data from Circ_2015_H10_HRD10591_00041.txt Node
Date: Wed Jan 03 10:00:31 EST 2024
User: Yrep
Spectrometer: HR+D1059
Trigger mode: 1
Integration Time (sec): 1.000000E-1
Scans to average: 1
Electric dark correction enabled: true
Nonlinearity correction enabled: false
Boxcar width: 0
XAxis mode: Wavelengths
Number of Pixels in Spectrum: 2048
>>>>>Begin Spectral Data<<<<<
223.165	-15.75
223.4	-15.75
223.635	-15.75
223.869	-24.75
224.104	-24.75
224.338	-18.75
224.573	-11.75
224.808	-4.75
225.042	-5.75
225.277	-15.75
225.511	5.25
225.746	-1.75
225.98	9.25
226.215	3.25
226.449	23.25
226.683	28.25
226.918	33.25
227.152	21.25
227.387	19.25
227.621	41.25
227.856	52.25
228.09	45.25
228.324	50.25
228.559	71.25
228.793	60.25
229.027	63.25
229.262	68.25
229.496	62.25
229.73	96.25
229.964	84.25
230.199	73.25
230.433	86.25
230.667	78.25
230.901	95.25
231.136	83.25
231.37	87.25
231.604	80.25
231.838	89.25
232.072	73.25
232.306	90.25
232.541	78.25
232.775	80.25
233.009	92.25
233.243	92.25
233.477	85.25
233.711	97.25
233.945	100.25
234.179	74.25
234.413	85.25
234.647	89.25
234.881	86.25
235.115	68.25
235.349	71.25
235.583	77.25
235.817	80.25
236.051	83.25
236.285	84.25
236.519	80.25
236.753	77.25
236.987	78.25
237.221	77.25
237.455	78.25
237.689	79.25
237.922	75.25
238.156	69.25
238.39	87.25
238.624	81.25
238.858	78.25
239.091	74.25
239.325	89.25
239.559	83.25
239.793	82.25
240.027	95.25
240.26	85.25
240.494	86.25
240.728	71.25
240.961	75.25
241.195	69.25
241.429	90.25
241.662	81.25
241.896	87.25
242.13	92.25
242.363	75.25
242.597	89.25
242.83	90.25
243.064	84.25
243.298	63.25
243.531	68.25
243.765	91.25
243.998	89.25
244.232	93.25
244.465	85.25
244.699	64.25
244.932	70.25
245.166	91.25
245.399	81.25
245.633	87.25
245.866	81.25
246.099	86.25
246.333	75.25
246.566	81.25
246.8	76.25
247.033	74.25
247.266	87.25
247.5	77.25
247.733	89.25
247.966	78.25
248.2	78.25
248.433	97.25
248.666	79.25
248.899	79.25
249.133	76.25
249.366	93.25
249.599	85.25
249.832	87.25
250.066	74.25
250.299	81.25
250.532	80.25
250.765	89.25
250.998	94.25
251.231	90.25
251.465	103.25
251.698	85.25
251.931	88.25
252.164	81.25
252.397	86.25
252.63	85.25
252.863	84.25
253.096	88.25
253.329	84.25
253.562	83.25
253.795	78.25
254.028	78.25
254.261	81.25
254.494	88.25
254.727	80.25
254.96	83.25
255.193	76.25
255.426	71.25
255.659	81.25
255.892	79.25
256.124	93.25
256.357	75.25
256.59	72.25
256.823	81.25
257.056	73.25
257.289	79.25
257.521	80.25
257.754	83.25
257.987	93.25
258.22	85.25
258.452	80.25
258.685	96.25
258.918	93.25
259.151	96.25
259.383	93.25
259.616	76.25
259.849	82.25
260.081	88.25
260.314	88.25
260.547	75.25
260.779	96.25
261.012	71.25
261.244	81.25
261.477	93.25
261.71	91.25
261.942	90.25
262.175	105.25
262.407	100.25
262.64	92.25
262.872	95.25
263.105	79.25
263.337	85.25
263.57	79.25
263.802	67.25
264.035	88.25
264.267	95.25
264.499	76.25
264.732	87.25
264.964	79.25
265.197	71.25
265.429	85.25
265.661	84.25
265.894	96.25
266.126	80.25
266.358	68.25
266.591	90.25
266.823	72.25
267.055	87.25
267.287	90.25
267.52	85.25
267.752	85.25
267.984	93.25
268.216	96.25
268.448	84.25
268.681	100.25
268.913	88.25
269.145	77.25
269.377	78.25
269.609	91.25
269.841	104.25
270.073	86.25
270.306	81.25
270.538	86.25
270.77	91.25
271.002	79.25
271.234	75.25
271.466	94.25
271.698	82.25
271.93	80.25
272.162	81.25
272.394	90.25
272.626	79.25
272.858	82.25
273.09	85.25
273.322	72.25
273.553	89.25
273.785	79.25
274.017	86.25
274.249	93.25
274.481	82.25
274.713	77.25
274.945	91.25
275.176	79.25
275.408	90.25
275.64	102.25
275.872	103.25
276.104	88.25
276.335	94.25
276.567	104.25
276.799	94.25
277.031	91.25
277.262	95.25
277.494	87.25
277.726	88.25
277.957	85.25
278.189	97.25
278.421	87.25
278.652	80.25
278.884	85.25
279.115	79.25
279.347	82.25
279.579	87.25
279.81	86.25
280.042	104.25
280.273	90.25
280.505	90.25
280.736	99.25
280.968	104.25
281.199	87.25
281.431	98.25
281.662	95.25
281.894	89.25
282.125	95.25
282.356	102.25
282.588	121.25
282.819	98.25
283.051	85.25
283.282	79.25
283.513	86.25
283.745	97.25
283.976	89.25
284.207	88.25
284.439	63.25
284.67	77.25
284.901	80.25
285.132	84.25
285.364	85.25
285.595	95.25
285.826	95.25
286.057	104.25
286.288	99.25
286.52	91.25
286.751	76.25
286.982	95.25
287.213	86.25
287.444	76.25
287.675	86.25
287.906	90.25
288.138	92.25
288.369	96.25
288.6	80.25
288.831	85.25
289.062	88.25
289.293	91.25
289.524	84.25
289.755	88.25
289.986	86.25
290.217	84.25
290.448	85.25
290.679	86.25
290.91	83.25
291.141	76.25
291.371	90.25
291.602	77.25
291.833	102.25
292.064	78.25
292.295	88.25
292.526	96.25
292.757	77.25
292.987	91.25
293.218	81.25
293.449	81.25
293.68	91.25
293.91	88.25
294.141	92.25
294.372	92.25
294.603	81.25
294.833	90.25
295.064	103.25
295.295	91.25
295.525	97.25
295.756	98.25
295.987	98.25
296.217	118.25
296.448	101.25
296.679	108.25
296.909	87.25
297.14	88.25
297.37	86.25
297.601	76.25
297.831	85.25
298.062	99.25
298.292	93.25
298.523	79.25
298.753	83.25
298.984	93.25
299.214	92.25
299.445	93.25
299.675	95.25
299.905	88.25
300.136	76.25
300.366	98.25
300.597	90.25
300.827	112.25
301.057	99.25
301.288	113.25
301.518	99.25
301.748	97.25
301.979	89.25
302.209	85.25
302.439	97.25
302.669	88.25
302.9	89.25
303.13	91.25
303.36	81.25
303.59	106.25
303.82	100.25
304.051	119.25
304.281	111.25
304.511	82.25
304.741	80.25
304.971	75.25
305.201	87.25
305.431	108.25
305.661	82.25
305.891	91.25
306.121	98.25
306.352	94.25
306.582	84.25
306.812	88.25
307.042	91.25
307.272	92.25
307.502	81.25
307.731	98.25
307.961	91.25
308.191	100.25
308.421	93.25
308.651	92.25
308.881	86.25
309.111	92.25
309.341	87.25
309.571	90.25
309.8	95.25
310.03	99.25
310.26	87.25
310.49	91.25
310.72	102.25
310.949	98.25
311.179	75.25
311.409	102.25
311.639	90.25
311.868	86.25
312.098	86.25
312.328	98.25
312.557	104.25
312.787	92.25
313.017	85.25
313.246	81.25
313.476	88.25
313.706	103.25
313.935	99.25
314.165	95.25
314.394	103.25
314.624	87.25
314.853	95.25
315.083	87.25
315.312	91.25
315.542	86.25
315.771	94.25
316.001	100.25
316.23	104.25
316.46	104.25
316.689	90.25
316.919	93.25
317.148	95.25
317.377	72.25
317.607	95.25
317.836	95.25
318.065	101.25
318.295	89.25
318.524	96.25
318.753	92.25
318.983	73.25
319.212	102.25
319.441	103.25
319.67	103.25
319.9	94.25
320.129	85.25
320.358	89.25
320.587	103.25
320.816	98.25
321.046	102.25
321.275	83.25
321.504	74.25
321.733	91.25
321.962	95.25
322.191	83.25
322.42	96.25
322.649	95.25
322.878	112.25
323.108	103.25
323.337	107.25
323.566	131.25
323.795	148.25
324.024	171.25
324.253	295.25
324.482	610.25
324.71	1216.25
324.939	1589.25
325.168	611.25
325.397	196.25
325.626	142.25
325.855	108.25
326.084	121.25
326.313	125.25
326.542	131.25
326.77	199.25
326.999	356.25
327.228	704.25
327.457	1238.25
327.686	996.25
327.914	295.25
328.143	169.25
328.372	144.25
328.6	119.25
328.829	117.25
329.058	116.25
329.287	102.25
329.515	97.25
329.744	93.25
329.972	100.25
330.201	148.25
330.43	147.25
330.658	119.25
330.887	117.25
331.115	100.25
331.344	89.25
331.572	99.25
331.801	102.25
332.03	86.25
332.258	89.25
332.486	81.25
332.715	86.25
332.943	87.25
333.172	80.25
333.4	100.25
333.629	113.25
333.857	102.25
334.085	106.25
334.314	123.25
334.542	187.25
334.771	160.25
334.999	106.25
335.227	88.25
335.455	81.25
335.684	101.25
335.912	97.25
336.14	101.25
336.369	81.25
336.597	109.25
336.825	83.25
337.053	103.25
337.281	87.25
337.51	92.25
337.738	93.25
337.966	87.25
338.194	96.25
338.422	80.25
338.65	91.25
338.878	77.25
339.106	92.25
339.334	80.25
339.562	86.25
339.79	83.25
340.018	85.25
340.246	94.25
340.474	90.25
340.702	81.25
340.93	86.25
341.158	92.25
341.386	81.25
341.614	86.25
341.842	101.25
342.07	91.25
342.298	87.25
342.526	84.25
342.754	80.25
342.981	78.25
343.209	96.25
343.437	95.25
343.665	64.25
343.893	101.25
344.12	87.25
344.348	89.25
344.576	92.25
344.804	87.25
345.031	83.25
345.259	97.25
345.487	90.25
345.714	78.25
345.942	104.25
346.17	91.25
346.397	90.25
346.625	104.25
346.853	82.25
347.08	90.25
347.308	87.25
347.535	92.25
347.763	98.25
347.99	96.25
348.218	86.25
348.445	88.25
348.673	87.25
348.9	91.25
349.128	91.25
349.355	78.25
349.583	99.25
349.81	91.25
350.037	81.25
350.265	97.25
350.492	89.25
350.72	92.25
350.947	98.25
351.174	101.25
351.402	105.25
351.629	96.25
351.856	100.25
352.083	92.25
352.311	98.25
352.538	105.25
352.765	99.25
352.992	100.25
353.22	99.25
353.447	103.25
353.674	96.25
353.901	80.25
354.128	97.25
354.355	73.25
354.583	93.25
354.81	92.25
355.037	90.25
355.264	98.25
355.491	85.25
355.718	95.25
355.945	91.25
356.172	89.25
356.399	101.25
356.626	84.25
356.853	88.25
357.08	87.25
357.307	105.25
357.534	108.25
357.761	85.25
357.988	89.25
358.215	93.25
358.441	104.25
358.668	95.25
358.895	86.25
359.122	82.25
359.349	82.25
359.576	84.25
359.802	98.25
360.029	100.25
360.256	99.25
360.483	96.25
360.709	103.25
360.936	109.25
361.163	89.25
361.39	91.25
361.616	92.25
361.843	95.25
362.07	91.25
362.296	90.25
362.523	84.25
362.749	106.25
362.976	87.25
363.203	108.25
363.429	88.25
363.656	91.25
363.882	85.25
364.109	95.25
364.335	81.25
364.562	92.25
364.788	85.25
365.015	99.25
365.241	97.25
365.468	99.25
365.694	96.25
365.92	99.25
366.147	102.25
366.373	76.25
366.599	79.25
366.826	80.25
367.052	88.25
367.278	86.25
367.505	81.25
367.731	72.25
367.957	83.25
368.184	92.25
368.41	89.25
368.636	97.25
368.862	104.25
369.089	98.25
369.315	92.25
369.541	89.25
369.767	94.25
369.993	74.25
370.219	93.25
370.445	94.25
370.672	99.25
370.898	86.25
371.124	85.25
371.35	87.25
371.576	92.25
371.802	72.25
372.028	88.25
372.254	95.25
372.48	96.25
372.706	88.25
372.932	93.25
373.158	89.25
373.384	88.25
373.61	87.25
373.835	96.25
374.061	89.25
374.287	89.25
374.513	84.25
374.739	95.25
374.965	83.25
375.191	86.25
375.416	84.25
375.642	97.25
375.868	104.25
376.094	84.25
376.319	89.25
376.545	88.25
376.771	81.25
376.997	89.25
377.222	94.25
377.448	91.25
377.674	90.25
377.899	87.25
378.125	94.25
378.35	107.25
378.576	89.25
378.802	100.25
379.027	87.25
379.253	96.25
379.478	95.25
379.704	79.25
379.929	96.25
380.155	95.25
380.38	83.25
380.606	103.25
380.831	87.25
381.057	91.25
381.282	99.25
381.507	91.25
381.733	92.25
381.958	104.25
382.184	85.25
382.409	109.25
382.634	94.25
382.86	99.25
383.085	103.25
383.31	84.25
383.535	102.25
383.761	97.25
383.986	96.25
384.211	98.25
384.436	87.25
384.662	100.25
384.887	95.25
385.112	100.25
385.337	95.25
385.562	92.25
385.787	90.25
386.013	99.25
386.238	101.25
386.463	102.25
386.688	90.25
386.913	109.25
387.138	104.25
387.363	97.25
387.588	95.25
387.813	88.25
388.038	101.25
388.263	108.25
388.488	93.25
388.713	97.25
388.938	89.25
389.163	91.25
389.387	83.25
389.612	96.25
389.837	80.25
390.062	84.25
390.287	89.25
390.512	103.25
390.736	91.25
390.961	99.25
391.186	93.25
391.411	80.25
391.636	85.25
391.86	96.25
392.085	77.25
392.31	91.25
392.534	70.25
392.759	64.25
392.984	100.25
393.208	92.25
393.433	101.25
393.658	108.25
393.882	90.25
394.107	83.25
394.331	92.25
394.556	90.25
394.78	89.25
395.005	84.25
395.229	94.25
395.454	89.25
395.678	84.25
395.903	104.25
396.127	96.25
396.352	73.25
396.576	92.25
396.801	92.25
397.025	100.25
397.249	98.25
397.474	84.25
397.698	84.25
397.922	92.25
398.147	89.25
398.371	91.25
398.595	86.25
398.82	85.25
399.044	90.25
399.268	85.25
399.492	95.25
399.717	85.25
399.941	84.25
400.165	82.25
400.389	80.25
400.613	86.25
400.837	96.25
401.062	84.25
401.286	93.25
401.51	96.25
401.734	102.25
401.958	89.25
402.182	106.25
402.406	111.25
402.63	115.25
402.854	101.25
403.078	83.25
403.302	88.25
403.526	103.25
403.75	88.25
403.974	85.25
404.198	88.25
404.422	89.25
404.645	86.25
404.869	88.25
405.093	78.25
405.317	93.25
405.541	112.25
405.765	99.25
405.988	105.25
406.212	144.25
406.436	174.25
406.66	131.25
406.883	80.25
407.107	97.25
407.331	96.25
407.555	92.25
407.778	93.25
408.002	93.25
408.226	92.25
408.449	88.25
408.673	83.25
408.896	101.25
409.12	94.25
409.344	94.25
409.567	79.25
409.791	85.25
410.014	92.25
410.238	89.25
410.461	84.25
410.685	91.25
410.908	93.25
411.132	105.25
411.355	97.25
411.578	93.25
411.802	87.25
412.025	88.25
412.249	91.25
412.472	93.25
412.695	103.25
412.919	85.25
413.142	111.25
413.365	94.25
413.589	99.25
413.812	92.25
414.035	100.25
414.258	75.25
414.482	87.25
414.705	86.25
414.928	98.25
415.151	103.25
415.374	76.25
415.597	102.25
415.821	86.25
416.044	81.25
416.267	82.25
416.49	76.25
416.713	94.25
416.936	98.25
417.159	108.25
417.382	84.25
417.605	89.25
417.828	87.25
418.051	79.25
418.274	86.25
418.497	86.25
418.72	99.25
418.943	91.25
419.166	90.25
419.389	86.25
419.611	87.25
419.834	86.25
420.057	89.25
420.28	79.25
420.503	86.25
420.726	94.25
420.948	87.25
421.171	78.25
421.394	93.25
421.617	79.25
421.839	80.25
422.062	101.25
422.285	83.25
422.507	86.25
422.73	94.25
422.953	89.25
423.175	90.25
423.398	74.25
423.621	79.25
423.843	79.25
424.066	79.25
424.288	78.25
424.511	79.25
424.733	95.25
424.956	105.25
425.178	93.25
425.401	83.25
425.623	95.25
425.846	101.25
426.068	86.25
426.291	94.25
426.513	101.25
426.735	90.25
426.958	88.25
427.18	101.25
427.402	116.25
427.625	126.25
427.847	112.25
428.069	102.25
428.292	88.25
428.514	93.25
428.736	82.25
428.958	88.25
429.181	92.25
429.403	79.25
429.625	96.25
429.847	82.25
430.069	81.25
430.292	95.25
430.514	89.25
430.736	81.25
430.958	85.25
431.18	90.25
431.402	80.25
431.624	87.25
431.846	93.25
432.068	89.25
432.29	91.25
432.512	87.25
432.734	77.25
432.956	89.25
433.178	87.25
433.4	92.25
433.622	97.25
433.844	109.25
434.066	69.25
434.287	93.25
434.509	87.25
434.731	83.25
434.953	77.25
435.175	84.25
435.397	99.25
435.618	90.25
435.84	100.25
436.062	101.25
436.284	107.25
436.505	92.25
436.727	99.25
436.949	101.25
437.17	83.25
437.392	87.25
437.614	85.25
437.835	96.25
438.057	100.25
438.278	86.25
438.5	92.25
438.721	97.25
438.943	109.25
439.165	78.25
439.386	88.25
439.608	85.25
439.829	91.25
440.05	112.25
440.272	125.25
440.493	99.25
440.715	87.25
440.936	93.25
441.158	81.25
441.379	97.25
441.6	88.25
441.822	101.25
442.043	96.25
442.264	87.25
442.486	87.25
442.707	93.25
442.928	87.25
443.149	109.25
443.371	109.25
443.592	103.25
443.813	94.25
444.034	101.25
444.255	82.25
444.476	94.25
444.698	89.25
444.919	98.25
445.14	119.25
445.361	115.25
445.582	95.25
445.803	117.25
446.024	111.25
446.245	94.25
446.466	108.25
446.687	85.25
446.908	89.25
447.129	91.25
447.35	93.25
447.571	86.25
447.792	91.25
448.013	91.25
448.234	100.25
448.455	90.25
448.675	91.25
448.896	107.25
449.117	104.25
449.338	108.25
449.559	103.25
449.779	111.25
450	86.25
450.221	88.25
450.442	88.25
450.662	102.25
450.883	100.25
451.104	107.25
451.324	88.25
451.545	97.25
451.766	89.25
451.986	87.25
452.207	92.25
452.428	104.25
452.648	106.25
452.869	102.25
453.089	96.25
453.31	101.25
453.53	84.25
453.751	85.25
453.971	104.25
454.192	102.25
454.412	73.25
454.633	85.25
454.853	79.25
455.073	72.25
455.294	100.25
455.514	88.25
455.734	71.25
455.955	71.25
456.175	90.25
456.395	90.25
456.616	100.25
456.836	86.25
457.056	84.25
457.276	76.25
457.497	80.25
457.717	96.25
457.937	80.25
458.157	85.25
458.377	93.25
458.598	85.25
458.818	117.25
459.038	126.25
459.258	92.25
459.478	90.25
459.698	73.25
459.918	89.25
460.138	88.25
460.358	81.25
460.578	80.25
460.798	93.25
461.018	89.25
461.238	95.25
461.458	81.25
461.678	83.25
461.898	81.25
462.118	87.25
462.338	85.25
462.558	81.25
462.777	84.25
462.997	72.25
463.217	81.25
463.437	91.25
463.657	84.25
463.876	90.25
464.096	92.25
464.316	92.25
464.536	92.25
464.755	96.25
464.975	96.25
465.195	114.25
465.414	119.25
465.634	88.25
465.854	100.25
466.073	99.25
466.293	94.25
466.512	93.25
466.732	95.25
466.951	90.25
467.171	89.25
467.391	93.25
467.61	104.25
467.829	95.25
468.049	104.25
468.268	119.25
468.488	100.25
468.707	85.25
468.927	88.25
469.146	91.25
469.365	84.25
469.585	85.25
469.804	96.25
470.023	100.25
470.243	97.25
470.462	96.25
470.681	96.25
470.901	84.25
471.12	79.25
471.339	78.25
471.558	96.25
471.777	83.25
471.997	98.25
472.216	137.25
472.435	197.25
472.654	106.25
472.873	89.25
473.092	96.25
473.311	82.25
473.53	96.25
473.749	76.25
473.968	95.25
474.187	84.25
474.406	91.25
474.625	80.25
474.844	90.25
475.063	91.25
475.282	88.25
475.501	85.25
475.72	83.25
475.939	87.25
476.158	74.25
476.377	80.25
476.596	84.25
476.814	92.25
477.033	105.25
477.252	88.25
477.471	81.25
477.69	85.25
477.908	76.25
478.127	101.25
478.346	95.25
478.564	76.25
478.783	83.25
479.002	82.25
479.22	90.25
479.439	81.25
479.658	106.25
479.876	90.25
480.095	92.25
480.313	90.25
480.532	88.25
480.751	100.25
480.969	131.25
481.188	302.25
481.406	215.25
481.624	92.25
481.843	77.25
482.061	88.25
482.28	89.25
482.498	78.25
482.717	94.25
482.935	87.25
483.153	89.25
483.372	85.25
483.59	82.25
483.808	90.25
484.027	91.25
484.245	87.25
484.463	86.25
484.681	86.25
484.9	85.25
485.118	97.25
485.336	92.25
485.554	91.25
485.772	98.25
485.99	90.25
486.209	92.25
486.427	89.25
486.645	100.25
486.863	93.25
487.081	89.25
487.299	98.25
487.517	96.25
487.735	85.25
487.953	85.25
488.171	87.25
488.389	85.25
488.607	96.25
488.825	80.25
489.043	89.25
489.261	95.25
489.479	90.25
489.696	89.25
489.914	90.25
490.132	72.25
490.35	92.25
490.568	96.25
490.786	85.25
491.003	94.25
491.221	84.25
491.439	86.25
491.657	87.25
491.874	97.25
492.092	91.25
492.31	82.25
492.527	103.25
492.745	82.25
492.963	84.25
493.18	93.25
493.398	73.25
493.615	84.25
493.833	77.25
494.05	87.25
494.268	84.25
494.485	92.25
494.703	89.25
494.92	88.25
495.138	81.25
495.355	94.25
495.573	91.25
495.79	90.25
496.008	96.25
496.225	94.25
496.442	79.25
496.66	95.25
496.877	83.25
497.094	91.25
497.312	91.25
497.529	90.25
497.746	88.25
497.963	92.25
498.181	98.25
498.398	92.25
498.615	105.25
498.832	83.25
499.049	87.25
499.267	98.25
499.484	96.25
499.701	73.25
499.918	88.25
500.135	93.25
500.352	94.25
500.569	94.25
500.786	97.25
501.003	98.25
501.22	96.25
501.437	89.25
501.654	84.25
501.871	105.25
502.088	87.25
502.305	92.25
502.522	94.25
502.739	89.25
502.956	79.25
503.172	92.25
503.389	88.25
503.606	100.25
503.823	86.25
504.04	101.25
504.256	87.25
504.473	88.25
504.69	88.25
504.907	96.25
505.123	96.25
505.34	84.25
505.557	72.25
505.773	99.25
505.99	93.25
506.207	80.25
506.423	93.25
506.64	73.25
506.856	93.25
507.073	98.25
507.289	89.25
507.506	87.25
507.722	103.25
507.939	100.25
508.155	83.25
508.372	96.25
508.588	83.25
508.805	105.25
509.021	103.25
509.238	102.25
509.454	97.25
509.67	87.25
509.887	103.25
510.103	112.25
510.319	184.25
510.536	548.25
510.752	1689.25
510.968	515.25
511.184	144.25
511.401	106.25
511.617	94.25
511.833	84.25
512.049	88.25
512.265	89.25
512.481	81.25
512.698	81.25
512.914	91.25
513.13	84.25
513.346	89.25
513.562	85.25
513.778	92.25
513.994	92.25
514.21	104.25
514.426	96.25
514.642	104.25
514.858	116.25
515.074	150.25
515.29	302.25
515.506	961.25
515.721	393.25
515.937	125.25
516.153	87.25
516.369	93.25
516.585	90.25
