Data from Circ_2015_H10_HRD10591_00071.txt Node
Date: Wed Jan 03 10:00:37 EST 2024
User: Yrep
Spectrometer: HR+D1059
Trigger mode: 1
Integration Time (sec): 1.000000E-1
Scans to average: 1
Electric dark correction enabled: true
Nonlinearity correction enabled: false
Boxcar width: 0
XAxis mode: Wavelengths
Number of Pixels in Spectrum: 2048
>>>>>Begin Spectral Data<<<<<
223.165	-20.81
223.4	-20.81
223.635	-20.81
223.869	-18.81
224.104	-29.81
224.338	-6.81
224.573	-9.81
224.808	-9.81
225.042	-9.81
225.277	8.19
225.511	3.19
225.746	-0.81
225.98	1.19
226.215	5.19
226.449	9.19
226.683	21.19
226.918	17.19
227.152	41.19
227.387	41.19
227.621	38.19
227.856	43.19
228.09	38.19
228.324	46.19
228.559	62.19
228.793	67.19
229.027	74.19
229.262	69.19
229.496	64.19
229.73	88.19
229.964	87.19
230.199	80.19
230.433	83.19
230.667	81.19
230.901	91.19
231.136	86.19
231.37	67.19
231.604	93.19
231.838	77.19
232.072	69.19
232.306	94.19
232.541	93.19
232.775	96.19
233.009	92.19
233.243	77.19
233.477	81.19
233.711	96.19
233.945	79.19
234.179	86.19
234.413	75.19
234.647	74.19
234.881	75.19
235.115	88.19
235.349	94.19
235.583	84.19
235.817	80.19
236.051	88.19
236.285	83.19
236.519	79.19
236.753	79.19
236.987	86.19
237.221	86.19
237.455	94.19
237.689	70.19
237.922	67.19
238.156	85.19
238.39	76.19
238.624	80.19
238.858	71.19
239.091	76.19
239.325	72.19
239.559	77.19
239.793	80.19
240.027	82.19
240.26	80.19
240.494	79.19
240.728	70.19
240.961	82.19
241.195	98.19
241.429	67.19
241.662	84.19
241.896	89.19
242.13	77.19
242.363	64.19
242.597	86.19
242.83	88.19
243.064	84.19
243.298	83.19
243.531	72.19
243.765	91.19
243.998	77.19
244.232	87.19
244.465	89.19
244.699	90.19
244.932	89.19
245.166	86.19
245.399	103.19
245.633	72.19
245.866	82.19
246.099	81.19
246.333	65.19
246.566	90.19
246.8	76.19
247.033	90.19
247.266	75.19
247.5	92.19
247.733	76.19
247.966	87.19
248.2	88.19
248.433	82.19
248.666	77.19
248.899	89.19
249.133	91.19
249.366	97.19
249.599	106.19
249.832	68.19
250.066	68.19
250.299	94.19
250.532	83.19
250.765	81.19
250.998	73.19
251.231	83.19
251.465	88.19
251.698	102.19
251.931	86.19
252.164	82.19
252.397	72.19
252.63	84.19
252.863	81.19
253.096	80.19
253.329	95.19
253.562	87.19
253.795	80.19
254.028	86.19
254.261	79.19
254.494	80.19
254.727	76.19
254.96	95.19
255.193	86.19
255.426	94.19
255.659	90.19
255.892	78.19
256.124	87.19
256.357	75.19
256.59	79.19
256.823	95.19
257.056	82.19
257.289	82.19
257.521	84.19
257.754	89.19
257.987	82.19
258.22	85.19
258.452	85.19
258.685	102.19
258.918	101.19
259.151	76.19
259.383	90.19
259.616	91.19
259.849	97.19
260.081	94.19
260.314	78.19
260.547	79.19
260.779	84.19
261.012	92.19
261.244	97.19
261.477	99.19
261.71	100.19
261.942	112.19
262.175	104.19
262.407	106.19
262.64	75.19
262.872	76.19
263.105	103.19
263.337	85.19
263.57	88.19
263.802	87.19
264.035	88.19
264.267	87.19
264.499	99.19
264.732	90.19
264.964	80.19
265.197	78.19
265.429	88.19
265.661	94.19
265.894	87.19
266.126	94.19
266.358	78.19
266.591	95.19
266.823	84.19
267.055	86.19
267.287	93.19
267.52	91.19
267.752	79.19
267.984	95.19
268.216	96.19
268.448	84.19
268.681	87.19
268.913	80.19
269.145	86.19
269.377	94.19
269.609	87.19
269.841	75.19
270.073	87.19
270.306	92.19
270.538	88.19
270.77	78.19
271.002	93.19
271.234	93.19
271.466	91.19
271.698	96.19
271.93	84.19
272.162	80.19
272.394	95.19
272.626	97.19
272.858	85.19
273.09	78.19
273.322	87.19
273.553	106.19
273.785	103.19
274.017	81.19
274.249	92.19
274.481	102.19
274.713	86.19
274.945	90.19
275.176	90.19
275.408	101.19
275.64	100.19
275.872	94.19
276.104	77.19
276.335	88.19
276.567	88.19
276.799	106.19
277.031	93.19
277.262	112.19
277.494	108.19
277.726	97.19
277.957	84.19
278.189	92.19
278.421	93.19
278.652	90.19
278.884	89.19
279.115	80.19
279.347	85.19
279.579	97.19
279.81	94.19
280.042	96.19
280.273	102.19
280.505	108.19
280.736	86.19
280.968	97.19
281.199	101.19
281.431	76.19
281.662	82.19
281.894	101.19
282.125	102.19
282.356	127.19
282.588	140.19
282.819	111.19
283.051	83.19
283.282	85.19
283.513	90.19
283.745	87.19
283.976	94.19
284.207	83.19
284.439	97.19
284.67	97.19
284.901	83.19
285.132	91.19
285.364	100.19
285.595	94.19
285.826	91.19
286.057	93.19
286.288	72.19
286.52	93.19
286.751	82.19
286.982	87.19
287.213	79.19
287.444	94.19
287.675	98.19
287.906	97.19
288.138	95.19
288.369	93.19
288.6	94.19
288.831	83.19
289.062	88.19
289.293	83.19
289.524	94.19
289.755	88.19
289.986	79.19
290.217	81.19
290.448	91.19
290.679	84.19
290.91	99.19
291.141	81.19
291.371	93.19
291.602	95.19
291.833	104.19
292.064	78.19
292.295	90.19
292.526	85.19
292.757	92.19
292.987	104.19
293.218	87.19
293.449	88.19
293.68	79.19
293.91	89.19
294.141	111.19
294.372	94.19
294.603	98.19
294.833	89.19
295.064	73.19
295.295	87.19
295.525	95.19
295.756	83.19
295.987	100.19
296.217	136.19
296.448	116.19
296.679	97.19
296.909	102.19
297.14	89.19
297.37	92.19
297.601	93.19
297.831	94.19
298.062	89.19
298.292	94.19
298.523	84.19
298.753	96.19
298.984	101.19
299.214	100.19
299.445	99.19
299.675	82.19
299.905	109.19
300.136	93.19
300.366	95.19
300.597	90.19
300.827	97.19
301.057	124.19
301.288	113.19
301.518	91.19
301.748	104.19
301.979	98.19
302.209	99.19
302.439	97.19
302.669	92.19
302.9	82.19
303.13	94.19
303.36	94.19
303.59	88.19
303.82	112.19
304.051	89.19
304.281	100.19
304.511	95.19
304.741	79.19
304.971	103.19
305.201	84.19
305.431	87.19
305.661	86.19
305.891	96.19
306.121	93.19
306.352	114.19
306.582	102.19
306.812	96.19
307.042	86.19
307.272	102.19
307.502	99.19
307.731	99.19
307.961	101.19
308.191	76.19
308.421	92.19
308.651	91.19
308.881	102.19
309.111	108.19
309.341	102.19
309.571	99.19
309.8	98.19
310.03	112.19
310.26	98.19
310.49	109.19
310.72	110.19
310.949	106.19
311.179	102.19
311.409	87.19
311.639	109.19
311.868	83.19
312.098	94.19
312.328	76.19
312.557	105.19
312.787	126.19
313.017	103.19
313.246	104.19
313.476	101.19
313.706	91.19
313.935	85.19
314.165	87.19
314.394	107.19
314.624	91.19
314.853	100.19
315.083	93.19
315.312	95.19
315.542	109.19
315.771	102.19
316.001	93.19
316.23	95.19
316.46	96.19
316.689	104.19
316.919	85.19
317.148	97.19
317.377	91.19
317.607	99.19
317.836	77.19
318.065	113.19
318.295	102.19
318.524	94.19
318.753	88.19
318.983	100.19
319.212	107.19
319.441	101.19
319.67	103.19
319.9	105.19
320.129	91.19
320.358	94.19
320.587	93.19
320.816	96.19
321.046	97.19
321.275	94.19
321.504	99.19
321.733	89.19
321.962	97.19
322.191	112.19
322.42	97.19
322.649	118.19
322.878	126.19
323.108	115.19
323.337	133.19
323.566	127.19
323.795	157.19
324.024	219.19
324.253	387.19
324.482	802.19
324.71	1654.19
324.939	2156.19
325.168	792.19
325.397	230.19
325.626	155.19
325.855	127.19
326.084	124.19
326.313	133.19
326.542	158.19
326.77	237.19
326.999	474.19
327.228	924.19
327.457	1644.19
327.686	1357.19
327.914	371.19
328.143	236.19
328.372	208.19
328.6	162.19
328.829	132.19
329.058	125.19
329.287	135.19
329.515	100.19
329.744	120.19
329.972	158.19
330.201	220.19
330.43	288.19
330.658	186.19
330.887	163.19
331.115	123.19
331.344	106.19
331.572	93.19
331.801	105.19
332.03	113.19
332.258	91.19
332.486	105.19
332.715	87.19
332.943	107.19
333.172	94.19
333.4	99.19
333.629	107.19
333.857	123.19
334.085	172.19
334.314	231.19
334.542	364.19
334.771	340.19
334.999	148.19
335.227	112.19
335.455	96.19
335.684	98.19
335.912	115.19
336.14	100.19
336.369	113.19
336.597	111.19
336.825	104.19
337.053	106.19
337.281	106.19
337.51	94.19
337.738	110.19
337.966	105.19
338.194	91.19
338.422	95.19
338.65	89.19
338.878	103.19
339.106	97.19
339.334	100.19
339.562	110.19
339.79	92.19
340.018	99.19
340.246	87.19
340.474	95.19
340.702	87.19
340.93	101.19
341.158	108.19
341.386	104.19
341.614	109.19
341.842	105.19
342.07	92.19
342.298	95.19
342.526	102.19
342.754	95.19
342.981	94.19
343.209	93.19
343.437	88.19
343.665	87.19
343.893	95.19
344.12	107.19
344.348	92.19
344.576	97.19
344.804	91.19
345.031	88.19
345.259	104.19
345.487	95.19
345.714	93.19
345.942	105.19
346.17	106.19
346.397	111.19
346.625	94.19
346.853	94.19
347.08	92.19
347.308	92.19
347.535	101.19
347.763	98.19
347.99	103.19
348.218	103.19
348.445	94.19
348.673	98.19
348.9	103.19
349.128	96.19
349.355	114.19
349.583	99.19
349.81	95.19
350.037	108.19
350.265	92.19
350.492	103.19
350.72	100.19
350.947	102.19
351.174	115.19
351.402	104.19
351.629	98.19
351.856	109.19
352.083	117.19
352.311	119.19
352.538	106.19
352.765	99.19
352.992	112.19
353.22	95.19
353.447	102.19
353.674	106.19
353.901	106.19
354.128	104.19
354.355	93.19
354.583	91.19
354.81	104.19
355.037	97.19
355.264	94.19
355.491	93.19
355.718	104.19
355.945	105.19
356.172	98.19
356.399	96.19
356.626	91.19
356.853	88.19
357.08	101.19
357.307	106.19
357.534	96.19
357.761	92.19
357.988	112.19
358.215	103.19
358.441	108.19
358.668	97.19
358.895	98.19
359.122	86.19
359.349	101.19
359.576	89.19
359.802	95.19
360.029	116.19
360.256	121.19
360.483	102.19
360.709	101.19
360.936	98.19
361.163	93.19
361.39	93.19
361.616	98.19
361.843	91.19
362.07	112.19
362.296	94.19
362.523	91.19
362.749	87.19
362.976	98.19
363.203	96.19
363.429	83.19
363.656	95.19
363.882	87.19
364.109	99.19
364.335	93.19
364.562	101.19
364.788	97.19
365.015	98.19
365.241	81.19
365.468	114.19
365.694	113.19
365.92	109.19
366.147	98.19
366.373	94.19
366.599	77.19
366.826	93.19
367.052	89.19
367.278	88.19
367.505	87.19
367.731	108.19
367.957	90.19
368.184	87.19
368.41	98.19
368.636	81.19
368.862	132.19
369.089	123.19
369.315	83.19
369.541	90.19
369.767	96.19
369.993	109.19
370.219	92.19
370.445	92.19
370.672	102.19
370.898	97.19
371.124	97.19
371.35	95.19
371.576	97.19
371.802	93.19
372.028	97.19
372.254	90.19
372.48	93.19
372.706	90.19
372.932	92.19
373.158	92.19
373.384	103.19
373.61	90.19
373.835	105.19
374.061	89.19
374.287	90.19
374.513	100.19
374.739	97.19
374.965	100.19
375.191	95.19
375.416	99.19
375.642	92.19
375.868	77.19
376.094	92.19
376.319	91.19
376.545	100.19
376.771	89.19
376.997	101.19
377.222	103.19
377.448	102.19
377.674	87.19
377.899	84.19
378.125	95.19
378.35	105.19
378.576	110.19
378.802	104.19
379.027	99.19
379.253	107.19
379.478	100.19
379.704	103.19
379.929	104.19
380.155	90.19
380.38	94.19
380.606	89.19
380.831	88.19
381.057	99.19
381.282	89.19
381.507	105.19
381.733	104.19
381.958	97.19
382.184	84.19
382.409	110.19
382.634	102.19
382.86	109.19
383.085	112.19
383.31	102.19
383.535	92.19
383.761	99.19
383.986	115.19
384.211	103.19
384.436	108.19
384.662	102.19
384.887	105.19
385.112	97.19
385.337	105.19
385.562	102.19
385.787	112.19
386.013	101.19
386.238	122.19
386.463	109.19
386.688	103.19
386.913	99.19
387.138	103.19
387.363	97.19
387.588	103.19
387.813	102.19
388.038	115.19
388.263	127.19
388.488	109.19
388.713	92.19
388.938	115.19
389.163	112.19
389.387	110.19
389.612	100.19
389.837	105.19
390.062	103.19
390.287	79.19
390.512	109.19
390.736	105.19
390.961	105.19
391.186	102.19
391.411	111.19
391.636	98.19
391.86	94.19
392.085	88.19
392.31	112.19
392.534	90.19
392.759	90.19
392.984	90.19
393.208	87.19
393.433	104.19
393.658	96.19
393.882	105.19
394.107	82.19
394.331	91.19
394.556	92.19
394.78	103.19
395.005	83.19
395.229	101.19
395.454	99.19
395.678	89.19
395.903	84.19
396.127	96.19
396.352	87.19
396.576	94.19
396.801	85.19
397.025	90.19
397.249	88.19
397.474	83.19
397.698	90.19
397.922	85.19
398.147	99.19
398.371	88.19
398.595	92.19
398.82	97.19
399.044	87.19
399.268	93.19
399.492	86.19
399.717	94.19
399.941	95.19
400.165	105.19
400.389	78.19
400.613	87.19
400.837	94.19
401.062	95.19
401.286	91.19
401.51	84.19
401.734	90.19
401.958	99.19
402.182	113.19
402.406	143.19
402.63	98.19
402.854	95.19
403.078	99.19
403.302	105.19
403.526	102.19
403.75	94.19
403.974	100.19
404.198	84.19
404.422	95.19
404.645	93.19
404.869	92.19
405.093	101.19
405.317	114.19
405.541	106.19
405.765	97.19
405.988	118.19
406.212	167.19
406.436	205.19
406.66	148.19
406.883	98.19
407.107	101.19
407.331	103.19
407.555	100.19
407.778	93.19
408.002	101.19
408.226	93.19
408.449	96.19
408.673	96.19
408.896	96.19
409.12	90.19
409.344	97.19
409.567	84.19
409.791	124.19
410.014	99.19
410.238	103.19
410.461	90.19
410.685	101.19
410.908	91.19
411.132	104.19
411.355	104.19
411.578	96.19
411.802	98.19
412.025	95.19
412.249	98.19
412.472	102.19
412.695	98.19
412.919	87.19
413.142	84.19
413.365	108.19
413.589	94.19
413.812	87.19
414.035	87.19
414.258	97.19
414.482	96.19
414.705	81.19
414.928	91.19
415.151	86.19
415.374	99.19
415.597	100.19
415.821	97.19
416.044	102.19
416.267	98.19
416.49	94.19
416.713	78.19
416.936	92.19
417.159	76.19
417.382	97.19
417.605	105.19
417.828	84.19
418.051	90.19
418.274	94.19
418.497	89.19
418.72	102.19
418.943	100.19
419.166	102.19
419.389	86.19
419.611	89.19
419.834	94.19
420.057	90.19
420.28	111.19
420.503	100.19
420.726	81.19
420.948	93.19
421.171	90.19
421.394	103.19
421.617	101.19
421.839	88.19
422.062	89.19
422.285	113.19
422.507	108.19
422.73	110.19
422.953	94.19
423.175	103.19
423.398	92.19
423.621	97.19
423.843	80.19
424.066	102.19
424.288	93.19
424.511	85.19
424.733	99.19
424.956	111.19
425.178	98.19
425.401	111.19
425.623	109.19
425.846	115.19
426.068	89.19
426.291	99.19
426.513	94.19
426.735	80.19
426.958	83.19
427.18	123.19
427.402	142.19
427.625	171.19
427.847	152.19
428.069	152.19
428.292	95.19
428.514	103.19
428.736	87.19
428.958	89.19
429.181	82.19
429.403	101.19
429.625	102.19
429.847	95.19
430.069	82.19
430.292	85.19
430.514	95.19
430.736	88.19
430.958	84.19
431.18	94.19
431.402	91.19
431.624	97.19
431.846	91.19
432.068	93.19
432.29	92.19
432.512	95.19
432.734	80.19
432.956	110.19
433.178	100.19
433.4	114.19
433.622	80.19
433.844	85.19
434.066	102.19
434.287	96.19
434.509	89.19
434.731	101.19
434.953	102.19
435.175	95.19
435.397	92.19
435.618	92.19
435.84	100.19
436.062	141.19
436.284	120.19
436.505	110.19
436.727	98.19
436.949	96.19
437.17	89.19
437.392	104.19
437.614	98.19
437.835	109.19
438.057	121.19
438.278	114.19
438.5	112.19
438.721	129.19
438.943	93.19
439.165	87.19
439.386	92.19
439.608	100.19
439.829	97.19
440.05	114.19
440.272	154.19
440.493	109.19
440.715	99.19
440.936	99.19
441.158	99.19
441.379	88.19
441.6	94.19
441.822	97.19
442.043	95.19
442.264	101.19
442.486	112.19
442.707	94.19
442.928	100.19
443.149	115.19
443.371	135.19
443.592	102.19
443.813	118.19
444.034	115.19
444.255	82.19
444.476	85.19
444.698	99.19
444.919	87.19
445.14	129.19
445.361	133.19
445.582	108.19
445.803	138.19
446.024	141.19
446.245	133.19
446.466	122.19
446.687	117.19
446.908	87.19
447.129	91.19
447.35	95.19
447.571	95.19
447.792	103.19
448.013	102.19
448.234	122.19
448.455	105.19
448.675	106.19
448.896	134.19
449.117	88.19
449.338	102.19
449.559	114.19
449.779	144.19
450	89.19
450.221	90.19
450.442	85.19
450.662	101.19
450.883	99.19
451.104	100.19
451.324	98.19
451.545	108.19
451.766	88.19
451.986	79.19
452.207	101.19
452.428	97.19
452.648	109.19
452.869	104.19
453.089	121.19
453.31	118.19
453.53	98.19
453.751	104.19
453.971	109.19
454.192	119.19
454.412	95.19
454.633	86.19
454.853	79.19
455.073	96.19
455.294	86.19
455.514	99.19
455.734	112.19
455.955	104.19
456.175	83.19
456.395	71.19
456.616	92.19
456.836	101.19
457.056	96.19
457.276	88.19
457.497	90.19
457.717	92.19
457.937	91.19
458.157	102.19
458.377	90.19
458.598	107.19
458.818	132.19
459.038	151.19
459.258	125.19
459.478	104.19
459.698	105.19
459.918	89.19
460.138	69.19
460.358	95.19
460.578	97.19
460.798	88.19
461.018	82.19
461.238	82.19
461.458	99.19
461.678	94.19
461.898	84.19
462.118	80.19
462.338	81.19
462.558	102.19
462.777	105.19
462.997	105.19
463.217	103.19
463.437	90.19
463.657	90.19
463.876	82.19
464.096	95.19
464.316	106.19
464.536	83.19
464.755	97.19
464.975	99.19
465.195	163.19
465.414	159.19
465.634	96.19
465.854	92.19
466.073	92.19
466.293	97.19
466.512	80.19
466.732	93.19
466.951	91.19
467.171	98.19
467.391	91.19
467.61	119.19
467.829	123.19
468.049	152.19
468.268	199.19
468.488	98.19
468.707	87.19
468.927	95.19
469.146	91.19
469.365	90.19
469.585	93.19
469.804	94.19
470.023	101.19
470.243	96.19
470.462	105.19
470.681	93.19
470.901	94.19
471.12	95.19
471.339	97.19
471.558	93.19
471.777	96.19
471.997	115.19
472.216	249.19
472.435	477.19
472.654	189.19
472.873	112.19
473.092	106.19
473.311	92.19
473.53	75.19
473.749	82.19
473.968	91.19
474.187	101.19
474.406	102.19
474.625	104.19
474.844	95.19
475.063	105.19
475.282	94.19
475.501	88.19
475.72	98.19
475.939	86.19
476.158	89.19
476.377	96.19
476.596	96.19
476.814	90.19
477.033	92.19
477.252	79.19
477.471	92.19
477.69	98.19
477.908	86.19
478.127	92.19
478.346	98.19
478.564	94.19
478.783	90.19
479.002	99.19
479.22	93.19
479.439	95.19
479.658	99.19
479.876	108.19
480.095	104.19
480.313	95.19
480.532	101.19
480.751	130.19
480.969	254.19
481.188	778.19
481.406	515.19
481.624	128.19
481.843	103.19
482.061	90.19
482.28	106.19
482.498	91.19
482.717	100.19
482.935	66.19
483.153	80.19
483.372	77.19
483.59	89.19
483.808	100.19
484.027	100.19
484.245	93.19
484.463	103.19
484.681	96.19
484.9	101.19
485.118	84.19
485.336	98.19
485.554	94.19
485.772	95.19
485.99	114.19
486.209	103.19
486.427	99.19
486.645	120.19
486.863	132.19
487.081	105.19
487.299	81.19
487.517	99.19
487.735	96.19
487.953	100.19
488.171	96.19
488.389	90.19
488.607	94.19
488.825	92.19
489.043	96.19
489.261	93.19
489.479	107.19
489.696	96.19
489.914	100.19
490.132	95.19
490.35	84.19
490.568	81.19
490.786	98.19
491.003	107.19
491.221	100.19
491.439	92.19
491.657	96.19
491.874	100.19
492.092	97.19
492.31	99.19
492.527	88.19
492.745	91.19
492.963	93.19
493.18	91.19
493.398	97.19
493.615	90.19
493.833	97.19
494.05	82.19
494.268	86.19
494.485	95.19
494.703	110.19
494.92	97.19
495.138	87.19
495.355	82.19
495.573	109.19
495.79	100.19
496.008	94.19
496.225	97.19
496.442	92.19
496.66	87.19
496.877	93.19
497.094	96.19
497.312	98.19
497.529	95.19
497.746	89.19
497.963	97.19
498.181	104.19
498.398	92.19
498.615	102.19
498.832	104.19
499.049	80.19
499.267	107.19
499.484	97.19
499.701	99.19
499.918	102.19
500.135	94.19
500.352	88.19
500.569	109.19
500.786	104.19
501.003	91.19
501.22	87.19
501.437	84.19
501.654	92.19
501.871	108.19
502.088	101.19
502.305	92.19
502.522	110.19
502.739	95.19
502.956	93.19
503.172	96.19
503.389	106.19
503.606	90.19
503.823	94.19
504.04	97.19
504.256	82.19
504.473	89.19
504.69	91.19
504.907	97.19
505.123	92.19
505.34	98.19
505.557	88.19
505.773	90.19
505.99	97.19
506.207	92.19
506.423	96.19
506.64	95.19
506.856	95.19
507.073	109.19
507.289	94.19
507.506	98.19
507.722	118.19
507.939	107.19
508.155	103.19
508.372	105.19
508.588	109.19
508.805	94.19
509.021	97.19
509.238	100.19
509.454	100.19
509.67	109.19
509.887	106.19
510.103	140.19
510.319	210.19
510.536	626.19
510.752	1985.19
510.968	583.19
511.184	150.19
511.401	94.19
511.617	95.19
511.833	114.19
512.049	90.19
512.265	102.19
512.481	104.19
512.698	105.19
512.914	97.19
513.13	88.19
513.346	101.19
513.562	96.19
513.778	97.19
