Data from Circ_2015_H10_HRD10591_00070.txt Node
Date: Wed Jan 03 10:00:36 EST 2024
User: Yrep
Spectrometer: HR+D1059
Trigger mode: 1
Integration Time (sec): 1.000000E-1
Scans to average: 1
Electric dark correction enabled: true
Nonlinearity correction enabled: false
Boxcar width: 0
XAxis mode: Wavelengths
Number of Pixels in Spectrum: 2048
>>>>>Begin Spectral Data<<<<<
223.165	-12.44
223.4	-12.44
223.635	-12.44
223.869	-30.44
224.104	-25.44
224.338	-19.44
224.573	-9.44
224.808	-20.44
225.042	-8.44
225.277	-5.44
225.511	-2.44
225.746	-0.44
225.98	13.56
226.215	19.56
226.449	17.56
226.683	11.56
226.918	34.56
227.152	37.56
227.387	34.56
227.621	39.56
227.856	39.56
228.09	53.56
228.324	52.56
228.559	63.56
228.793	45.56
229.027	66.56
229.262	70.56
229.496	71.56
229.73	88.56
229.964	93.56
230.199	82.56
230.433	64.56
230.667	83.56
230.901	52.56
231.136	75.56
231.37	67.56
231.604	71.56
231.838	73.56
232.072	84.56
232.306	77.56
232.541	82.56
232.775	95.56
233.009	84.56
233.243	94.56
233.477	77.56
233.711	85.56
233.945	67.56
234.179	81.56
234.413	89.56
234.647	85.56
234.881	83.56
235.115	77.56
235.349	84.56
235.583	96.56
235.817	85.56
236.051	81.56
236.285	71.56
236.519	88.56
236.753	88.56
236.987	74.56
237.221	87.56
237.455	87.56
237.689	74.56
237.922	90.56
238.156	85.56
238.39	84.56
238.624	62.56
238.858	81.56
239.091	73.56
239.325	88.56
239.559	71.56
239.793	73.56
240.027	91.56
240.26	77.56
240.494	88.56
240.728	92.56
240.961	75.56
241.195	77.56
241.429	57.56
241.662	81.56
241.896	87.56
242.13	76.56
242.363	83.56
242.597	80.56
242.83	68.56
243.064	83.56
243.298	85.56
243.531	79.56
243.765	79.56
243.998	86.56
244.232	92.56
244.465	84.56
244.699	94.56
244.932	77.56
245.166	89.56
245.399	85.56
245.633	75.56
245.866	84.56
246.099	80.56
246.333	79.56
246.566	78.56
246.8	90.56
247.033	87.56
247.266	73.56
247.5	81.56
247.733	80.56
247.966	71.56
248.2	80.56
248.433	85.56
248.666	99.56
248.899	91.56
249.133	91.56
249.366	89.56
249.599	102.56
249.832	89.56
250.066	90.56
250.299	86.56
250.532	88.56
250.765	73.56
250.998	78.56
251.231	86.56
251.465	77.56
251.698	71.56
251.931	73.56
252.164	91.56
252.397	72.56
252.63	77.56
252.863	78.56
253.096	84.56
253.329	83.56
253.562	85.56
253.795	90.56
254.028	65.56
254.261	90.56
254.494	88.56
254.727	85.56
254.96	95.56
255.193	92.56
255.426	74.56
255.659	75.56
255.892	100.56
256.124	98.56
256.357	84.56
256.59	91.56
256.823	82.56
257.056	71.56
257.289	83.56
257.521	78.56
257.754	81.56
257.987	83.56
258.22	82.56
258.452	89.56
258.685	100.56
258.918	83.56
259.151	85.56
259.383	93.56
259.616	84.56
259.849	82.56
260.081	100.56
260.314	99.56
260.547	76.56
260.779	103.56
261.012	78.56
261.244	92.56
261.477	90.56
261.71	88.56
261.942	89.56
262.175	111.56
262.407	88.56
262.64	89.56
262.872	97.56
263.105	77.56
263.337	94.56
263.57	85.56
263.802	88.56
264.035	86.56
264.267	87.56
264.499	93.56
264.732	87.56
264.964	86.56
265.197	82.56
265.429	80.56
265.661	91.56
265.894	86.56
266.126	86.56
266.358	88.56
266.591	76.56
266.823	74.56
267.055	88.56
267.287	88.56
267.52	94.56
267.752	80.56
267.984	94.56
268.216	78.56
268.448	82.56
268.681	85.56
268.913	85.56
269.145	90.56
269.377	99.56
269.609	87.56
269.841	91.56
270.073	89.56
270.306	86.56
270.538	93.56
270.77	102.56
271.002	87.56
271.234	89.56
271.466	86.56
271.698	98.56
271.93	88.56
272.162	92.56
272.394	76.56
272.626	93.56
272.858	87.56
273.09	84.56
273.322	98.56
273.553	102.56
273.785	79.56
274.017	79.56
274.249	90.56
274.481	84.56
274.713	91.56
274.945	87.56
275.176	80.56
275.408	91.56
275.64	97.56
275.872	96.56
276.104	92.56
276.335	111.56
276.567	111.56
276.799	102.56
277.031	103.56
277.262	98.56
277.494	113.56
277.726	98.56
277.957	91.56
278.189	91.56
278.421	96.56
278.652	79.56
278.884	77.56
279.115	87.56
279.347	89.56
279.579	85.56
279.81	79.56
280.042	104.56
280.273	110.56
280.505	96.56
280.736	105.56
280.968	92.56
281.199	89.56
281.431	87.56
281.662	91.56
281.894	84.56
282.125	101.56
282.356	93.56
282.588	118.56
282.819	114.56
283.051	80.56
283.282	91.56
283.513	104.56
283.745	86.56
283.976	102.56
284.207	83.56
284.439	88.56
284.67	86.56
284.901	92.56
285.132	88.56
285.364	85.56
285.595	89.56
285.826	80.56
286.057	103.56
286.288	82.56
286.52	89.56
286.751	88.56
286.982	96.56
287.213	87.56
287.444	87.56
287.675	103.56
287.906	96.56
288.138	82.56
288.369	89.56
288.6	93.56
288.831	88.56
289.062	87.56
289.293	84.56
289.524	80.56
289.755	87.56
289.986	96.56
290.217	98.56
290.448	95.56
290.679	87.56
290.91	78.56
291.141	86.56
291.371	95.56
291.602	96.56
291.833	90.56
292.064	91.56
292.295	78.56
292.526	93.56
292.757	82.56
292.987	97.56
293.218	98.56
293.449	95.56
293.68	87.56
293.91	77.56
294.141	96.56
294.372	90.56
294.603	88.56
294.833	86.56
295.064	95.56
295.295	94.56
295.525	105.56
295.756	103.56
295.987	126.56
296.217	130.56
296.448	138.56
296.679	94.56
296.909	86.56
297.14	93.56
297.37	100.56
297.601	86.56
297.831	92.56
298.062	78.56
298.292	80.56
298.523	95.56
298.753	83.56
298.984	88.56
299.214	94.56
299.445	105.56
299.675	100.56
299.905	98.56
300.136	99.56
300.366	89.56
300.597	84.56
300.827	101.56
301.057	97.56
301.288	98.56
301.518	84.56
301.748	94.56
301.979	101.56
302.209	93.56
302.439	93.56
302.669	84.56
302.9	84.56
303.13	94.56
303.36	113.56
303.59	104.56
303.82	94.56
304.051	103.56
304.281	103.56
304.511	99.56
304.741	63.56
304.971	83.56
305.201	91.56
305.431	88.56
305.661	74.56
305.891	87.56
306.121	93.56
306.352	108.56
306.582	100.56
306.812	113.56
307.042	98.56
307.272	90.56
307.502	104.56
307.731	115.56
307.961	105.56
308.191	106.56
308.421	126.56
308.651	93.56
308.881	84.56
309.111	99.56
309.341	91.56
309.571	102.56
309.8	92.56
310.03	99.56
310.26	98.56
310.49	106.56
310.72	80.56
310.949	104.56
311.179	90.56
311.409	102.56
311.639	88.56
311.868	87.56
312.098	91.56
312.328	99.56
312.557	97.56
312.787	109.56
313.017	95.56
313.246	111.56
313.476	95.56
313.706	83.56
313.935	98.56
314.165	104.56
314.394	95.56
314.624	98.56
314.853	99.56
315.083	98.56
315.312	79.56
315.542	88.56
315.771	85.56
316.001	95.56
316.23	85.56
316.46	81.56
316.689	94.56
316.919	79.56
317.148	101.56
317.377	109.56
317.607	94.56
317.836	95.56
318.065	98.56
318.295	106.56
318.524	101.56
318.753	91.56
318.983	98.56
319.212	102.56
319.441	95.56
319.67	98.56
319.9	102.56
320.129	100.56
320.358	103.56
320.587	76.56
320.816	95.56
321.046	108.56
321.275	108.56
321.504	102.56
321.733	90.56
321.962	96.56
322.191	89.56
322.42	103.56
322.649	102.56
322.878	111.56
323.108	107.56
323.337	118.56
323.566	118.56
323.795	152.56
324.024	209.56
324.253	368.56
324.482	757.56
324.71	1539.56
324.939	2016.56
325.168	748.56
325.397	241.56
325.626	154.56
325.855	111.56
326.084	116.56
326.313	122.56
326.542	149.56
326.77	216.56
326.999	415.56
327.228	887.56
327.457	1595.56
327.686	1255.56
327.914	348.56
328.143	204.56
328.372	194.56
328.6	150.56
328.829	123.56
329.058	132.56
329.287	120.56
329.515	127.56
329.744	110.56
329.972	148.56
330.201	186.56
330.43	230.56
330.658	164.56
330.887	144.56
331.115	132.56
331.344	104.56
331.572	111.56
331.801	89.56
332.03	97.56
332.258	86.56
332.486	91.56
332.715	92.56
332.943	96.56
333.172	115.56
333.4	108.56
333.629	95.56
333.857	111.56
334.085	155.56
334.314	209.56
334.542	315.56
334.771	299.56
334.999	140.56
335.227	113.56
335.455	111.56
335.684	122.56
335.912	101.56
336.14	93.56
336.369	100.56
336.597	89.56
336.825	109.56
337.053	93.56
337.281	92.56
337.51	91.56
337.738	100.56
337.966	99.56
338.194	95.56
338.422	93.56
338.65	91.56
338.878	93.56
339.106	80.56
339.334	94.56
339.562	102.56
339.79	96.56
340.018	101.56
340.246	92.56
340.474	94.56
340.702	99.56
340.93	94.56
341.158	98.56
341.386	91.56
341.614	94.56
341.842	92.56
342.07	84.56
342.298	87.56
342.526	93.56
342.754	90.56
342.981	91.56
343.209	93.56
343.437	99.56
343.665	89.56
343.893	85.56
344.12	94.56
344.348	92.56
344.576	83.56
344.804	83.56
345.031	102.56
345.259	107.56
345.487	90.56
345.714	94.56
345.942	104.56
346.17	89.56
346.397	104.56
346.625	98.56
346.853	88.56
347.08	91.56
347.308	84.56
347.535	90.56
347.763	81.56
347.99	98.56
348.218	91.56
348.445	99.56
348.673	97.56
348.9	88.56
349.128	97.56
349.355	95.56
349.583	94.56
349.81	106.56
350.037	88.56
350.265	92.56
350.492	100.56
350.72	98.56
350.947	99.56
351.174	104.56
351.402	108.56
351.629	93.56
351.856	119.56
352.083	85.56
352.311	104.56
352.538	107.56
352.765	107.56
352.992	114.56
353.22	120.56
353.447	98.56
353.674	104.56
353.901	101.56
354.128	114.56
354.355	103.56
354.583	96.56
354.81	104.56
355.037	101.56
355.264	101.56
355.491	106.56
355.718	94.56
355.945	95.56
356.172	91.56
356.399	100.56
356.626	109.56
356.853	95.56
357.08	109.56
357.307	94.56
357.534	103.56
357.761	90.56
357.988	87.56
358.215	87.56
358.441	104.56
358.668	86.56
358.895	85.56
359.122	90.56
359.349	88.56
359.576	102.56
359.802	86.56
360.029	99.56
360.256	106.56
360.483	109.56
360.709	99.56
360.936	94.56
361.163	82.56
361.39	91.56
361.616	99.56
361.843	75.56
362.07	102.56
362.296	103.56
362.523	92.56
362.749	97.56
362.976	93.56
363.203	90.56
363.429	94.56
363.656	77.56
363.882	91.56
364.109	92.56
364.335	87.56
364.562	88.56
364.788	104.56
365.015	104.56
365.241	100.56
365.468	109.56
365.694	95.56
365.92	99.56
366.147	87.56
366.373	89.56
366.599	97.56
366.826	98.56
367.052	79.56
367.278	93.56
367.505	90.56
367.731	94.56
367.957	101.56
368.184	95.56
368.41	86.56
368.636	106.56
368.862	112.56
369.089	94.56
369.315	85.56
369.541	96.56
369.767	89.56
369.993	94.56
370.219	95.56
370.445	92.56
370.672	89.56
370.898	98.56
371.124	95.56
371.35	90.56
371.576	90.56
371.802	91.56
372.028	79.56
372.254	89.56
372.48	106.56
372.706	109.56
372.932	87.56
373.158	90.56
373.384	92.56
373.61	92.56
373.835	92.56
374.061	89.56
374.287	87.56
374.513	96.56
374.739	99.56
374.965	85.56
375.191	85.56
375.416	102.56
375.642	98.56
375.868	93.56
376.094	91.56
376.319	107.56
376.545	87.56
376.771	100.56
376.997	88.56
377.222	95.56
377.448	81.56
377.674	86.56
377.899	96.56
378.125	98.56
378.35	88.56
378.576	92.56
378.802	94.56
379.027	77.56
379.253	93.56
379.478	100.56
379.704	90.56
379.929	93.56
380.155	109.56
380.38	106.56
380.606	102.56
380.831	103.56
381.057	85.56
381.282	94.56
381.507	98.56
381.733	95.56
381.958	109.56
382.184	88.56
382.409	98.56
382.634	96.56
382.86	85.56
383.085	114.56
383.31	114.56
383.535	102.56
383.761	99.56
383.986	102.56
384.211	105.56
384.436	77.56
384.662	93.56
384.887	100.56
385.112	99.56
385.337	103.56
385.562	101.56
385.787	101.56
386.013	110.56
386.238	120.56
386.463	90.56
386.688	100.56
386.913	109.56
387.138	111.56
387.363	98.56
387.588	130.56
387.813	104.56
388.038	128.56
388.263	116.56
388.488	99.56
388.713	101.56
388.938	97.56
389.163	92.56
389.387	94.56
389.612	108.56
389.837	110.56
390.062	76.56
390.287	99.56
390.512	92.56
390.736	80.56
390.961	93.56
391.186	111.56
391.411	104.56
391.636	105.56
391.86	90.56
392.085	91.56
392.31	86.56
392.534	96.56
392.759	83.56
392.984	80.56
393.208	105.56
393.433	98.56
393.658	89.56
393.882	87.56
394.107	98.56
394.331	87.56
394.556	87.56
394.78	91.56
395.005	84.56
395.229	93.56
395.454	90.56
395.678	96.56
395.903	80.56
396.127	79.56
396.352	83.56
396.576	93.56
396.801	98.56
397.025	92.56
397.249	92.56
397.474	87.56
397.698	76.56
397.922	93.56
398.147	84.56
398.371	85.56
398.595	102.56
398.82	84.56
399.044	87.56
399.268	87.56
399.492	93.56
399.717	90.56
399.941	100.56
400.165	99.56
400.389	91.56
400.613	89.56
400.837	98.56
401.062	82.56
401.286	88.56
401.51	79.56
401.734	90.56
401.958	93.56
402.182	107.56
402.406	147.56
402.63	110.56
402.854	86.56
403.078	81.56
403.302	92.56
403.526	87.56
403.75	88.56
403.974	91.56
404.198	91.56
404.422	85.56
404.645	92.56
404.869	104.56
405.093	103.56
405.317	107.56
405.541	111.56
405.765	94.56
405.988	108.56
406.212	156.56
406.436	192.56
406.66	125.56
406.883	100.56
407.107	105.56
407.331	100.56
407.555	99.56
407.778	104.56
408.002	109.56
408.226	114.56
408.449	93.56
408.673	89.56
408.896	116.56
409.12	91.56
409.344	101.56
409.567	100.56
409.791	99.56
410.014	93.56
410.238	103.56
410.461	95.56
410.685	95.56
410.908	102.56
411.132	104.56
411.355	75.56
411.578	108.56
411.802	102.56
412.025	89.56
412.249	112.56
412.472	107.56
412.695	110.56
412.919	95.56
413.142	89.56
413.365	79.56
413.589	89.56
413.812	103.56
414.035	91.56
414.258	95.56
414.482	107.56
414.705	85.56
414.928	107.56
415.151	82.56
415.374	90.56
415.597	99.56
415.821	100.56
416.044	90.56
416.267	87.56
416.49	91.56
416.713	90.56
416.936	101.56
417.159	86.56
417.382	97.56
417.605	72.56
417.828	95.56
418.051	100.56
418.274	94.56
418.497	89.56
418.72	87.56
418.943	72.56
419.166	87.56
419.389	79.56
419.611	85.56
419.834	99.56
420.057	93.56
420.28	77.56
420.503	86.56
420.726	98.56
420.948	89.56
421.171	92.56
421.394	102.56
421.617	95.56
421.839	75.56
422.062	83.56
422.285	97.56
422.507	93.56
422.73	110.56
422.953	99.56
423.175	84.56
423.398	89.56
423.621	82.56
423.843	82.56
424.066	94.56
424.288	92.56
424.511	107.56
424.733	96.56
424.956	102.56
425.178	107.56
425.401	98.56
425.623	87.56
425.846	104.56
426.068	104.56
426.291	85.56
426.513	98.56
426.735	97.56
426.958	91.56
427.18	94.56
427.402	133.56
427.625	158.56
427.847	129.56
428.069	137.56
428.292	99.56
428.514	94.56
428.736	101.56
428.958	86.56
429.181	82.56
429.403	76.56
429.625	89.56
429.847	89.56
430.069	89.56
430.292	91.56
430.514	71.56
430.736	100.56
430.958	84.56
431.18	82.56
431.402	89.56
431.624	75.56
431.846	71.56
432.068	87.56
432.29	101.56
432.512	85.56
432.734	95.56
432.956	78.56
433.178	80.56
433.4	94.56
433.622	102.56
433.844	109.56
434.066	99.56
434.287	70.56
434.509	84.56
434.731	93.56
434.953	107.56
435.175	83.56
435.397	82.56
435.618	91.56
435.84	107.56
436.062	124.56
436.284	97.56
436.505	103.56
436.727	99.56
436.949	85.56
437.17	91.56
437.392	72.56
437.614	100.56
437.835	107.56
438.057	112.56
438.278	115.56
438.5	109.56
438.721	116.56
438.943	109.56
439.165	84.56
439.386	84.56
439.608	90.56
439.829	93.56
440.05	101.56
440.272	134.56
440.493	108.56
440.715	88.56
440.936	90.56
441.158	76.56
441.379	91.56
441.6	103.56
441.822	88.56
442.043	85.56
442.264	103.56
442.486	104.56
442.707	101.56
442.928	106.56
443.149	122.56
443.371	120.56
443.592	116.56
443.813	96.56
444.034	111.56
444.255	89.56
444.476	92.56
444.698	85.56
444.919	95.56
445.14	116.56
445.361	122.56
445.582	111.56
445.803	138.56
446.024	137.56
446.245	130.56
446.466	120.56
446.687	94.56
446.908	96.56
447.129	83.56
447.35	95.56
447.571	83.56
447.792	105.56
448.013	102.56
448.234	110.56
448.455	104.56
448.675	94.56
448.896	115.56
449.117	109.56
449.338	100.56
449.559	114.56
449.779	133.56
450	97.56
450.221	93.56
450.442	98.56
450.662	94.56
450.883	100.56
451.104	103.56
451.324	99.56
451.545	85.56
451.766	85.56
451.986	100.56
452.207	90.56
452.428	96.56
452.648	102.56
452.869	111.56
453.089	101.56
453.31	110.56
453.53	89.56
453.751	94.56
453.971	102.56
454.192	101.56
454.412	100.56
454.633	87.56
454.853	70.56
455.073	93.56
455.294	79.56
455.514	99.56
455.734	80.56
455.955	85.56
456.175	85.56
456.395	84.56
456.616	104.56
456.836	89.56
457.056	80.56
457.276	97.56
457.497	66.56
457.717	92.56
457.937	93.56
458.157	85.56
458.377	92.56
458.598	102.56
458.818	130.56
459.038	151.56
459.258	109.56
459.478	100.56
459.698	100.56
459.918	93.56
460.138	86.56
460.358	86.56
460.578	81.56
460.798	92.56
461.018	89.56
461.238	92.56
461.458	100.56
461.678	83.56
461.898	95.56
462.118	94.56
462.338	93.56
462.558	85.56
462.777	90.56
462.997	79.56
463.217	72.56
463.437	78.56
463.657	86.56
463.876	94.56
464.096	102.56
464.316	83.56
464.536	94.56
464.755	92.56
464.975	108.56
465.195	145.56
465.414	144.56
465.634	93.56
465.854	99.56
466.073	92.56
466.293	85.56
466.512	77.56
466.732	90.56
466.951	109.56
467.171	92.56
467.391	95.56
467.61	107.56
467.829	95.56
468.049	153.56
468.268	175.56
468.488	108.56
468.707	93.56
468.927	85.56
469.146	77.56
469.365	102.56
469.585	95.56
469.804	87.56
470.023	92.56
470.243	91.56
470.462	108.56
470.681	103.56
470.901	91.56
471.12	83.56
471.339	84.56
471.558	88.56
471.777	91.56
471.997	115.56
472.216	218.56
472.435	395.56
472.654	148.56
472.873	106.56
473.092	94.56
473.311	88.56
473.53	91.56
473.749	100.56
473.968	90.56
474.187	96.56
474.406	83.56
474.625	88.56
474.844	81.56
475.063	87.56
475.282	88.56
475.501	83.56
475.72	99.56
475.939	93.56
476.158	94.56
476.377	80.56
476.596	100.56
476.814	84.56
477.033	92.56
477.252	98.56
477.471	95.56
477.69	86.56
477.908	79.56
478.127	99.56
478.346	93.56
478.564	95.56
478.783	90.56
479.002	91.56
479.22	89.56
479.439	88.56
479.658	117.56
479.876	93.56
480.095	95.56
480.313	94.56
480.532	113.56
480.751	122.56
480.969	236.56
481.188	660.56
481.406	435.56
481.624	126.56
481.843	94.56
482.061	87.56
482.28	88.56
482.498	104.56
482.717	88.56
482.935	80.56
483.153	92.56
483.372	77.56
483.59	85.56
483.808	80.56
484.027	89.56
484.245	86.56
484.463	93.56
484.681	98.56
484.9	86.56
485.118	87.56
485.336	86.56
485.554	103.56
485.772	103.56
485.99	94.56
486.209	109.56
486.427	98.56
486.645	99.56
486.863	101.56
487.081	93.56
487.299	93.56
487.517	96.56
487.735	95.56
487.953	97.56
488.171	98.56
488.389	93.56
488.607	92.56
488.825	85.56
489.043	93.56
489.261	89.56
489.479	87.56
489.696	94.56
489.914	99.56
490.132	79.56
490.35	79.56
490.568	96.56
490.786	75.56
491.003	105.56
491.221	107.56
491.439	100.56
491.657	95.56
491.874	90.56
492.092	91.56
492.31	88.56
492.527	100.56
492.745	77.56
492.963	86.56
493.18	93.56
493.398	108.56
493.615	97.56
493.833	93.56
494.05	84.56
494.268	82.56
494.485	99.56
494.703	92.56
494.92	98.56
495.138	93.56
495.355	111.56
495.573	96.56
495.79	100.56
496.008	81.56
496.225	101.56
496.442	80.56
496.66	90.56
496.877	84.56
497.094	102.56
497.312	92.56
497.529	99.56
497.746	89.56
497.963	75.56
498.181	103.56
498.398	89.56
498.615	100.56
498.832	101.56
499.049	101.56
499.267	92.56
499.484	86.56
499.701	89.56
499.918	84.56
500.135	70.56
500.352	91.56
500.569	109.56
500.786	101.56
501.003	91.56
501.22	95.56
501.437	106.56
501.654	94.56
501.871	94.56
502.088	79.56
502.305	103.56
502.522	82.56
502.739	90.56
502.956	95.56
503.172	100.56
503.389	95.56
503.606	106.56
503.823	98.56
504.04	90.56
504.256	86.56
504.473	94.56
504.69	86.56
504.907	100.56
505.123	96.56
505.34	106.56
505.557	92.56
505.773	87.56
505.99	95.56
506.207	89.56
506.423	92.56
506.64	89.56
506.856	102.56
507.073	98.56
507.289	102.56
507.506	86.56
507.722	96.56
507.939	103.56
508.155	84.56
508.372	79.56
508.588	97.56
508.805	97.56
509.021	88.56
509.238	100.56
509.454	93.56
509.67	99.56
509.887	107.56
510.103	111.56
510.319	207.56
510.536	627.56
510.752	1896.56
510.968	598.56
511.184	150.56
511.401	100.56
511.617	109.56
511.833	86.56
512.049	99.56
512.265	94.56
512.481	88.56
512.698	95.56
512.914	95.56
513.13	96.56
513.346	83.56
513.562	97.56
513.778	100.56
513.994	94.56
514.21	102.56
514.426	110.56
514.642	127.56
