Data from Circ_2015_H10_HRD10591_00072.txt Node
Date: Wed Jan 03 10:00:37 EST 2024
User: Yrep
Spectrometer: HR+D1059
Trigger mode: 1
Integration Time (sec): 1.000000E-1
Scans to average: 1
Electric dark correction enabled: true
Nonlinearity correction enabled: false
Boxcar width: 0
XAxis mode: Wavelengths
Number of Pixels in Spectrum: 2048
>>>>>Begin Spectral Data<<<<<
223.165	-15.38
223.4	-15.38
223.635	-15.38
223.869	-33.38
224.104	-28.38
224.338	-1.38
224.573	1.62
224.808	3.62
225.042	-10.38
225.277	-9.38
225.511	4.62
225.746	4.62
225.98	1.62
226.215	-1.38
226.449	8.62
226.683	18.62
226.918	36.62
227.152	19.62
227.387	36.62
227.621	37.62
227.856	55.62
228.09	50.62
228.324	55.62
228.559	55.62
228.793	59.62
229.027	62.62
229.262	55.62
229.496	64.62
229.73	75.62
229.964	73.62
230.199	75.62
230.433	70.62
230.667	79.62
230.901	88.62
231.136	79.62
231.37	70.62
231.604	82.62
231.838	73.62
232.072	72.62
232.306	86.62
232.541	86.62
232.775	82.62
233.009	80.62
233.243	86.62
233.477	78.62
233.711	83.62
233.945	74.62
234.179	77.62
234.413	82.62
234.647	70.62
234.881	76.62
235.115	72.62
235.349	85.62
235.583	71.62
235.817	76.62
236.051	73.62
236.285	76.62
236.519	76.62
236.753	76.62
236.987	97.62
237.221	81.62
237.455	85.62
237.689	68.62
237.922	73.62
238.156	78.62
238.39	69.62
238.624	88.62
238.858	75.62
239.091	79.62
239.325	90.62
239.559	85.62
239.793	80.62
240.027	72.62
240.26	80.62
240.494	79.62
240.728	70.62
240.961	59.62
241.195	78.62
241.429	80.62
241.662	69.62
241.896	70.62
242.13	82.62
242.363	74.62
242.597	79.62
242.83	79.62
243.064	90.62
243.298	70.62
243.531	71.62
243.765	84.62
243.998	66.62
244.232	63.62
244.465	72.62
244.699	73.62
244.932	80.62
245.166	83.62
245.399	90.62
245.633	76.62
245.866	75.62
246.099	89.62
246.333	76.62
246.566	78.62
246.8	76.62
247.033	84.62
247.266	66.62
247.5	81.62
247.733	64.62
247.966	70.62
248.2	74.62
248.433	82.62
248.666	75.62
248.899	73.62
249.133	83.62
249.366	94.62
249.599	93.62
249.832	90.62
250.066	87.62
250.299	79.62
250.532	89.62
250.765	71.62
250.998	70.62
251.231	88.62
251.465	87.62
251.698	79.62
251.931	85.62
252.164	69.62
252.397	86.62
252.63	68.62
252.863	86.62
253.096	74.62
253.329	81.62
253.562	78.62
253.795	67.62
254.028	82.62
254.261	71.62
254.494	77.62
254.727	83.62
254.96	82.62
255.193	70.62
255.426	65.62
255.659	87.62
255.892	96.62
256.124	79.62
256.357	80.62
256.59	82.62
256.823	95.62
257.056	73.62
257.289	89.62
257.521	70.62
257.754	75.62
257.987	73.62
258.22	71.62
258.452	71.62
258.685	91.62
258.918	82.62
259.151	82.62
259.383	75.62
259.616	72.62
259.849	84.62
260.081	82.62
260.314	75.62
260.547	88.62
260.779	86.62
261.012	83.62
261.244	78.62
261.477	88.62
261.71	87.62
261.942	104.62
262.175	99.62
262.407	85.62
262.64	75.62
262.872	94.62
263.105	96.62
263.337	98.62
263.57	85.62
263.802	82.62
264.035	73.62
264.267	76.62
264.499	82.62
264.732	91.62
264.964	94.62
265.197	79.62
265.429	84.62
265.661	81.62
265.894	84.62
266.126	85.62
266.358	72.62
266.591	88.62
266.823	81.62
267.055	79.62
267.287	84.62
267.52	84.62
267.752	85.62
267.984	66.62
268.216	93.62
268.448	74.62
268.681	80.62
268.913	82.62
269.145	89.62
269.377	86.62
269.609	77.62
269.841	79.62
270.073	89.62
270.306	81.62
270.538	69.62
270.77	91.62
271.002	79.62
271.234	86.62
271.466	83.62
271.698	101.62
271.93	91.62
272.162	79.62
272.394	85.62
272.626	76.62
272.858	84.62
273.09	78.62
273.322	92.62
273.553	77.62
273.785	71.62
274.017	79.62
274.249	89.62
274.481	96.62
274.713	72.62
274.945	81.62
275.176	85.62
275.408	89.62
275.64	90.62
275.872	75.62
276.104	82.62
276.335	86.62
276.567	81.62
276.799	97.62
277.031	94.62
277.262	104.62
277.494	91.62
277.726	64.62
277.957	75.62
278.189	74.62
278.421	77.62
278.652	94.62
278.884	87.62
279.115	83.62
279.347	96.62
279.579	92.62
279.81	103.62
280.042	96.62
280.273	100.62
280.505	91.62
280.736	75.62
280.968	76.62
281.199	95.62
281.431	92.62
281.662	79.62
281.894	73.62
282.125	88.62
282.356	102.62
282.588	113.62
282.819	103.62
283.051	92.62
283.282	86.62
283.513	76.62
283.745	88.62
283.976	80.62
284.207	92.62
284.439	85.62
284.67	88.62
284.901	88.62
285.132	86.62
285.364	78.62
285.595	88.62
285.826	87.62
286.057	92.62
286.288	84.62
286.52	67.62
286.751	82.62
286.982	101.62
287.213	76.62
287.444	86.62
287.675	84.62
287.906	96.62
288.138	85.62
288.369	108.62
288.6	80.62
288.831	79.62
289.062	92.62
289.293	82.62
289.524	75.62
289.755	83.62
289.986	71.62
290.217	73.62
290.448	90.62
290.679	70.62
290.91	81.62
291.141	67.62
291.371	71.62
291.602	90.62
291.833	75.62
292.064	85.62
292.295	88.62
292.526	86.62
292.757	77.62
292.987	85.62
293.218	85.62
293.449	80.62
293.68	81.62
293.91	85.62
294.141	83.62
294.372	79.62
294.603	81.62
294.833	83.62
295.064	76.62
295.295	89.62
295.525	86.62
295.756	102.62
295.987	100.62
296.217	122.62
296.448	106.62
296.679	87.62
296.909	88.62
297.14	87.62
297.37	84.62
297.601	79.62
297.831	86.62
298.062	86.62
298.292	72.62
298.523	95.62
298.753	92.62
298.984	88.62
299.214	81.62
299.445	90.62
299.675	79.62
299.905	79.62
300.136	71.62
300.366	78.62
300.597	84.62
300.827	69.62
301.057	96.62
301.288	100.62
301.518	84.62
301.748	102.62
301.979	81.62
302.209	83.62
302.439	87.62
302.669	94.62
302.9	76.62
303.13	88.62
303.36	95.62
303.59	95.62
303.82	109.62
304.051	92.62
304.281	82.62
304.511	85.62
304.741	80.62
304.971	88.62
305.201	83.62
305.431	79.62
305.661	74.62
305.891	83.62
306.121	90.62
306.352	103.62
306.582	115.62
306.812	103.62
307.042	89.62
307.272	102.62
307.502	98.62
307.731	96.62
307.961	98.62
308.191	74.62
308.421	87.62
308.651	84.62
308.881	91.62
309.111	91.62
309.341	85.62
309.571	81.62
309.8	90.62
310.03	75.62
310.26	102.62
310.49	92.62
310.72	94.62
310.949	92.62
311.179	99.62
311.409	92.62
311.639	83.62
311.868	84.62
312.098	99.62
312.328	100.62
312.557	87.62
312.787	90.62
313.017	91.62
313.246	90.62
313.476	80.62
313.706	87.62
313.935	98.62
314.165	107.62
314.394	103.62
314.624	86.62
314.853	92.62
315.083	97.62
315.312	94.62
315.542	78.62
315.771	84.62
316.001	74.62
316.23	90.62
316.46	105.62
316.689	84.62
316.919	107.62
317.148	81.62
317.377	87.62
317.607	97.62
317.836	97.62
318.065	95.62
318.295	83.62
318.524	95.62
318.753	89.62
318.983	88.62
319.212	86.62
319.441	102.62
319.67	98.62
319.9	81.62
320.129	85.62
320.358	97.62
320.587	87.62
320.816	96.62
321.046	89.62
321.275	98.62
321.504	97.62
321.733	96.62
321.962	83.62
322.191	82.62
322.42	96.62
322.649	104.62
322.878	108.62
323.108	107.62
323.337	105.62
323.566	124.62
323.795	132.62
324.024	161.62
324.253	348.62
324.482	698.62
324.71	1426.62
324.939	1910.62
325.168	708.62
325.397	211.62
325.626	142.62
325.855	135.62
326.084	124.62
326.313	117.62
326.542	145.62
326.77	201.62
326.999	402.62
327.228	840.62
327.457	1504.62
327.686	1203.62
327.914	339.62
328.143	204.62
328.372	181.62
328.6	139.62
328.829	95.62
329.058	109.62
329.287	129.62
329.515	122.62
329.744	118.62
329.972	141.62
330.201	202.62
330.43	255.62
330.658	163.62
330.887	130.62
331.115	114.62
331.344	106.62
331.572	100.62
331.801	101.62
332.03	101.62
332.258	84.62
332.486	94.62
332.715	96.62
332.943	88.62
333.172	78.62
333.4	103.62
333.629	101.62
333.857	116.62
334.085	147.62
334.314	216.62
334.542	316.62
334.771	286.62
334.999	126.62
335.227	101.62
335.455	91.62
335.684	105.62
335.912	101.62
336.14	109.62
336.369	104.62
336.597	106.62
336.825	95.62
337.053	94.62
337.281	83.62
337.51	85.62
337.738	94.62
337.966	94.62
338.194	88.62
338.422	102.62
338.65	98.62
338.878	94.62
339.106	81.62
339.334	88.62
339.562	87.62
339.79	80.62
340.018	91.62
340.246	86.62
340.474	92.62
340.702	82.62
340.93	82.62
341.158	110.62
341.386	93.62
341.614	96.62
341.842	95.62
342.07	80.62
342.298	90.62
342.526	89.62
342.754	83.62
342.981	83.62
343.209	85.62
343.437	98.62
343.665	93.62
343.893	87.62
344.12	90.62
344.348	80.62
344.576	88.62
344.804	97.62
345.031	98.62
345.259	91.62
345.487	82.62
345.714	107.62
345.942	82.62
346.17	72.62
346.397	75.62
346.625	75.62
346.853	71.62
347.08	77.62
347.308	73.62
347.535	94.62
347.763	94.62
347.99	84.62
348.218	99.62
348.445	86.62
348.673	83.62
348.9	87.62
349.128	93.62
349.355	93.62
349.583	89.62
349.81	95.62
350.037	105.62
350.265	113.62
350.492	95.62
350.72	87.62
350.947	102.62
351.174	91.62
351.402	108.62
351.629	100.62
351.856	97.62
352.083	99.62
352.311	100.62
352.538	104.62
352.765	107.62
352.992	110.62
353.22	100.62
353.447	85.62
353.674	95.62
353.901	103.62
354.128	94.62
354.355	77.62
354.583	105.62
354.81	97.62
355.037	84.62
355.264	96.62
355.491	96.62
355.718	83.62
355.945	99.62
356.172	89.62
356.399	92.62
356.626	98.62
356.853	73.62
357.08	80.62
357.307	85.62
357.534	85.62
357.761	101.62
357.988	88.62
358.215	98.62
358.441	92.62
358.668	87.62
358.895	89.62
359.122	95.62
359.349	84.62
359.576	92.62
359.802	95.62
360.029	103.62
360.256	101.62
360.483	85.62
360.709	94.62
360.936	87.62
361.163	102.62
361.39	89.62
361.616	88.62
361.843	94.62
362.07	76.62
362.296	78.62
362.523	82.62
362.749	90.62
362.976	90.62
363.203	84.62
363.429	74.62
363.656	82.62
363.882	77.62
364.109	92.62
364.335	88.62
364.562	79.62
364.788	85.62
365.015	90.62
365.241	92.62
365.468	87.62
365.694	104.62
365.92	73.62
366.147	82.62
366.373	83.62
366.599	79.62
366.826	86.62
367.052	93.62
367.278	78.62
367.505	80.62
367.731	76.62
367.957	90.62
368.184	85.62
368.41	83.62
368.636	87.62
368.862	102.62
369.089	111.62
369.315	80.62
369.541	86.62
369.767	87.62
369.993	88.62
370.219	74.62
370.445	87.62
370.672	79.62
370.898	85.62
371.124	94.62
371.35	92.62
371.576	87.62
371.802	84.62
372.028	84.62
372.254	79.62
372.48	79.62
372.706	84.62
372.932	91.62
373.158	92.62
373.384	73.62
373.61	86.62
373.835	79.62
374.061	84.62
374.287	99.62
374.513	94.62
374.739	106.62
374.965	84.62
375.191	73.62
375.416	73.62
375.642	89.62
375.868	106.62
376.094	94.62
376.319	77.62
376.545	84.62
376.771	81.62
376.997	79.62
377.222	80.62
377.448	90.62
377.674	89.62
377.899	84.62
378.125	97.62
378.35	90.62
378.576	82.62
378.802	71.62
379.027	103.62
379.253	87.62
379.478	100.62
379.704	94.62
379.929	88.62
380.155	95.62
380.38	82.62
380.606	82.62
380.831	104.62
381.057	96.62
381.282	90.62
381.507	97.62
381.733	97.62
381.958	99.62
382.184	98.62
382.409	101.62
382.634	99.62
382.86	92.62
383.085	93.62
383.31	103.62
383.535	105.62
383.761	104.62
383.986	92.62
384.211	101.62
384.436	92.62
384.662	88.62
384.887	122.62
385.112	84.62
385.337	106.62
385.562	87.62
385.787	105.62
386.013	119.62
386.238	118.62
386.463	78.62
386.688	107.62
386.913	104.62
387.138	107.62
387.363	110.62
387.588	99.62
387.813	115.62
388.038	94.62
388.263	92.62
388.488	108.62
388.713	94.62
388.938	94.62
389.163	96.62
389.387	99.62
389.612	95.62
389.837	95.62
390.062	87.62
390.287	91.62
390.512	90.62
390.736	76.62
390.961	93.62
391.186	97.62
391.411	96.62
391.636	88.62
391.86	73.62
392.085	84.62
392.31	93.62
392.534	89.62
392.759	80.62
392.984	93.62
393.208	75.62
393.433	97.62
393.658	83.62
393.882	87.62
394.107	87.62
394.331	81.62
394.556	74.62
394.78	72.62
395.005	83.62
395.229	78.62
395.454	76.62
395.678	83.62
395.903	82.62
396.127	76.62
396.352	89.62
396.576	82.62
396.801	98.62
397.025	81.62
397.249	97.62
397.474	83.62
397.698	91.62
397.922	85.62
398.147	70.62
398.371	72.62
398.595	74.62
398.82	81.62
399.044	70.62
399.268	82.62
399.492	85.62
399.717	91.62
399.941	88.62
400.165	86.62
400.389	80.62
400.613	85.62
400.837	79.62
401.062	95.62
401.286	73.62
401.51	76.62
401.734	85.62
401.958	79.62
402.182	117.62
402.406	150.62
402.63	98.62
402.854	93.62
403.078	87.62
403.302	78.62
403.526	73.62
403.75	81.62
403.974	89.62
404.198	81.62
404.422	84.62
404.645	99.62
404.869	75.62
405.093	93.62
405.317	96.62
405.541	95.62
405.765	91.62
405.988	112.62
406.212	142.62
406.436	167.62
406.66	122.62
406.883	91.62
407.107	84.62
407.331	83.62
407.555	89.62
407.778	87.62
408.002	89.62
408.226	86.62
408.449	94.62
408.673	81.62
408.896	85.62
409.12	104.62
409.344	97.62
409.567	98.62
409.791	82.62
410.014	95.62
410.238	91.62
410.461	83.62
410.685	87.62
410.908	100.62
411.132	97.62
411.355	94.62
411.578	84.62
411.802	86.62
412.025	88.62
412.249	84.62
412.472	87.62
412.695	96.62
412.919	79.62
413.142	77.62
413.365	96.62
413.589	96.62
413.812	78.62
414.035	101.62
414.258	91.62
414.482	87.62
414.705	105.62
414.928	72.62
415.151	73.62
415.374	110.62
415.597	96.62
415.821	82.62
416.044	84.62
416.267	94.62
416.49	88.62
416.713	84.62
416.936	87.62
417.159	83.62
417.382	91.62
417.605	87.62
417.828	76.62
418.051	90.62
418.274	85.62
418.497	91.62
418.72	81.62
418.943	82.62
419.166	93.62
419.389	95.62
419.611	84.62
419.834	81.62
420.057	76.62
420.28	79.62
420.503	90.62
420.726	89.62
420.948	88.62
421.171	96.62
421.394	92.62
421.617	75.62
421.839	91.62
422.062	98.62
422.285	85.62
422.507	108.62
422.73	111.62
422.953	88.62
423.175	76.62
423.398	84.62
423.621	97.62
423.843	89.62
424.066	84.62
424.288	68.62
424.511	81.62
424.733	82.62
424.956	101.62
425.178	86.62
425.401	100.62
425.623	94.62
425.846	80.62
426.068	87.62
426.291	90.62
426.513	89.62
426.735	89.62
426.958	107.62
427.18	92.62
427.402	121.62
427.625	152.62
427.847	123.62
428.069	126.62
428.292	99.62
428.514	77.62
428.736	70.62
428.958	75.62
429.181	85.62
429.403	80.62
429.625	77.62
429.847	92.62
430.069	103.62
430.292	89.62
430.514	79.62
430.736	79.62
430.958	89.62
431.18	87.62
431.402	76.62
431.624	73.62
431.846	89.62
432.068	82.62
432.29	76.62
432.512	89.62
432.734	87.62
432.956	84.62
433.178	92.62
433.4	90.62
433.622	76.62
433.844	67.62
434.066	83.62
434.287	95.62
434.509	92.62
434.731	84.62
434.953	73.62
435.175	86.62
435.397	81.62
435.618	75.62
435.84	92.62
436.062	106.62
436.284	114.62
436.505	90.62
436.727	88.62
436.949	84.62
437.17	95.62
437.392	79.62
437.614	81.62
437.835	110.62
438.057	99.62
438.278	113.62
438.5	85.62
438.721	107.62
438.943	103.62
439.165	95.62
439.386	76.62
439.608	97.62
439.829	93.62
440.05	109.62
440.272	133.62
440.493	86.62
440.715	80.62
440.936	84.62
441.158	63.62
441.379	85.62
441.6	90.62
441.822	93.62
442.043	98.62
442.264	82.62
442.486	82.62
442.707	104.62
442.928	104.62
443.149	108.62
443.371	106.62
443.592	92.62
443.813	110.62
444.034	101.62
444.255	86.62
444.476	74.62
444.698	89.62
444.919	92.62
445.14	115.62
445.361	102.62
445.582	97.62
445.803	124.62
446.024	104.62
446.245	118.62
446.466	103.62
446.687	88.62
446.908	88.62
447.129	72.62
447.35	88.62
447.571	102.62
447.792	82.62
448.013	92.62
448.234	100.62
448.455	99.62
448.675	90.62
448.896	117.62
449.117	94.62
449.338	98.62
449.559	133.62
449.779	134.62
450	99.62
450.221	91.62
450.442	88.62
450.662	86.62
450.883	89.62
451.104	88.62
451.324	84.62
451.545	88.62
451.766	100.62
451.986	77.62
452.207	99.62
452.428	79.62
452.648	90.62
452.869	104.62
453.089	95.62
453.31	103.62
453.53	91.62
453.751	97.62
453.971	93.62
454.192	105.62
454.412	94.62
454.633	75.62
454.853	84.62
455.073	87.62
455.294	82.62
455.514	82.62
455.734	93.62
455.955	88.62
456.175	79.62
456.395	94.62
456.616	103.62
456.836	80.62
457.056	74.62
457.276	86.62
457.497	74.62
457.717	90.62
457.937	95.62
458.157	85.62
458.377	97.62
458.598	91.62
458.818	120.62
459.038	134.62
459.258	99.62
459.478	82.62
459.698	87.62
459.918	79.62
460.138	74.62
460.358	80.62
460.578	99.62
460.798	79.62
461.018	70.62
461.238	84.62
461.458	70.62
461.678	86.62
461.898	99.62
462.118	94.62
462.338	91.62
462.558	80.62
462.777	76.62
462.997	75.62
463.217	82.62
463.437	92.62
463.657	87.62
463.876	81.62
464.096	79.62
464.316	89.62
464.536	81.62
464.755	103.62
464.975	102.62
465.195	133.62
465.414	122.62
465.634	97.62
465.854	88.62
466.073	84.62
466.293	80.62
466.512	76.62
466.732	86.62
466.951	82.62
467.171	75.62
467.391	99.62
467.61	86.62
467.829	98.62
468.049	143.62
468.268	169.62
468.488	87.62
468.707	68.62
468.927	79.62
469.146	93.62
469.365	81.62
469.585	91.62
469.804	93.62
470.023	69.62
470.243	83.62
470.462	73.62
470.681	98.62
470.901	83.62
471.12	71.62
471.339	99.62
471.558	74.62
471.777	95.62
471.997	119.62
472.216	238.62
472.435	403.62
472.654	158.62
472.873	91.62
473.092	73.62
473.311	90.62
473.53	87.62
473.749	70.62
473.968	83.62
474.187	81.62
474.406	104.62
474.625	83.62
474.844	86.62
475.063	94.62
475.282	80.62
475.501	83.62
475.72	90.62
475.939	64.62
476.158	82.62
476.377	77.62
476.596	85.62
476.814	97.62
477.033	96.62
477.252	98.62
477.471	85.62
477.69	75.62
477.908	83.62
478.127	86.62
478.346	79.62
478.564	83.62
478.783	84.62
479.002	101.62
479.22	82.62
479.439	99.62
479.658	90.62
479.876	93.62
480.095	90.62
480.313	91.62
480.532	99.62
480.751	123.62
480.969	244.62
481.188	690.62
481.406	425.62
481.624	122.62
481.843	95.62
482.061	120.62
482.28	87.62
482.498	88.62
482.717	73.62
482.935	65.62
483.153	79.62
483.372	100.62
483.59	75.62
483.808	98.62
484.027	93.62
484.245	98.62
484.463	86.62
484.681	84.62
484.9	82.62
485.118	95.62
485.336	91.62
485.554	97.62
485.772	96.62
485.99	99.62
486.209	96.62
486.427	118.62
486.645	102.62
486.863	108.62
487.081	96.62
487.299	90.62
487.517	96.62
487.735	82.62
487.953	91.62
488.171	95.62
488.389	88.62
488.607	86.62
488.825	85.62
489.043	86.62
489.261	80.62
489.479	83.62
489.696	84.62
489.914	66.62
490.132	62.62
490.35	81.62
490.568	96.62
490.786	97.62
491.003	90.62
491.221	88.62
491.439	93.62
491.657	95.62
491.874	95.62
492.092	90.62
492.31	104.62
492.527	81.62
492.745	88.62
492.963	92.62
493.18	97.62
493.398	105.62
493.615	100.62
493.833	86.62
494.05	93.62
494.268	93.62
494.485	92.62
494.703	99.62
494.92	90.62
495.138	83.62
495.355	89.62
495.573	92.62
495.79	81.62
496.008	91.62
496.225	104.62
496.442	96.62
496.66	87.62
496.877	87.62
497.094	94.62
497.312	95.62
497.529	89.62
497.746	81.62
497.963	91.62
498.181	92.62
498.398	98.62
498.615	110.62
498.832	86.62
499.049	92.62
499.267	92.62
499.484	102.62
499.701	82.62
499.918	98.62
500.135	91.62
500.352	79.62
500.569	94.62
500.786	85.62
501.003	85.62
501.22	76.62
501.437	100.62
501.654	90.62
501.871	88.62
502.088	78.62
502.305	72.62
502.522	99.62
502.739	82.62
502.956	82.62
503.172	82.62
503.389	94.62
503.606	103.62
503.823	100.62
504.04	74.62
504.256	89.62
504.473	87.62
504.69	73.62
504.907	82.62
505.123	75.62
505.34	86.62
505.557	87.62
505.773	89.62
505.99	87.62
506.207	95.62
506.423	92.62
506.64	82.62
506.856	90.62
507.073	86.62
507.289	87.62
507.506	91.62
507.722	100.62
507.939	110.62
508.155	83.62
508.372	89.62
508.588	87.62
508.805	87.62
509.021	98.62
509.238	105.62
509.454	102.62
509.67	99.62
509.887	104.62
510.103	128.62
510.319	183.62
510.536	552.62
510.752	1780.62
510.968	534.62
511.184	150.62
511.401	99.62
511.617	99.62
511.833	92.62
512.049	82.62
512.265	97.62
512.481	86.62
512.698	89.62
512.914	95.62
513.13	100.62
513.346	102.62
513.562	103.62
513.778	78.62
513.994	97.62
514.21	101.62
514.426	110.62
514.642	122.62
514.858	119.62
515.074	134.62
515.29	319.62
515.506	1052.62
515.721	438.62
515.937	131.62
516.153	96.62
516.369	80.62
516.585	76.62
516.801	92.62
