Data from Circ_2015_H10_HRD10591_00079.txt Node
Date: Wed Jan 03 10:00:38 EST 2024
User: Yrep
Spectrometer: HR+D1059
Trigger mode: 1
Integration Time (sec): 1.000000E-1
Scans to average: 1
Electric dark correction enabled: true
Nonlinearity correction enabled: false
Boxcar width: 0
XAxis mode: Wavelengths
Number of Pixels in Spectrum: 2048
>>>>>Begin Spectral Data<<<<<
223.165	-18.62
223.4	-18.62
223.635	-18.62
223.869	-20.62
224.104	-10.62
224.338	-16.62
224.573	-7.62
224.808	-26.62
225.042	0.38
225.277	-0.62
225.511	-1.62
225.746	-0.62
225.98	14.38
226.215	3.38
226.449	1.38
226.683	27.38
226.918	29.38
227.152	27.38
227.387	43.38
227.621	47.38
227.856	50.38
228.09	39.38
228.324	49.38
228.559	70.38
228.793	58.38
229.027	67.38
229.262	78.38
229.496	63.38
229.73	78.38
229.964	86.38
230.199	73.38
230.433	70.38
230.667	85.38
230.901	71.38
231.136	87.38
231.37	90.38
231.604	80.38
231.838	81.38
232.072	84.38
232.306	83.38
232.541	84.38
232.775	79.38
233.009	76.38
233.243	63.38
233.477	70.38
233.711	94.38
233.945	88.38
234.179	94.38
234.413	83.38
234.647	82.38
234.881	75.38
235.115	82.38
235.349	84.38
235.583	86.38
235.817	83.38
236.051	91.38
236.285	77.38
236.519	80.38
236.753	69.38
236.987	86.38
237.221	74.38
237.455	102.38
237.689	74.38
237.922	72.38
238.156	90.38
238.39	76.38
238.624	71.38
238.858	67.38
239.091	79.38
239.325	87.38
239.559	74.38
239.793	76.38
240.027	77.38
240.26	79.38
240.494	66.38
240.728	79.38
240.961	75.38
241.195	79.38
241.429	75.38
241.662	88.38
241.896	82.38
242.13	90.38
242.363	82.38
242.597	79.38
242.83	68.38
243.064	76.38
243.298	88.38
243.531	75.38
243.765	74.38
243.998	78.38
244.232	85.38
244.465	89.38
244.699	94.38
244.932	63.38
245.166	71.38
245.399	79.38
245.633	68.38
245.866	83.38
246.099	80.38
246.333	72.38
246.566	83.38
246.8	72.38
247.033	78.38
247.266	78.38
247.5	73.38
247.733	84.38
247.966	84.38
248.2	84.38
248.433	73.38
248.666	75.38
248.899	74.38
249.133	90.38
249.366	81.38
249.599	79.38
249.832	90.38
250.066	88.38
250.299	90.38
250.532	69.38
250.765	73.38
250.998	75.38
251.231	70.38
251.465	74.38
251.698	78.38
251.931	78.38
252.164	95.38
252.397	83.38
252.63	79.38
252.863	107.38
253.096	93.38
253.329	90.38
253.562	88.38
253.795	97.38
254.028	86.38
254.261	67.38
254.494	74.38
254.727	98.38
254.96	75.38
255.193	88.38
255.426	90.38
255.659	70.38
255.892	88.38
256.124	83.38
256.357	80.38
256.59	77.38
256.823	101.38
257.056	84.38
257.289	90.38
257.521	101.38
257.754	82.38
257.987	84.38
258.22	92.38
258.452	91.38
258.685	89.38
258.918	74.38
259.151	74.38
259.383	75.38
259.616	79.38
259.849	71.38
260.081	78.38
260.314	79.38
260.547	84.38
260.779	94.38
261.012	96.38
261.244	85.38
261.477	98.38
261.71	96.38
261.942	107.38
262.175	104.38
262.407	94.38
262.64	78.38
262.872	83.38
263.105	98.38
263.337	82.38
263.57	89.38
263.802	71.38
264.035	80.38
264.267	77.38
264.499	72.38
264.732	88.38
264.964	92.38
265.197	78.38
265.429	87.38
265.661	77.38
265.894	93.38
266.126	90.38
266.358	89.38
266.591	98.38
266.823	75.38
267.055	83.38
267.287	81.38
267.52	77.38
267.752	84.38
267.984	95.38
268.216	91.38
268.448	92.38
268.681	87.38
268.913	98.38
269.145	79.38
269.377	76.38
269.609	77.38
269.841	79.38
270.073	79.38
270.306	99.38
270.538	85.38
270.77	85.38
271.002	85.38
271.234	85.38
271.466	92.38
271.698	78.38
271.93	86.38
272.162	78.38
272.394	103.38
272.626	81.38
272.858	89.38
273.09	68.38
273.322	84.38
273.553	82.38
273.785	87.38
274.017	87.38
274.249	89.38
274.481	90.38
274.713	85.38
274.945	83.38
275.176	74.38
275.408	90.38
275.64	72.38
275.872	84.38
276.104	94.38
276.335	93.38
276.567	92.38
276.799	103.38
277.031	102.38
277.262	101.38
277.494	92.38
277.726	77.38
277.957	101.38
278.189	100.38
278.421	86.38
278.652	93.38
278.884	92.38
279.115	87.38
279.347	76.38
279.579	91.38
279.81	93.38
280.042	83.38
280.273	96.38
280.505	99.38
280.736	86.38
280.968	86.38
281.199	91.38
281.431	112.38
281.662	76.38
281.894	84.38
282.125	101.38
282.356	105.38
282.588	132.38
282.819	107.38
283.051	94.38
283.282	89.38
283.513	95.38
283.745	77.38
283.976	85.38
284.207	103.38
284.439	90.38
284.67	85.38
284.901	92.38
285.132	89.38
285.364	80.38
285.595	86.38
285.826	86.38
286.057	89.38
286.288	95.38
286.52	92.38
286.751	86.38
286.982	78.38
287.213	97.38
287.444	90.38
287.675	93.38
287.906	87.38
288.138	78.38
288.369	95.38
288.6	88.38
288.831	85.38
289.062	99.38
289.293	85.38
289.524	79.38
289.755	94.38
289.986	87.38
290.217	87.38
290.448	84.38
290.679	98.38
290.91	82.38
291.141	87.38
291.371	98.38
291.602	88.38
291.833	97.38
292.064	82.38
292.295	82.38
292.526	99.38
292.757	94.38
292.987	76.38
293.218	83.38
293.449	82.38
293.68	78.38
293.91	92.38
294.141	84.38
294.372	92.38
294.603	85.38
294.833	98.38
295.064	84.38
295.295	74.38
295.525	95.38
295.756	101.38
295.987	109.38
296.217	116.38
296.448	106.38
296.679	102.38
296.909	101.38
297.14	104.38
297.37	89.38
297.601	92.38
297.831	100.38
298.062	83.38
298.292	99.38
298.523	94.38
298.753	96.38
298.984	89.38
299.214	92.38
299.445	87.38
299.675	98.38
299.905	95.38
300.136	83.38
300.366	93.38
300.597	77.38
300.827	84.38
301.057	103.38
301.288	98.38
301.518	80.38
301.748	89.38
301.979	98.38
302.209	94.38
302.439	102.38
302.669	91.38
302.9	103.38
303.13	98.38
303.36	110.38
303.59	85.38
303.82	94.38
304.051	75.38
304.281	103.38
304.511	105.38
304.741	79.38
304.971	83.38
305.201	89.38
305.431	96.38
305.661	87.38
305.891	77.38
306.121	95.38
306.352	99.38
306.582	98.38
306.812	89.38
307.042	87.38
307.272	102.38
307.502	103.38
307.731	106.38
307.961	90.38
308.191	88.38
308.421	88.38
308.651	97.38
308.881	90.38
309.111	89.38
309.341	103.38
309.571	94.38
309.8	102.38
310.03	107.38
310.26	101.38
310.49	91.38
310.72	100.38
310.949	105.38
311.179	104.38
311.409	96.38
311.639	103.38
311.868	87.38
312.098	90.38
312.328	101.38
312.557	102.38
312.787	109.38
313.017	96.38
313.246	95.38
313.476	95.38
313.706	94.38
313.935	106.38
314.165	97.38
314.394	92.38
314.624	78.38
314.853	98.38
315.083	110.38
315.312	103.38
315.542	94.38
315.771	96.38
316.001	91.38
316.23	97.38
316.46	87.38
316.689	93.38
316.919	89.38
317.148	103.38
317.377	107.38
317.607	95.38
317.836	87.38
318.065	101.38
318.295	98.38
318.524	94.38
318.753	88.38
318.983	87.38
319.212	96.38
319.441	96.38
319.67	98.38
319.9	86.38
320.129	102.38
320.358	100.38
320.587	102.38
320.816	109.38
321.046	97.38
321.275	101.38
321.504	98.38
321.733	92.38
321.962	98.38
322.191	115.38
322.42	102.38
322.649	98.38
322.878	95.38
323.108	115.38
323.337	106.38
323.566	132.38
323.795	141.38
324.024	198.38
324.253	351.38
324.482	760.38
324.71	1518.38
324.939	2072.38
325.168	763.38
325.397	224.38
325.626	144.38
325.855	124.38
326.084	126.38
326.313	139.38
326.542	145.38
326.77	218.38
326.999	424.38
327.228	894.38
327.457	1629.38
327.686	1293.38
327.914	351.38
328.143	214.38
328.372	179.38
328.6	156.38
328.829	109.38
329.058	125.38
329.287	124.38
329.515	114.38
329.744	126.38
329.972	146.38
330.201	205.38
330.43	260.38
330.658	181.38
330.887	132.38
331.115	111.38
331.344	101.38
331.572	91.38
331.801	107.38
332.03	100.38
332.258	91.38
332.486	96.38
332.715	89.38
332.943	102.38
333.172	95.38
333.4	102.38
333.629	102.38
333.857	120.38
334.085	142.38
334.314	204.38
334.542	303.38
334.771	284.38
334.999	126.38
335.227	108.38
335.455	101.38
335.684	96.38
335.912	97.38
336.14	90.38
336.369	98.38
336.597	97.38
336.825	87.38
337.053	90.38
337.281	99.38
337.51	88.38
337.738	101.38
337.966	82.38
338.194	90.38
338.422	93.38
338.65	87.38
338.878	80.38
339.106	89.38
339.334	94.38
339.562	80.38
339.79	95.38
340.018	102.38
340.246	98.38
340.474	85.38
340.702	94.38
340.93	99.38
341.158	86.38
341.386	90.38
341.614	97.38
341.842	99.38
342.07	103.38
342.298	96.38
342.526	90.38
342.754	88.38
342.981	93.38
343.209	93.38
343.437	99.38
343.665	99.38
343.893	80.38
344.12	70.38
344.348	99.38
344.576	86.38
344.804	84.38
345.031	103.38
345.259	107.38
345.487	102.38
345.714	86.38
345.942	87.38
346.17	85.38
346.397	81.38
346.625	97.38
346.853	92.38
347.08	100.38
347.308	85.38
347.535	104.38
347.763	93.38
347.99	86.38
348.218	91.38
348.445	99.38
348.673	97.38
348.9	95.38
349.128	87.38
349.355	84.38
349.583	89.38
349.81	100.38
350.037	81.38
350.265	97.38
350.492	102.38
350.72	102.38
350.947	92.38
351.174	100.38
351.402	93.38
351.629	99.38
351.856	88.38
352.083	89.38
352.311	96.38
352.538	95.38
352.765	110.38
352.992	114.38
353.22	102.38
353.447	114.38
353.674	97.38
353.901	113.38
354.128	79.38
354.355	90.38
354.583	92.38
354.81	88.38
355.037	95.38
355.264	101.38
355.491	87.38
355.718	106.38
355.945	95.38
356.172	102.38
356.399	97.38
356.626	85.38
356.853	102.38
357.08	87.38
357.307	94.38
357.534	100.38
357.761	92.38
357.988	98.38
358.215	96.38
358.441	96.38
358.668	109.38
358.895	98.38
359.122	92.38
359.349	102.38
359.576	110.38
359.802	95.38
360.029	111.38
360.256	108.38
360.483	89.38
360.709	98.38
360.936	83.38
361.163	83.38
361.39	93.38
361.616	106.38
361.843	95.38
362.07	101.38
362.296	89.38
362.523	96.38
362.749	88.38
362.976	86.38
363.203	94.38
363.429	80.38
363.656	84.38
363.882	90.38
364.109	97.38
364.335	96.38
364.562	105.38
364.788	96.38
365.015	109.38
365.241	95.38
365.468	98.38
365.694	98.38
365.92	70.38
366.147	87.38
366.373	102.38
366.599	96.38
366.826	92.38
367.052	80.38
367.278	79.38
367.505	92.38
367.731	83.38
367.957	87.38
368.184	94.38
368.41	88.38
368.636	97.38
368.862	117.38
369.089	109.38
369.315	92.38
369.541	89.38
369.767	75.38
369.993	93.38
370.219	116.38
370.445	92.38
370.672	90.38
370.898	93.38
371.124	82.38
371.35	94.38
371.576	89.38
371.802	80.38
372.028	97.38
372.254	87.38
372.48	86.38
372.706	87.38
372.932	99.38
373.158	92.38
373.384	92.38
373.61	84.38
373.835	98.38
374.061	84.38
374.287	80.38
374.513	84.38
374.739	85.38
374.965	91.38
375.191	82.38
375.416	99.38
375.642	93.38
375.868	109.38
376.094	96.38
376.319	98.38
376.545	78.38
376.771	90.38
376.997	82.38
377.222	80.38
377.448	87.38
377.674	94.38
377.899	106.38
378.125	90.38
378.35	96.38
378.576	86.38
378.802	76.38
379.027	96.38
379.253	95.38
379.478	100.38
379.704	92.38
379.929	92.38
380.155	96.38
380.38	98.38
380.606	89.38
380.831	106.38
381.057	107.38
381.282	93.38
381.507	91.38
381.733	101.38
381.958	72.38
382.184	98.38
382.409	104.38
382.634	111.38
382.86	99.38
383.085	106.38
383.31	89.38
383.535	92.38
383.761	97.38
383.986	95.38
384.211	96.38
384.436	90.38
384.662	99.38
384.887	99.38
385.112	99.38
385.337	98.38
385.562	91.38
385.787	107.38
386.013	102.38
386.238	114.38
386.463	109.38
386.688	120.38
386.913	100.38
387.138	117.38
387.363	103.38
387.588	118.38
387.813	90.38
388.038	100.38
388.263	109.38
388.488	106.38
388.713	104.38
388.938	93.38
389.163	90.38
389.387	108.38
389.612	99.38
389.837	88.38
390.062	109.38
390.287	85.38
390.512	80.38
390.736	92.38
390.961	90.38
391.186	90.38
391.411	108.38
391.636	81.38
391.86	77.38
392.085	84.38
392.31	94.38
392.534	89.38
392.759	99.38
392.984	76.38
393.208	80.38
393.433	84.38
393.658	100.38
393.882	85.38
394.107	105.38
394.331	76.38
394.556	88.38
394.78	92.38
395.005	104.38
395.229	93.38
395.454	79.38
395.678	81.38
395.903	84.38
396.127	78.38
396.352	77.38
396.576	93.38
396.801	95.38
397.025	90.38
397.249	90.38
397.474	75.38
397.698	76.38
397.922	90.38
398.147	72.38
398.371	80.38
398.595	72.38
398.82	88.38
399.044	84.38
399.268	91.38
399.492	95.38
399.717	91.38
399.941	79.38
400.165	97.38
400.389	101.38
400.613	80.38
400.837	96.38
401.062	94.38
401.286	84.38
401.51	87.38
401.734	88.38
401.958	102.38
402.182	116.38
402.406	144.38
402.63	104.38
402.854	86.38
403.078	90.38
403.302	91.38
403.526	89.38
403.75	82.38
403.974	88.38
404.198	86.38
404.422	92.38
404.645	97.38
404.869	86.38
405.093	98.38
405.317	96.38
405.541	102.38
405.765	94.38
405.988	105.38
406.212	145.38
406.436	193.38
406.66	124.38
406.883	101.38
407.107	94.38
407.331	97.38
407.555	95.38
407.778	105.38
408.002	100.38
408.226	94.38
408.449	97.38
408.673	96.38
408.896	86.38
409.12	107.38
409.344	76.38
409.567	94.38
409.791	92.38
410.014	92.38
410.238	86.38
410.461	94.38
410.685	94.38
410.908	104.38
411.132	108.38
411.355	98.38
411.578	101.38
411.802	86.38
412.025	92.38
412.249	87.38
412.472	100.38
412.695	87.38
412.919	87.38
413.142	96.38
413.365	104.38
413.589	77.38
413.812	82.38
414.035	95.38
414.258	109.38
414.482	95.38
414.705	92.38
414.928	86.38
415.151	87.38
415.374	94.38
415.597	84.38
415.821	99.38
416.044	91.38
416.267	90.38
416.49	91.38
416.713	89.38
416.936	85.38
417.159	98.38
417.382	79.38
417.605	80.38
417.828	90.38
418.051	99.38
418.274	99.38
418.497	92.38
418.72	85.38
418.943	88.38
419.166	76.38
419.389	83.38
419.611	66.38
419.834	76.38
420.057	86.38
420.28	83.38
420.503	84.38
420.726	81.38
420.948	80.38
421.171	86.38
421.394	84.38
421.617	84.38
421.839	104.38
422.062	93.38
422.285	103.38
422.507	98.38
422.73	104.38
422.953	96.38
423.175	91.38
423.398	94.38
423.621	95.38
423.843	90.38
424.066	94.38
424.288	78.38
424.511	101.38
424.733	97.38
424.956	101.38
425.178	80.38
425.401	102.38
425.623	81.38
425.846	95.38
426.068	82.38
426.291	85.38
426.513	82.38
426.735	94.38
426.958	97.38
427.18	91.38
427.402	119.38
427.625	147.38
427.847	133.38
428.069	119.38
428.292	111.38
428.514	93.38
428.736	86.38
428.958	87.38
429.181	90.38
429.403	80.38
429.625	87.38
429.847	104.38
430.069	96.38
430.292	82.38
430.514	93.38
430.736	90.38
430.958	91.38
431.18	83.38
431.402	86.38
431.624	90.38
431.846	95.38
432.068	89.38
432.29	86.38
432.512	89.38
432.734	83.38
432.956	82.38
433.178	104.38
433.4	102.38
433.622	81.38
433.844	88.38
434.066	106.38
434.287	105.38
434.509	83.38
434.731	88.38
434.953	93.38
435.175	89.38
435.397	89.38
435.618	99.38
435.84	94.38
436.062	127.38
436.284	114.38
436.505	92.38
436.727	85.38
436.949	91.38
437.17	100.38
437.392	99.38
437.614	97.38
437.835	103.38
438.057	115.38
438.278	100.38
438.5	86.38
438.721	117.38
438.943	110.38
439.165	89.38
439.386	104.38
439.608	87.38
439.829	82.38
440.05	123.38
440.272	137.38
440.493	94.38
440.715	89.38
440.936	82.38
441.158	95.38
441.379	80.38
441.6	95.38
441.822	100.38
442.043	91.38
442.264	107.38
442.486	91.38
442.707	92.38
442.928	110.38
443.149	136.38
443.371	130.38
443.592	96.38
443.813	96.38
444.034	114.38
444.255	103.38
444.476	82.38
444.698	87.38
444.919	75.38
445.14	122.38
445.361	124.38
445.582	103.38
445.803	120.38
446.024	126.38
446.245	124.38
446.466	105.38
446.687	92.38
446.908	100.38
447.129	97.38
447.35	94.38
447.571	91.38
447.792	74.38
448.013	95.38
448.234	106.38
448.455	92.38
448.675	104.38
448.896	105.38
449.117	99.38
449.338	93.38
449.559	114.38
449.779	128.38
450	90.38
450.221	71.38
450.442	93.38
450.662	108.38
450.883	101.38
451.104	116.38
451.324	99.38
451.545	87.38
451.766	107.38
451.986	101.38
452.207	94.38
452.428	97.38
452.648	107.38
452.869	121.38
453.089	118.38
453.31	124.38
453.53	99.38
453.751	96.38
453.971	77.38
454.192	102.38
454.412	95.38
454.633	95.38
454.853	89.38
455.073	93.38
455.294	83.38
455.514	103.38
455.734	92.38
455.955	103.38
456.175	94.38
456.395	100.38
456.616	90.38
456.836	86.38
457.056	86.38
457.276	86.38
457.497	77.38
457.717	86.38
457.937	94.38
458.157	84.38
458.377	89.38
458.598	92.38
458.818	136.38
459.038	138.38
459.258	116.38
459.478	72.38
459.698	93.38
459.918	82.38
460.138	79.38
460.358	86.38
460.578	90.38
460.798	84.38
461.018	88.38
461.238	83.38
461.458	84.38
461.678	88.38
461.898	86.38
462.118	84.38
462.338	85.38
462.558	88.38
462.777	95.38
462.997	98.38
463.217	90.38
463.437	88.38
463.657	87.38
463.876	107.38
464.096	95.38
464.316	87.38
464.536	87.38
464.755	77.38
464.975	106.38
465.195	143.38
465.414	144.38
465.634	92.38
465.854	90.38
466.073	93.38
466.293	90.38
466.512	88.38
466.732	93.38
466.951	83.38
467.171	88.38
467.391	99.38
467.61	104.38
467.829	115.38
468.049	152.38
468.268	160.38
468.488	99.38
468.707	86.38
468.927	89.38
469.146	91.38
469.365	94.38
469.585	94.38
469.804	87.38
470.023	93.38
470.243	87.38
470.462	99.38
470.681	109.38
470.901	91.38
471.12	94.38
471.339	99.38
471.558	99.38
471.777	106.38
471.997	110.38
472.216	227.38
472.435	404.38
472.654	164.38
472.873	112.38
473.092	75.38
473.311	100.38
473.53	92.38
473.749	79.38
473.968	100.38
474.187	83.38
474.406	102.38
474.625	86.38
474.844	82.38
475.063	75.38
475.282	87.38
475.501	103.38
475.72	90.38
475.939	90.38
476.158	79.38
476.377	74.38
476.596	86.38
476.814	100.38
477.033	87.38
477.252	96.38
477.471	102.38
477.69	87.38
477.908	100.38
478.127	79.38
478.346	97.38
478.564	87.38
478.783	93.38
479.002	92.38
479.22	106.38
479.439	105.38
479.658	103.38
479.876	106.38
480.095	87.38
480.313	103.38
480.532	103.38
480.751	110.38
480.969	240.38
481.188	691.38
481.406	444.38
481.624	133.38
481.843	83.38
482.061	102.38
482.28	72.38
482.498	102.38
482.717	81.38
482.935	91.38
483.153	87.38
483.372	87.38
483.59	93.38
483.808	90.38
484.027	108.38
484.245	85.38
484.463	84.38
484.681	101.38
484.9	104.38
485.118	82.38
485.336	94.38
485.554	100.38
485.772	94.38
485.99	96.38
486.209	90.38
486.427	101.38
486.645	104.38
486.863	113.38
487.081	85.38
487.299	94.38
487.517	101.38
487.735	90.38
487.953	101.38
488.171	91.38
488.389	107.38
488.607	99.38
488.825	84.38
489.043	93.38
489.261	91.38
489.479	96.38
489.696	95.38
489.914	88.38
490.132	98.38
490.35	101.38
490.568	96.38
490.786	94.38
491.003	94.38
491.221	101.38
491.439	88.38
491.657	79.38
491.874	109.38
492.092	87.38
492.31	101.38
492.527	96.38
492.745	92.38
492.963	98.38
493.18	90.38
493.398	95.38
493.615	104.38
493.833	91.38
494.05	90.38
494.268	87.38
494.485	97.38
494.703	85.38
494.92	93.38
495.138	82.38
495.355	83.38
495.573	103.38
495.79	104.38
496.008	90.38
496.225	102.38
496.442	82.38
496.66	99.38
496.877	91.38
497.094	91.38
497.312	103.38
497.529	91.38
497.746	98.38
497.963	102.38
498.181	93.38
498.398	96.38
498.615	98.38
498.832	109.38
499.049	92.38
499.267	77.38
499.484	84.38
499.701	99.38
499.918	88.38
500.135	88.38
500.352	85.38
500.569	90.38
500.786	96.38
501.003	79.38
501.22	83.38
501.437	75.38
501.654	93.38
501.871	98.38
502.088	89.38
502.305	79.38
502.522	78.38
502.739	89.38
502.956	93.38
503.172	79.38
503.389	86.38
503.606	106.38
503.823	99.38
504.04	89.38
504.256	99.38
504.473	88.38
504.69	95.38
504.907	90.38
505.123	99.38
505.34	82.38
505.557	98.38
505.773	77.38
505.99	71.38
506.207	85.38
506.423	86.38
506.64	83.38
506.856	81.38
507.073	95.38
507.289	94.38
507.506	85.38
507.722	96.38
507.939	98.38
508.155	97.38
508.372	100.38
508.588	79.38
508.805	84.38
509.021	87.38
509.238	107.38
509.454	100.38
509.67	93.38
509.887	88.38
510.103	118.38
510.319	191.38
510.536	589.38
510.752	1949.38
510.968	572.38
511.184	145.38
511.401	110.38
511.617	91.38
511.833	93.38
512.049	87.38
512.265	83.38
512.481	89.38
512.698	93.38
512.914	98.38
513.13	101.38
513.346	89.38
513.562	102.38
513.778	91.38
513.994	94.38
514.21	93.38
514.426	104.38
514.642	123.38
514.858	109.38
515.074	137.38
515.29	346.38
515.506	1100.38
