Data from Circ_2015_H10_HRD10591_00094.txt Node
Date: Wed Jan 03 10:00:41 EST 2024
User: Yrep
Spectrometer: HR+D1059
Trigger mode: 1
Integration Time (sec): 1.000000E-1
Scans to average: 1
Electric dark correction enabled: true
Nonlinearity correction enabled: false
Boxcar width: 0
XAxis mode: Wavelengths
Number of Pixels in Spectrum: 2048
>>>>>Begin Spectral Data<<<<<
223.165	-5.94
223.4	-5.94
223.635	-5.94
223.869	-26.94
224.104	-11.94
224.338	-19.94
224.573	-15.94
224.808	-4.94
225.042	-9.94
225.277	3.06
225.511	-0.94
225.746	6.06
225.98	-0.94
226.215	11.06
226.449	3.06
226.683	16.06
226.918	24.06
227.152	34.06
227.387	33.06
227.621	33.06
227.856	37.06
228.09	53.06
228.324	60.06
228.559	62.06
228.793	55.06
229.027	79.06
229.262	62.06
229.496	86.06
229.73	92.06
229.964	79.06
230.199	73.06
230.433	83.06
230.667	80.06
230.901	75.06
231.136	80.06
231.37	83.06
231.604	88.06
231.838	69.06
232.072	64.06
232.306	85.06
232.541	85.06
232.775	81.06
233.009	78.06
233.243	73.06
233.477	91.06
233.711	99.06
233.945	80.06
234.179	81.06
234.413	101.06
234.647	83.06
234.881	72.06
235.115	68.06
235.349	73.06
235.583	86.06
235.817	84.06
236.051	92.06
236.285	75.06
236.519	81.06
236.753	72.06
236.987	72.06
237.221	85.06
237.455	86.06
237.689	78.06
237.922	79.06
238.156	77.06
238.39	81.06
238.624	70.06
238.858	73.06
239.091	82.06
239.325	81.06
239.559	100.06
239.793	91.06
240.027	79.06
240.26	76.06
240.494	68.06
240.728	77.06
240.961	83.06
241.195	92.06
241.429	83.06
241.662	84.06
241.896	86.06
242.13	82.06
242.363	79.06
242.597	67.06
242.83	90.06
243.064	72.06
243.298	69.06
243.531	65.06
243.765	92.06
243.998	87.06
244.232	90.06
244.465	74.06
244.699	68.06
244.932	83.06
245.166	82.06
245.399	88.06
245.633	91.06
245.866	84.06
246.099	80.06
246.333	84.06
246.566	78.06
246.8	86.06
247.033	92.06
247.266	74.06
247.5	83.06
247.733	93.06
247.966	77.06
248.2	72.06
248.433	87.06
248.666	86.06
248.899	96.06
249.133	85.06
249.366	85.06
249.599	104.06
249.832	91.06
250.066	80.06
250.299	74.06
250.532	97.06
250.765	78.06
250.998	77.06
251.231	65.06
251.465	77.06
251.698	84.06
251.931	79.06
252.164	63.06
252.397	75.06
252.63	78.06
252.863	79.06
253.096	84.06
253.329	93.06
253.562	83.06
253.795	56.06
254.028	86.06
254.261	98.06
254.494	78.06
254.727	86.06
254.96	83.06
255.193	93.06
255.426	91.06
255.659	83.06
255.892	72.06
256.124	81.06
256.357	93.06
256.59	69.06
256.823	77.06
257.056	91.06
257.289	82.06
257.521	75.06
257.754	86.06
257.987	82.06
258.22	91.06
258.452	93.06
258.685	91.06
258.918	59.06
259.151	81.06
259.383	84.06
259.616	90.06
259.849	77.06
260.081	91.06
260.314	72.06
260.547	91.06
260.779	99.06
261.012	74.06
261.244	96.06
261.477	90.06
261.71	102.06
261.942	120.06
262.175	117.06
262.407	91.06
262.64	89.06
262.872	88.06
263.105	80.06
263.337	81.06
263.57	71.06
263.802	85.06
264.035	76.06
264.267	85.06
264.499	80.06
264.732	98.06
264.964	80.06
265.197	85.06
265.429	80.06
265.661	89.06
265.894	75.06
266.126	86.06
266.358	86.06
266.591	77.06
266.823	100.06
267.055	88.06
267.287	90.06
267.52	93.06
267.752	80.06
267.984	93.06
268.216	96.06
268.448	89.06
268.681	84.06
268.913	95.06
269.145	91.06
269.377	88.06
269.609	94.06
269.841	91.06
270.073	84.06
270.306	92.06
270.538	79.06
270.77	81.06
271.002	69.06
271.234	79.06
271.466	86.06
271.698	85.06
271.93	79.06
272.162	81.06
272.394	92.06
272.626	84.06
272.858	86.06
273.09	88.06
273.322	83.06
273.553	86.06
273.785	88.06
274.017	81.06
274.249	89.06
274.481	84.06
274.713	89.06
274.945	92.06
275.176	86.06
275.408	90.06
275.64	95.06
275.872	87.06
276.104	97.06
276.335	97.06
276.567	110.06
276.799	101.06
277.031	114.06
277.262	115.06
277.494	92.06
277.726	78.06
277.957	93.06
278.189	85.06
278.421	96.06
278.652	96.06
278.884	90.06
279.115	99.06
279.347	80.06
279.579	93.06
279.81	99.06
280.042	126.06
280.273	126.06
280.505	111.06
280.736	100.06
280.968	89.06
281.199	84.06
281.431	90.06
281.662	82.06
281.894	90.06
282.125	103.06
282.356	113.06
282.588	145.06
282.819	123.06
283.051	90.06
283.282	89.06
283.513	78.06
283.745	88.06
283.976	91.06
284.207	91.06
284.439	80.06
284.67	91.06
284.901	91.06
285.132	85.06
285.364	102.06
285.595	89.06
285.826	86.06
286.057	96.06
286.288	83.06
286.52	87.06
286.751	92.06
286.982	96.06
287.213	80.06
287.444	90.06
287.675	92.06
287.906	82.06
288.138	93.06
288.369	92.06
288.6	87.06
288.831	81.06
289.062	85.06
289.293	99.06
289.524	97.06
289.755	88.06
289.986	85.06
290.217	100.06
290.448	96.06
290.679	99.06
290.91	74.06
291.141	96.06
291.371	100.06
291.602	79.06
291.833	91.06
292.064	91.06
292.295	108.06
292.526	92.06
292.757	92.06
292.987	94.06
293.218	80.06
293.449	85.06
293.68	115.06
293.91	85.06
294.141	93.06
294.372	92.06
294.603	90.06
294.833	85.06
295.064	90.06
295.295	97.06
295.525	96.06
295.756	104.06
295.987	126.06
296.217	121.06
296.448	127.06
296.679	106.06
296.909	92.06
297.14	93.06
297.37	105.06
297.601	91.06
297.831	94.06
298.062	93.06
298.292	91.06
298.523	100.06
298.753	69.06
298.984	87.06
299.214	89.06
299.445	104.06
299.675	101.06
299.905	90.06
300.136	104.06
300.366	81.06
300.597	96.06
300.827	80.06
301.057	104.06
301.288	110.06
301.518	94.06
301.748	99.06
301.979	106.06
302.209	117.06
302.439	89.06
302.669	90.06
302.9	85.06
303.13	107.06
303.36	92.06
303.59	108.06
303.82	112.06
304.051	84.06
304.281	89.06
304.511	93.06
304.741	96.06
304.971	98.06
305.201	88.06
305.431	91.06
305.661	106.06
305.891	95.06
306.121	110.06
306.352	103.06
306.582	101.06
306.812	91.06
307.042	107.06
307.272	105.06
307.502	133.06
307.731	120.06
307.961	118.06
308.191	91.06
308.421	91.06
308.651	90.06
308.881	94.06
309.111	89.06
309.341	99.06
309.571	94.06
309.8	104.06
310.03	99.06
310.26	98.06
310.49	101.06
310.72	105.06
310.949	100.06
311.179	106.06
311.409	93.06
311.639	92.06
311.868	103.06
312.098	87.06
312.328	94.06
312.557	98.06
312.787	110.06
313.017	111.06
313.246	99.06
313.476	102.06
313.706	90.06
313.935	88.06
314.165	99.06
314.394	91.06
314.624	107.06
314.853	105.06
315.083	88.06
315.312	104.06
315.542	90.06
315.771	91.06
316.001	86.06
316.23	94.06
316.46	91.06
316.689	85.06
316.919	105.06
317.148	110.06
317.377	104.06
317.607	96.06
317.836	99.06
318.065	95.06
318.295	85.06
318.524	90.06
318.753	85.06
318.983	97.06
319.212	96.06
319.441	107.06
319.67	113.06
319.9	113.06
320.129	111.06
320.358	95.06
320.587	92.06
320.816	103.06
321.046	117.06
321.275	108.06
321.504	104.06
321.733	104.06
321.962	107.06
322.191	108.06
322.42	101.06
322.649	109.06
322.878	118.06
323.108	149.06
323.337	128.06
323.566	149.06
323.795	167.06
324.024	233.06
324.253	464.06
324.482	946.06
324.71	1981.06
324.939	2622.06
325.168	979.06
325.397	255.06
325.626	156.06
325.855	141.06
326.084	147.06
326.313	135.06
326.542	160.06
326.77	253.06
326.999	529.06
327.228	1094.06
327.457	2037.06
327.686	1605.06
327.914	463.06
328.143	275.06
328.372	269.06
328.6	174.06
328.829	141.06
329.058	145.06
329.287	134.06
329.515	124.06
329.744	143.06
329.972	197.06
330.201	318.06
330.43	427.06
330.658	236.06
330.887	171.06
331.115	135.06
331.344	105.06
331.572	119.06
331.801	115.06
332.03	101.06
332.258	96.06
332.486	100.06
332.715	96.06
332.943	99.06
333.172	104.06
333.4	101.06
333.629	122.06
333.857	151.06
334.085	207.06
334.314	326.06
334.542	572.06
334.771	506.06
334.999	177.06
335.227	120.06
335.455	117.06
335.684	110.06
335.912	105.06
336.14	91.06
336.369	91.06
336.597	84.06
336.825	96.06
337.053	105.06
337.281	90.06
337.51	86.06
337.738	89.06
337.966	103.06
338.194	108.06
338.422	108.06
338.65	99.06
338.878	94.06
339.106	89.06
339.334	100.06
339.562	98.06
339.79	85.06
340.018	93.06
340.246	88.06
340.474	103.06
340.702	105.06
340.93	93.06
341.158	93.06
341.386	99.06
341.614	92.06
341.842	109.06
342.07	100.06
342.298	96.06
342.526	85.06
342.754	90.06
342.981	92.06
343.209	81.06
343.437	87.06
343.665	99.06
343.893	94.06
344.12	92.06
344.348	81.06
344.576	104.06
344.804	99.06
345.031	116.06
345.259	93.06
345.487	113.06
345.714	103.06
345.942	79.06
346.17	92.06
346.397	104.06
346.625	104.06
346.853	86.06
347.08	96.06
347.308	81.06
347.535	104.06
347.763	102.06
347.99	108.06
348.218	108.06
348.445	120.06
348.673	92.06
348.9	105.06
349.128	117.06
349.355	103.06
349.583	91.06
349.81	86.06
350.037	89.06
350.265	108.06
350.492	108.06
350.72	105.06
350.947	116.06
351.174	119.06
351.402	102.06
351.629	109.06
351.856	99.06
352.083	97.06
352.311	101.06
352.538	117.06
352.765	118.06
352.992	108.06
353.22	107.06
353.447	114.06
353.674	96.06
353.901	103.06
354.128	105.06
354.355	92.06
354.583	95.06
354.81	98.06
355.037	106.06
355.264	88.06
355.491	79.06
355.718	86.06
355.945	101.06
356.172	104.06
356.399	113.06
356.626	89.06
356.853	106.06
357.08	95.06
357.307	97.06
357.534	102.06
357.761	89.06
357.988	109.06
358.215	108.06
358.441	97.06
358.668	96.06
358.895	92.06
359.122	98.06
359.349	95.06
359.576	88.06
359.802	112.06
360.029	122.06
360.256	104.06
360.483	104.06
360.709	85.06
360.936	109.06
361.163	92.06
361.39	99.06
361.616	97.06
361.843	95.06
362.07	103.06
362.296	112.06
362.523	91.06
362.749	90.06
362.976	104.06
363.203	99.06
363.429	89.06
363.656	89.06
363.882	94.06
364.109	79.06
364.335	91.06
364.562	101.06
364.788	90.06
365.015	108.06
365.241	101.06
365.468	103.06
365.694	113.06
365.92	95.06
366.147	95.06
366.373	76.06
366.599	96.06
366.826	87.06
367.052	94.06
367.278	111.06
367.505	103.06
367.731	93.06
367.957	93.06
368.184	97.06
368.41	115.06
368.636	119.06
368.862	128.06
369.089	104.06
369.315	91.06
369.541	115.06
369.767	102.06
369.993	89.06
370.219	85.06
370.445	95.06
370.672	84.06
370.898	88.06
371.124	104.06
371.35	96.06
371.576	103.06
371.802	91.06
372.028	91.06
372.254	94.06
372.48	90.06
372.706	99.06
372.932	94.06
373.158	79.06
373.384	94.06
373.61	87.06
373.835	109.06
374.061	92.06
374.287	99.06
374.513	101.06
374.739	93.06
374.965	82.06
375.191	79.06
375.416	82.06
375.642	87.06
375.868	99.06
376.094	85.06
376.319	103.06
376.545	89.06
376.771	81.06
376.997	116.06
377.222	95.06
377.448	93.06
377.674	100.06
377.899	111.06
378.125	88.06
378.35	98.06
378.576	86.06
378.802	80.06
379.027	85.06
379.253	110.06
379.478	107.06
379.704	114.06
379.929	94.06
380.155	100.06
380.38	96.06
380.606	87.06
380.831	95.06
381.057	106.06
381.282	93.06
381.507	117.06
381.733	96.06
381.958	87.06
382.184	84.06
382.409	91.06
382.634	111.06
382.86	103.06
383.085	115.06
383.31	107.06
383.535	109.06
383.761	99.06
383.986	98.06
384.211	100.06
384.436	93.06
384.662	96.06
384.887	96.06
385.112	102.06
385.337	96.06
385.562	93.06
385.787	112.06
386.013	120.06
386.238	106.06
386.463	108.06
386.688	107.06
386.913	93.06
387.138	111.06
387.363	103.06
387.588	100.06
387.813	99.06
388.038	122.06
388.263	121.06
388.488	101.06
388.713	87.06
388.938	86.06
389.163	103.06
389.387	111.06
389.612	85.06
389.837	89.06
390.062	92.06
390.287	106.06
390.512	96.06
390.736	116.06
390.961	102.06
391.186	82.06
391.411	93.06
391.636	101.06
391.86	80.06
392.085	99.06
392.31	81.06
392.534	82.06
392.759	102.06
392.984	103.06
393.208	103.06
393.433	108.06
393.658	95.06
393.882	99.06
394.107	81.06
394.331	86.06
394.556	79.06
394.78	93.06
395.005	101.06
395.229	96.06
395.454	96.06
395.678	95.06
395.903	84.06
396.127	93.06
396.352	92.06
396.576	86.06
396.801	91.06
397.025	91.06
397.249	91.06
397.474	92.06
397.698	89.06
397.922	81.06
398.147	89.06
398.371	91.06
398.595	93.06
398.82	91.06
399.044	91.06
399.268	85.06
399.492	78.06
399.717	93.06
399.941	86.06
400.165	101.06
400.389	94.06
400.613	92.06
400.837	91.06
401.062	76.06
401.286	87.06
401.51	102.06
401.734	97.06
401.958	99.06
402.182	115.06
402.406	162.06
402.63	137.06
402.854	102.06
403.078	92.06
403.302	95.06
403.526	94.06
403.75	88.06
403.974	85.06
404.198	87.06
404.422	90.06
404.645	82.06
404.869	96.06
405.093	108.06
405.317	117.06
405.541	107.06
405.765	105.06
405.988	132.06
406.212	182.06
406.436	209.06
406.66	152.06
406.883	103.06
407.107	88.06
407.331	117.06
407.555	112.06
407.778	91.06
408.002	100.06
408.226	91.06
408.449	103.06
408.673	101.06
408.896	92.06
409.12	109.06
409.344	92.06
409.567	89.06
409.791	90.06
410.014	99.06
410.238	103.06
410.461	93.06
410.685	95.06
410.908	103.06
411.132	94.06
411.355	97.06
411.578	87.06
411.802	108.06
412.025	100.06
412.249	98.06
412.472	100.06
412.695	115.06
412.919	99.06
413.142	90.06
413.365	79.06
413.589	103.06
413.812	91.06
414.035	86.06
414.258	87.06
414.482	111.06
414.705	100.06
414.928	95.06
415.151	87.06
415.374	87.06
415.597	100.06
415.821	87.06
416.044	89.06
416.267	95.06
416.49	78.06
416.713	96.06
416.936	92.06
417.159	93.06
417.382	89.06
417.605	106.06
417.828	102.06
418.051	87.06
418.274	98.06
418.497	92.06
418.72	87.06
418.943	108.06
419.166	89.06
419.389	68.06
419.611	83.06
419.834	85.06
420.057	87.06
420.28	86.06
420.503	93.06
420.726	75.06
420.948	94.06
421.171	93.06
421.394	100.06
421.617	103.06
421.839	93.06
422.062	93.06
422.285	87.06
422.507	106.06
422.73	106.06
422.953	86.06
423.175	110.06
423.398	92.06
423.621	86.06
423.843	92.06
424.066	84.06
424.288	87.06
424.511	101.06
424.733	88.06
424.956	101.06
425.178	99.06
425.401	119.06
425.623	108.06
425.846	93.06
426.068	83.06
426.291	87.06
426.513	93.06
426.735	89.06
426.958	103.06
427.18	115.06
427.402	139.06
427.625	202.06
427.847	167.06
428.069	175.06
428.292	110.06
428.514	104.06
428.736	97.06
428.958	76.06
429.181	96.06
429.403	79.06
429.625	86.06
429.847	90.06
430.069	111.06
430.292	101.06
430.514	94.06
430.736	85.06
430.958	77.06
431.18	84.06
431.402	86.06
431.624	89.06
431.846	92.06
432.068	76.06
432.29	79.06
432.512	90.06
432.734	87.06
432.956	100.06
433.178	99.06
433.4	96.06
433.622	92.06
433.844	98.06
434.066	108.06
434.287	111.06
434.509	79.06
434.731	83.06
434.953	93.06
435.175	81.06
435.397	96.06
435.618	90.06
435.84	111.06
436.062	125.06
436.284	129.06
436.505	109.06
436.727	108.06
436.949	87.06
437.17	93.06
437.392	87.06
437.614	97.06
437.835	111.06
438.057	100.06
438.278	118.06
438.5	112.06
438.721	134.06
438.943	111.06
439.165	106.06
439.386	93.06
439.608	97.06
439.829	110.06
440.05	124.06
440.272	159.06
440.493	106.06
440.715	98.06
440.936	91.06
441.158	87.06
441.379	86.06
441.6	95.06
441.822	92.06
442.043	85.06
442.264	108.06
442.486	105.06
442.707	98.06
442.928	101.06
443.149	136.06
443.371	155.06
443.592	119.06
443.813	129.06
444.034	112.06
444.255	107.06
444.476	83.06
444.698	92.06
444.919	88.06
445.14	122.06
445.361	122.06
445.582	123.06
445.803	152.06
446.024	122.06
446.245	139.06
446.466	120.06
446.687	81.06
446.908	95.06
447.129	85.06
447.35	83.06
447.571	87.06
447.792	93.06
448.013	93.06
448.234	116.06
448.455	110.06
448.675	115.06
448.896	120.06
449.117	106.06
449.338	110.06
449.559	139.06
449.779	157.06
450	96.06
450.221	91.06
450.442	99.06
450.662	88.06
450.883	95.06
451.104	111.06
451.324	97.06
451.545	84.06
451.766	78.06
451.986	75.06
452.207	84.06
452.428	104.06
452.648	107.06
452.869	122.06
453.089	126.06
453.31	126.06
453.53	92.06
453.751	92.06
453.971	119.06
454.192	111.06
454.412	102.06
454.633	92.06
454.853	84.06
455.073	76.06
455.294	100.06
455.514	97.06
455.734	88.06
455.955	103.06
456.175	86.06
456.395	64.06
456.616	84.06
456.836	87.06
457.056	83.06
457.276	86.06
457.497	94.06
457.717	91.06
457.937	100.06
458.157	86.06
458.377	101.06
458.598	115.06
458.818	168.06
459.038	174.06
459.258	119.06
459.478	103.06
459.698	92.06
459.918	95.06
460.138	82.06
460.358	81.06
460.578	92.06
460.798	96.06
461.018	99.06
461.238	94.06
461.458	88.06
461.678	79.06
461.898	81.06
462.118	86.06
462.338	86.06
462.558	89.06
462.777	86.06
462.997	89.06
463.217	108.06
463.437	96.06
463.657	97.06
463.876	105.06
464.096	110.06
464.316	101.06
464.536	106.06
464.755	97.06
464.975	100.06
465.195	159.06
465.414	174.06
465.634	107.06
465.854	88.06
466.073	88.06
466.293	90.06
466.512	86.06
466.732	85.06
466.951	111.06
467.171	79.06
467.391	91.06
467.61	127.06
467.829	135.06
468.049	201.06
468.268	269.06
468.488	115.06
468.707	95.06
468.927	80.06
469.146	94.06
469.365	95.06
469.585	87.06
469.804	97.06
470.023	93.06
470.243	107.06
470.462	102.06
470.681	104.06
470.901	96.06
471.12	77.06
471.339	92.06
471.558	104.06
471.777	107.06
471.997	155.06
472.216	366.06
472.435	712.06
472.654	215.06
472.873	115.06
473.092	105.06
473.311	102.06
473.53	96.06
473.749	96.06
473.968	92.06
474.187	111.06
474.406	100.06
474.625	79.06
474.844	103.06
475.063	90.06
475.282	84.06
475.501	91.06
475.72	83.06
475.939	77.06
476.158	96.06
476.377	85.06
476.596	81.06
476.814	101.06
477.033	80.06
477.252	92.06
477.471	80.06
477.69	87.06
477.908	90.06
478.127	90.06
478.346	93.06
478.564	108.06
478.783	94.06
479.002	97.06
479.22	85.06
479.439	99.06
479.658	107.06
479.876	95.06
480.095	98.06
480.313	102.06
480.532	106.06
480.751	153.06
480.969	369.06
481.188	1252.06
481.406	800.06
481.624	175.06
481.843	95.06
482.061	99.06
482.28	94.06
482.498	107.06
482.717	101.06
482.935	89.06
483.153	100.06
483.372	94.06
483.59	88.06
483.808	88.06
484.027	95.06
484.245	96.06
484.463	91.06
484.681	93.06
484.9	88.06
485.118	99.06
485.336	93.06
485.554	109.06
485.772	87.06
485.99	95.06
486.209	98.06
486.427	104.06
486.645	117.06
486.863	110.06
487.081	111.06
487.299	85.06
487.517	91.06
487.735	91.06
487.953	88.06
488.171	91.06
488.389	107.06
488.607	100.06
488.825	98.06
489.043	92.06
489.261	107.06
489.479	101.06
489.696	87.06
489.914	93.06
490.132	103.06
490.35	104.06
490.568	86.06
490.786	91.06
491.003	84.06
491.221	95.06
491.439	98.06
491.657	104.06
491.874	76.06
492.092	85.06
492.31	94.06
492.527	93.06
492.745	104.06
492.963	90.06
493.18	90.06
493.398	94.06
493.615	98.06
493.833	94.06
494.05	87.06
494.268	91.06
494.485	96.06
494.703	96.06
494.92	97.06
495.138	97.06
495.355	87.06
495.573	106.06
495.79	91.06
496.008	116.06
496.225	103.06
496.442	81.06
496.66	89.06
496.877	91.06
497.094	94.06
497.312	85.06
497.529	91.06
497.746	96.06
497.963	80.06
498.181	89.06
498.398	93.06
498.615	110.06
498.832	100.06
499.049	81.06
499.267	95.06
499.484	91.06
499.701	89.06
499.918	105.06
500.135	96.06
500.352	99.06
500.569	87.06
500.786	92.06
501.003	92.06
501.22	104.06
501.437	84.06
501.654	111.06
501.871	97.06
502.088	89.06
502.305	94.06
502.522	105.06
502.739	105.06
502.956	101.06
503.172	96.06
503.389	105.06
503.606	118.06
503.823	104.06
504.04	77.06
504.256	90.06
504.473	87.06
504.69	90.06
504.907	94.06
505.123	100.06
505.34	95.06
505.557	87.06
505.773	91.06
505.99	78.06
506.207	90.06
506.423	102.06
506.64	96.06
506.856	94.06
507.073	91.06
507.289	99.06
507.506	103.06
507.722	117.06
507.939	121.06
508.155	95.06
508.372	88.06
508.588	88.06
508.805	83.06
509.021	89.06
509.238	105.06
509.454	99.06
509.67	92.06
509.887	104.06
510.103	143.06
510.319	199.06
510.536	705.06
510.752	2300.06
510.968	684.06
511.184	179.06
511.401	129.06
511.617	102.06
511.833	100.06
512.049	95.06
512.265	97.06
512.481	99.06
512.698	87.06
512.914	87.06
513.13	102.06
513.346	97.06
513.562	83.06
513.778	102.06
