Data from Circ_2015_H10_HRD10591_00042.txt Node
Date: Wed Jan 03 10:00:31 EST 2024
User: Yrep
Spectrometer: HR+D1059
Trigger mode: 1
Integration Time (sec): 1.000000E-1
Scans to average: 1
Electric dark correction enabled: true
Nonlinearity correction enabled: false
Boxcar width: 0
XAxis mode: Wavelengths
Number of Pixels in Spectrum: 2048
>>>>>Begin Spectral Data<<<<<
223.165	-19.44
223.4	-19.44
223.635	-19.44
223.869	-31.44
224.104	-22.44
224.338	-14.44
224.573	4.56
224.808	-5.44
225.042	-8.44
225.277	-10.44
225.511	-7.44
225.746	10.56
225.98	5.56
226.215	6.56
226.449	40.56
226.683	16.56
226.918	23.56
227.152	11.56
227.387	22.56
227.621	36.56
227.856	47.56
228.09	41.56
228.324	47.56
228.559	46.56
228.793	66.56
229.027	70.56
229.262	71.56
229.496	89.56
229.73	88.56
229.964	70.56
230.199	86.56
230.433	67.56
230.667	77.56
230.901	77.56
231.136	75.56
231.37	70.56
231.604	73.56
231.838	90.56
232.072	70.56
232.306	93.56
232.541	78.56
232.775	78.56
233.009	76.56
233.243	82.56
233.477	84.56
233.711	89.56
233.945	87.56
234.179	81.56
234.413	70.56
234.647	82.56
234.881	90.56
235.115	90.56
235.349	86.56
235.583	90.56
235.817	94.56
236.051	79.56
236.285	73.56
236.519	75.56
236.753	72.56
236.987	87.56
237.221	81.56
237.455	72.56
237.689	75.56
237.922	66.56
238.156	87.56
238.39	62.56
238.624	80.56
238.858	80.56
239.091	68.56
239.325	79.56
239.559	76.56
239.793	90.56
240.027	78.56
240.26	90.56
240.494	72.56
240.728	74.56
240.961	57.56
241.195	70.56
241.429	80.56
241.662	71.56
241.896	87.56
242.13	78.56
242.363	90.56
242.597	80.56
242.83	75.56
243.064	83.56
243.298	70.56
243.531	65.56
243.765	83.56
243.998	81.56
244.232	66.56
244.465	71.56
244.699	77.56
244.932	73.56
245.166	85.56
245.399	69.56
245.633	70.56
245.866	72.56
246.099	81.56
246.333	88.56
246.566	72.56
246.8	83.56
247.033	69.56
247.266	72.56
247.5	82.56
247.733	63.56
247.966	76.56
248.2	94.56
248.433	81.56
248.666	83.56
248.899	90.56
249.133	96.56
249.366	102.56
249.599	103.56
249.832	74.56
250.066	80.56
250.299	91.56
250.532	78.56
250.765	77.56
250.998	89.56
251.231	64.56
251.465	80.56
251.698	95.56
251.931	73.56
252.164	84.56
252.397	82.56
252.63	78.56
252.863	74.56
253.096	89.56
253.329	81.56
253.562	70.56
253.795	81.56
254.028	84.56
254.261	86.56
254.494	87.56
254.727	85.56
254.96	81.56
255.193	83.56
255.426	74.56
255.659	80.56
255.892	99.56
256.124	83.56
256.357	77.56
256.59	91.56
256.823	80.56
257.056	81.56
257.289	67.56
257.521	73.56
257.754	83.56
257.987	91.56
258.22	83.56
258.452	84.56
258.685	89.56
258.918	80.56
259.151	84.56
259.383	92.56
259.616	77.56
259.849	72.56
260.081	77.56
260.314	78.56
260.547	84.56
260.779	88.56
261.012	78.56
261.244	76.56
261.477	88.56
261.71	83.56
261.942	110.56
262.175	114.56
262.407	90.56
262.64	87.56
262.872	79.56
263.105	87.56
263.337	80.56
263.57	91.56
263.802	75.56
264.035	80.56
264.267	69.56
264.499	79.56
264.732	88.56
264.964	86.56
265.197	88.56
265.429	87.56
265.661	85.56
265.894	78.56
266.126	86.56
266.358	84.56
266.591	76.56
266.823	85.56
267.055	75.56
267.287	83.56
267.52	76.56
267.752	75.56
267.984	84.56
268.216	87.56
268.448	84.56
268.681	90.56
268.913	87.56
269.145	90.56
269.377	82.56
269.609	77.56
269.841	93.56
270.073	84.56
270.306	97.56
270.538	87.56
270.77	86.56
271.002	85.56
271.234	94.56
271.466	90.56
271.698	85.56
271.93	84.56
272.162	87.56
272.394	77.56
272.626	91.56
272.858	84.56
273.09	98.56
273.322	86.56
273.553	89.56
273.785	92.56
274.017	84.56
274.249	89.56
274.481	78.56
274.713	78.56
274.945	100.56
275.176	84.56
275.408	88.56
275.64	99.56
275.872	85.56
276.104	84.56
276.335	96.56
276.567	102.56
276.799	97.56
277.031	90.56
277.262	99.56
277.494	91.56
277.726	91.56
277.957	91.56
278.189	77.56
278.421	85.56
278.652	82.56
278.884	87.56
279.115	85.56
279.347	88.56
279.579	76.56
279.81	87.56
280.042	95.56
280.273	96.56
280.505	106.56
280.736	104.56
280.968	92.56
281.199	80.56
281.431	86.56
281.662	78.56
281.894	95.56
282.125	95.56
282.356	118.56
282.588	129.56
282.819	108.56
283.051	95.56
283.282	85.56
283.513	91.56
283.745	99.56
283.976	74.56
284.207	79.56
284.439	80.56
284.67	91.56
284.901	83.56
285.132	95.56
285.364	77.56
285.595	87.56
285.826	84.56
286.057	98.56
286.288	87.56
286.52	78.56
286.751	104.56
286.982	79.56
287.213	98.56
287.444	99.56
287.675	87.56
287.906	93.56
288.138	88.56
288.369	77.56
288.6	95.56
288.831	89.56
289.062	86.56
289.293	99.56
289.524	80.56
289.755	84.56
289.986	87.56
290.217	90.56
290.448	99.56
290.679	84.56
290.91	85.56
291.141	86.56
291.371	85.56
291.602	97.56
291.833	95.56
292.064	90.56
292.295	80.56
292.526	78.56
292.757	86.56
292.987	90.56
293.218	85.56
293.449	105.56
293.68	98.56
293.91	83.56
294.141	89.56
294.372	92.56
294.603	78.56
294.833	91.56
295.064	82.56
295.295	97.56
295.525	93.56
295.756	103.56
295.987	115.56
296.217	126.56
296.448	129.56
296.679	87.56
296.909	80.56
297.14	105.56
297.37	90.56
297.601	86.56
297.831	106.56
298.062	95.56
298.292	98.56
298.523	101.56
298.753	86.56
298.984	94.56
299.214	91.56
299.445	84.56
299.675	99.56
299.905	83.56
300.136	90.56
300.366	89.56
300.597	76.56
300.827	98.56
301.057	101.56
301.288	95.56
301.518	106.56
301.748	94.56
301.979	105.56
302.209	86.56
302.439	91.56
302.669	87.56
302.9	79.56
303.13	101.56
303.36	97.56
303.59	111.56
303.82	114.56
304.051	104.56
304.281	74.56
304.511	84.56
304.741	80.56
304.971	87.56
305.201	110.56
305.431	96.56
305.661	92.56
305.891	103.56
306.121	97.56
306.352	104.56
306.582	113.56
306.812	87.56
307.042	95.56
307.272	110.56
307.502	100.56
307.731	94.56
307.961	108.56
308.191	79.56
308.421	91.56
308.651	98.56
308.881	113.56
309.111	90.56
309.341	97.56
309.571	90.56
309.8	98.56
310.03	94.56
310.26	104.56
310.49	101.56
310.72	87.56
310.949	103.56
311.179	92.56
311.409	92.56
311.639	107.56
311.868	78.56
312.098	99.56
312.328	103.56
312.557	95.56
312.787	96.56
313.017	103.56
313.246	94.56
313.476	83.56
313.706	94.56
313.935	105.56
314.165	94.56
314.394	92.56
314.624	95.56
314.853	97.56
315.083	100.56
315.312	88.56
315.542	104.56
315.771	86.56
316.001	92.56
316.23	91.56
316.46	82.56
316.689	90.56
316.919	89.56
317.148	95.56
317.377	94.56
317.607	93.56
317.836	101.56
318.065	93.56
318.295	99.56
318.524	74.56
318.753	86.56
318.983	75.56
319.212	94.56
319.441	117.56
319.67	110.56
319.9	88.56
320.129	85.56
320.358	76.56
320.587	92.56
320.816	89.56
321.046	101.56
321.275	91.56
321.504	104.56
321.733	100.56
321.962	99.56
322.191	104.56
322.42	79.56
322.649	94.56
322.878	106.56
323.108	115.56
323.337	95.56
323.566	142.56
323.795	167.56
324.024	198.56
324.253	383.56
324.482	831.56
324.71	1707.56
324.939	2214.56
325.168	836.56
325.397	245.56
325.626	156.56
325.855	144.56
326.084	124.56
326.313	123.56
326.542	154.56
326.77	223.56
326.999	464.56
327.228	941.56
327.457	1710.56
327.686	1366.56
327.914	389.56
328.143	214.56
328.372	202.56
328.6	126.56
328.829	120.56
329.058	143.56
329.287	136.56
329.515	112.56
329.744	138.56
329.972	155.56
330.201	212.56
330.43	260.56
330.658	176.56
330.887	156.56
331.115	136.56
331.344	97.56
331.572	107.56
331.801	101.56
332.03	116.56
332.258	94.56
332.486	98.56
332.715	102.56
332.943	104.56
333.172	101.56
333.4	99.56
333.629	104.56
333.857	124.56
334.085	143.56
334.314	179.56
334.542	282.56
334.771	271.56
334.999	127.56
335.227	108.56
335.455	104.56
335.684	103.56
335.912	92.56
336.14	92.56
336.369	93.56
336.597	103.56
336.825	97.56
337.053	93.56
337.281	99.56
337.51	90.56
337.738	77.56
337.966	100.56
338.194	95.56
338.422	106.56
338.65	92.56
338.878	103.56
339.106	101.56
339.334	92.56
339.562	101.56
339.79	95.56
340.018	99.56
340.246	88.56
340.474	90.56
340.702	98.56
340.93	85.56
341.158	82.56
341.386	82.56
341.614	96.56
341.842	79.56
342.07	85.56
342.298	96.56
342.526	99.56
342.754	89.56
342.981	74.56
343.209	88.56
343.437	100.56
343.665	93.56
343.893	91.56
344.12	77.56
344.348	86.56
344.576	92.56
344.804	102.56
345.031	93.56
345.259	98.56
345.487	88.56
345.714	86.56
345.942	92.56
346.17	103.56
346.397	103.56
346.625	87.56
346.853	89.56
347.08	100.56
347.308	89.56
347.535	102.56
347.763	91.56
347.99	95.56
348.218	105.56
348.445	100.56
348.673	90.56
348.9	105.56
349.128	99.56
349.355	93.56
349.583	101.56
349.81	98.56
350.037	87.56
350.265	112.56
350.492	100.56
350.72	104.56
350.947	93.56
351.174	100.56
351.402	109.56
351.629	105.56
351.856	110.56
352.083	106.56
352.311	99.56
352.538	101.56
352.765	107.56
352.992	94.56
353.22	102.56
353.447	98.56
353.674	96.56
353.901	87.56
354.128	101.56
354.355	104.56
354.583	97.56
354.81	93.56
355.037	79.56
355.264	94.56
355.491	94.56
355.718	94.56
355.945	101.56
356.172	96.56
356.399	108.56
356.626	107.56
356.853	92.56
357.08	98.56
357.307	94.56
357.534	96.56
357.761	83.56
357.988	110.56
358.215	99.56
358.441	99.56
358.668	105.56
358.895	90.56
359.122	100.56
359.349	89.56
359.576	84.56
359.802	105.56
360.029	124.56
360.256	93.56
360.483	91.56
360.709	96.56
360.936	98.56
361.163	90.56
361.39	92.56
361.616	88.56
361.843	95.56
362.07	84.56
362.296	92.56
362.523	90.56
362.749	102.56
362.976	84.56
363.203	88.56
363.429	86.56
363.656	84.56
363.882	94.56
364.109	85.56
364.335	95.56
364.562	88.56
364.788	77.56
365.015	91.56
365.241	88.56
365.468	97.56
365.694	114.56
365.92	108.56
366.147	88.56
366.373	95.56
366.599	92.56
366.826	103.56
367.052	85.56
367.278	82.56
367.505	94.56
367.731	79.56
367.957	90.56
368.184	97.56
368.41	105.56
368.636	117.56
368.862	117.56
369.089	116.56
369.315	92.56
369.541	112.56
369.767	86.56
369.993	90.56
370.219	90.56
370.445	107.56
370.672	89.56
370.898	105.56
371.124	85.56
371.35	82.56
371.576	91.56
371.802	99.56
372.028	70.56
372.254	88.56
372.48	90.56
372.706	81.56
372.932	92.56
373.158	79.56
373.384	99.56
373.61	84.56
373.835	100.56
374.061	87.56
374.287	83.56
374.513	98.56
374.739	94.56
374.965	96.56
375.191	92.56
375.416	94.56
375.642	83.56
375.868	85.56
376.094	108.56
376.319	96.56
376.545	80.56
376.771	96.56
376.997	69.56
377.222	87.56
377.448	75.56
377.674	83.56
377.899	106.56
378.125	86.56
378.35	93.56
378.576	112.56
378.802	99.56
379.027	90.56
379.253	90.56
379.478	100.56
379.704	89.56
379.929	92.56
380.155	90.56
380.38	104.56
380.606	87.56
380.831	108.56
381.057	91.56
381.282	97.56
381.507	99.56
381.733	100.56
381.958	90.56
382.184	111.56
382.409	93.56
382.634	90.56
382.86	95.56
383.085	111.56
383.31	114.56
383.535	108.56
383.761	91.56
383.986	103.56
384.211	111.56
384.436	102.56
384.662	106.56
384.887	118.56
385.112	110.56
385.337	104.56
385.562	119.56
385.787	119.56
386.013	114.56
386.238	126.56
386.463	116.56
386.688	114.56
386.913	121.56
387.138	118.56
387.363	107.56
387.588	100.56
387.813	117.56
388.038	120.56
388.263	119.56
388.488	122.56
388.713	113.56
388.938	92.56
389.163	83.56
389.387	97.56
389.612	91.56
389.837	90.56
390.062	93.56
390.287	91.56
390.512	100.56
390.736	112.56
390.961	86.56
391.186	101.56
391.411	97.56
391.636	117.56
391.86	76.56
392.085	82.56
392.31	90.56
392.534	87.56
392.759	88.56
392.984	75.56
393.208	87.56
393.433	107.56
393.658	90.56
393.882	83.56
394.107	93.56
394.331	87.56
394.556	87.56
394.78	87.56
395.005	90.56
395.229	78.56
395.454	85.56
395.678	94.56
395.903	83.56
396.127	94.56
396.352	83.56
396.576	78.56
396.801	89.56
397.025	112.56
397.249	93.56
397.474	75.56
397.698	75.56
397.922	95.56
398.147	86.56
398.371	85.56
398.595	96.56
398.82	94.56
399.044	85.56
399.268	98.56
399.492	97.56
399.717	81.56
399.941	99.56
400.165	97.56
400.389	93.56
400.613	92.56
400.837	104.56
401.062	100.56
401.286	87.56
401.51	84.56
401.734	89.56
401.958	92.56
402.182	125.56
402.406	150.56
402.63	117.56
402.854	85.56
403.078	90.56
403.302	80.56
403.526	88.56
403.75	85.56
403.974	76.56
404.198	93.56
404.422	98.56
404.645	93.56
404.869	90.56
405.093	95.56
405.317	123.56
405.541	111.56
405.765	99.56
405.988	100.56
406.212	166.56
406.436	205.56
406.66	136.56
406.883	97.56
407.107	90.56
407.331	94.56
407.555	101.56
407.778	88.56
408.002	98.56
408.226	87.56
408.449	91.56
408.673	84.56
408.896	101.56
409.12	96.56
409.344	94.56
409.567	94.56
409.791	87.56
410.014	90.56
410.238	112.56
410.461	92.56
410.685	85.56
410.908	94.56
411.132	107.56
411.355	98.56
411.578	90.56
411.802	100.56
412.025	88.56
412.249	96.56
412.472	103.56
412.695	121.56
412.919	101.56
413.142	93.56
413.365	94.56
413.589	83.56
413.812	86.56
414.035	87.56
414.258	93.56
414.482	94.56
414.705	93.56
414.928	87.56
415.151	94.56
415.374	106.56
415.597	90.56
415.821	80.56
416.044	84.56
416.267	92.56
416.49	87.56
416.713	102.56
416.936	86.56
417.159	92.56
417.382	86.56
417.605	86.56
417.828	92.56
418.051	97.56
418.274	89.56
418.497	85.56
418.72	88.56
418.943	89.56
419.166	85.56
419.389	91.56
419.611	94.56
419.834	86.56
420.057	103.56
420.28	96.56
420.503	86.56
420.726	88.56
420.948	88.56
421.171	89.56
421.394	93.56
421.617	94.56
421.839	89.56
422.062	84.56
422.285	98.56
422.507	100.56
422.73	107.56
422.953	100.56
423.175	85.56
423.398	92.56
423.621	91.56
423.843	92.56
424.066	78.56
424.288	93.56
424.511	102.56
424.733	104.56
424.956	118.56
425.178	88.56
425.401	106.56
425.623	93.56
425.846	92.56
426.068	93.56
426.291	95.56
426.513	93.56
426.735	88.56
426.958	98.56
427.18	103.56
427.402	136.56
427.625	155.56
427.847	141.56
428.069	135.56
428.292	107.56
428.514	87.56
428.736	85.56
428.958	82.56
429.181	90.56
429.403	84.56
429.625	95.56
429.847	87.56
430.069	97.56
430.292	104.56
430.514	91.56
430.736	82.56
430.958	76.56
431.18	78.56
431.402	82.56
431.624	90.56
431.846	93.56
432.068	80.56
432.29	78.56
432.512	82.56
432.734	79.56
432.956	92.56
433.178	104.56
433.4	86.56
433.622	75.56
433.844	109.56
434.066	110.56
434.287	90.56
434.509	94.56
434.731	92.56
434.953	96.56
435.175	92.56
435.397	92.56
435.618	90.56
435.84	100.56
436.062	111.56
436.284	98.56
436.505	94.56
436.727	83.56
436.949	90.56
437.17	76.56
437.392	91.56
437.614	94.56
437.835	106.56
438.057	108.56
438.278	120.56
438.5	95.56
438.721	120.56
438.943	101.56
439.165	94.56
439.386	88.56
439.608	98.56
439.829	91.56
440.05	107.56
440.272	121.56
440.493	106.56
440.715	94.56
440.936	76.56
441.158	81.56
441.379	97.56
441.6	106.56
441.822	90.56
442.043	109.56
442.264	90.56
442.486	94.56
442.707	102.56
442.928	106.56
443.149	137.56
443.371	130.56
443.592	108.56
443.813	103.56
444.034	118.56
444.255	102.56
444.476	77.56
444.698	84.56
444.919	94.56
445.14	132.56
445.361	134.56
445.582	117.56
445.803	125.56
446.024	125.56
446.245	138.56
446.466	111.56
446.687	92.56
446.908	85.56
447.129	85.56
447.35	79.56
447.571	100.56
447.792	97.56
448.013	98.56
448.234	102.56
448.455	102.56
448.675	112.56
448.896	121.56
449.117	107.56
449.338	84.56
449.559	131.56
449.779	142.56
450	91.56
450.221	92.56
450.442	96.56
450.662	99.56
450.883	97.56
451.104	95.56
451.324	99.56
451.545	77.56
451.766	94.56
451.986	80.56
452.207	94.56
452.428	100.56
452.648	101.56
452.869	102.56
453.089	122.56
453.31	106.56
453.53	92.56
453.751	98.56
453.971	98.56
454.192	94.56
454.412	104.56
454.633	86.56
454.853	79.56
455.073	84.56
455.294	84.56
455.514	92.56
455.734	103.56
455.955	97.56
456.175	83.56
456.395	75.56
456.616	94.56
456.836	93.56
457.056	76.56
457.276	77.56
457.497	87.56
457.717	89.56
457.937	86.56
458.157	75.56
458.377	95.56
458.598	120.56
458.818	152.56
459.038	150.56
459.258	117.56
459.478	86.56
459.698	90.56
459.918	69.56
460.138	85.56
460.358	80.56
460.578	82.56
460.798	79.56
461.018	91.56
461.238	95.56
461.458	90.56
461.678	86.56
461.898	86.56
462.118	88.56
462.338	96.56
462.558	92.56
462.777	88.56
462.997	85.56
463.217	77.56
463.437	88.56
463.657	102.56
463.876	77.56
464.096	97.56
464.316	90.56
464.536	87.56
464.755	72.56
464.975	103.56
465.195	170.56
465.414	157.56
465.634	96.56
465.854	93.56
466.073	76.56
466.293	94.56
466.512	104.56
466.732	85.56
466.951	101.56
467.171	97.56
467.391	96.56
467.61	112.56
467.829	105.56
468.049	142.56
468.268	180.56
468.488	98.56
468.707	88.56
468.927	87.56
469.146	95.56
469.365	90.56
469.585	96.56
469.804	100.56
470.023	108.56
470.243	86.56
470.462	102.56
470.681	108.56
470.901	107.56
471.12	85.56
471.339	79.56
471.558	86.56
471.777	101.56
471.997	103.56
472.216	199.56
472.435	348.56
472.654	141.56
472.873	94.56
473.092	99.56
473.311	79.56
473.53	78.56
473.749	105.56
473.968	112.56
474.187	99.56
474.406	102.56
474.625	86.56
474.844	89.56
475.063	91.56
475.282	83.56
475.501	83.56
475.72	96.56
475.939	81.56
476.158	75.56
476.377	80.56
476.596	80.56
476.814	92.56
477.033	84.56
477.252	100.56
477.471	87.56
477.69	91.56
477.908	86.56
478.127	92.56
478.346	93.56
478.564	91.56
478.783	91.56
479.002	97.56
479.22	102.56
479.439	105.56
479.658	102.56
479.876	89.56
480.095	87.56
480.313	104.56
480.532	87.56
480.751	109.56
480.969	198.56
481.188	547.56
481.406	358.56
481.624	127.56
481.843	90.56
482.061	98.56
482.28	96.56
482.498	99.56
482.717	92.56
482.935	95.56
483.153	83.56
483.372	88.56
483.59	78.56
483.808	78.56
484.027	96.56
484.245	93.56
484.463	92.56
484.681	100.56
484.9	88.56
485.118	80.56
485.336	86.56
485.554	99.56
485.772	98.56
485.99	96.56
486.209	113.56
486.427	118.56
486.645	130.56
486.863	110.56
487.081	107.56
487.299	86.56
487.517	90.56
487.735	102.56
487.953	103.56
488.171	82.56
488.389	91.56
488.607	114.56
488.825	80.56
489.043	67.56
489.261	95.56
489.479	95.56
489.696	94.56
489.914	97.56
490.132	91.56
490.35	96.56
490.568	92.56
490.786	87.56
491.003	103.56
491.221	104.56
491.439	92.56
491.657	85.56
491.874	90.56
492.092	92.56
492.31	89.56
492.527	80.56
492.745	88.56
492.963	99.56
493.18	80.56
493.398	95.56
493.615	90.56
493.833	104.56
494.05	92.56
494.268	91.56
494.485	96.56
494.703	84.56
494.92	84.56
495.138	94.56
495.355	78.56
495.573	90.56
495.79	91.56
496.008	89.56
496.225	95.56
496.442	87.56
496.66	95.56
496.877	78.56
497.094	94.56
497.312	106.56
497.529	99.56
497.746	90.56
497.963	94.56
498.181	84.56
498.398	92.56
498.615	105.56
498.832	104.56
499.049	98.56
499.267	107.56
499.484	97.56
499.701	83.56
499.918	106.56
500.135	95.56
500.352	101.56
500.569	99.56
500.786	97.56
501.003	79.56
501.22	84.56
501.437	91.56
501.654	96.56
501.871	103.56
502.088	103.56
502.305	92.56
502.522	71.56
502.739	83.56
502.956	92.56
503.172	86.56
503.389	110.56
503.606	104.56
503.823	88.56
504.04	87.56
504.256	82.56
504.473	108.56
504.69	103.56
504.907	101.56
505.123	80.56
505.34	95.56
505.557	92.56
505.773	96.56
505.99	106.56
506.207	85.56
506.423	93.56
506.64	84.56
506.856	93.56
507.073	92.56
507.289	102.56
507.506	88.56
507.722	103.56
507.939	114.56
508.155	85.56
508.372	95.56
508.588	90.56
508.805	102.56
509.021	99.56
509.238	107.56
509.454	95.56
509.67	95.56
509.887	116.56
510.103	123.56
510.319	194.56
510.536	695.56
510.752	2216.56
510.968	661.56
511.184	158.56
511.401	105.56
511.617	96.56
511.833	94.56
512.049	90.56
512.265	97.56
512.481	88.56
512.698	92.56
512.914	93.56
513.13	97.56
513.346	93.56
513.562	101.56
513.778	101.56
513.994	91.56
514.21	89.56
514.426	86.56
514.642	156.56
514.858	127.56
515.074	167.56
