Data from Circ_2015_H10_HRD10591_00067.txt Node
Date: Wed Jan 03 10:00:36 EST 2024
User: Yrep
Spectrometer: HR+D1059
Trigger mode: 1
Integration Time (sec): 1.000000E-1
Scans to average: 1
Electric dark correction enabled: true
Nonlinearity correction enabled: false
Boxcar width: 0
XAxis mode: Wavelengths
Number of Pixels in Spectrum: 2048
>>>>>Begin Spectral Data<<<<<
223.165	-23.44
223.4	-23.44
223.635	-23.44
223.869	-23.44
224.104	-23.44
224.338	-10.44
224.573	-7.44
224.808	3.56
225.042	-8.44
225.277	-2.44
225.511	11.56
225.746	-2.44
225.98	-1.44
226.215	0.56
226.449	24.56
226.683	25.56
226.918	13.56
227.152	23.56
227.387	26.56
227.621	41.56
227.856	36.56
228.09	47.56
228.324	46.56
228.559	63.56
228.793	54.56
229.027	52.56
229.262	69.56
229.496	61.56
229.73	81.56
229.964	76.56
230.199	67.56
230.433	55.56
230.667	75.56
230.901	61.56
231.136	72.56
231.37	85.56
231.604	79.56
231.838	67.56
232.072	75.56
232.306	75.56
232.541	86.56
232.775	84.56
233.009	86.56
233.243	75.56
233.477	72.56
233.711	70.56
233.945	76.56
234.179	65.56
234.413	73.56
234.647	74.56
234.881	75.56
235.115	73.56
235.349	82.56
235.583	76.56
235.817	88.56
236.051	85.56
236.285	77.56
236.519	86.56
236.753	77.56
236.987	75.56
237.221	91.56
237.455	69.56
237.689	70.56
237.922	67.56
238.156	77.56
238.39	63.56
238.624	84.56
238.858	83.56
239.091	53.56
239.325	55.56
239.559	70.56
239.793	78.56
240.027	75.56
240.26	77.56
240.494	85.56
240.728	67.56
240.961	81.56
241.195	85.56
241.429	73.56
241.662	79.56
241.896	61.56
242.13	64.56
242.363	79.56
242.597	76.56
242.83	65.56
243.064	67.56
243.298	84.56
243.531	67.56
243.765	67.56
243.998	74.56
244.232	76.56
244.465	82.56
244.699	67.56
244.932	81.56
245.166	69.56
245.399	69.56
245.633	75.56
245.866	70.56
246.099	79.56
246.333	79.56
246.566	78.56
246.8	86.56
247.033	60.56
247.266	84.56
247.5	76.56
247.733	69.56
247.966	67.56
248.2	75.56
248.433	89.56
248.666	81.56
248.899	78.56
249.133	74.56
249.366	81.56
249.599	83.56
249.832	75.56
250.066	71.56
250.299	90.56
250.532	62.56
250.765	72.56
250.998	63.56
251.231	72.56
251.465	89.56
251.698	65.56
251.931	70.56
252.164	75.56
252.397	75.56
252.63	81.56
252.863	80.56
253.096	75.56
253.329	71.56
253.562	73.56
253.795	73.56
254.028	86.56
254.261	65.56
254.494	87.56
254.727	85.56
254.96	64.56
255.193	78.56
255.426	75.56
255.659	70.56
255.892	86.56
256.124	72.56
256.357	73.56
256.59	76.56
256.823	71.56
257.056	82.56
257.289	80.56
257.521	69.56
257.754	80.56
257.987	79.56
258.22	75.56
258.452	90.56
258.685	67.56
258.918	63.56
259.151	72.56
259.383	87.56
259.616	70.56
259.849	78.56
260.081	82.56
260.314	69.56
260.547	77.56
260.779	72.56
261.012	96.56
261.244	103.56
261.477	83.56
261.71	105.56
261.942	103.56
262.175	99.56
262.407	80.56
262.64	95.56
262.872	81.56
263.105	70.56
263.337	86.56
263.57	81.56
263.802	90.56
264.035	57.56
264.267	91.56
264.499	80.56
264.732	90.56
264.964	60.56
265.197	85.56
265.429	78.56
265.661	75.56
265.894	91.56
266.126	88.56
266.358	67.56
266.591	82.56
266.823	64.56
267.055	87.56
267.287	80.56
267.52	77.56
267.752	87.56
267.984	76.56
268.216	83.56
268.448	77.56
268.681	91.56
268.913	85.56
269.145	80.56
269.377	82.56
269.609	75.56
269.841	73.56
270.073	81.56
270.306	86.56
270.538	88.56
270.77	89.56
271.002	79.56
271.234	74.56
271.466	84.56
271.698	83.56
271.93	83.56
272.162	83.56
272.394	80.56
272.626	73.56
272.858	87.56
273.09	90.56
273.322	87.56
273.553	89.56
273.785	91.56
274.017	88.56
274.249	79.56
274.481	69.56
274.713	84.56
274.945	79.56
275.176	92.56
275.408	87.56
275.64	94.56
275.872	95.56
276.104	88.56
276.335	79.56
276.567	85.56
276.799	91.56
277.031	78.56
277.262	94.56
277.494	77.56
277.726	83.56
277.957	63.56
278.189	82.56
278.421	79.56
278.652	90.56
278.884	83.56
279.115	78.56
279.347	90.56
279.579	74.56
279.81	87.56
280.042	100.56
280.273	106.56
280.505	85.56
280.736	81.56
280.968	89.56
281.199	80.56
281.431	82.56
281.662	91.56
281.894	91.56
282.125	79.56
282.356	111.56
282.588	114.56
282.819	126.56
283.051	92.56
283.282	84.56
283.513	87.56
283.745	75.56
283.976	91.56
284.207	79.56
284.439	89.56
284.67	77.56
284.901	71.56
285.132	96.56
285.364	86.56
285.595	85.56
285.826	83.56
286.057	87.56
286.288	80.56
286.52	95.56
286.751	71.56
286.982	75.56
287.213	73.56
287.444	86.56
287.675	87.56
287.906	84.56
288.138	95.56
288.369	86.56
288.6	81.56
288.831	76.56
289.062	81.56
289.293	79.56
289.524	79.56
289.755	94.56
289.986	87.56
290.217	72.56
290.448	90.56
290.679	81.56
290.91	88.56
291.141	79.56
291.371	86.56
291.602	72.56
291.833	83.56
292.064	77.56
292.295	78.56
292.526	75.56
292.757	99.56
292.987	98.56
293.218	82.56
293.449	71.56
293.68	91.56
293.91	78.56
294.141	92.56
294.372	82.56
294.603	82.56
294.833	69.56
295.064	78.56
295.295	93.56
295.525	98.56
295.756	95.56
295.987	100.56
296.217	118.56
296.448	111.56
296.679	92.56
296.909	90.56
297.14	79.56
297.37	87.56
297.601	85.56
297.831	90.56
298.062	90.56
298.292	91.56
298.523	92.56
298.753	82.56
298.984	84.56
299.214	93.56
299.445	86.56
299.675	77.56
299.905	87.56
300.136	94.56
300.366	79.56
300.597	84.56
300.827	90.56
301.057	79.56
301.288	101.56
301.518	83.56
301.748	81.56
301.979	104.56
302.209	87.56
302.439	85.56
302.669	74.56
302.9	95.56
303.13	87.56
303.36	85.56
303.59	101.56
303.82	93.56
304.051	77.56
304.281	81.56
304.511	82.56
304.741	78.56
304.971	68.56
305.201	80.56
305.431	80.56
305.661	98.56
305.891	80.56
306.121	87.56
306.352	86.56
306.582	94.56
306.812	86.56
307.042	98.56
307.272	93.56
307.502	104.56
307.731	111.56
307.961	98.56
308.191	82.56
308.421	81.56
308.651	95.56
308.881	90.56
309.111	86.56
309.341	82.56
309.571	101.56
309.8	93.56
310.03	104.56
310.26	88.56
310.49	82.56
310.72	101.56
310.949	90.56
311.179	94.56
311.409	108.56
311.639	86.56
311.868	83.56
312.098	92.56
312.328	75.56
312.557	98.56
312.787	94.56
313.017	106.56
313.246	108.56
313.476	85.56
313.706	83.56
313.935	94.56
314.165	94.56
314.394	103.56
314.624	88.56
314.853	97.56
315.083	79.56
315.312	78.56
315.542	85.56
315.771	89.56
316.001	78.56
316.23	79.56
316.46	86.56
316.689	101.56
316.919	85.56
317.148	99.56
317.377	89.56
317.607	95.56
317.836	90.56
318.065	81.56
318.295	71.56
318.524	74.56
318.753	82.56
318.983	80.56
319.212	104.56
319.441	102.56
319.67	91.56
319.9	93.56
320.129	88.56
320.358	73.56
320.587	95.56
320.816	96.56
321.046	89.56
321.275	86.56
321.504	88.56
321.733	88.56
321.962	88.56
322.191	95.56
322.42	95.56
322.649	109.56
322.878	106.56
323.108	117.56
323.337	130.56
323.566	138.56
323.795	152.56
324.024	191.56
324.253	354.56
324.482	764.56
324.71	1537.56
324.939	2013.56
325.168	749.56
325.397	221.56
325.626	147.56
325.855	131.56
326.084	119.56
326.313	128.56
326.542	149.56
326.77	211.56
326.999	442.56
327.228	890.56
327.457	1597.56
327.686	1283.56
327.914	348.56
328.143	210.56
328.372	189.56
328.6	133.56
328.829	111.56
329.058	122.56
329.287	122.56
329.515	104.56
329.744	110.56
329.972	143.56
330.201	197.56
330.43	257.56
330.658	179.56
330.887	120.56
331.115	118.56
331.344	106.56
331.572	92.56
331.801	99.56
332.03	96.56
332.258	99.56
332.486	87.56
332.715	98.56
332.943	92.56
333.172	85.56
333.4	95.56
333.629	115.56
333.857	115.56
334.085	142.56
334.314	198.56
334.542	303.56
334.771	305.56
334.999	136.56
335.227	114.56
335.455	96.56
335.684	99.56
335.912	97.56
336.14	94.56
336.369	96.56
336.597	85.56
336.825	85.56
337.053	81.56
337.281	83.56
337.51	98.56
337.738	90.56
337.966	98.56
338.194	92.56
338.422	95.56
338.65	96.56
338.878	78.56
339.106	85.56
339.334	87.56
339.562	84.56
339.79	87.56
340.018	85.56
340.246	75.56
340.474	78.56
340.702	93.56
340.93	80.56
341.158	71.56
341.386	95.56
341.614	98.56
341.842	87.56
342.07	75.56
342.298	84.56
342.526	90.56
342.754	88.56
342.981	100.56
343.209	83.56
343.437	78.56
343.665	99.56
343.893	86.56
344.12	72.56
344.348	86.56
344.576	97.56
344.804	89.56
345.031	96.56
345.259	97.56
345.487	84.56
345.714	76.56
345.942	87.56
346.17	100.56
346.397	88.56
346.625	88.56
346.853	85.56
347.08	71.56
347.308	95.56
347.535	100.56
347.763	100.56
347.99	95.56
348.218	98.56
348.445	105.56
348.673	117.56
348.9	109.56
349.128	86.56
349.355	70.56
349.583	88.56
349.81	83.56
350.037	89.56
350.265	81.56
350.492	87.56
350.72	81.56
350.947	95.56
351.174	101.56
351.402	85.56
351.629	77.56
351.856	86.56
352.083	95.56
352.311	92.56
352.538	105.56
352.765	107.56
352.992	112.56
353.22	97.56
353.447	92.56
353.674	90.56
353.901	89.56
354.128	90.56
354.355	114.56
354.583	94.56
354.81	94.56
355.037	95.56
355.264	105.56
355.491	86.56
355.718	75.56
355.945	88.56
356.172	91.56
356.399	102.56
356.626	92.56
356.853	91.56
357.08	96.56
357.307	105.56
357.534	90.56
357.761	99.56
357.988	89.56
358.215	97.56
358.441	87.56
358.668	95.56
358.895	82.56
359.122	86.56
359.349	85.56
359.576	79.56
359.802	88.56
360.029	115.56
360.256	106.56
360.483	98.56
360.709	90.56
360.936	82.56
361.163	90.56
361.39	88.56
361.616	96.56
361.843	86.56
362.07	98.56
362.296	83.56
362.523	92.56
362.749	79.56
362.976	87.56
363.203	82.56
363.429	75.56
363.656	91.56
363.882	79.56
364.109	100.56
364.335	98.56
364.562	87.56
364.788	81.56
365.015	88.56
365.241	81.56
365.468	110.56
365.694	105.56
365.92	96.56
366.147	98.56
366.373	84.56
366.599	82.56
366.826	92.56
367.052	87.56
367.278	73.56
367.505	77.56
367.731	84.56
367.957	80.56
368.184	89.56
368.41	98.56
368.636	100.56
368.862	131.56
369.089	101.56
369.315	98.56
369.541	97.56
369.767	88.56
369.993	86.56
370.219	80.56
370.445	87.56
370.672	84.56
370.898	89.56
371.124	91.56
371.35	81.56
371.576	79.56
371.802	87.56
372.028	85.56
372.254	80.56
372.48	89.56
372.706	77.56
372.932	80.56
373.158	81.56
373.384	96.56
373.61	86.56
373.835	78.56
374.061	85.56
374.287	95.56
374.513	90.56
374.739	99.56
374.965	81.56
375.191	89.56
375.416	73.56
375.642	89.56
375.868	84.56
376.094	85.56
376.319	77.56
376.545	82.56
376.771	84.56
376.997	72.56
377.222	78.56
377.448	81.56
377.674	87.56
377.899	66.56
378.125	90.56
378.35	109.56
378.576	79.56
378.802	92.56
379.027	83.56
379.253	82.56
379.478	77.56
379.704	86.56
379.929	89.56
380.155	86.56
380.38	86.56
380.606	84.56
380.831	90.56
381.057	99.56
381.282	89.56
381.507	83.56
381.733	98.56
381.958	84.56
382.184	91.56
382.409	81.56
382.634	94.56
382.86	79.56
383.085	91.56
383.31	110.56
383.535	85.56
383.761	103.56
383.986	96.56
384.211	73.56
384.436	88.56
384.662	83.56
384.887	94.56
385.112	85.56
385.337	108.56
385.562	98.56
385.787	106.56
386.013	94.56
386.238	104.56
386.463	112.56
386.688	110.56
386.913	106.56
387.138	105.56
387.363	102.56
387.588	94.56
387.813	107.56
388.038	99.56
388.263	115.56
388.488	112.56
388.713	95.56
388.938	72.56
389.163	87.56
389.387	88.56
389.612	105.56
389.837	93.56
390.062	93.56
390.287	73.56
390.512	88.56
390.736	90.56
390.961	90.56
391.186	100.56
391.411	95.56
391.636	88.56
391.86	87.56
392.085	85.56
392.31	84.56
392.534	82.56
392.759	93.56
392.984	74.56
393.208	89.56
393.433	86.56
393.658	78.56
393.882	68.56
394.107	82.56
394.331	86.56
394.556	73.56
394.78	92.56
395.005	80.56
395.229	78.56
395.454	88.56
395.678	85.56
395.903	95.56
396.127	81.56
396.352	87.56
396.576	77.56
396.801	85.56
397.025	87.56
397.249	85.56
397.474	71.56
397.698	86.56
397.922	83.56
398.147	85.56
398.371	77.56
398.595	79.56
398.82	92.56
399.044	67.56
399.268	95.56
399.492	86.56
399.717	74.56
399.941	90.56
400.165	89.56
400.389	75.56
400.613	78.56
400.837	75.56
401.062	87.56
401.286	98.56
401.51	101.56
401.734	92.56
401.958	91.56
402.182	122.56
402.406	134.56
402.63	100.56
402.854	85.56
403.078	85.56
403.302	89.56
403.526	89.56
403.75	89.56
403.974	78.56
404.198	77.56
404.422	78.56
404.645	83.56
404.869	77.56
405.093	90.56
405.317	91.56
405.541	87.56
405.765	109.56
405.988	95.56
406.212	146.56
406.436	200.56
406.66	122.56
406.883	85.56
407.107	97.56
407.331	95.56
407.555	89.56
407.778	86.56
408.002	83.56
408.226	76.56
408.449	75.56
408.673	79.56
408.896	90.56
409.12	83.56
409.344	86.56
409.567	66.56
409.791	77.56
410.014	77.56
410.238	94.56
410.461	98.56
410.685	90.56
410.908	88.56
411.132	95.56
411.355	113.56
411.578	68.56
411.802	86.56
412.025	87.56
412.249	83.56
412.472	89.56
412.695	88.56
412.919	99.56
413.142	78.56
413.365	71.56
413.589	80.56
413.812	81.56
414.035	81.56
414.258	94.56
414.482	88.56
414.705	81.56
414.928	98.56
415.151	84.56
415.374	84.56
415.597	75.56
415.821	79.56
416.044	83.56
416.267	87.56
416.49	97.56
416.713	83.56
416.936	97.56
417.159	79.56
417.382	83.56
417.605	75.56
417.828	93.56
418.051	86.56
418.274	91.56
418.497	95.56
418.72	73.56
418.943	80.56
419.166	85.56
419.389	76.56
419.611	87.56
419.834	93.56
420.057	83.56
420.28	79.56
420.503	81.56
420.726	73.56
420.948	90.56
421.171	82.56
421.394	75.56
421.617	95.56
421.839	99.56
422.062	78.56
422.285	83.56
422.507	90.56
422.73	94.56
422.953	95.56
423.175	93.56
423.398	79.56
423.621	96.56
423.843	93.56
424.066	90.56
424.288	88.56
424.511	87.56
424.733	91.56
424.956	94.56
425.178	93.56
425.401	93.56
425.623	95.56
425.846	76.56
426.068	74.56
426.291	84.56
426.513	95.56
426.735	78.56
426.958	99.56
427.18	90.56
427.402	141.56
427.625	151.56
427.847	151.56
428.069	106.56
428.292	88.56
428.514	81.56
428.736	83.56
428.958	74.56
429.181	83.56
429.403	79.56
429.625	77.56
429.847	95.56
430.069	81.56
430.292	77.56
430.514	80.56
430.736	74.56
430.958	72.56
431.18	79.56
431.402	78.56
431.624	79.56
431.846	81.56
432.068	79.56
432.29	89.56
432.512	85.56
432.734	90.56
432.956	74.56
433.178	92.56
433.4	86.56
433.622	92.56
433.844	102.56
434.066	88.56
434.287	72.56
434.509	85.56
434.731	87.56
434.953	81.56
435.175	89.56
435.397	83.56
435.618	73.56
435.84	96.56
436.062	106.56
436.284	111.56
436.505	101.56
436.727	103.56
436.949	88.56
437.17	83.56
437.392	86.56
437.614	76.56
437.835	83.56
438.057	99.56
438.278	96.56
438.5	101.56
438.721	112.56
438.943	111.56
439.165	71.56
439.386	93.56
439.608	92.56
439.829	82.56
440.05	121.56
440.272	120.56
440.493	98.56
440.715	76.56
440.936	79.56
441.158	87.56
441.379	71.56
441.6	83.56
441.822	89.56
442.043	90.56
442.264	98.56
442.486	82.56
442.707	94.56
442.928	101.56
443.149	111.56
443.371	121.56
443.592	95.56
443.813	90.56
444.034	107.56
444.255	91.56
444.476	90.56
444.698	86.56
444.919	88.56
445.14	115.56
445.361	115.56
445.582	104.56
445.803	135.56
446.024	118.56
446.245	126.56
446.466	103.56
446.687	100.56
446.908	75.56
447.129	90.56
447.35	82.56
447.571	90.56
447.792	75.56
448.013	98.56
448.234	112.56
448.455	101.56
448.675	110.56
448.896	103.56
449.117	79.56
449.338	101.56
449.559	127.56
449.779	121.56
450	92.56
450.221	92.56
450.442	88.56
450.662	73.56
450.883	94.56
451.104	97.56
451.324	105.56
451.545	93.56
451.766	76.56
451.986	85.56
452.207	83.56
452.428	74.56
452.648	85.56
452.869	109.56
453.089	102.56
453.31	98.56
453.53	85.56
453.751	99.56
453.971	105.56
454.192	110.56
454.412	97.56
454.633	72.56
454.853	90.56
455.073	87.56
455.294	86.56
455.514	91.56
455.734	94.56
455.955	95.56
456.175	79.56
456.395	84.56
456.616	82.56
456.836	80.56
457.056	89.56
457.276	73.56
457.497	69.56
457.717	73.56
457.937	89.56
458.157	88.56
458.377	81.56
458.598	95.56
458.818	120.56
459.038	134.56
459.258	99.56
459.478	84.56
459.698	85.56
459.918	90.56
460.138	80.56
460.358	81.56
460.578	73.56
460.798	93.56
461.018	91.56
461.238	84.56
461.458	78.56
461.678	82.56
461.898	76.56
462.118	82.56
462.338	82.56
462.558	73.56
462.777	73.56
462.997	91.56
463.217	86.56
463.437	75.56
463.657	79.56
463.876	86.56
464.096	88.56
464.316	90.56
464.536	84.56
464.755	97.56
464.975	97.56
465.195	139.56
465.414	137.56
465.634	80.56
465.854	83.56
466.073	89.56
466.293	95.56
466.512	97.56
466.732	80.56
466.951	86.56
467.171	78.56
467.391	102.56
467.61	104.56
467.829	114.56
468.049	147.56
468.268	171.56
468.488	100.56
468.707	82.56
468.927	78.56
469.146	81.56
469.365	96.56
469.585	82.56
469.804	83.56
470.023	99.56
470.243	99.56
470.462	102.56
470.681	108.56
470.901	84.56
471.12	86.56
471.339	82.56
471.558	82.56
471.777	91.56
471.997	109.56
472.216	215.56
472.435	391.56
472.654	157.56
472.873	88.56
473.092	81.56
473.311	88.56
473.53	91.56
473.749	94.56
473.968	86.56
474.187	102.56
474.406	100.56
474.625	76.56
474.844	92.56
475.063	77.56
475.282	106.56
475.501	93.56
475.72	87.56
475.939	86.56
476.158	90.56
476.377	89.56
476.596	87.56
476.814	82.56
477.033	87.56
477.252	92.56
477.471	82.56
477.69	89.56
477.908	86.56
478.127	77.56
478.346	83.56
478.564	87.56
478.783	86.56
479.002	82.56
479.22	98.56
479.439	96.56
479.658	98.56
479.876	99.56
480.095	101.56
480.313	87.56
480.532	106.56
480.751	119.56
480.969	209.56
481.188	647.56
481.406	459.56
481.624	130.56
481.843	99.56
482.061	81.56
482.28	79.56
482.498	86.56
482.717	94.56
482.935	82.56
483.153	73.56
483.372	90.56
483.59	81.56
483.808	97.56
484.027	85.56
484.245	80.56
484.463	81.56
484.681	87.56
484.9	88.56
485.118	96.56
485.336	93.56
485.554	97.56
485.772	77.56
485.99	100.56
486.209	103.56
486.427	99.56
486.645	100.56
486.863	111.56
487.081	94.56
487.299	89.56
487.517	84.56
487.735	104.56
487.953	98.56
488.171	91.56
488.389	89.56
488.607	91.56
488.825	81.56
489.043	74.56
489.261	88.56
489.479	88.56
489.696	72.56
489.914	93.56
490.132	88.56
490.35	89.56
490.568	81.56
490.786	90.56
491.003	83.56
491.221	86.56
491.439	86.56
491.657	93.56
491.874	97.56
492.092	86.56
492.31	87.56
492.527	102.56
492.745	70.56
492.963	78.56
493.18	89.56
493.398	102.56
493.615	104.56
493.833	88.56
494.05	81.56
494.268	99.56
494.485	89.56
494.703	101.56
494.92	83.56
495.138	88.56
495.355	87.56
495.573	74.56
495.79	102.56
496.008	97.56
496.225	102.56
496.442	75.56
496.66	85.56
496.877	86.56
497.094	91.56
497.312	81.56
497.529	85.56
497.746	91.56
497.963	91.56
498.181	88.56
498.398	82.56
498.615	87.56
498.832	98.56
499.049	93.56
499.267	88.56
499.484	90.56
499.701	90.56
499.918	84.56
500.135	91.56
500.352	89.56
500.569	72.56
500.786	86.56
501.003	80.56
501.22	98.56
501.437	74.56
501.654	85.56
501.871	96.56
502.088	66.56
502.305	96.56
502.522	81.56
502.739	89.56
502.956	85.56
503.172	79.56
503.389	80.56
503.606	81.56
503.823	86.56
504.04	82.56
504.256	83.56
504.473	88.56
504.69	75.56
504.907	103.56
505.123	94.56
505.34	83.56
505.557	75.56
505.773	82.56
505.99	96.56
506.207	87.56
506.423	89.56
506.64	85.56
506.856	96.56
507.073	76.56
507.289	87.56
507.506	90.56
507.722	102.56
507.939	110.56
508.155	87.56
508.372	74.56
508.588	90.56
508.805	88.56
509.021	78.56
509.238	98.56
509.454	94.56
509.67	90.56
509.887	95.56
510.103	118.56
510.319	181.56
510.536	618.56
510.752	2074.56
510.968	579.56
511.184	126.56
511.401	79.56
511.617	87.56
511.833	84.56
512.049	93.56
512.265	92.56
512.481	85.56
512.698	78.56
512.914	97.56
513.13	81.56
513.346	90.56
513.562	86.56
513.778	89.56
513.994	112.56
514.21	94.56
514.426	100.56
514.642	99.56
514.858	134.56
515.074	136.56
515.29	352.56
515.506	1205.56
515.721	467.56
515.937	148.56
516.153	98.56
516.369	99.56
516.585	94.56
516.801	83.56
517.016	99.56
