Data from Circ_2015_H10_HRD10591_00054.txt Node
Date: Wed Jan 03 10:00:33 EST 2024
User: Yrep
Spectrometer: HR+D1059
Trigger mode: 1
Integration Time (sec): 1.000000E-1
Scans to average: 1
Electric dark correction enabled: true
Nonlinearity correction enabled: false
Boxcar width: 0
XAxis mode: Wavelengths
Number of Pixels in Spectrum: 2048
>>>>>Begin Spectral Data<<<<<
223.165	-21.94
223.4	-21.94
223.635	-21.94
223.869	-26.94
224.104	-25.94
224.338	-22.94
224.573	-1.94
224.808	-18.94
225.042	6.06
225.277	-9.94
225.511	-1.94
225.746	6.06
225.98	6.06
226.215	13.06
226.449	17.06
226.683	26.06
226.918	24.06
227.152	32.06
227.387	36.06
227.621	42.06
227.856	57.06
228.09	49.06
228.324	51.06
228.559	51.06
228.793	48.06
229.027	60.06
229.262	76.06
229.496	62.06
229.73	78.06
229.964	71.06
230.199	69.06
230.433	82.06
230.667	73.06
230.901	77.06
231.136	75.06
231.37	67.06
231.604	80.06
231.838	84.06
232.072	90.06
232.306	74.06
232.541	92.06
232.775	81.06
233.009	97.06
233.243	83.06
233.477	78.06
233.711	81.06
233.945	82.06
234.179	76.06
234.413	80.06
234.647	71.06
234.881	88.06
235.115	104.06
235.349	75.06
235.583	80.06
235.817	86.06
236.051	74.06
236.285	84.06
236.519	78.06
236.753	85.06
236.987	93.06
237.221	72.06
237.455	80.06
237.689	69.06
237.922	78.06
238.156	71.06
238.39	77.06
238.624	82.06
238.858	78.06
239.091	81.06
239.325	95.06
239.559	82.06
239.793	74.06
240.027	87.06
240.26	94.06
240.494	85.06
240.728	70.06
240.961	81.06
241.195	91.06
241.429	81.06
241.662	70.06
241.896	82.06
242.13	64.06
242.363	69.06
242.597	85.06
242.83	96.06
243.064	87.06
243.298	87.06
243.531	76.06
243.765	77.06
243.998	84.06
244.232	79.06
244.465	86.06
244.699	83.06
244.932	71.06
245.166	76.06
245.399	82.06
245.633	84.06
245.866	82.06
246.099	77.06
246.333	91.06
246.566	73.06
246.8	70.06
247.033	82.06
247.266	84.06
247.5	76.06
247.733	70.06
247.966	74.06
248.2	89.06
248.433	86.06
248.666	76.06
248.899	83.06
249.133	90.06
249.366	96.06
249.599	95.06
249.832	95.06
250.066	87.06
250.299	87.06
250.532	75.06
250.765	76.06
250.998	88.06
251.231	93.06
251.465	74.06
251.698	90.06
251.931	78.06
252.164	79.06
252.397	87.06
252.63	88.06
252.863	82.06
253.096	77.06
253.329	86.06
253.562	64.06
253.795	78.06
254.028	70.06
254.261	84.06
254.494	81.06
254.727	76.06
254.96	85.06
255.193	79.06
255.426	87.06
255.659	82.06
255.892	81.06
256.124	78.06
256.357	82.06
256.59	82.06
256.823	87.06
257.056	90.06
257.289	80.06
257.521	85.06
257.754	69.06
257.987	75.06
258.22	79.06
258.452	93.06
258.685	93.06
258.918	92.06
259.151	86.06
259.383	84.06
259.616	83.06
259.849	72.06
260.081	89.06
260.314	92.06
260.547	88.06
260.779	94.06
261.012	86.06
261.244	83.06
261.477	83.06
261.71	95.06
261.942	105.06
262.175	109.06
262.407	83.06
262.64	94.06
262.872	79.06
263.105	93.06
263.337	79.06
263.57	73.06
263.802	74.06
264.035	77.06
264.267	87.06
264.499	92.06
264.732	89.06
264.964	94.06
265.197	89.06
265.429	73.06
265.661	69.06
265.894	80.06
266.126	94.06
266.358	77.06
266.591	78.06
266.823	87.06
267.055	78.06
267.287	94.06
267.52	86.06
267.752	101.06
267.984	85.06
268.216	85.06
268.448	82.06
268.681	82.06
268.913	88.06
269.145	93.06
269.377	83.06
269.609	92.06
269.841	93.06
270.073	75.06
270.306	78.06
270.538	111.06
270.77	82.06
271.002	83.06
271.234	80.06
271.466	98.06
271.698	75.06
271.93	101.06
272.162	75.06
272.394	71.06
272.626	83.06
272.858	94.06
273.09	91.06
273.322	88.06
273.553	72.06
273.785	94.06
274.017	84.06
274.249	94.06
274.481	85.06
274.713	78.06
274.945	92.06
275.176	79.06
275.408	85.06
275.64	94.06
275.872	94.06
276.104	82.06
276.335	81.06
276.567	86.06
276.799	98.06
277.031	95.06
277.262	101.06
277.494	109.06
277.726	96.06
277.957	80.06
278.189	79.06
278.421	99.06
278.652	79.06
278.884	103.06
279.115	100.06
279.347	75.06
279.579	62.06
279.81	82.06
280.042	107.06
280.273	97.06
280.505	97.06
280.736	85.06
280.968	88.06
281.199	75.06
281.431	90.06
281.662	80.06
281.894	82.06
282.125	99.06
282.356	111.06
282.588	133.06
282.819	114.06
283.051	94.06
283.282	89.06
283.513	91.06
283.745	79.06
283.976	90.06
284.207	91.06
284.439	79.06
284.67	98.06
284.901	93.06
285.132	90.06
285.364	87.06
285.595	85.06
285.826	100.06
286.057	98.06
286.288	99.06
286.52	89.06
286.751	88.06
286.982	94.06
287.213	90.06
287.444	85.06
287.675	82.06
287.906	82.06
288.138	99.06
288.369	87.06
288.6	107.06
288.831	79.06
289.062	85.06
289.293	76.06
289.524	76.06
289.755	92.06
289.986	82.06
290.217	86.06
290.448	86.06
290.679	75.06
290.91	88.06
291.141	86.06
291.371	93.06
291.602	91.06
291.833	91.06
292.064	91.06
292.295	94.06
292.526	99.06
292.757	87.06
292.987	92.06
293.218	86.06
293.449	79.06
293.68	95.06
293.91	84.06
294.141	92.06
294.372	96.06
294.603	100.06
294.833	82.06
295.064	100.06
295.295	87.06
295.525	88.06
295.756	114.06
295.987	103.06
296.217	127.06
296.448	107.06
296.679	86.06
296.909	83.06
297.14	91.06
297.37	70.06
297.601	82.06
297.831	87.06
298.062	84.06
298.292	92.06
298.523	95.06
298.753	78.06
298.984	88.06
299.214	77.06
299.445	96.06
299.675	100.06
299.905	92.06
300.136	99.06
300.366	98.06
300.597	92.06
300.827	94.06
301.057	98.06
301.288	90.06
301.518	93.06
301.748	80.06
301.979	91.06
302.209	91.06
302.439	100.06
302.669	86.06
302.9	88.06
303.13	74.06
303.36	92.06
303.59	95.06
303.82	91.06
304.051	90.06
304.281	90.06
304.511	97.06
304.741	74.06
304.971	95.06
305.201	84.06
305.431	85.06
305.661	96.06
305.891	86.06
306.121	88.06
306.352	92.06
306.582	97.06
306.812	88.06
307.042	87.06
307.272	103.06
307.502	114.06
307.731	101.06
307.961	89.06
308.191	88.06
308.421	103.06
308.651	88.06
308.881	93.06
309.111	95.06
309.341	96.06
309.571	112.06
309.8	95.06
310.03	87.06
310.26	99.06
310.49	91.06
310.72	93.06
310.949	107.06
311.179	110.06
311.409	87.06
311.639	95.06
311.868	86.06
312.098	89.06
312.328	88.06
312.557	102.06
312.787	98.06
313.017	93.06
313.246	91.06
313.476	97.06
313.706	103.06
313.935	114.06
314.165	108.06
314.394	98.06
314.624	107.06
314.853	104.06
315.083	98.06
315.312	104.06
315.542	101.06
315.771	94.06
316.001	90.06
316.23	83.06
316.46	83.06
316.689	74.06
316.919	90.06
317.148	100.06
317.377	101.06
317.607	105.06
317.836	101.06
318.065	96.06
318.295	95.06
318.524	103.06
318.753	104.06
318.983	100.06
319.212	91.06
319.441	92.06
319.67	92.06
319.9	87.06
320.129	93.06
320.358	89.06
320.587	90.06
320.816	103.06
321.046	100.06
321.275	97.06
321.504	106.06
321.733	98.06
321.962	103.06
322.191	107.06
322.42	108.06
322.649	97.06
322.878	110.06
323.108	109.06
323.337	109.06
323.566	128.06
323.795	150.06
324.024	198.06
324.253	356.06
324.482	741.06
324.71	1478.06
324.939	2011.06
325.168	730.06
325.397	238.06
325.626	155.06
325.855	144.06
326.084	125.06
326.313	114.06
326.542	154.06
326.77	209.06
326.999	426.06
327.228	899.06
327.457	1548.06
327.686	1241.06
327.914	357.06
328.143	205.06
328.372	171.06
328.6	132.06
328.829	119.06
329.058	107.06
329.287	114.06
329.515	100.06
329.744	111.06
329.972	128.06
330.201	192.06
330.43	227.06
330.658	153.06
330.887	120.06
331.115	110.06
331.344	98.06
331.572	94.06
331.801	101.06
332.03	106.06
332.258	88.06
332.486	100.06
332.715	98.06
332.943	87.06
333.172	94.06
333.4	106.06
333.629	109.06
333.857	127.06
334.085	138.06
334.314	182.06
334.542	256.06
334.771	271.06
334.999	130.06
335.227	108.06
335.455	105.06
335.684	97.06
335.912	105.06
336.14	103.06
336.369	105.06
336.597	95.06
336.825	81.06
337.053	94.06
337.281	88.06
337.51	103.06
337.738	106.06
337.966	101.06
338.194	86.06
338.422	92.06
338.65	95.06
338.878	102.06
339.106	75.06
339.334	86.06
339.562	74.06
339.79	92.06
340.018	90.06
340.246	87.06
340.474	110.06
340.702	104.06
340.93	106.06
341.158	103.06
341.386	94.06
341.614	92.06
341.842	94.06
342.07	89.06
342.298	91.06
342.526	87.06
342.754	84.06
342.981	84.06
343.209	90.06
343.437	94.06
343.665	83.06
343.893	87.06
344.12	79.06
344.348	74.06
344.576	81.06
344.804	88.06
345.031	102.06
345.259	102.06
345.487	101.06
345.714	102.06
345.942	86.06
346.17	93.06
346.397	74.06
346.625	88.06
346.853	95.06
347.08	92.06
347.308	99.06
347.535	99.06
347.763	91.06
347.99	97.06
348.218	95.06
348.445	106.06
348.673	101.06
348.9	98.06
349.128	87.06
349.355	97.06
349.583	97.06
349.81	96.06
350.037	98.06
350.265	91.06
350.492	92.06
350.72	103.06
350.947	100.06
351.174	111.06
351.402	119.06
351.629	94.06
351.856	101.06
352.083	98.06
352.311	107.06
352.538	106.06
352.765	102.06
352.992	94.06
353.22	108.06
353.447	106.06
353.674	103.06
353.901	95.06
354.128	85.06
354.355	105.06
354.583	106.06
354.81	94.06
355.037	103.06
355.264	102.06
355.491	80.06
355.718	106.06
355.945	92.06
356.172	85.06
356.399	95.06
356.626	105.06
356.853	85.06
357.08	94.06
357.307	101.06
357.534	95.06
357.761	79.06
357.988	86.06
358.215	80.06
358.441	84.06
358.668	93.06
358.895	90.06
359.122	100.06
359.349	86.06
359.576	96.06
359.802	104.06
360.029	104.06
360.256	100.06
360.483	108.06
360.709	99.06
360.936	86.06
361.163	90.06
361.39	90.06
361.616	93.06
361.843	85.06
362.07	102.06
362.296	90.06
362.523	89.06
362.749	96.06
362.976	82.06
363.203	94.06
363.429	82.06
363.656	94.06
363.882	86.06
364.109	88.06
364.335	85.06
364.562	93.06
364.788	104.06
365.015	101.06
365.241	91.06
365.468	108.06
365.694	100.06
365.92	94.06
366.147	84.06
366.373	94.06
366.599	94.06
366.826	76.06
367.052	84.06
367.278	100.06
367.505	86.06
367.731	92.06
367.957	101.06
368.184	78.06
368.41	84.06
368.636	109.06
368.862	106.06
369.089	102.06
369.315	78.06
369.541	84.06
369.767	91.06
369.993	87.06
370.219	94.06
370.445	107.06
370.672	97.06
370.898	100.06
371.124	108.06
371.35	96.06
371.576	85.06
371.802	88.06
372.028	99.06
372.254	97.06
372.48	78.06
372.706	88.06
372.932	100.06
373.158	97.06
373.384	91.06
373.61	88.06
373.835	94.06
374.061	87.06
374.287	95.06
374.513	93.06
374.739	88.06
374.965	92.06
375.191	91.06
375.416	91.06
375.642	87.06
375.868	87.06
376.094	92.06
376.319	83.06
376.545	76.06
376.771	92.06
376.997	98.06
377.222	99.06
377.448	98.06
377.674	101.06
377.899	91.06
378.125	105.06
378.35	101.06
378.576	91.06
378.802	96.06
379.027	78.06
379.253	103.06
379.478	106.06
379.704	94.06
379.929	90.06
380.155	89.06
380.38	94.06
380.606	88.06
380.831	103.06
381.057	98.06
381.282	84.06
381.507	95.06
381.733	97.06
381.958	89.06
382.184	91.06
382.409	108.06
382.634	110.06
382.86	95.06
383.085	110.06
383.31	110.06
383.535	102.06
383.761	88.06
383.986	105.06
384.211	116.06
384.436	108.06
384.662	101.06
384.887	98.06
385.112	107.06
385.337	103.06
385.562	109.06
385.787	93.06
386.013	116.06
386.238	105.06
386.463	105.06
386.688	112.06
386.913	100.06
387.138	94.06
387.363	104.06
387.588	103.06
387.813	103.06
388.038	116.06
388.263	97.06
388.488	122.06
388.713	87.06
388.938	92.06
389.163	102.06
389.387	94.06
389.612	95.06
389.837	87.06
390.062	90.06
390.287	86.06
390.512	88.06
390.736	88.06
390.961	85.06
391.186	86.06
391.411	92.06
391.636	87.06
391.86	65.06
392.085	73.06
392.31	90.06
392.534	88.06
392.759	97.06
392.984	80.06
393.208	98.06
393.433	86.06
393.658	87.06
393.882	93.06
394.107	78.06
394.331	94.06
394.556	87.06
394.78	98.06
395.005	74.06
395.229	92.06
395.454	90.06
395.678	90.06
395.903	78.06
396.127	95.06
396.352	91.06
396.576	87.06
396.801	99.06
397.025	92.06
397.249	86.06
397.474	74.06
397.698	86.06
397.922	100.06
398.147	94.06
398.371	85.06
398.595	81.06
398.82	79.06
399.044	88.06
399.268	90.06
399.492	97.06
399.717	85.06
399.941	95.06
400.165	79.06
400.389	86.06
400.613	94.06
400.837	87.06
401.062	89.06
401.286	84.06
401.51	78.06
401.734	93.06
401.958	92.06
402.182	116.06
402.406	147.06
402.63	116.06
402.854	77.06
403.078	88.06
403.302	102.06
403.526	93.06
403.75	83.06
403.974	90.06
404.198	108.06
404.422	84.06
404.645	94.06
404.869	112.06
405.093	120.06
405.317	95.06
405.541	100.06
405.765	85.06
405.988	103.06
406.212	151.06
406.436	206.06
406.66	140.06
406.883	106.06
407.107	85.06
407.331	99.06
407.555	106.06
407.778	93.06
408.002	85.06
408.226	85.06
408.449	87.06
408.673	98.06
408.896	87.06
409.12	94.06
409.344	100.06
409.567	84.06
409.791	82.06
410.014	89.06
410.238	104.06
410.461	87.06
410.685	92.06
410.908	96.06
411.132	103.06
411.355	104.06
411.578	99.06
411.802	86.06
412.025	88.06
412.249	92.06
412.472	98.06
412.695	99.06
412.919	105.06
413.142	93.06
413.365	80.06
413.589	91.06
413.812	77.06
414.035	95.06
414.258	94.06
414.482	100.06
414.705	92.06
414.928	97.06
415.151	89.06
415.374	95.06
415.597	111.06
415.821	86.06
416.044	91.06
416.267	100.06
416.49	87.06
416.713	91.06
416.936	79.06
417.159	90.06
417.382	92.06
417.605	91.06
417.828	87.06
418.051	88.06
418.274	97.06
418.497	85.06
418.72	85.06
418.943	86.06
419.166	94.06
419.389	84.06
419.611	91.06
419.834	76.06
420.057	77.06
420.28	90.06
420.503	89.06
420.726	79.06
420.948	110.06
421.171	87.06
421.394	98.06
421.617	79.06
421.839	83.06
422.062	90.06
422.285	87.06
422.507	98.06
422.73	107.06
422.953	103.06
423.175	96.06
423.398	96.06
423.621	98.06
423.843	81.06
424.066	87.06
424.288	87.06
424.511	85.06
424.733	88.06
424.956	95.06
425.178	104.06
425.401	99.06
425.623	98.06
425.846	90.06
426.068	80.06
426.291	101.06
426.513	94.06
426.735	85.06
426.958	94.06
427.18	101.06
427.402	124.06
427.625	158.06
427.847	122.06
428.069	127.06
428.292	87.06
428.514	96.06
428.736	82.06
428.958	92.06
429.181	102.06
429.403	87.06
429.625	79.06
429.847	92.06
430.069	95.06
430.292	90.06
430.514	89.06
430.736	85.06
430.958	88.06
431.18	100.06
431.402	91.06
431.624	75.06
431.846	91.06
432.068	82.06
432.29	93.06
432.512	87.06
432.734	90.06
432.956	70.06
433.178	112.06
433.4	101.06
433.622	91.06
433.844	80.06
434.066	97.06
434.287	93.06
434.509	91.06
434.731	84.06
434.953	71.06
435.175	98.06
435.397	89.06
435.618	83.06
435.84	103.06
436.062	113.06
436.284	114.06
436.505	99.06
436.727	89.06
436.949	109.06
437.17	94.06
437.392	83.06
437.614	87.06
437.835	99.06
438.057	105.06
438.278	98.06
438.5	114.06
438.721	120.06
438.943	106.06
439.165	103.06
439.386	83.06
439.608	92.06
439.829	94.06
440.05	112.06
440.272	127.06
440.493	99.06
440.715	88.06
440.936	96.06
441.158	95.06
441.379	86.06
441.6	88.06
441.822	99.06
442.043	94.06
442.264	95.06
442.486	107.06
442.707	97.06
442.928	88.06
443.149	128.06
443.371	134.06
443.592	95.06
443.813	117.06
444.034	110.06
444.255	106.06
444.476	89.06
444.698	95.06
444.919	94.06
445.14	114.06
445.361	107.06
445.582	105.06
445.803	137.06
446.024	125.06
446.245	133.06
446.466	106.06
446.687	98.06
446.908	95.06
447.129	93.06
447.35	84.06
447.571	101.06
447.792	90.06
448.013	81.06
448.234	116.06
448.455	90.06
448.675	101.06
448.896	105.06
449.117	106.06
449.338	106.06
449.559	114.06
449.779	117.06
450	98.06
450.221	84.06
450.442	85.06
450.662	99.06
450.883	106.06
451.104	112.06
451.324	103.06
451.545	84.06
451.766	93.06
451.986	87.06
452.207	90.06
452.428	99.06
452.648	79.06
452.869	116.06
453.089	105.06
453.31	99.06
453.53	103.06
453.751	107.06
453.971	94.06
454.192	106.06
454.412	102.06
454.633	95.06
454.853	81.06
455.073	95.06
455.294	91.06
455.514	90.06
455.734	90.06
455.955	82.06
456.175	96.06
456.395	79.06
456.616	89.06
456.836	91.06
457.056	96.06
457.276	86.06
457.497	82.06
457.717	83.06
457.937	85.06
458.157	92.06
458.377	84.06
458.598	114.06
458.818	142.06
459.038	138.06
459.258	107.06
459.478	93.06
459.698	90.06
459.918	89.06
460.138	85.06
460.358	91.06
460.578	93.06
460.798	77.06
461.018	98.06
461.238	100.06
461.458	84.06
461.678	80.06
461.898	91.06
462.118	94.06
462.338	81.06
462.558	91.06
462.777	77.06
462.997	80.06
463.217	88.06
463.437	88.06
463.657	85.06
463.876	90.06
464.096	86.06
464.316	82.06
464.536	94.06
464.755	83.06
464.975	109.06
465.195	162.06
465.414	139.06
465.634	89.06
465.854	83.06
466.073	84.06
466.293	79.06
466.512	102.06
466.732	87.06
466.951	89.06
467.171	97.06
467.391	82.06
467.61	104.06
467.829	104.06
468.049	143.06
468.268	154.06
468.488	100.06
468.707	96.06
468.927	93.06
469.146	87.06
469.365	89.06
469.585	81.06
469.804	106.06
470.023	87.06
470.243	83.06
470.462	98.06
470.681	110.06
470.901	78.06
471.12	93.06
471.339	104.06
471.558	86.06
471.777	83.06
471.997	116.06
472.216	200.06
472.435	349.06
472.654	138.06
472.873	94.06
473.092	87.06
473.311	96.06
473.53	92.06
473.749	75.06
473.968	95.06
474.187	92.06
474.406	92.06
474.625	99.06
474.844	89.06
475.063	76.06
475.282	99.06
475.501	90.06
475.72	85.06
475.939	107.06
476.158	78.06
476.377	91.06
476.596	107.06
476.814	86.06
477.033	94.06
477.252	86.06
477.471	94.06
477.69	95.06
477.908	79.06
478.127	92.06
478.346	76.06
478.564	103.06
478.783	99.06
479.002	96.06
479.22	98.06
479.439	92.06
479.658	103.06
479.876	108.06
480.095	97.06
480.313	89.06
480.532	109.06
480.751	115.06
480.969	208.06
481.188	567.06
481.406	361.06
481.624	130.06
481.843	90.06
482.061	82.06
482.28	99.06
482.498	95.06
482.717	86.06
482.935	88.06
483.153	99.06
483.372	87.06
483.59	84.06
483.808	101.06
484.027	95.06
484.245	83.06
484.463	87.06
484.681	96.06
484.9	90.06
485.118	95.06
485.336	90.06
485.554	102.06
485.772	92.06
485.99	99.06
486.209	106.06
486.427	98.06
486.645	96.06
486.863	100.06
487.081	87.06
487.299	100.06
487.517	94.06
487.735	93.06
487.953	100.06
488.171	89.06
488.389	90.06
488.607	96.06
488.825	92.06
489.043	88.06
489.261	93.06
489.479	82.06
489.696	80.06
489.914	96.06
490.132	84.06
490.35	97.06
490.568	95.06
490.786	89.06
491.003	82.06
491.221	90.06
491.439	103.06
491.657	108.06
491.874	101.06
492.092	90.06
492.31	91.06
492.527	102.06
492.745	87.06
492.963	99.06
493.18	93.06
493.398	83.06
493.615	101.06
493.833	94.06
494.05	104.06
494.268	101.06
494.485	96.06
494.703	98.06
494.92	89.06
495.138	91.06
495.355	85.06
495.573	94.06
495.79	83.06
496.008	80.06
496.225	101.06
496.442	97.06
496.66	114.06
496.877	95.06
497.094	97.06
497.312	96.06
497.529	88.06
497.746	98.06
497.963	91.06
498.181	99.06
498.398	83.06
498.615	94.06
498.832	97.06
499.049	93.06
499.267	94.06
499.484	89.06
499.701	94.06
499.918	92.06
500.135	99.06
500.352	85.06
500.569	82.06
500.786	88.06
501.003	93.06
501.22	92.06
501.437	92.06
501.654	101.06
501.871	116.06
502.088	104.06
502.305	102.06
502.522	85.06
502.739	78.06
502.956	76.06
503.172	99.06
503.389	110.06
503.606	99.06
503.823	84.06
504.04	99.06
504.256	97.06
504.473	90.06
504.69	100.06
504.907	103.06
505.123	106.06
505.34	86.06
505.557	108.06
505.773	84.06
505.99	87.06
506.207	86.06
506.423	89.06
506.64	97.06
506.856	90.06
507.073	95.06
507.289	89.06
507.506	107.06
507.722	115.06
507.939	112.06
508.155	98.06
508.372	86.06
508.588	83.06
508.805	108.06
509.021	102.06
509.238	104.06
509.454	99.06
509.67	87.06
509.887	96.06
510.103	139.06
510.319	188.06
510.536	651.06
510.752	2095.06
510.968	615.06
511.184	142.06
511.401	114.06
511.617	96.06
511.833	98.06
512.049	82.06
512.265	85.06
512.481	114.06
512.698	101.06
512.914	94.06
513.13	95.06
513.346	87.06
513.562	80.06
513.778	94.06
513.994	104.06
514.21	91.06
514.426	116.06
514.642	124.06
514.858	130.06
515.074	164.06
515.29	378.06
