Data from Circ_2015_H10_HRD10591_00036.txt Node
Date: Wed Jan 03 10:00:30 EST 2024
User: Yrep
Spectrometer: HR+D1059
Trigger mode: 1
Integration Time (sec): 1.000000E-1
Scans to average: 1
Electric dark correction enabled: true
Nonlinearity correction enabled: false
Boxcar width: 0
XAxis mode: Wavelengths
Number of Pixels in Spectrum: 2048
>>>>>Begin Spectral Data<<<<<
223.165	-15.88
223.4	-15.88
223.635	-15.88
223.869	-14.88
224.104	-7.88
224.338	-7.88
224.573	-18.88
224.808	-32.88
225.042	-13.88
225.277	-5.88
225.511	-3.88
225.746	-10.88
225.98	29.12
226.215	6.12
226.449	14.12
226.683	15.12
226.918	28.12
227.152	40.12
227.387	37.12
227.621	30.12
227.856	45.12
228.09	54.12
228.324	58.12
228.559	43.12
228.793	69.12
229.027	56.12
229.262	76.12
229.496	69.12
229.73	97.12
229.964	88.12
230.199	87.12
230.433	88.12
230.667	79.12
230.901	77.12
231.136	73.12
231.37	81.12
231.604	84.12
231.838	85.12
232.072	94.12
232.306	86.12
232.541	90.12
232.775	87.12
233.009	89.12
233.243	81.12
233.477	79.12
233.711	91.12
233.945	75.12
234.179	88.12
234.413	82.12
234.647	92.12
234.881	71.12
235.115	92.12
235.349	88.12
235.583	85.12
235.817	81.12
236.051	81.12
236.285	76.12
236.519	72.12
236.753	77.12
236.987	80.12
237.221	81.12
237.455	92.12
237.689	72.12
237.922	74.12
238.156	70.12
238.39	82.12
238.624	75.12
238.858	88.12
239.091	92.12
239.325	81.12
239.559	92.12
239.793	78.12
240.027	77.12
240.26	77.12
240.494	71.12
240.728	77.12
240.961	82.12
241.195	84.12
241.429	87.12
241.662	77.12
241.896	92.12
242.13	70.12
242.363	65.12
242.597	69.12
242.83	90.12
243.064	86.12
243.298	80.12
243.531	77.12
243.765	81.12
243.998	79.12
244.232	86.12
244.465	89.12
244.699	73.12
244.932	79.12
245.166	84.12
245.399	86.12
245.633	91.12
245.866	94.12
246.099	81.12
246.333	91.12
246.566	87.12
246.8	85.12
247.033	83.12
247.266	85.12
247.5	93.12
247.733	74.12
247.966	86.12
248.2	76.12
248.433	83.12
248.666	90.12
248.899	87.12
249.133	85.12
249.366	93.12
249.599	98.12
249.832	84.12
250.066	78.12
250.299	81.12
250.532	86.12
250.765	88.12
250.998	80.12
251.231	88.12
251.465	83.12
251.698	86.12
251.931	71.12
252.164	77.12
252.397	95.12
252.63	77.12
252.863	73.12
253.096	81.12
253.329	72.12
253.562	79.12
253.795	90.12
254.028	84.12
254.261	90.12
254.494	89.12
254.727	97.12
254.96	78.12
255.193	91.12
255.426	74.12
255.659	82.12
255.892	86.12
256.124	84.12
256.357	78.12
256.59	91.12
256.823	85.12
257.056	97.12
257.289	100.12
257.521	87.12
257.754	72.12
257.987	87.12
258.22	87.12
258.452	85.12
258.685	73.12
258.918	81.12
259.151	81.12
259.383	84.12
259.616	81.12
259.849	77.12
260.081	79.12
260.314	75.12
260.547	85.12
260.779	97.12
261.012	105.12
261.244	77.12
261.477	85.12
261.71	83.12
261.942	110.12
262.175	105.12
262.407	104.12
262.64	92.12
262.872	89.12
263.105	93.12
263.337	95.12
263.57	99.12
263.802	81.12
264.035	80.12
264.267	84.12
264.499	97.12
264.732	86.12
264.964	75.12
265.197	95.12
265.429	96.12
265.661	71.12
265.894	87.12
266.126	88.12
266.358	76.12
266.591	80.12
266.823	77.12
267.055	100.12
267.287	96.12
267.52	87.12
267.752	84.12
267.984	80.12
268.216	84.12
268.448	96.12
268.681	79.12
268.913	95.12
269.145	86.12
269.377	108.12
269.609	81.12
269.841	89.12
270.073	90.12
270.306	91.12
270.538	86.12
270.77	82.12
271.002	100.12
271.234	80.12
271.466	82.12
271.698	82.12
271.93	93.12
272.162	92.12
272.394	102.12
272.626	98.12
272.858	111.12
273.09	102.12
273.322	81.12
273.553	82.12
273.785	85.12
274.017	96.12
274.249	82.12
274.481	100.12
274.713	101.12
274.945	73.12
275.176	87.12
275.408	99.12
275.64	95.12
275.872	85.12
276.104	94.12
276.335	79.12
276.567	96.12
276.799	101.12
277.031	105.12
277.262	98.12
277.494	95.12
277.726	93.12
277.957	95.12
278.189	80.12
278.421	87.12
278.652	77.12
278.884	94.12
279.115	100.12
279.347	104.12
279.579	91.12
279.81	96.12
280.042	101.12
280.273	92.12
280.505	101.12
280.736	98.12
280.968	98.12
281.199	95.12
281.431	81.12
281.662	101.12
281.894	97.12
282.125	102.12
282.356	115.12
282.588	125.12
282.819	122.12
283.051	99.12
283.282	94.12
283.513	79.12
283.745	92.12
283.976	82.12
284.207	77.12
284.439	76.12
284.67	95.12
284.901	91.12
285.132	104.12
285.364	86.12
285.595	82.12
285.826	95.12
286.057	90.12
286.288	85.12
286.52	97.12
286.751	93.12
286.982	84.12
287.213	85.12
287.444	108.12
287.675	101.12
287.906	90.12
288.138	94.12
288.369	93.12
288.6	84.12
288.831	86.12
289.062	77.12
289.293	97.12
289.524	93.12
289.755	84.12
289.986	91.12
290.217	82.12
290.448	95.12
290.679	82.12
290.91	79.12
291.141	90.12
291.371	85.12
291.602	95.12
291.833	95.12
292.064	81.12
292.295	84.12
292.526	90.12
292.757	93.12
292.987	89.12
293.218	94.12
293.449	72.12
293.68	89.12
293.91	90.12
294.141	85.12
294.372	93.12
294.603	102.12
294.833	94.12
295.064	79.12
295.295	89.12
295.525	108.12
295.756	87.12
295.987	112.12
296.217	128.12
296.448	114.12
296.679	98.12
296.909	97.12
297.14	89.12
297.37	83.12
297.601	85.12
297.831	92.12
298.062	110.12
298.292	96.12
298.523	92.12
298.753	101.12
298.984	91.12
299.214	88.12
299.445	87.12
299.675	89.12
299.905	97.12
300.136	106.12
300.366	93.12
300.597	95.12
300.827	96.12
301.057	97.12
301.288	102.12
301.518	102.12
301.748	99.12
301.979	101.12
302.209	104.12
302.439	100.12
302.669	94.12
302.9	83.12
303.13	88.12
303.36	94.12
303.59	103.12
303.82	93.12
304.051	101.12
304.281	97.12
304.511	95.12
304.741	92.12
304.971	89.12
305.201	87.12
305.431	101.12
305.661	82.12
305.891	85.12
306.121	88.12
306.352	99.12
306.582	100.12
306.812	110.12
307.042	103.12
307.272	108.12
307.502	96.12
307.731	87.12
307.961	79.12
308.191	84.12
308.421	94.12
308.651	106.12
308.881	96.12
309.111	83.12
309.341	94.12
309.571	89.12
309.8	105.12
310.03	103.12
310.26	102.12
310.49	113.12
310.72	107.12
310.949	102.12
311.179	107.12
311.409	95.12
311.639	91.12
311.868	97.12
312.098	88.12
312.328	98.12
312.557	105.12
312.787	93.12
313.017	105.12
313.246	106.12
313.476	87.12
313.706	100.12
313.935	96.12
314.165	100.12
314.394	101.12
314.624	100.12
314.853	92.12
315.083	80.12
315.312	103.12
315.542	105.12
315.771	85.12
316.001	102.12
316.23	83.12
316.46	101.12
316.689	98.12
316.919	103.12
317.148	100.12
317.377	85.12
317.607	112.12
317.836	97.12
318.065	92.12
318.295	100.12
318.524	97.12
318.753	93.12
318.983	93.12
319.212	97.12
319.441	101.12
319.67	112.12
319.9	81.12
320.129	102.12
320.358	94.12
320.587	91.12
320.816	109.12
321.046	86.12
321.275	102.12
321.504	94.12
321.733	100.12
321.962	94.12
322.191	98.12
322.42	91.12
322.649	97.12
322.878	112.12
323.108	111.12
323.337	106.12
323.566	124.12
323.795	142.12
324.024	186.12
324.253	351.12
324.482	733.12
324.71	1488.12
324.939	1957.12
325.168	733.12
325.397	224.12
325.626	156.12
325.855	122.12
326.084	130.12
326.313	123.12
326.542	141.12
326.77	238.12
326.999	419.12
327.228	844.12
327.457	1534.12
327.686	1213.12
327.914	352.12
328.143	216.12
328.372	162.12
328.6	144.12
328.829	105.12
329.058	117.12
329.287	134.12
329.515	124.12
329.744	105.12
329.972	127.12
330.201	173.12
330.43	207.12
330.658	166.12
330.887	125.12
331.115	121.12
331.344	104.12
331.572	101.12
331.801	103.12
332.03	101.12
332.258	102.12
332.486	101.12
332.715	89.12
332.943	92.12
333.172	104.12
333.4	94.12
333.629	104.12
333.857	129.12
334.085	150.12
334.314	161.12
334.542	263.12
334.771	240.12
334.999	117.12
335.227	112.12
335.455	101.12
335.684	100.12
335.912	90.12
336.14	93.12
336.369	98.12
336.597	102.12
336.825	92.12
337.053	101.12
337.281	98.12
337.51	88.12
337.738	103.12
337.966	90.12
338.194	111.12
338.422	100.12
338.65	100.12
338.878	97.12
339.106	116.12
339.334	103.12
339.562	95.12
339.79	77.12
340.018	89.12
340.246	101.12
340.474	111.12
340.702	96.12
340.93	82.12
341.158	115.12
341.386	100.12
341.614	96.12
341.842	93.12
342.07	104.12
342.298	95.12
342.526	82.12
342.754	94.12
342.981	83.12
343.209	91.12
343.437	105.12
343.665	111.12
343.893	97.12
344.12	90.12
344.348	88.12
344.576	88.12
344.804	89.12
345.031	92.12
345.259	89.12
345.487	84.12
345.714	102.12
345.942	95.12
346.17	101.12
346.397	96.12
346.625	90.12
346.853	99.12
347.08	92.12
347.308	98.12
347.535	103.12
347.763	101.12
347.99	92.12
348.218	102.12
348.445	98.12
348.673	103.12
348.9	92.12
349.128	90.12
349.355	108.12
349.583	117.12
349.81	95.12
350.037	94.12
350.265	103.12
350.492	87.12
350.72	105.12
350.947	109.12
351.174	116.12
351.402	113.12
351.629	113.12
351.856	110.12
352.083	108.12
352.311	101.12
352.538	110.12
352.765	118.12
352.992	116.12
353.22	121.12
353.447	104.12
353.674	103.12
353.901	104.12
354.128	79.12
354.355	93.12
354.583	100.12
354.81	106.12
355.037	109.12
355.264	105.12
355.491	93.12
355.718	95.12
355.945	118.12
356.172	109.12
356.399	97.12
356.626	104.12
356.853	103.12
357.08	93.12
357.307	99.12
357.534	84.12
357.761	94.12
357.988	92.12
358.215	95.12
358.441	98.12
358.668	91.12
358.895	107.12
359.122	95.12
359.349	102.12
359.576	96.12
359.802	96.12
360.029	103.12
360.256	105.12
360.483	100.12
360.709	87.12
360.936	104.12
361.163	87.12
361.39	93.12
361.616	111.12
361.843	104.12
362.07	99.12
362.296	82.12
362.523	101.12
362.749	94.12
362.976	97.12
363.203	93.12
363.429	85.12
363.656	90.12
363.882	93.12
364.109	96.12
364.335	95.12
364.562	85.12
364.788	95.12
365.015	100.12
365.241	90.12
365.468	105.12
365.694	106.12
365.92	96.12
366.147	98.12
366.373	101.12
366.599	88.12
366.826	87.12
367.052	92.12
367.278	97.12
367.505	82.12
367.731	96.12
367.957	104.12
368.184	99.12
368.41	94.12
368.636	116.12
368.862	120.12
369.089	92.12
369.315	86.12
369.541	86.12
369.767	104.12
369.993	94.12
370.219	96.12
370.445	90.12
370.672	92.12
370.898	73.12
371.124	88.12
371.35	98.12
371.576	86.12
371.802	95.12
372.028	83.12
372.254	103.12
372.48	94.12
372.706	94.12
372.932	88.12
373.158	98.12
373.384	97.12
373.61	81.12
373.835	90.12
374.061	94.12
374.287	87.12
374.513	93.12
374.739	91.12
374.965	103.12
375.191	85.12
375.416	97.12
375.642	97.12
375.868	96.12
376.094	97.12
376.319	90.12
376.545	87.12
376.771	94.12
376.997	87.12
377.222	98.12
377.448	92.12
377.674	98.12
377.899	102.12
378.125	94.12
378.35	98.12
378.576	102.12
378.802	104.12
379.027	93.12
379.253	95.12
379.478	91.12
379.704	91.12
379.929	94.12
380.155	94.12
380.38	90.12
380.606	93.12
380.831	96.12
381.057	118.12
381.282	94.12
381.507	93.12
381.733	112.12
381.958	92.12
382.184	103.12
382.409	110.12
382.634	111.12
382.86	108.12
383.085	116.12
383.31	88.12
383.535	82.12
383.761	107.12
383.986	103.12
384.211	93.12
384.436	109.12
384.662	101.12
384.887	110.12
385.112	103.12
385.337	107.12
385.562	106.12
385.787	122.12
386.013	111.12
386.238	117.12
386.463	116.12
386.688	107.12
386.913	126.12
387.138	124.12
387.363	110.12
387.588	100.12
387.813	92.12
388.038	112.12
388.263	132.12
388.488	120.12
388.713	92.12
388.938	107.12
389.163	96.12
389.387	99.12
389.612	96.12
389.837	93.12
390.062	103.12
390.287	106.12
390.512	105.12
390.736	82.12
390.961	87.12
391.186	87.12
391.411	106.12
391.636	105.12
391.86	88.12
392.085	97.12
392.31	104.12
392.534	91.12
392.759	94.12
392.984	86.12
393.208	96.12
393.433	101.12
393.658	95.12
393.882	111.12
394.107	100.12
394.331	84.12
394.556	79.12
394.78	78.12
395.005	90.12
395.229	86.12
395.454	92.12
395.678	81.12
395.903	69.12
396.127	88.12
396.352	90.12
396.576	95.12
396.801	79.12
397.025	89.12
397.249	82.12
397.474	100.12
397.698	77.12
397.922	97.12
398.147	87.12
398.371	88.12
398.595	91.12
398.82	84.12
399.044	86.12
399.268	106.12
399.492	85.12
399.717	74.12
399.941	86.12
400.165	99.12
400.389	81.12
400.613	82.12
400.837	92.12
401.062	81.12
401.286	95.12
401.51	112.12
401.734	99.12
401.958	97.12
402.182	125.12
402.406	147.12
402.63	102.12
402.854	95.12
403.078	84.12
403.302	94.12
403.526	95.12
403.75	91.12
403.974	89.12
404.198	86.12
404.422	88.12
404.645	93.12
404.869	87.12
405.093	112.12
405.317	108.12
405.541	113.12
405.765	116.12
405.988	103.12
406.212	145.12
406.436	198.12
406.66	156.12
406.883	97.12
407.107	82.12
407.331	93.12
407.555	104.12
407.778	111.12
408.002	92.12
408.226	85.12
408.449	100.12
408.673	78.12
408.896	84.12
409.12	100.12
409.344	90.12
409.567	93.12
409.791	75.12
410.014	96.12
410.238	100.12
410.461	97.12
410.685	100.12
410.908	100.12
411.132	113.12
411.355	97.12
411.578	94.12
411.802	85.12
412.025	92.12
412.249	92.12
412.472	96.12
412.695	102.12
412.919	104.12
413.142	100.12
413.365	96.12
413.589	84.12
413.812	93.12
414.035	96.12
414.258	92.12
414.482	102.12
414.705	109.12
414.928	87.12
415.151	96.12
415.374	101.12
415.597	82.12
415.821	99.12
416.044	92.12
416.267	86.12
416.49	93.12
416.713	101.12
416.936	97.12
417.159	81.12
417.382	93.12
417.605	86.12
417.828	102.12
418.051	95.12
418.274	94.12
418.497	91.12
418.72	103.12
418.943	98.12
419.166	86.12
419.389	93.12
419.611	83.12
419.834	94.12
420.057	97.12
420.28	84.12
420.503	82.12
420.726	90.12
420.948	107.12
421.171	92.12
421.394	92.12
421.617	96.12
421.839	92.12
422.062	103.12
422.285	83.12
422.507	100.12
422.73	102.12
422.953	94.12
423.175	86.12
423.398	80.12
423.621	91.12
423.843	80.12
424.066	89.12
424.288	91.12
424.511	96.12
424.733	97.12
424.956	91.12
425.178	112.12
425.401	90.12
425.623	92.12
425.846	88.12
426.068	89.12
426.291	87.12
426.513	91.12
426.735	100.12
426.958	94.12
427.18	103.12
427.402	124.12
427.625	161.12
427.847	132.12
428.069	134.12
428.292	103.12
428.514	94.12
428.736	99.12
428.958	80.12
429.181	108.12
429.403	93.12
429.625	90.12
429.847	110.12
430.069	93.12
430.292	102.12
430.514	101.12
430.736	103.12
430.958	92.12
431.18	96.12
431.402	89.12
431.624	92.12
431.846	93.12
432.068	94.12
432.29	71.12
432.512	81.12
432.734	92.12
432.956	87.12
433.178	102.12
433.4	88.12
433.622	91.12
433.844	95.12
434.066	80.12
434.287	93.12
434.509	96.12
434.731	81.12
434.953	97.12
435.175	78.12
435.397	81.12
435.618	84.12
435.84	95.12
436.062	122.12
436.284	111.12
436.505	94.12
436.727	89.12
436.949	82.12
437.17	86.12
437.392	94.12
437.614	96.12
437.835	108.12
438.057	110.12
438.278	104.12
438.5	103.12
438.721	127.12
438.943	101.12
439.165	97.12
439.386	104.12
439.608	89.12
439.829	94.12
440.05	105.12
440.272	139.12
440.493	106.12
440.715	94.12
440.936	91.12
441.158	100.12
441.379	109.12
441.6	100.12
441.822	104.12
442.043	98.12
442.264	95.12
442.486	89.12
442.707	91.12
442.928	104.12
443.149	128.12
443.371	131.12
443.592	106.12
443.813	104.12
444.034	105.12
444.255	96.12
444.476	89.12
444.698	90.12
444.919	93.12
445.14	118.12
445.361	123.12
445.582	114.12
445.803	139.12
446.024	123.12
446.245	133.12
446.466	110.12
446.687	87.12
446.908	87.12
447.129	96.12
447.35	96.12
447.571	90.12
447.792	93.12
448.013	87.12
448.234	101.12
448.455	100.12
448.675	108.12
448.896	113.12
449.117	99.12
449.338	102.12
449.559	131.12
449.779	132.12
450	94.12
450.221	97.12
450.442	103.12
450.662	110.12
450.883	101.12
451.104	110.12
451.324	91.12
451.545	92.12
451.766	107.12
451.986	85.12
452.207	100.12
452.428	88.12
452.648	101.12
452.869	106.12
453.089	110.12
453.31	108.12
453.53	99.12
453.751	92.12
453.971	99.12
454.192	109.12
454.412	91.12
454.633	89.12
454.853	91.12
455.073	99.12
455.294	89.12
455.514	105.12
455.734	81.12
455.955	86.12
456.175	76.12
456.395	88.12
456.616	100.12
456.836	72.12
457.056	85.12
457.276	90.12
457.497	87.12
457.717	93.12
457.937	86.12
458.157	86.12
458.377	101.12
458.598	101.12
458.818	141.12
459.038	153.12
459.258	107.12
459.478	73.12
459.698	93.12
459.918	80.12
460.138	75.12
460.358	89.12
460.578	89.12
460.798	88.12
461.018	86.12
461.238	82.12
461.458	85.12
461.678	81.12
461.898	98.12
462.118	81.12
462.338	93.12
462.558	91.12
462.777	79.12
462.997	102.12
463.217	71.12
463.437	94.12
463.657	90.12
463.876	79.12
464.096	89.12
464.316	94.12
464.536	102.12
464.755	90.12
464.975	95.12
465.195	132.12
465.414	142.12
465.634	90.12
465.854	91.12
466.073	88.12
466.293	85.12
466.512	91.12
466.732	73.12
466.951	82.12
467.171	97.12
467.391	100.12
467.61	96.12
467.829	94.12
468.049	127.12
468.268	142.12
468.488	86.12
468.707	89.12
468.927	79.12
469.146	78.12
469.365	87.12
469.585	86.12
469.804	97.12
470.023	82.12
470.243	95.12
470.462	107.12
470.681	105.12
470.901	77.12
471.12	88.12
471.339	86.12
471.558	95.12
471.777	94.12
471.997	116.12
472.216	166.12
472.435	278.12
472.654	125.12
472.873	97.12
473.092	85.12
473.311	97.12
473.53	88.12
473.749	94.12
473.968	85.12
474.187	95.12
474.406	97.12
474.625	82.12
474.844	90.12
475.063	80.12
475.282	80.12
475.501	100.12
475.72	94.12
475.939	89.12
476.158	102.12
476.377	89.12
476.596	88.12
476.814	104.12
477.033	94.12
477.252	83.12
477.471	94.12
477.69	84.12
477.908	97.12
478.127	92.12
478.346	90.12
478.564	94.12
478.783	97.12
479.002	94.12
479.22	103.12
479.439	101.12
479.658	100.12
479.876	97.12
480.095	97.12
480.313	92.12
480.532	102.12
480.751	110.12
480.969	177.12
481.188	466.12
481.406	296.12
481.624	96.12
481.843	95.12
482.061	95.12
482.28	75.12
482.498	78.12
482.717	86.12
482.935	92.12
483.153	94.12
483.372	87.12
483.59	103.12
483.808	90.12
484.027	94.12
484.245	91.12
484.463	84.12
484.681	90.12
484.9	82.12
485.118	92.12
485.336	90.12
485.554	91.12
485.772	100.12
485.99	118.12
486.209	104.12
486.427	93.12
486.645	93.12
486.863	110.12
487.081	110.12
487.299	89.12
487.517	95.12
487.735	86.12
487.953	100.12
488.171	97.12
488.389	110.12
488.607	112.12
488.825	95.12
489.043	94.12
489.261	95.12
489.479	93.12
489.696	87.12
489.914	78.12
490.132	91.12
490.35	94.12
490.568	80.12
490.786	89.12
491.003	80.12
491.221	97.12
491.439	90.12
491.657	90.12
491.874	94.12
492.092	93.12
492.31	82.12
492.527	81.12
492.745	88.12
492.963	92.12
493.18	101.12
493.398	87.12
493.615	87.12
493.833	98.12
494.05	93.12
494.268	89.12
494.485	104.12
494.703	91.12
494.92	80.12
495.138	86.12
495.355	85.12
495.573	89.12
495.79	102.12
496.008	90.12
496.225	93.12
496.442	97.12
496.66	96.12
496.877	105.12
497.094	97.12
497.312	106.12
497.529	82.12
497.746	96.12
497.963	93.12
498.181	79.12
498.398	111.12
498.615	109.12
498.832	100.12
499.049	87.12
499.267	88.12
499.484	94.12
499.701	100.12
499.918	96.12
500.135	95.12
500.352	96.12
500.569	96.12
500.786	95.12
501.003	94.12
501.22	94.12
501.437	83.12
501.654	89.12
501.871	102.12
502.088	91.12
502.305	103.12
502.522	86.12
502.739	93.12
502.956	89.12
503.172	97.12
503.389	95.12
503.606	93.12
503.823	104.12
504.04	103.12
504.256	95.12
504.473	81.12
504.69	90.12
504.907	84.12
505.123	100.12
505.34	87.12
505.557	102.12
505.773	98.12
505.99	81.12
506.207	89.12
506.423	68.12
506.64	79.12
506.856	96.12
507.073	99.12
507.289	95.12
507.506	96.12
507.722	100.12
507.939	116.12
508.155	97.12
508.372	96.12
508.588	96.12
508.805	101.12
509.021	98.12
509.238	95.12
509.454	94.12
509.67	95.12
509.887	101.12
510.103	122.12
510.319	176.12
510.536	608.12
510.752	2032.12
510.968	618.12
511.184	145.12
511.401	106.12
511.617	105.12
511.833	99.12
512.049	88.12
512.265	106.12
512.481	93.12
512.698	109.12
512.914	99.12
513.13	102.12
513.346	95.12
513.562	103.12
513.778	84.12
513.994	93.12
514.21	103.12
