Data from Circ_2015_H10_HRD10591_00037.txt Node
Date: Wed Jan 03 10:00:30 EST 2024
User: Yrep
Spectrometer: HR+D1059
Trigger mode: 1
Integration Time (sec): 1.000000E-1
Scans to average: 1
Electric dark correction enabled: true
Nonlinearity correction enabled: false
Boxcar width: 0
XAxis mode: Wavelengths
Number of Pixels in Spectrum: 2048
>>>>>Begin Spectral Data<<<<<
223.165	-25.69
223.4	-25.69
223.635	-25.69
223.869	-18.69
224.104	-23.69
224.338	-8.69
224.573	-7.69
224.808	-8.69
225.042	-10.69
225.277	-10.69
225.511	-3.69
225.746	0.31
225.98	13.31
226.215	8.31
226.449	16.31
226.683	23.31
226.918	24.31
227.152	32.31
227.387	37.31
227.621	36.31
227.856	35.31
228.09	46.31
228.324	55.31
228.559	61.31
228.793	61.31
229.027	54.31
229.262	67.31
229.496	58.31
229.73	75.31
229.964	76.31
230.199	76.31
230.433	68.31
230.667	93.31
230.901	79.31
231.136	86.31
231.37	82.31
231.604	83.31
231.838	87.31
232.072	67.31
232.306	85.31
232.541	79.31
232.775	80.31
233.009	84.31
233.243	80.31
233.477	74.31
233.711	88.31
233.945	91.31
234.179	79.31
234.413	68.31
234.647	72.31
234.881	82.31
235.115	90.31
235.349	75.31
235.583	71.31
235.817	78.31
236.051	88.31
236.285	82.31
236.519	78.31
236.753	77.31
236.987	80.31
237.221	89.31
237.455	100.31
237.689	88.31
237.922	66.31
238.156	80.31
238.39	78.31
238.624	79.31
238.858	82.31
239.091	73.31
239.325	78.31
239.559	81.31
239.793	86.31
240.027	82.31
240.26	74.31
240.494	82.31
240.728	79.31
240.961	87.31
241.195	82.31
241.429	78.31
241.662	92.31
241.896	72.31
242.13	57.31
242.363	76.31
242.597	70.31
242.83	75.31
243.064	75.31
243.298	87.31
243.531	67.31
243.765	72.31
243.998	82.31
244.232	87.31
244.465	84.31
244.699	76.31
244.932	71.31
245.166	83.31
245.399	81.31
245.633	83.31
245.866	75.31
246.099	77.31
246.333	75.31
246.566	81.31
246.8	82.31
247.033	78.31
247.266	77.31
247.5	75.31
247.733	86.31
247.966	76.31
248.2	64.31
248.433	91.31
248.666	91.31
248.899	92.31
249.133	89.31
249.366	83.31
249.599	86.31
249.832	78.31
250.066	88.31
250.299	81.31
250.532	81.31
250.765	83.31
250.998	75.31
251.231	76.31
251.465	78.31
251.698	81.31
251.931	76.31
252.164	71.31
252.397	80.31
252.63	83.31
252.863	76.31
253.096	63.31
253.329	83.31
253.562	71.31
253.795	78.31
254.028	81.31
254.261	64.31
254.494	70.31
254.727	64.31
254.96	79.31
255.193	76.31
255.426	64.31
255.659	66.31
255.892	64.31
256.124	83.31
256.357	76.31
256.59	83.31
256.823	79.31
257.056	91.31
257.289	87.31
257.521	77.31
257.754	80.31
257.987	70.31
258.22	77.31
258.452	73.31
258.685	75.31
258.918	104.31
259.151	90.31
259.383	78.31
259.616	83.31
259.849	84.31
260.081	80.31
260.314	84.31
260.547	83.31
260.779	83.31
261.012	92.31
261.244	86.31
261.477	84.31
261.71	103.31
261.942	104.31
262.175	99.31
262.407	73.31
262.64	76.31
262.872	86.31
263.105	78.31
263.337	73.31
263.57	100.31
263.802	91.31
264.035	71.31
264.267	81.31
264.499	78.31
264.732	73.31
264.964	74.31
265.197	91.31
265.429	87.31
265.661	95.31
265.894	82.31
266.126	85.31
266.358	86.31
266.591	75.31
266.823	74.31
267.055	86.31
267.287	75.31
267.52	89.31
267.752	80.31
267.984	86.31
268.216	71.31
268.448	76.31
268.681	82.31
268.913	97.31
269.145	87.31
269.377	74.31
269.609	90.31
269.841	83.31
270.073	86.31
270.306	95.31
270.538	86.31
270.77	87.31
271.002	95.31
271.234	91.31
271.466	85.31
271.698	86.31
271.93	93.31
272.162	73.31
272.394	92.31
272.626	92.31
272.858	84.31
273.09	83.31
273.322	81.31
273.553	91.31
273.785	89.31
274.017	95.31
274.249	87.31
274.481	75.31
274.713	86.31
274.945	66.31
275.176	81.31
275.408	79.31
275.64	104.31
275.872	74.31
276.104	80.31
276.335	99.31
276.567	105.31
276.799	110.31
277.031	118.31
277.262	102.31
277.494	102.31
277.726	85.31
277.957	56.31
278.189	87.31
278.421	94.31
278.652	71.31
278.884	78.31
279.115	96.31
279.347	86.31
279.579	94.31
279.81	89.31
280.042	95.31
280.273	89.31
280.505	92.31
280.736	88.31
280.968	84.31
281.199	91.31
281.431	93.31
281.662	103.31
281.894	86.31
282.125	99.31
282.356	118.31
282.588	146.31
282.819	114.31
283.051	101.31
283.282	93.31
283.513	100.31
283.745	85.31
283.976	71.31
284.207	74.31
284.439	85.31
284.67	108.31
284.901	86.31
285.132	74.31
285.364	83.31
285.595	89.31
285.826	89.31
286.057	80.31
286.288	78.31
286.52	90.31
286.751	92.31
286.982	96.31
287.213	87.31
287.444	97.31
287.675	84.31
287.906	77.31
288.138	79.31
288.369	96.31
288.6	84.31
288.831	84.31
289.062	96.31
289.293	89.31
289.524	80.31
289.755	93.31
289.986	78.31
290.217	76.31
290.448	79.31
290.679	91.31
290.91	87.31
291.141	90.31
291.371	100.31
291.602	83.31
291.833	75.31
292.064	89.31
292.295	93.31
292.526	90.31
292.757	95.31
292.987	84.31
293.218	97.31
293.449	89.31
293.68	91.31
293.91	106.31
294.141	99.31
294.372	91.31
294.603	88.31
294.833	102.31
295.064	94.31
295.295	100.31
295.525	94.31
295.756	104.31
295.987	116.31
296.217	130.31
296.448	114.31
296.679	95.31
296.909	90.31
297.14	82.31
297.37	80.31
297.601	104.31
297.831	93.31
298.062	89.31
298.292	79.31
298.523	95.31
298.753	95.31
298.984	98.31
299.214	95.31
299.445	96.31
299.675	102.31
299.905	99.31
300.136	90.31
300.366	92.31
300.597	77.31
300.827	90.31
301.057	92.31
301.288	108.31
301.518	107.31
301.748	96.31
301.979	108.31
302.209	86.31
302.439	97.31
302.669	90.31
302.9	109.31
303.13	91.31
303.36	102.31
303.59	104.31
303.82	106.31
304.051	89.31
304.281	84.31
304.511	108.31
304.741	91.31
304.971	74.31
305.201	83.31
305.431	84.31
305.661	88.31
305.891	101.31
306.121	98.31
306.352	96.31
306.582	98.31
306.812	102.31
307.042	102.31
307.272	84.31
307.502	95.31
307.731	91.31
307.961	83.31
308.191	88.31
308.421	95.31
308.651	90.31
308.881	95.31
309.111	99.31
309.341	83.31
309.571	105.31
309.8	100.31
310.03	79.31
310.26	86.31
310.49	68.31
310.72	93.31
310.949	106.31
311.179	106.31
311.409	95.31
311.639	88.31
311.868	105.31
312.098	96.31
312.328	110.31
312.557	111.31
312.787	107.31
313.017	106.31
313.246	91.31
313.476	88.31
313.706	95.31
313.935	97.31
314.165	109.31
314.394	96.31
314.624	100.31
314.853	95.31
315.083	83.31
315.312	99.31
315.542	93.31
315.771	90.31
316.001	87.31
316.23	95.31
316.46	76.31
316.689	104.31
316.919	90.31
317.148	94.31
317.377	94.31
317.607	89.31
317.836	95.31
318.065	98.31
318.295	96.31
318.524	99.31
318.753	98.31
318.983	98.31
319.212	98.31
319.441	112.31
319.67	107.31
319.9	91.31
320.129	89.31
320.358	94.31
320.587	106.31
320.816	107.31
321.046	101.31
321.275	103.31
321.504	95.31
321.733	94.31
321.962	104.31
322.191	126.31
322.42	103.31
322.649	126.31
322.878	120.31
323.108	118.31
323.337	99.31
323.566	139.31
323.795	158.31
324.024	218.31
324.253	435.31
324.482	928.31
324.71	1924.31
324.939	2503.31
325.168	916.31
325.397	279.31
325.626	156.31
325.855	134.31
326.084	116.31
326.313	132.31
326.542	148.31
326.77	255.31
326.999	521.31
327.228	1052.31
327.457	1926.31
327.686	1502.31
327.914	397.31
328.143	223.31
328.372	178.31
328.6	152.31
328.829	116.31
329.058	122.31
329.287	130.31
329.515	119.31
329.744	103.31
329.972	134.31
330.201	183.31
330.43	224.31
330.658	163.31
330.887	149.31
331.115	119.31
331.344	101.31
331.572	109.31
331.801	103.31
332.03	110.31
332.258	102.31
332.486	103.31
332.715	105.31
332.943	90.31
333.172	82.31
333.4	98.31
333.629	116.31
333.857	119.31
334.085	129.31
334.314	178.31
334.542	256.31
334.771	250.31
334.999	127.31
335.227	84.31
335.455	96.31
335.684	117.31
335.912	101.31
336.14	84.31
336.369	116.31
336.597	99.31
336.825	108.31
337.053	86.31
337.281	93.31
337.51	89.31
337.738	98.31
337.966	98.31
338.194	109.31
338.422	89.31
338.65	92.31
338.878	76.31
339.106	91.31
339.334	89.31
339.562	98.31
339.79	95.31
340.018	94.31
340.246	99.31
340.474	94.31
340.702	101.31
340.93	100.31
341.158	90.31
341.386	95.31
341.614	90.31
341.842	95.31
342.07	102.31
342.298	98.31
342.526	109.31
342.754	84.31
342.981	87.31
343.209	88.31
343.437	92.31
343.665	86.31
343.893	95.31
344.12	89.31
344.348	93.31
344.576	91.31
344.804	95.31
345.031	92.31
345.259	98.31
345.487	97.31
345.714	88.31
345.942	89.31
346.17	94.31
346.397	98.31
346.625	92.31
346.853	93.31
347.08	100.31
347.308	105.31
347.535	99.31
347.763	111.31
347.99	102.31
348.218	101.31
348.445	102.31
348.673	96.31
348.9	101.31
349.128	86.31
349.355	97.31
349.583	83.31
349.81	80.31
350.037	95.31
350.265	88.31
350.492	79.31
350.72	81.31
350.947	101.31
351.174	100.31
351.402	128.31
351.629	114.31
351.856	100.31
352.083	100.31
352.311	98.31
352.538	118.31
352.765	100.31
352.992	100.31
353.22	109.31
353.447	123.31
353.674	90.31
353.901	97.31
354.128	94.31
354.355	89.31
354.583	91.31
354.81	100.31
355.037	99.31
355.264	84.31
355.491	104.31
355.718	88.31
355.945	101.31
356.172	80.31
356.399	100.31
356.626	96.31
356.853	88.31
357.08	97.31
357.307	90.31
357.534	95.31
357.761	76.31
357.988	88.31
358.215	100.31
358.441	99.31
358.668	91.31
358.895	87.31
359.122	87.31
359.349	102.31
359.576	84.31
359.802	105.31
360.029	101.31
360.256	114.31
360.483	107.31
360.709	104.31
360.936	102.31
361.163	101.31
361.39	97.31
361.616	98.31
361.843	88.31
362.07	85.31
362.296	111.31
362.523	78.31
362.749	86.31
362.976	97.31
363.203	93.31
363.429	92.31
363.656	88.31
363.882	97.31
364.109	98.31
364.335	89.31
364.562	99.31
364.788	104.31
365.015	78.31
365.241	93.31
365.468	96.31
365.694	99.31
365.92	90.31
366.147	96.31
366.373	77.31
366.599	86.31
366.826	94.31
367.052	92.31
367.278	91.31
367.505	80.31
367.731	83.31
367.957	92.31
368.184	82.31
368.41	94.31
368.636	108.31
368.862	102.31
369.089	116.31
369.315	88.31
369.541	96.31
369.767	77.31
369.993	93.31
370.219	98.31
370.445	84.31
370.672	75.31
370.898	95.31
371.124	89.31
371.35	86.31
371.576	92.31
371.802	87.31
372.028	95.31
372.254	85.31
372.48	86.31
372.706	90.31
372.932	91.31
373.158	99.31
373.384	89.31
373.61	88.31
373.835	82.31
374.061	99.31
374.287	99.31
374.513	96.31
374.739	98.31
374.965	84.31
375.191	95.31
375.416	77.31
375.642	93.31
375.868	91.31
376.094	91.31
376.319	79.31
376.545	80.31
376.771	99.31
376.997	99.31
377.222	87.31
377.448	106.31
377.674	80.31
377.899	90.31
378.125	98.31
378.35	92.31
378.576	95.31
378.802	88.31
379.027	88.31
379.253	102.31
379.478	89.31
379.704	93.31
379.929	95.31
380.155	98.31
380.38	103.31
380.606	102.31
380.831	91.31
381.057	118.31
381.282	87.31
381.507	96.31
381.733	91.31
381.958	90.31
382.184	103.31
382.409	100.31
382.634	101.31
382.86	105.31
383.085	103.31
383.31	105.31
383.535	107.31
383.761	102.31
383.986	90.31
384.211	104.31
384.436	110.31
384.662	112.31
384.887	109.31
385.112	117.31
385.337	119.31
385.562	108.31
385.787	92.31
386.013	114.31
386.238	110.31
386.463	136.31
386.688	112.31
386.913	115.31
387.138	96.31
387.363	88.31
387.588	126.31
387.813	104.31
388.038	102.31
388.263	114.31
388.488	125.31
388.713	92.31
388.938	85.31
389.163	101.31
389.387	104.31
389.612	106.31
389.837	94.31
390.062	82.31
390.287	78.31
390.512	77.31
390.736	79.31
390.961	104.31
391.186	109.31
391.411	107.31
391.636	80.31
391.86	87.31
392.085	91.31
392.31	75.31
392.534	91.31
392.759	96.31
392.984	82.31
393.208	92.31
393.433	116.31
393.658	80.31
393.882	86.31
394.107	101.31
394.331	91.31
394.556	79.31
394.78	93.31
395.005	98.31
395.229	91.31
395.454	76.31
395.678	80.31
395.903	92.31
396.127	91.31
396.352	78.31
396.576	105.31
396.801	83.31
397.025	86.31
397.249	76.31
397.474	99.31
397.698	84.31
397.922	80.31
398.147	85.31
398.371	76.31
398.595	91.31
398.82	107.31
399.044	89.31
399.268	76.31
399.492	95.31
399.717	80.31
399.941	100.31
400.165	78.31
400.389	83.31
400.613	80.31
400.837	81.31
401.062	87.31
401.286	84.31
401.51	94.31
401.734	88.31
401.958	105.31
402.182	119.31
402.406	155.31
402.63	126.31
402.854	87.31
403.078	76.31
403.302	85.31
403.526	91.31
403.75	95.31
403.974	86.31
404.198	89.31
404.422	97.31
404.645	75.31
404.869	95.31
405.093	96.31
405.317	108.31
405.541	75.31
405.765	103.31
405.988	126.31
406.212	169.31
406.436	227.31
406.66	146.31
406.883	99.31
407.107	106.31
407.331	103.31
407.555	104.31
407.778	94.31
408.002	93.31
408.226	79.31
408.449	94.31
408.673	108.31
408.896	102.31
409.12	107.31
409.344	92.31
409.567	79.31
409.791	81.31
410.014	103.31
410.238	99.31
410.461	88.31
410.685	95.31
410.908	95.31
411.132	99.31
411.355	99.31
411.578	88.31
411.802	105.31
412.025	91.31
412.249	103.31
412.472	93.31
412.695	112.31
412.919	90.31
413.142	89.31
413.365	94.31
413.589	100.31
413.812	90.31
414.035	99.31
414.258	78.31
414.482	94.31
414.705	78.31
414.928	88.31
415.151	96.31
415.374	98.31
415.597	84.31
415.821	93.31
416.044	92.31
416.267	82.31
416.49	101.31
416.713	91.31
416.936	97.31
417.159	100.31
417.382	86.31
417.605	98.31
417.828	112.31
418.051	90.31
418.274	82.31
418.497	88.31
418.72	90.31
418.943	86.31
419.166	86.31
419.389	95.31
419.611	81.31
419.834	96.31
420.057	81.31
420.28	88.31
420.503	77.31
420.726	85.31
420.948	95.31
421.171	93.31
421.394	77.31
421.617	103.31
421.839	77.31
422.062	80.31
422.285	84.31
422.507	102.31
422.73	100.31
422.953	96.31
423.175	91.31
423.398	75.31
423.621	89.31
423.843	82.31
424.066	77.31
424.288	80.31
424.511	114.31
424.733	99.31
424.956	120.31
425.178	102.31
425.401	88.31
425.623	94.31
425.846	86.31
426.068	90.31
426.291	89.31
426.513	86.31
426.735	98.31
426.958	103.31
427.18	111.31
427.402	137.31
427.625	163.31
427.847	166.31
428.069	127.31
428.292	94.31
428.514	77.31
428.736	85.31
428.958	88.31
429.181	98.31
429.403	87.31
429.625	96.31
429.847	96.31
430.069	95.31
430.292	90.31
430.514	95.31
430.736	106.31
430.958	88.31
431.18	76.31
431.402	88.31
431.624	86.31
431.846	90.31
432.068	78.31
432.29	81.31
432.512	94.31
432.734	98.31
432.956	89.31
433.178	87.31
433.4	114.31
433.622	94.31
433.844	100.31
434.066	93.31
434.287	91.31
434.509	93.31
434.731	95.31
434.953	91.31
435.175	92.31
435.397	82.31
435.618	80.31
435.84	130.31
436.062	125.31
436.284	109.31
436.505	102.31
436.727	106.31
436.949	99.31
437.17	83.31
437.392	83.31
437.614	96.31
437.835	116.31
438.057	120.31
438.278	114.31
438.5	107.31
438.721	111.31
438.943	96.31
439.165	87.31
439.386	88.31
439.608	92.31
439.829	95.31
440.05	122.31
440.272	144.31
440.493	91.31
440.715	72.31
440.936	90.31
441.158	94.31
441.379	78.31
441.6	96.31
441.822	104.31
442.043	90.31
442.264	89.31
442.486	100.31
442.707	103.31
442.928	94.31
443.149	116.31
443.371	131.31
443.592	118.31
443.813	116.31
444.034	111.31
444.255	94.31
444.476	100.31
444.698	87.31
444.919	98.31
445.14	114.31
445.361	115.31
445.582	116.31
445.803	131.31
446.024	126.31
446.245	118.31
446.466	94.31
446.687	70.31
446.908	96.31
447.129	90.31
447.35	93.31
447.571	106.31
447.792	97.31
448.013	99.31
448.234	117.31
448.455	101.31
448.675	107.31
448.896	113.31
449.117	102.31
449.338	106.31
449.559	118.31
449.779	110.31
450	88.31
450.221	95.31
450.442	89.31
450.662	78.31
450.883	101.31
451.104	103.31
451.324	91.31
451.545	75.31
451.766	85.31
451.986	72.31
452.207	76.31
452.428	75.31
452.648	101.31
452.869	110.31
453.089	117.31
453.31	103.31
453.53	86.31
453.751	82.31
453.971	120.31
454.192	106.31
454.412	99.31
454.633	94.31
454.853	91.31
455.073	75.31
455.294	80.31
455.514	98.31
455.734	94.31
455.955	89.31
456.175	81.31
456.395	67.31
456.616	97.31
456.836	74.31
457.056	85.31
457.276	77.31
457.497	63.31
457.717	92.31
457.937	87.31
458.157	84.31
458.377	103.31
458.598	109.31
458.818	139.31
459.038	153.31
459.258	118.31
459.478	85.31
459.698	82.31
459.918	88.31
460.138	86.31
460.358	82.31
460.578	84.31
460.798	95.31
461.018	82.31
461.238	91.31
461.458	76.31
461.678	91.31
461.898	80.31
462.118	94.31
462.338	60.31
462.558	76.31
462.777	73.31
462.997	85.31
463.217	80.31
463.437	79.31
463.657	80.31
463.876	88.31
464.096	82.31
464.316	99.31
464.536	78.31
464.755	90.31
464.975	103.31
465.195	151.31
465.414	151.31
465.634	96.31
465.854	71.31
466.073	90.31
466.293	84.31
466.512	73.31
466.732	81.31
466.951	77.31
467.171	90.31
467.391	81.31
467.61	87.31
467.829	107.31
468.049	134.31
468.268	127.31
468.488	79.31
468.707	97.31
468.927	98.31
469.146	76.31
469.365	77.31
469.585	78.31
469.804	108.31
470.023	89.31
470.243	88.31
470.462	104.31
470.681	101.31
470.901	101.31
471.12	93.31
471.339	86.31
471.558	91.31
471.777	103.31
471.997	105.31
472.216	172.31
472.435	314.31
472.654	135.31
472.873	105.31
473.092	91.31
473.311	91.31
473.53	90.31
473.749	75.31
473.968	100.31
474.187	108.31
474.406	106.31
474.625	92.31
474.844	89.31
475.063	92.31
475.282	85.31
475.501	81.31
475.72	79.31
475.939	98.31
476.158	90.31
476.377	75.31
476.596	88.31
476.814	100.31
477.033	103.31
477.252	90.31
477.471	87.31
477.69	91.31
477.908	88.31
478.127	90.31
478.346	98.31
478.564	88.31
478.783	93.31
479.002	91.31
479.22	91.31
479.439	104.31
479.658	89.31
479.876	88.31
480.095	90.31
480.313	78.31
480.532	81.31
480.751	99.31
480.969	184.31
481.188	494.31
481.406	361.31
481.624	133.31
481.843	71.31
482.061	90.31
482.28	86.31
482.498	88.31
482.717	91.31
482.935	86.31
483.153	84.31
483.372	92.31
483.59	93.31
483.808	94.31
484.027	79.31
484.245	84.31
484.463	80.31
484.681	97.31
484.9	77.31
485.118	92.31
485.336	91.31
485.554	94.31
485.772	90.31
485.99	99.31
486.209	101.31
486.427	84.31
486.645	108.31
486.863	121.31
487.081	93.31
487.299	95.31
487.517	86.31
487.735	103.31
487.953	97.31
488.171	103.31
488.389	93.31
488.607	90.31
488.825	89.31
489.043	95.31
489.261	83.31
489.479	74.31
489.696	87.31
489.914	79.31
490.132	84.31
490.35	93.31
490.568	89.31
490.786	84.31
491.003	86.31
491.221	90.31
491.439	86.31
491.657	95.31
491.874	90.31
492.092	89.31
492.31	106.31
492.527	80.31
492.745	99.31
492.963	91.31
493.18	86.31
493.398	89.31
493.615	92.31
493.833	91.31
494.05	105.31
494.268	79.31
494.485	92.31
494.703	86.31
494.92	94.31
495.138	95.31
495.355	95.31
495.573	91.31
495.79	75.31
496.008	70.31
496.225	100.31
496.442	94.31
496.66	111.31
496.877	83.31
497.094	104.31
497.312	88.31
497.529	87.31
497.746	84.31
497.963	85.31
498.181	98.31
498.398	85.31
498.615	99.31
498.832	83.31
499.049	89.31
499.267	76.31
499.484	79.31
499.701	75.31
499.918	87.31
500.135	105.31
500.352	91.31
500.569	106.31
500.786	95.31
501.003	93.31
501.22	92.31
501.437	93.31
501.654	91.31
501.871	111.31
502.088	91.31
502.305	99.31
502.522	86.31
502.739	92.31
502.956	83.31
503.172	92.31
503.389	102.31
503.606	109.31
503.823	103.31
504.04	99.31
504.256	90.31
504.473	103.31
504.69	88.31
504.907	86.31
505.123	96.31
505.34	81.31
505.557	78.31
505.773	93.31
505.99	82.31
506.207	93.31
506.423	90.31
506.64	90.31
506.856	83.31
507.073	92.31
507.289	80.31
507.506	109.31
507.722	114.31
507.939	109.31
508.155	91.31
508.372	91.31
508.588	93.31
508.805	102.31
509.021	107.31
509.238	112.31
509.454	110.31
509.67	98.31
509.887	104.31
510.103	122.31
510.319	212.31
510.536	746.31
510.752	2551.31
510.968	734.31
511.184	158.31
511.401	116.31
511.617	101.31
511.833	97.31
512.049	80.31
512.265	92.31
512.481	99.31
512.698	95.31
512.914	86.31
513.13	89.31
513.346	88.31
513.562	88.31
513.778	85.31
513.994	84.31
514.21	105.31
514.426	111.31
514.642	140.31
514.858	121.31
515.074	152.31
