Data from Circ_2015_H10_HRD10591_00006.txt Node
Date: Wed Jan 03 10:00:24 EST 2024
User: Yrep
Spectrometer: HR+D1059
Trigger mode: 1
Integration Time (sec): 1.000000E-1
Scans to average: 1
Electric dark correction enabled: true
Nonlinearity correction enabled: false
Boxcar width: 0
XAxis mode: Wavelengths
Number of Pixels in Spectrum: 2048
>>>>>Begin Spectral Data<<<<<
223.165	-13
223.4	-13
223.635	-13
223.869	-8
224.104	-22
224.338	-4
224.573	-16
224.808	-15
225.042	3
225.277	-2
225.511	-9
225.746	2
225.98	9
226.215	13
226.449	12
226.683	12
226.918	15
227.152	23
227.387	40
227.621	39
227.856	36
228.09	55
228.324	46
228.559	55
228.793	67
229.027	48
229.262	57
229.496	59
229.73	79
229.964	74
230.199	75
230.433	72
230.667	71
230.901	81
231.136	66
231.37	71
231.604	67
231.838	79
232.072	76
232.306	83
232.541	76
232.775	74
233.009	69
233.243	85
233.477	72
233.711	79
233.945	87
234.179	79
234.413	74
234.647	80
234.881	75
235.115	85
235.349	68
235.583	84
235.817	78
236.051	67
236.285	76
236.519	72
236.753	53
236.987	78
237.221	72
237.455	75
237.689	83
237.922	87
238.156	80
238.39	63
238.624	77
238.858	75
239.091	78
239.325	69
239.559	90
239.793	74
240.027	81
240.26	70
240.494	87
240.728	79
240.961	83
241.195	86
241.429	78
241.662	75
241.896	74
242.13	78
242.363	84
242.597	78
242.83	72
243.064	64
243.298	89
243.531	78
243.765	69
243.998	76
244.232	54
244.465	79
244.699	76
244.932	67
245.166	57
245.399	72
245.633	92
245.866	87
246.099	66
246.333	73
246.566	78
246.8	80
247.033	68
247.266	65
247.5	79
247.733	83
247.966	68
248.2	69
248.433	81
248.666	79
248.899	83
249.133	90
249.366	68
249.599	87
249.832	74
250.066	63
250.299	75
250.532	85
250.765	97
250.998	90
251.231	68
251.465	78
251.698	66
251.931	66
252.164	78
252.397	75
252.63	83
252.863	71
253.096	72
253.329	80
253.562	87
253.795	70
254.028	82
254.261	67
254.494	71
254.727	88
254.96	76
255.193	75
255.426	76
255.659	66
255.892	84
256.124	80
256.357	71
256.59	79
256.823	67
257.056	89
257.289	82
257.521	84
257.754	88
257.987	69
258.22	78
258.452	83
258.685	79
258.918	71
259.151	81
259.383	84
259.616	84
259.849	82
260.081	79
260.314	80
260.547	90
260.779	85
261.012	82
261.244	83
261.477	76
261.71	74
261.942	86
262.175	94
262.407	84
262.64	85
262.872	83
263.105	86
263.337	79
263.57	80
263.802	82
264.035	88
264.267	77
264.499	71
264.732	81
264.964	73
265.197	104
265.429	73
265.661	66
265.894	79
266.126	98
266.358	87
266.591	73
266.823	72
267.055	80
267.287	74
267.52	80
267.752	80
267.984	76
268.216	78
268.448	79
268.681	80
268.913	87
269.145	75
269.377	71
269.609	79
269.841	75
270.073	81
270.306	76
270.538	95
270.77	82
271.002	80
271.234	83
271.466	84
271.698	78
271.93	79
272.162	78
272.394	84
272.626	85
272.858	82
273.09	73
273.322	81
273.553	72
273.785	90
274.017	89
274.249	79
274.481	82
274.713	83
274.945	82
275.176	81
275.408	74
275.64	96
275.872	94
276.104	76
276.335	85
276.567	109
276.799	91
277.031	92
277.262	75
277.494	86
277.726	90
277.957	78
278.189	80
278.421	88
278.652	85
278.884	76
279.115	90
279.347	76
279.579	84
279.81	75
280.042	82
280.273	89
280.505	89
280.736	81
280.968	86
281.199	74
281.431	89
281.662	80
281.894	85
282.125	86
282.356	98
282.588	121
282.819	116
283.051	98
283.282	99
283.513	75
283.745	74
283.976	79
284.207	86
284.439	79
284.67	92
284.901	98
285.132	83
285.364	98
285.595	100
285.826	87
286.057	96
286.288	75
286.52	80
286.751	83
286.982	95
287.213	94
287.444	72
287.675	89
287.906	90
288.138	80
288.369	83
288.6	97
288.831	91
289.062	90
289.293	76
289.524	82
289.755	91
289.986	87
290.217	84
290.448	81
290.679	80
290.91	76
291.141	81
291.371	86
291.602	77
291.833	93
292.064	85
292.295	85
292.526	85
292.757	86
292.987	80
293.218	87
293.449	80
293.68	86
293.91	89
294.141	76
294.372	89
294.603	89
294.833	87
295.064	87
295.295	79
295.525	93
295.756	87
295.987	106
296.217	126
296.448	92
296.679	84
296.909	80
297.14	88
297.37	99
297.601	86
297.831	69
298.062	86
298.292	82
298.523	79
298.753	93
298.984	95
299.214	96
299.445	89
299.675	91
299.905	85
300.136	76
300.366	91
300.597	95
300.827	86
301.057	91
301.288	97
301.518	87
301.748	87
301.979	92
302.209	84
302.439	89
302.669	99
302.9	81
303.13	99
303.36	102
303.59	91
303.82	97
304.051	87
304.281	82
304.511	83
304.741	96
304.971	88
305.201	82
305.431	92
305.661	85
305.891	83
306.121	79
306.352	93
306.582	87
306.812	98
307.042	86
307.272	91
307.502	84
307.731	87
307.961	81
308.191	89
308.421	90
308.651	90
308.881	104
309.111	79
309.341	97
309.571	82
309.8	96
310.03	82
310.26	91
310.49	91
310.72	99
310.949	88
311.179	95
311.409	70
311.639	82
311.868	79
312.098	95
312.328	97
312.557	98
312.787	79
313.017	90
313.246	88
313.476	79
313.706	95
313.935	97
314.165	86
314.394	89
314.624	96
314.853	86
315.083	90
315.312	102
315.542	83
315.771	87
316.001	90
316.23	92
316.46	94
316.689	96
316.919	77
317.148	80
317.377	90
317.607	81
317.836	67
318.065	84
318.295	96
318.524	94
318.753	93
318.983	91
319.212	94
319.441	99
319.67	91
319.9	67
320.129	88
320.358	101
320.587	96
320.816	92
321.046	98
321.275	77
321.504	83
321.733	80
321.962	94
322.191	92
322.42	105
322.649	97
322.878	88
323.108	104
323.337	104
323.566	108
323.795	125
324.024	187
324.253	336
324.482	716
324.71	1476
324.939	1998
325.168	715
325.397	208
325.626	140
325.855	119
326.084	107
326.313	122
326.542	144
326.77	203
326.999	395
327.228	849
327.457	1520
327.686	1218
327.914	340
328.143	158
328.372	129
328.6	114
328.829	99
329.058	120
329.287	118
329.515	101
329.744	94
329.972	113
330.201	97
330.43	117
330.658	123
330.887	117
331.115	105
331.344	95
331.572	97
331.801	96
332.03	110
332.258	85
332.486	88
332.715	98
332.943	87
333.172	85
333.4	85
333.629	107
333.857	95
334.085	100
334.314	105
334.542	116
334.771	107
334.999	90
335.227	95
335.455	101
335.684	103
335.912	95
336.14	88
336.369	106
336.597	88
336.825	76
337.053	97
337.281	86
337.51	88
337.738	102
337.966	87
338.194	94
338.422	92
338.65	83
338.878	90
339.106	80
339.334	76
339.562	89
339.79	94
340.018	74
340.246	91
340.474	86
340.702	85
340.93	91
341.158	90
341.386	76
341.614	91
341.842	97
342.07	73
342.298	84
342.526	106
342.754	105
342.981	93
343.209	86
343.437	106
343.665	82
343.893	98
344.12	91
344.348	84
344.576	91
344.804	90
345.031	87
345.259	94
345.487	87
345.714	89
345.942	93
346.17	75
346.397	92
346.625	95
346.853	87
347.08	85
347.308	89
347.535	110
347.763	95
347.99	88
348.218	98
348.445	91
348.673	97
348.9	90
349.128	82
349.355	88
349.583	89
349.81	88
350.037	87
350.265	83
350.492	92
350.72	67
350.947	92
351.174	103
351.402	99
351.629	101
351.856	102
352.083	113
352.311	105
352.538	88
352.765	95
352.992	110
353.22	96
353.447	91
353.674	100
353.901	92
354.128	88
354.355	95
354.583	88
354.81	104
355.037	101
355.264	99
355.491	108
355.718	90
355.945	94
356.172	101
356.399	86
356.626	99
356.853	105
357.08	95
357.307	86
357.534	97
357.761	100
357.988	103
358.215	110
358.441	95
358.668	115
358.895	89
359.122	94
359.349	76
359.576	92
359.802	87
360.029	103
360.256	98
360.483	90
360.709	82
360.936	86
361.163	95
361.39	87
361.616	87
361.843	89
362.07	87
362.296	100
362.523	96
362.749	91
362.976	96
363.203	95
363.429	86
363.656	96
363.882	97
364.109	93
364.335	81
364.562	89
364.788	89
365.015	92
365.241	92
365.468	91
365.694	105
365.92	81
366.147	95
366.373	83
366.599	86
366.826	98
367.052	93
367.278	92
367.505	90
367.731	111
367.957	83
368.184	80
368.41	87
368.636	102
368.862	115
369.089	97
369.315	96
369.541	89
369.767	89
369.993	79
370.219	94
370.445	97
370.672	86
370.898	79
371.124	97
371.35	95
371.576	85
371.802	84
372.028	103
372.254	88
372.48	78
372.706	87
372.932	97
373.158	84
373.384	96
373.61	101
373.835	93
374.061	96
374.287	87
374.513	89
374.739	97
374.965	86
375.191	73
375.416	87
375.642	93
375.868	83
376.094	90
376.319	79
376.545	94
376.771	98
376.997	98
377.222	75
377.448	94
377.674	83
377.899	85
378.125	86
378.35	95
378.576	87
378.802	88
379.027	96
379.253	101
379.478	86
379.704	104
379.929	101
380.155	96
380.38	97
380.606	88
380.831	99
381.057	96
381.282	103
381.507	97
381.733	108
381.958	116
382.184	114
382.409	100
382.634	110
382.86	112
383.085	126
383.31	108
383.535	115
383.761	104
383.986	114
384.211	115
384.436	110
384.662	121
384.887	126
385.112	115
385.337	140
385.562	120
385.787	117
386.013	136
386.238	130
386.463	115
386.688	136
386.913	126
387.138	123
387.363	125
387.588	104
387.813	109
388.038	128
388.263	149
388.488	126
388.713	103
388.938	100
389.163	95
389.387	101
389.612	94
389.837	85
390.062	91
390.287	99
390.512	88
390.736	94
390.961	93
391.186	102
391.411	97
391.636	93
391.86	102
392.085	90
392.31	84
392.534	87
392.759	97
392.984	84
393.208	98
393.433	126
393.658	106
393.882	99
394.107	91
394.331	83
394.556	99
394.78	79
395.005	82
395.229	81
395.454	79
395.678	93
395.903	76
396.127	92
396.352	67
396.576	88
396.801	108
397.025	106
397.249	99
397.474	100
397.698	87
397.922	81
398.147	87
398.371	104
398.595	74
398.82	94
399.044	79
399.268	80
399.492	81
399.717	84
399.941	80
400.165	84
400.389	112
400.613	79
400.837	79
401.062	91
401.286	97
401.51	92
401.734	97
401.958	101
402.182	110
402.406	146
402.63	121
402.854	83
403.078	94
403.302	84
403.526	82
403.75	85
403.974	76
404.198	78
404.422	83
404.645	95
404.869	81
405.093	101
405.317	86
405.541	104
405.765	98
405.988	102
406.212	152
406.436	187
406.66	118
406.883	97
407.107	99
407.331	106
407.555	112
407.778	94
408.002	90
408.226	85
408.449	91
408.673	85
408.896	75
409.12	86
409.344	85
409.567	84
409.791	89
410.014	116
410.238	104
410.461	91
410.685	67
410.908	91
411.132	98
411.355	100
411.578	96
411.802	88
412.025	82
412.249	82
412.472	102
412.695	95
412.919	95
413.142	91
413.365	82
413.589	85
413.812	93
414.035	98
414.258	88
414.482	82
414.705	90
414.928	86
415.151	84
415.374	81
415.597	79
415.821	84
416.044	94
416.267	88
416.49	83
416.713	88
416.936	98
417.159	87
417.382	91
417.605	85
417.828	83
418.051	87
418.274	91
418.497	81
418.72	75
418.943	87
419.166	94
419.389	95
419.611	99
419.834	86
420.057	79
420.28	74
420.503	90
420.726	88
420.948	81
421.171	95
421.394	95
421.617	96
421.839	83
422.062	84
422.285	84
422.507	98
422.73	90
422.953	106
423.175	94
423.398	83
423.621	86
423.843	78
424.066	87
424.288	68
424.511	74
424.733	87
424.956	110
425.178	92
425.401	100
425.623	93
425.846	87
426.068	97
426.291	98
426.513	87
426.735	87
426.958	89
427.18	97
427.402	119
427.625	150
427.847	113
428.069	116
428.292	87
428.514	86
428.736	85
428.958	87
429.181	90
429.403	102
429.625	76
429.847	82
430.069	95
430.292	87
430.514	83
430.736	83
430.958	75
431.18	86
431.402	66
431.624	68
431.846	74
432.068	94
432.29	79
432.512	84
432.734	92
432.956	91
433.178	79
433.4	107
433.622	93
433.844	92
434.066	85
434.287	81
434.509	87
434.731	81
434.953	86
435.175	72
435.397	90
435.618	83
435.84	96
436.062	118
436.284	118
436.505	89
436.727	104
436.949	103
437.17	88
437.392	87
437.614	69
437.835	88
438.057	93
438.278	97
438.5	100
438.721	106
438.943	104
439.165	81
439.386	86
439.608	93
439.829	103
440.05	114
440.272	124
440.493	97
440.715	92
440.936	89
441.158	82
441.379	91
441.6	104
441.822	94
442.043	100
442.264	91
442.486	96
442.707	98
442.928	101
443.149	121
443.371	110
443.592	96
443.813	111
444.034	92
444.255	86
444.476	85
444.698	92
444.919	86
445.14	100
445.361	115
445.582	102
445.803	120
446.024	114
446.245	134
446.466	99
446.687	88
446.908	79
447.129	82
447.35	84
447.571	98
447.792	90
448.013	92
448.234	113
448.455	90
448.675	91
448.896	112
449.117	100
449.338	87
449.559	105
449.779	111
450	93
450.221	88
450.442	90
450.662	84
450.883	103
451.104	105
451.324	94
451.545	93
451.766	71
451.986	73
452.207	95
452.428	84
452.648	86
452.869	115
453.089	122
453.31	114
453.53	93
453.751	83
453.971	104
454.192	106
454.412	83
454.633	70
454.853	97
455.073	85
455.294	83
455.514	87
455.734	89
455.955	86
456.175	90
456.395	87
456.616	83
456.836	71
457.056	66
457.276	73
457.497	73
457.717	97
457.937	83
458.157	84
458.377	81
458.598	106
458.818	119
459.038	129
459.258	107
459.478	93
459.698	97
459.918	80
460.138	84
460.358	85
460.578	89
460.798	87
461.018	89
461.238	87
461.458	76
461.678	80
461.898	75
462.118	95
462.338	78
462.558	87
462.777	79
462.997	85
463.217	92
463.437	93
463.657	78
463.876	85
464.096	83
464.316	97
464.536	95
464.755	89
464.975	97
465.195	154
465.414	110
465.634	76
465.854	87
466.073	93
466.293	96
466.512	79
466.732	89
466.951	97
467.171	103
467.391	112
467.61	95
467.829	105
468.049	83
468.268	108
468.488	88
468.707	97
468.927	80
469.146	83
469.365	77
469.585	91
469.804	79
470.023	100
470.243	82
470.462	86
470.681	103
470.901	91
471.12	76
471.339	88
471.558	87
471.777	96
471.997	86
472.216	91
472.435	122
472.654	87
472.873	81
473.092	85
473.311	76
473.53	83
473.749	86
473.968	99
474.187	77
474.406	95
474.625	98
474.844	86
475.063	76
475.282	97
475.501	82
475.72	90
475.939	66
476.158	90
476.377	85
476.596	82
476.814	99
477.033	95
477.252	84
477.471	88
477.69	80
477.908	90
478.127	97
478.346	74
478.564	84
478.783	103
479.002	89
479.22	99
479.439	98
479.658	99
479.876	83
480.095	92
480.313	91
480.532	84
480.751	97
480.969	85
481.188	142
481.406	128
481.624	94
481.843	99
482.061	81
482.28	89
482.498	79
482.717	84
482.935	83
483.153	92
483.372	79
483.59	83
483.808	90
484.027	74
484.245	86
484.463	95
484.681	100
484.9	86
485.118	87
485.336	87
485.554	93
485.772	95
485.99	102
486.209	101
486.427	94
486.645	97
486.863	101
487.081	100
487.299	85
487.517	89
487.735	84
487.953	105
488.171	105
488.389	83
488.607	98
488.825	90
489.043	78
489.261	78
489.479	94
489.696	87
489.914	94
490.132	95
490.35	94
490.568	82
490.786	89
491.003	84
491.221	102
491.439	95
491.657	87
491.874	96
492.092	96
492.31	104
492.527	94
492.745	105
492.963	88
493.18	81
493.398	75
493.615	100
493.833	97
494.05	98
494.268	79
494.485	90
494.703	88
494.92	90
495.138	90
495.355	92
495.573	81
495.79	89
496.008	93
496.225	81
496.442	80
496.66	88
496.877	84
497.094	99
497.312	91
497.529	98
497.746	89
497.963	83
498.181	94
498.398	87
498.615	98
498.832	86
499.049	77
499.267	88
499.484	84
499.701	85
499.918	71
500.135	100
500.352	103
500.569	89
500.786	97
501.003	109
501.22	90
501.437	90
501.654	90
501.871	92
502.088	90
502.305	87
502.522	74
502.739	77
502.956	75
503.172	84
503.389	113
503.606	110
503.823	87
504.04	90
504.256	81
504.473	88
504.69	78
504.907	97
505.123	88
505.34	80
505.557	96
505.773	96
505.99	87
506.207	89
506.423	81
506.64	81
506.856	92
507.073	94
507.289	97
507.506	106
507.722	117
507.939	92
508.155	86
508.372	96
508.588	80
508.805	87
509.021	105
509.238	96
509.454	87
509.67	109
509.887	100
510.103	125
510.319	176
510.536	598
510.752	1982
510.968	586
511.184	130
511.401	96
511.617	91
511.833	103
512.049	100
512.265	94
512.481	99
512.698	87
512.914	96
513.13	98
513.346	91
513.562	82
513.778	80
513.994	94
514.21	92
514.426	122
514.642	116
514.858	118
515.074	140
515.29	345
515.506	1152
515.721	446
515.937	133
516.153	114
516.369	88
516.585	90
516.801	97
517.016	87
517.232	79
517.448	82
517.664	94
517.879	87
518.095	66
518.311	94
518.527	101
518.742	78
518.958	95
519.173	90
519.389	78
519.605	87
519.82	82
520.036	98
520.251	111
520.467	108
520.682	112
520.898	96
521.113	98
521.329	108
521.544	173
521.76	405
521.975	1810
522.19	1193
522.406	254
522.621	110
522.836	85
523.052	96
523.267	91
523.482	77
523.698	94
523.913	110
524.128	111
524.343	103
524.559	97
524.774	105
524.989	88
525.204	88
525.419	101
525.634	88
525.849	71
526.064	95
526.28	98
526.495	83
526.71	89
526.925	83
527.14	76
527.355	93
527.57	77
527.785	102
527.999	88
528.214	88
528.429	87
528.644	96
528.859	86
529.074	86
529.289	115
529.503	154
529.718	101
529.933	78
530.148	94
530.363	93
530.577	96
530.792	84
531.007	102
531.221	84
531.436	87
531.651	82
531.865	90
532.08	94
532.295	84
532.509	79
532.724	91
532.938	97
533.153	99
533.367	88
533.582	97
533.796	102
534.011	87
534.225	75
534.44	75
534.654	88
534.868	91
535.083	87
535.297	89
535.511	94
535.726	97
535.94	90
536.154	89
536.369	80
536.583	80
536.797	87
537.011	81
537.225	82
537.44	99
537.654	98
537.868	79
538.082	87
538.296	84
538.51	86
538.724	83
538.938	90
539.153	82
539.367	97
539.581	85
539.795	93
540.009	100
540.222	86
540.436	85
540.65	90
540.864	100
541.078	77
541.292	91
541.506	87
541.72	91
541.934	83
542.147	98
542.361	89
542.575	84
542.789	107
543.002	87
543.216	86
543.43	88
543.644	76
543.857	90
544.071	87
544.285	86
544.498	86
544.712	89
544.925	84
545.139	94
545.352	85
545.566	78
545.779	73
545.993	87
546.206	91
546.42	83
546.633	78
546.847	96
547.06	91
547.274	98
547.487	83
547.7	72
547.914	90
548.127	75
548.34	81
548.554	86
548.767	79
548.98	81
549.193	80
549.407	92
549.62	81
549.833	100
550.046	75
550.259	88
550.473	93
550.686	80
550.899	86
551.112	104
551.325	96
551.538	89
551.751	82
551.964	92
552.177	85
552.39	74
552.603	81
552.816	79
553.029	83
553.242	92
553.455	83
553.667	96
553.88	105
554.093	94
554.306	94
554.519	83
554.732	88
554.944	83
555.157	86
555.37	94
555.583	79
555.795	80
556.008	87
556.221	82
556.433	99
556.646	88
556.859	89
557.071	99
557.284	89
557.496	96
557.709	91
557.921	87
558.134	84
558.346	75
558.559	89
558.771	94
558.984	83
559.196	90
559.409	83
559.621	85
559.833	82
560.046	94
560.258	88
560.47	86
560.683	82
560.895	90
561.107	75
561.32	91
561.532	88
561.744	87
561.956	96
562.168	83
562.381	90
562.593	91
562.805	94
563.017	93
563.229	75
563.441	77
563.653	72
563.865	82
564.077	78
564.289	97
564.501	86
564.713	86
564.925	81
565.137	89
565.349	84
565.561	76
565.773	87
565.985	86
566.197	97
566.408	75
566.62	72
566.832	84
567.044	98
567.255	84
567.467	84
567.679	84
567.891	83
568.102	82
568.314	82
568.526	73
568.737	87
568.949	94
569.161	82
569.372	89
569.584	80
569.795	92
570.007	87
570.218	213
570.43	115
570.641	80
570.853	91
571.064	93
571.276	80
571.487	103
571.698	89
571.91	94
572.121	89
572.333	76
572.544	73
572.755	92
572.966	83
573.178	99
573.389	92
573.6	80
573.811	95
574.023	78
574.234	98
574.445	83
574.656	88
574.867	87
575.078	73
575.289	73
575.501	99
575.712	88
575.923	81
576.134	78
576.345	89
576.556	91
576.767	81
576.978	89
577.188	76
577.399	90
577.61	82
577.821	102
578.032	96
578.243	210
578.454	596
578.665	188
578.875	106
579.086	101
579.297	90
579.508	77
579.718	77
579.929	90
580.14	75
580.35	69
580.561	86
580.772	91
580.982	99
581.193	76
581.403	84
581.614	88
581.825	89
582.035	75
582.246	106
582.456	91
582.667	83
582.877	85
583.087	82
583.298	95
583.508	99
583.719	94
583.929	86
584.139	86
584.35	88
584.56	99
584.77	79
584.981	80
585.191	79
585.401	83
585.611	79
585.821	91
586.032	94
