Data from Circ_2015_H10_HRD10591_00063.txt Node
Date: Wed Jan 03 10:00:35 EST 2024
User: Yrep
Spectrometer: HR+D1059
Trigger mode: 1
Integration Time (sec): 1.000000E-1
Scans to average: 1
Electric dark correction enabled: true
Nonlinearity correction enabled: false
Boxcar width: 0
XAxis mode: Wavelengths
Number of Pixels in Spectrum: 2048
>>>>>Begin Spectral Data<<<<<
223.165	-16.06
223.4	-16.06
223.635	-16.06
223.869	-33.06
224.104	-21.06
224.338	-14.06
224.573	-9.06
224.808	-14.06
225.042	-19.06
225.277	-1.06
225.511	0.94
225.746	8.94
225.98	23.94
226.215	1.94
226.449	16.94
226.683	26.94
226.918	22.94
227.152	24.94
227.387	36.94
227.621	31.94
227.856	44.94
228.09	48.94
228.324	56.94
228.559	52.94
228.793	56.94
229.027	73.94
229.262	75.94
229.496	73.94
229.73	78.94
229.964	79.94
230.199	63.94
230.433	74.94
230.667	67.94
230.901	72.94
231.136	82.94
231.37	72.94
231.604	73.94
231.838	71.94
232.072	63.94
232.306	66.94
232.541	79.94
232.775	91.94
233.009	95.94
233.243	86.94
233.477	78.94
233.711	78.94
233.945	80.94
234.179	75.94
234.413	80.94
234.647	84.94
234.881	62.94
235.115	85.94
235.349	75.94
235.583	70.94
235.817	75.94
236.051	82.94
236.285	71.94
236.519	71.94
236.753	87.94
236.987	79.94
237.221	81.94
237.455	79.94
237.689	86.94
237.922	75.94
238.156	80.94
238.39	87.94
238.624	73.94
238.858	80.94
239.091	79.94
239.325	69.94
239.559	74.94
239.793	69.94
240.027	77.94
240.26	65.94
240.494	80.94
240.728	90.94
240.961	80.94
241.195	79.94
241.429	77.94
241.662	64.94
241.896	69.94
242.13	81.94
242.363	86.94
242.597	78.94
242.83	79.94
243.064	67.94
243.298	72.94
243.531	86.94
243.765	80.94
243.998	76.94
244.232	82.94
244.465	71.94
244.699	84.94
244.932	84.94
245.166	89.94
245.399	89.94
245.633	81.94
245.866	81.94
246.099	74.94
246.333	89.94
246.566	85.94
246.8	83.94
247.033	69.94
247.266	75.94
247.5	85.94
247.733	82.94
247.966	79.94
248.2	83.94
248.433	84.94
248.666	79.94
248.899	79.94
249.133	81.94
249.366	92.94
249.599	89.94
249.832	78.94
250.066	91.94
250.299	83.94
250.532	76.94
250.765	72.94
250.998	80.94
251.231	72.94
251.465	74.94
251.698	68.94
251.931	84.94
252.164	80.94
252.397	70.94
252.63	83.94
252.863	66.94
253.096	66.94
253.329	88.94
253.562	74.94
253.795	68.94
254.028	87.94
254.261	70.94
254.494	72.94
254.727	79.94
254.96	72.94
255.193	80.94
255.426	82.94
255.659	74.94
255.892	72.94
256.124	83.94
256.357	86.94
256.59	74.94
256.823	76.94
257.056	69.94
257.289	74.94
257.521	76.94
257.754	72.94
257.987	72.94
258.22	85.94
258.452	94.94
258.685	82.94
258.918	68.94
259.151	76.94
259.383	85.94
259.616	83.94
259.849	80.94
260.081	85.94
260.314	74.94
260.547	81.94
260.779	75.94
261.012	78.94
261.244	64.94
261.477	80.94
261.71	94.94
261.942	104.94
262.175	99.94
262.407	83.94
262.64	86.94
262.872	73.94
263.105	60.94
263.337	82.94
263.57	76.94
263.802	66.94
264.035	71.94
264.267	71.94
264.499	75.94
264.732	73.94
264.964	83.94
265.197	80.94
265.429	72.94
265.661	94.94
265.894	70.94
266.126	91.94
266.358	88.94
266.591	68.94
266.823	70.94
267.055	81.94
267.287	88.94
267.52	72.94
267.752	78.94
267.984	91.94
268.216	74.94
268.448	68.94
268.681	62.94
268.913	74.94
269.145	85.94
269.377	83.94
269.609	73.94
269.841	91.94
270.073	86.94
270.306	87.94
270.538	73.94
270.77	73.94
271.002	78.94
271.234	82.94
271.466	66.94
271.698	74.94
271.93	86.94
272.162	87.94
272.394	96.94
272.626	84.94
272.858	80.94
273.09	72.94
273.322	86.94
273.553	89.94
273.785	73.94
274.017	73.94
274.249	58.94
274.481	77.94
274.713	83.94
274.945	77.94
275.176	77.94
275.408	85.94
275.64	83.94
275.872	82.94
276.104	77.94
276.335	82.94
276.567	80.94
276.799	104.94
277.031	109.94
277.262	94.94
277.494	91.94
277.726	88.94
277.957	84.94
278.189	96.94
278.421	72.94
278.652	96.94
278.884	84.94
279.115	90.94
279.347	79.94
279.579	89.94
279.81	85.94
280.042	87.94
280.273	97.94
280.505	116.94
280.736	75.94
280.968	73.94
281.199	94.94
281.431	80.94
281.662	76.94
281.894	85.94
282.125	89.94
282.356	112.94
282.588	125.94
282.819	120.94
283.051	83.94
283.282	88.94
283.513	91.94
283.745	82.94
283.976	89.94
284.207	77.94
284.439	99.94
284.67	69.94
284.901	87.94
285.132	91.94
285.364	91.94
285.595	92.94
285.826	85.94
286.057	82.94
286.288	91.94
286.52	84.94
286.751	89.94
286.982	72.94
287.213	75.94
287.444	91.94
287.675	84.94
287.906	87.94
288.138	96.94
288.369	83.94
288.6	94.94
288.831	90.94
289.062	89.94
289.293	86.94
289.524	83.94
289.755	82.94
289.986	81.94
290.217	87.94
290.448	85.94
290.679	83.94
290.91	81.94
291.141	82.94
291.371	86.94
291.602	94.94
291.833	87.94
292.064	85.94
292.295	92.94
292.526	91.94
292.757	78.94
292.987	90.94
293.218	87.94
293.449	91.94
293.68	92.94
293.91	88.94
294.141	89.94
294.372	80.94
294.603	82.94
294.833	81.94
295.064	86.94
295.295	89.94
295.525	79.94
295.756	95.94
295.987	102.94
296.217	121.94
296.448	110.94
296.679	94.94
296.909	84.94
297.14	70.94
297.37	78.94
297.601	80.94
297.831	67.94
298.062	95.94
298.292	98.94
298.523	91.94
298.753	93.94
298.984	83.94
299.214	90.94
299.445	78.94
299.675	94.94
299.905	95.94
300.136	78.94
300.366	84.94
300.597	85.94
300.827	94.94
301.057	101.94
301.288	100.94
301.518	80.94
301.748	100.94
301.979	94.94
302.209	88.94
302.439	103.94
302.669	89.94
302.9	91.94
303.13	86.94
303.36	86.94
303.59	91.94
303.82	112.94
304.051	76.94
304.281	86.94
304.511	95.94
304.741	76.94
304.971	78.94
305.201	79.94
305.431	77.94
305.661	85.94
305.891	89.94
306.121	79.94
306.352	101.94
306.582	97.94
306.812	102.94
307.042	99.94
307.272	97.94
307.502	120.94
307.731	106.94
307.961	90.94
308.191	82.94
308.421	78.94
308.651	85.94
308.881	90.94
309.111	93.94
309.341	77.94
309.571	87.94
309.8	111.94
310.03	103.94
310.26	98.94
310.49	88.94
310.72	90.94
310.949	100.94
311.179	78.94
311.409	73.94
311.639	89.94
311.868	87.94
312.098	83.94
312.328	84.94
312.557	96.94
312.787	97.94
313.017	83.94
313.246	87.94
313.476	90.94
313.706	78.94
313.935	87.94
314.165	95.94
314.394	96.94
314.624	101.94
314.853	99.94
315.083	102.94
315.312	91.94
315.542	88.94
315.771	86.94
316.001	74.94
316.23	92.94
316.46	81.94
316.689	99.94
316.919	75.94
317.148	85.94
317.377	112.94
317.607	102.94
317.836	75.94
318.065	86.94
318.295	84.94
318.524	87.94
318.753	102.94
318.983	97.94
319.212	96.94
319.441	98.94
319.67	106.94
319.9	92.94
320.129	95.94
320.358	89.94
320.587	89.94
320.816	102.94
321.046	92.94
321.275	81.94
321.504	96.94
321.733	98.94
321.962	98.94
322.191	88.94
322.42	107.94
322.649	106.94
322.878	109.94
323.108	114.94
323.337	101.94
323.566	118.94
323.795	140.94
324.024	198.94
324.253	356.94
324.482	774.94
324.71	1628.94
324.939	2110.94
325.168	791.94
325.397	238.94
325.626	132.94
325.855	115.94
326.084	116.94
326.313	125.94
326.542	166.94
326.77	219.94
326.999	467.94
327.228	922.94
327.457	1656.94
327.686	1318.94
327.914	373.94
328.143	208.94
328.372	202.94
328.6	131.94
328.829	114.94
329.058	108.94
329.287	122.94
329.515	110.94
329.744	113.94
329.972	164.94
330.201	210.94
330.43	260.94
330.658	176.94
330.887	131.94
331.115	99.94
331.344	102.94
331.572	90.94
331.801	96.94
332.03	96.94
332.258	95.94
332.486	96.94
332.715	101.94
332.943	80.94
333.172	89.94
333.4	93.94
333.629	115.94
333.857	103.94
334.085	132.94
334.314	213.94
334.542	336.94
334.771	310.94
334.999	138.94
335.227	98.94
335.455	98.94
335.684	83.94
335.912	83.94
336.14	107.94
336.369	92.94
336.597	86.94
336.825	96.94
337.053	80.94
337.281	80.94
337.51	88.94
337.738	91.94
337.966	86.94
338.194	98.94
338.422	93.94
338.65	99.94
338.878	80.94
339.106	77.94
339.334	92.94
339.562	82.94
339.79	76.94
340.018	92.94
340.246	97.94
340.474	96.94
340.702	91.94
340.93	86.94
341.158	74.94
341.386	88.94
341.614	95.94
341.842	89.94
342.07	86.94
342.298	89.94
342.526	83.94
342.754	88.94
342.981	92.94
343.209	83.94
343.437	90.94
343.665	94.94
343.893	73.94
344.12	80.94
344.348	78.94
344.576	95.94
344.804	92.94
345.031	90.94
345.259	98.94
345.487	89.94
345.714	94.94
345.942	77.94
346.17	84.94
346.397	97.94
346.625	72.94
346.853	84.94
347.08	85.94
347.308	101.94
347.535	95.94
347.763	98.94
347.99	93.94
348.218	95.94
348.445	102.94
348.673	100.94
348.9	92.94
349.128	87.94
349.355	87.94
349.583	80.94
349.81	87.94
350.037	83.94
350.265	79.94
350.492	102.94
350.72	86.94
350.947	98.94
351.174	107.94
351.402	102.94
351.629	97.94
351.856	108.94
352.083	89.94
352.311	101.94
352.538	106.94
352.765	118.94
352.992	108.94
353.22	103.94
353.447	110.94
353.674	96.94
353.901	99.94
354.128	92.94
354.355	83.94
354.583	98.94
354.81	95.94
355.037	98.94
355.264	101.94
355.491	94.94
355.718	87.94
355.945	100.94
356.172	91.94
356.399	90.94
356.626	100.94
356.853	74.94
357.08	90.94
357.307	84.94
357.534	75.94
357.761	97.94
357.988	97.94
358.215	92.94
358.441	82.94
358.668	90.94
358.895	90.94
359.122	76.94
359.349	97.94
359.576	85.94
359.802	80.94
360.029	102.94
360.256	98.94
360.483	100.94
360.709	89.94
360.936	93.94
361.163	89.94
361.39	85.94
361.616	94.94
361.843	84.94
362.07	84.94
362.296	92.94
362.523	84.94
362.749	92.94
362.976	83.94
363.203	78.94
363.429	89.94
363.656	94.94
363.882	85.94
364.109	74.94
364.335	95.94
364.562	90.94
364.788	85.94
365.015	99.94
365.241	88.94
365.468	98.94
365.694	88.94
365.92	88.94
366.147	90.94
366.373	99.94
366.599	101.94
366.826	86.94
367.052	95.94
367.278	87.94
367.505	83.94
367.731	94.94
367.957	83.94
368.184	98.94
368.41	92.94
368.636	90.94
368.862	106.94
369.089	82.94
369.315	92.94
369.541	116.94
369.767	98.94
369.993	92.94
370.219	79.94
370.445	79.94
370.672	75.94
370.898	98.94
371.124	84.94
371.35	89.94
371.576	89.94
371.802	88.94
372.028	86.94
372.254	100.94
372.48	83.94
372.706	73.94
372.932	82.94
373.158	84.94
373.384	85.94
373.61	72.94
373.835	84.94
374.061	76.94
374.287	102.94
374.513	79.94
374.739	96.94
374.965	91.94
375.191	98.94
375.416	86.94
375.642	81.94
375.868	74.94
376.094	91.94
376.319	97.94
376.545	91.94
376.771	79.94
376.997	99.94
377.222	81.94
377.448	85.94
377.674	91.94
377.899	84.94
378.125	91.94
378.35	81.94
378.576	93.94
378.802	95.94
379.027	100.94
379.253	95.94
379.478	88.94
379.704	84.94
379.929	98.94
380.155	81.94
380.38	83.94
380.606	94.94
380.831	93.94
381.057	96.94
381.282	87.94
381.507	90.94
381.733	89.94
381.958	81.94
382.184	94.94
382.409	96.94
382.634	97.94
382.86	80.94
383.085	87.94
383.31	94.94
383.535	83.94
383.761	107.94
383.986	96.94
384.211	95.94
384.436	92.94
384.662	111.94
384.887	108.94
385.112	99.94
385.337	112.94
385.562	100.94
385.787	95.94
386.013	88.94
386.238	118.94
386.463	110.94
386.688	91.94
386.913	94.94
387.138	110.94
387.363	83.94
387.588	89.94
387.813	111.94
388.038	95.94
388.263	103.94
388.488	91.94
388.713	110.94
388.938	87.94
389.163	90.94
389.387	91.94
389.612	87.94
389.837	87.94
390.062	81.94
390.287	90.94
390.512	101.94
390.736	104.94
390.961	95.94
391.186	87.94
391.411	96.94
391.636	87.94
391.86	80.94
392.085	87.94
392.31	91.94
392.534	86.94
392.759	64.94
392.984	77.94
393.208	82.94
393.433	88.94
393.658	88.94
393.882	74.94
394.107	79.94
394.331	90.94
394.556	89.94
394.78	82.94
395.005	73.94
395.229	82.94
395.454	84.94
395.678	79.94
395.903	86.94
396.127	88.94
396.352	82.94
396.576	89.94
396.801	79.94
397.025	73.94
397.249	81.94
397.474	89.94
397.698	78.94
397.922	88.94
398.147	89.94
398.371	78.94
398.595	77.94
398.82	96.94
399.044	74.94
399.268	74.94
399.492	89.94
399.717	93.94
399.941	104.94
400.165	102.94
400.389	71.94
400.613	67.94
400.837	74.94
401.062	82.94
401.286	87.94
401.51	79.94
401.734	96.94
401.958	111.94
402.182	113.94
402.406	149.94
402.63	116.94
402.854	87.94
403.078	87.94
403.302	89.94
403.526	88.94
403.75	90.94
403.974	80.94
404.198	91.94
404.422	88.94
404.645	97.94
404.869	87.94
405.093	83.94
405.317	97.94
405.541	86.94
405.765	102.94
405.988	108.94
406.212	134.94
406.436	193.94
406.66	131.94
406.883	82.94
407.107	87.94
407.331	89.94
407.555	103.94
407.778	86.94
408.002	93.94
408.226	97.94
408.449	83.94
408.673	99.94
408.896	104.94
409.12	91.94
409.344	105.94
409.567	78.94
409.791	102.94
410.014	82.94
410.238	87.94
410.461	75.94
410.685	95.94
410.908	93.94
411.132	105.94
411.355	110.94
411.578	97.94
411.802	85.94
412.025	82.94
412.249	101.94
412.472	90.94
412.695	117.94
412.919	99.94
413.142	96.94
413.365	81.94
413.589	82.94
413.812	87.94
414.035	100.94
414.258	82.94
414.482	78.94
414.705	94.94
414.928	89.94
415.151	92.94
415.374	87.94
415.597	86.94
415.821	90.94
416.044	80.94
416.267	86.94
416.49	93.94
416.713	80.94
416.936	84.94
417.159	89.94
417.382	92.94
417.605	85.94
417.828	93.94
418.051	75.94
418.274	81.94
418.497	95.94
418.72	88.94
418.943	86.94
419.166	95.94
419.389	94.94
419.611	88.94
419.834	96.94
420.057	82.94
420.28	74.94
420.503	88.94
420.726	102.94
420.948	97.94
421.171	77.94
421.394	84.94
421.617	103.94
421.839	91.94
422.062	97.94
422.285	103.94
422.507	89.94
422.73	96.94
422.953	83.94
423.175	94.94
423.398	84.94
423.621	79.94
423.843	99.94
424.066	77.94
424.288	94.94
424.511	80.94
424.733	97.94
424.956	110.94
425.178	83.94
425.401	100.94
425.623	79.94
425.846	68.94
426.068	84.94
426.291	83.94
426.513	85.94
426.735	87.94
426.958	88.94
427.18	88.94
427.402	140.94
427.625	160.94
427.847	140.94
428.069	125.94
428.292	92.94
428.514	89.94
428.736	80.94
428.958	88.94
429.181	83.94
429.403	82.94
429.625	64.94
429.847	87.94
430.069	88.94
430.292	89.94
430.514	82.94
430.736	94.94
430.958	81.94
431.18	88.94
431.402	79.94
431.624	90.94
431.846	70.94
432.068	96.94
432.29	86.94
432.512	66.94
432.734	96.94
432.956	84.94
433.178	100.94
433.4	86.94
433.622	88.94
433.844	98.94
434.066	99.94
434.287	97.94
434.509	89.94
434.731	94.94
434.953	89.94
435.175	83.94
435.397	79.94
435.618	94.94
435.84	97.94
436.062	121.94
436.284	115.94
436.505	96.94
436.727	94.94
436.949	78.94
437.17	75.94
437.392	79.94
437.614	98.94
437.835	104.94
438.057	131.94
438.278	112.94
438.5	112.94
438.721	114.94
438.943	96.94
439.165	78.94
439.386	86.94
439.608	78.94
439.829	111.94
440.05	114.94
440.272	137.94
440.493	88.94
440.715	92.94
440.936	82.94
441.158	78.94
441.379	78.94
441.6	107.94
441.822	88.94
442.043	89.94
442.264	106.94
442.486	101.94
442.707	91.94
442.928	101.94
443.149	122.94
443.371	116.94
443.592	114.94
443.813	99.94
444.034	96.94
444.255	79.94
444.476	80.94
444.698	79.94
444.919	81.94
445.14	123.94
445.361	129.94
445.582	105.94
445.803	124.94
446.024	137.94
446.245	133.94
446.466	107.94
446.687	82.94
446.908	87.94
447.129	94.94
447.35	104.94
447.571	103.94
447.792	89.94
448.013	88.94
448.234	84.94
448.455	104.94
448.675	102.94
448.896	115.94
449.117	90.94
449.338	90.94
449.559	129.94
449.779	128.94
450	97.94
450.221	87.94
450.442	85.94
450.662	106.94
450.883	109.94
451.104	98.94
451.324	74.94
451.545	90.94
451.766	90.94
451.986	76.94
452.207	88.94
452.428	81.94
452.648	100.94
452.869	120.94
453.089	104.94
453.31	99.94
453.53	85.94
453.751	103.94
453.971	99.94
454.192	112.94
454.412	84.94
454.633	85.94
454.853	83.94
455.073	88.94
455.294	87.94
455.514	105.94
455.734	78.94
455.955	71.94
456.175	75.94
456.395	90.94
456.616	80.94
456.836	75.94
457.056	87.94
457.276	96.94
457.497	87.94
457.717	85.94
457.937	96.94
458.157	97.94
458.377	83.94
458.598	88.94
458.818	121.94
459.038	139.94
459.258	114.94
459.478	86.94
459.698	75.94
459.918	76.94
460.138	94.94
460.358	74.94
460.578	90.94
460.798	82.94
461.018	96.94
461.238	83.94
461.458	80.94
461.678	87.94
461.898	101.94
462.118	86.94
462.338	89.94
462.558	87.94
462.777	92.94
462.997	83.94
463.217	84.94
463.437	94.94
463.657	94.94
463.876	91.94
464.096	87.94
464.316	94.94
464.536	93.94
464.755	98.94
464.975	95.94
465.195	154.94
465.414	147.94
465.634	94.94
465.854	81.94
466.073	88.94
466.293	87.94
466.512	91.94
466.732	82.94
466.951	82.94
467.171	97.94
467.391	85.94
467.61	86.94
467.829	108.94
468.049	146.94
468.268	181.94
468.488	90.94
468.707	78.94
468.927	75.94
469.146	82.94
469.365	80.94
469.585	88.94
469.804	108.94
470.023	92.94
470.243	82.94
470.462	78.94
470.681	114.94
470.901	74.94
471.12	71.94
471.339	82.94
471.558	90.94
471.777	106.94
471.997	119.94
472.216	230.94
472.435	425.94
472.654	169.94
472.873	93.94
473.092	73.94
473.311	87.94
473.53	92.94
473.749	77.94
473.968	87.94
474.187	107.94
474.406	99.94
474.625	79.94
474.844	78.94
475.063	87.94
475.282	98.94
475.501	80.94
475.72	79.94
475.939	84.94
476.158	83.94
476.377	85.94
476.596	78.94
476.814	84.94
477.033	97.94
477.252	92.94
477.471	86.94
477.69	99.94
477.908	92.94
478.127	97.94
478.346	83.94
478.564	88.94
478.783	89.94
479.002	89.94
479.22	88.94
479.439	101.94
479.658	89.94
479.876	91.94
480.095	70.94
480.313	84.94
480.532	105.94
480.751	117.94
480.969	228.94
481.188	692.94
481.406	450.94
481.624	129.94
481.843	91.94
482.061	93.94
482.28	88.94
482.498	76.94
482.717	74.94
482.935	82.94
483.153	78.94
483.372	88.94
483.59	92.94
483.808	88.94
484.027	81.94
484.245	81.94
484.463	84.94
484.681	97.94
484.9	83.94
485.118	96.94
485.336	92.94
485.554	100.94
485.772	101.94
485.99	99.94
486.209	86.94
486.427	94.94
486.645	115.94
486.863	104.94
487.081	99.94
487.299	88.94
487.517	95.94
487.735	103.94
487.953	82.94
488.171	98.94
488.389	88.94
488.607	100.94
488.825	91.94
489.043	79.94
489.261	75.94
489.479	91.94
489.696	84.94
489.914	82.94
490.132	82.94
490.35	89.94
490.568	92.94
490.786	88.94
491.003	93.94
491.221	93.94
491.439	67.94
491.657	104.94
491.874	95.94
492.092	77.94
492.31	104.94
492.527	79.94
492.745	95.94
492.963	93.94
493.18	75.94
493.398	77.94
493.615	97.94
493.833	103.94
494.05	83.94
494.268	71.94
494.485	88.94
494.703	79.94
494.92	83.94
495.138	86.94
495.355	92.94
495.573	87.94
495.79	86.94
496.008	108.94
496.225	99.94
496.442	85.94
496.66	74.94
496.877	80.94
497.094	89.94
497.312	81.94
497.529	78.94
497.746	88.94
497.963	83.94
498.181	97.94
498.398	94.94
498.615	103.94
498.832	96.94
499.049	84.94
499.267	93.94
499.484	103.94
499.701	80.94
499.918	95.94
500.135	93.94
500.352	100.94
500.569	76.94
500.786	88.94
501.003	99.94
501.22	90.94
501.437	84.94
501.654	85.94
501.871	95.94
502.088	96.94
502.305	86.94
502.522	101.94
502.739	92.94
502.956	93.94
503.172	91.94
503.389	100.94
503.606	106.94
503.823	83.94
504.04	93.94
504.256	82.94
504.473	86.94
504.69	92.94
504.907	87.94
505.123	83.94
505.34	95.94
505.557	96.94
505.773	88.94
505.99	92.94
506.207	82.94
506.423	83.94
506.64	96.94
506.856	91.94
507.073	86.94
507.289	100.94
507.506	104.94
507.722	99.94
507.939	101.94
508.155	82.94
508.372	98.94
508.588	88.94
508.805	74.94
509.021	90.94
509.238	88.94
509.454	95.94
509.67	96.94
509.887	119.94
510.103	121.94
510.319	195.94
510.536	644.94
510.752	2036.94
510.968	622.94
511.184	154.94
511.401	111.94
511.617	79.94
511.833	94.94
512.049	104.94
512.265	93.94
512.481	69.94
512.698	90.94
512.914	96.94
513.13	82.94
513.346	82.94
513.562	83.94
513.778	96.94
513.994	83.94
514.21	86.94
514.426	100.94
514.642	126.94
514.858	128.94
515.074	164.94
515.29	389.94
515.506	1234.94
515.721	480.94
515.937	122.94
516.153	102.94
516.369	87.94
516.585	96.94
