Data from Circ_2015_H10_HRD10591_00066.txt Node
Date: Wed Jan 03 10:00:36 EST 2024
User: Yrep
Spectrometer: HR+D1059
Trigger mode: 1
Integration Time (sec): 1.000000E-1
Scans to average: 1
Electric dark correction enabled: true
Nonlinearity correction enabled: false
Boxcar width: 0
XAxis mode: Wavelengths
Number of Pixels in Spectrum: 2048
>>>>>Begin Spectral Data<<<<<
223.165	-4.06
223.4	-4.06
223.635	-4.06
223.869	-11.06
224.104	-17.06
224.338	-22.06
224.573	-10.06
224.808	-25.06
225.042	-1.06
225.277	-13.06
225.511	5.94
225.746	4.94
225.98	13.94
226.215	8.94
226.449	18.94
226.683	0.94
226.918	19.94
227.152	29.94
227.387	9.94
227.621	37.94
227.856	37.94
228.09	36.94
228.324	52.94
228.559	58.94
228.793	72.94
229.027	59.94
229.262	77.94
229.496	66.94
229.73	75.94
229.964	83.94
230.199	75.94
230.433	81.94
230.667	66.94
230.901	76.94
231.136	80.94
231.37	72.94
231.604	107.94
231.838	87.94
232.072	84.94
232.306	72.94
232.541	72.94
232.775	82.94
233.009	81.94
233.243	85.94
233.477	74.94
233.711	77.94
233.945	79.94
234.179	78.94
234.413	93.94
234.647	77.94
234.881	78.94
235.115	90.94
235.349	70.94
235.583	82.94
235.817	85.94
236.051	67.94
236.285	85.94
236.519	83.94
236.753	78.94
236.987	73.94
237.221	83.94
237.455	89.94
237.689	84.94
237.922	73.94
238.156	86.94
238.39	86.94
238.624	75.94
238.858	80.94
239.091	79.94
239.325	90.94
239.559	80.94
239.793	97.94
240.027	82.94
240.26	66.94
240.494	77.94
240.728	70.94
240.961	76.94
241.195	83.94
241.429	77.94
241.662	84.94
241.896	84.94
242.13	74.94
242.363	99.94
242.597	61.94
242.83	82.94
243.064	92.94
243.298	81.94
243.531	82.94
243.765	68.94
243.998	69.94
244.232	89.94
244.465	83.94
244.699	85.94
244.932	79.94
245.166	65.94
245.399	85.94
245.633	80.94
245.866	88.94
246.099	86.94
246.333	83.94
246.566	88.94
246.8	75.94
247.033	63.94
247.266	74.94
247.5	72.94
247.733	85.94
247.966	84.94
248.2	84.94
248.433	79.94
248.666	81.94
248.899	92.94
249.133	92.94
249.366	97.94
249.599	89.94
249.832	71.94
250.066	81.94
250.299	75.94
250.532	100.94
250.765	73.94
250.998	97.94
251.231	79.94
251.465	79.94
251.698	81.94
251.931	89.94
252.164	71.94
252.397	88.94
252.63	73.94
252.863	68.94
253.096	85.94
253.329	70.94
253.562	72.94
253.795	79.94
254.028	89.94
254.261	73.94
254.494	82.94
254.727	94.94
254.96	87.94
255.193	87.94
255.426	78.94
255.659	70.94
255.892	71.94
256.124	103.94
256.357	86.94
256.59	89.94
256.823	93.94
257.056	77.94
257.289	90.94
257.521	68.94
257.754	85.94
257.987	65.94
258.22	89.94
258.452	84.94
258.685	84.94
258.918	80.94
259.151	69.94
259.383	88.94
259.616	83.94
259.849	78.94
260.081	78.94
260.314	85.94
260.547	86.94
260.779	68.94
261.012	94.94
261.244	85.94
261.477	87.94
261.71	92.94
261.942	105.94
262.175	130.94
262.407	84.94
262.64	71.94
262.872	82.94
263.105	72.94
263.337	82.94
263.57	84.94
263.802	84.94
264.035	94.94
264.267	70.94
264.499	73.94
264.732	95.94
264.964	70.94
265.197	84.94
265.429	86.94
265.661	74.94
265.894	81.94
266.126	84.94
266.358	88.94
266.591	82.94
266.823	92.94
267.055	81.94
267.287	89.94
267.52	86.94
267.752	78.94
267.984	82.94
268.216	79.94
268.448	86.94
268.681	86.94
268.913	79.94
269.145	71.94
269.377	83.94
269.609	99.94
269.841	86.94
270.073	75.94
270.306	88.94
270.538	86.94
270.77	92.94
271.002	90.94
271.234	85.94
271.466	84.94
271.698	93.94
271.93	103.94
272.162	82.94
272.394	90.94
272.626	87.94
272.858	75.94
273.09	78.94
273.322	81.94
273.553	94.94
273.785	82.94
274.017	82.94
274.249	87.94
274.481	89.94
274.713	93.94
274.945	91.94
275.176	88.94
275.408	77.94
275.64	85.94
275.872	84.94
276.104	88.94
276.335	101.94
276.567	108.94
276.799	115.94
277.031	99.94
277.262	95.94
277.494	98.94
277.726	103.94
277.957	83.94
278.189	85.94
278.421	86.94
278.652	99.94
278.884	73.94
279.115	83.94
279.347	72.94
279.579	99.94
279.81	98.94
280.042	87.94
280.273	102.94
280.505	97.94
280.736	91.94
280.968	97.94
281.199	84.94
281.431	78.94
281.662	92.94
281.894	83.94
282.125	103.94
282.356	117.94
282.588	129.94
282.819	104.94
283.051	84.94
283.282	84.94
283.513	95.94
283.745	84.94
283.976	82.94
284.207	88.94
284.439	83.94
284.67	83.94
284.901	90.94
285.132	91.94
285.364	75.94
285.595	87.94
285.826	83.94
286.057	75.94
286.288	79.94
286.52	87.94
286.751	82.94
286.982	94.94
287.213	89.94
287.444	72.94
287.675	76.94
287.906	81.94
288.138	102.94
288.369	91.94
288.6	85.94
288.831	85.94
289.062	82.94
289.293	88.94
289.524	87.94
289.755	87.94
289.986	75.94
290.217	88.94
290.448	82.94
290.679	100.94
290.91	74.94
291.141	86.94
291.371	96.94
291.602	97.94
291.833	99.94
292.064	80.94
292.295	82.94
292.526	86.94
292.757	77.94
292.987	76.94
293.218	78.94
293.449	85.94
293.68	81.94
293.91	99.94
294.141	82.94
294.372	101.94
294.603	77.94
294.833	99.94
295.064	91.94
295.295	85.94
295.525	69.94
295.756	91.94
295.987	113.94
296.217	138.94
296.448	119.94
296.679	81.94
296.909	83.94
297.14	86.94
297.37	94.94
297.601	96.94
297.831	96.94
298.062	91.94
298.292	72.94
298.523	78.94
298.753	84.94
298.984	83.94
299.214	79.94
299.445	83.94
299.675	85.94
299.905	90.94
300.136	84.94
300.366	90.94
300.597	82.94
300.827	99.94
301.057	91.94
301.288	96.94
301.518	93.94
301.748	98.94
301.979	94.94
302.209	116.94
302.439	89.94
302.669	85.94
302.9	90.94
303.13	88.94
303.36	91.94
303.59	99.94
303.82	109.94
304.051	85.94
304.281	87.94
304.511	87.94
304.741	101.94
304.971	81.94
305.201	83.94
305.431	90.94
305.661	93.94
305.891	83.94
306.121	101.94
306.352	122.94
306.582	98.94
306.812	85.94
307.042	93.94
307.272	87.94
307.502	108.94
307.731	107.94
307.961	104.94
308.191	89.94
308.421	75.94
308.651	85.94
308.881	90.94
309.111	92.94
309.341	93.94
309.571	93.94
309.8	90.94
310.03	96.94
310.26	88.94
310.49	98.94
310.72	91.94
310.949	85.94
311.179	92.94
311.409	87.94
311.639	93.94
311.868	107.94
312.098	96.94
312.328	97.94
312.557	83.94
312.787	93.94
313.017	92.94
313.246	88.94
313.476	74.94
313.706	99.94
313.935	86.94
314.165	93.94
314.394	88.94
314.624	81.94
314.853	101.94
315.083	85.94
315.312	95.94
315.542	97.94
315.771	108.94
316.001	86.94
316.23	93.94
316.46	74.94
316.689	84.94
316.919	99.94
317.148	100.94
317.377	98.94
317.607	94.94
317.836	92.94
318.065	86.94
318.295	92.94
318.524	96.94
318.753	98.94
318.983	98.94
319.212	101.94
319.441	101.94
319.67	103.94
319.9	92.94
320.129	84.94
320.358	95.94
320.587	102.94
320.816	104.94
321.046	100.94
321.275	98.94
321.504	93.94
321.733	91.94
321.962	97.94
322.191	105.94
322.42	92.94
322.649	112.94
322.878	116.94
323.108	99.94
323.337	116.94
323.566	132.94
323.795	143.94
324.024	198.94
324.253	360.94
324.482	773.94
324.71	1604.94
324.939	2146.94
325.168	764.94
325.397	243.94
325.626	144.94
325.855	120.94
326.084	122.94
326.313	129.94
326.542	152.94
326.77	214.94
326.999	438.94
327.228	907.94
327.457	1645.94
327.686	1298.94
327.914	373.94
328.143	208.94
328.372	197.94
328.6	141.94
328.829	129.94
329.058	128.94
329.287	132.94
329.515	118.94
329.744	120.94
329.972	152.94
330.201	212.94
330.43	258.94
330.658	188.94
330.887	142.94
331.115	128.94
331.344	113.94
331.572	100.94
331.801	93.94
332.03	100.94
332.258	91.94
332.486	93.94
332.715	90.94
332.943	89.94
333.172	96.94
333.4	101.94
333.629	102.94
333.857	119.94
334.085	133.94
334.314	219.94
334.542	323.94
334.771	301.94
334.999	131.94
335.227	99.94
335.455	96.94
335.684	87.94
335.912	98.94
336.14	85.94
336.369	104.94
336.597	96.94
336.825	100.94
337.053	94.94
337.281	99.94
337.51	83.94
337.738	85.94
337.966	85.94
338.194	95.94
338.422	86.94
338.65	96.94
338.878	101.94
339.106	90.94
339.334	94.94
339.562	94.94
339.79	100.94
340.018	99.94
340.246	84.94
340.474	85.94
340.702	83.94
340.93	91.94
341.158	91.94
341.386	86.94
341.614	87.94
341.842	82.94
342.07	95.94
342.298	105.94
342.526	91.94
342.754	90.94
342.981	100.94
343.209	86.94
343.437	102.94
343.665	89.94
343.893	79.94
344.12	82.94
344.348	89.94
344.576	81.94
344.804	80.94
345.031	85.94
345.259	96.94
345.487	91.94
345.714	84.94
345.942	88.94
346.17	103.94
346.397	87.94
346.625	99.94
346.853	91.94
347.08	99.94
347.308	84.94
347.535	89.94
347.763	94.94
347.99	93.94
348.218	96.94
348.445	104.94
348.673	105.94
348.9	95.94
349.128	82.94
349.355	100.94
349.583	90.94
349.81	87.94
350.037	97.94
350.265	107.94
350.492	102.94
350.72	111.94
350.947	107.94
351.174	104.94
351.402	105.94
351.629	92.94
351.856	97.94
352.083	101.94
352.311	114.94
352.538	106.94
352.765	96.94
352.992	114.94
353.22	116.94
353.447	97.94
353.674	94.94
353.901	98.94
354.128	85.94
354.355	101.94
354.583	90.94
354.81	96.94
355.037	83.94
355.264	107.94
355.491	93.94
355.718	80.94
355.945	72.94
356.172	84.94
356.399	82.94
356.626	89.94
356.853	91.94
357.08	102.94
357.307	87.94
357.534	79.94
357.761	96.94
357.988	85.94
358.215	93.94
358.441	72.94
358.668	91.94
358.895	85.94
359.122	75.94
359.349	94.94
359.576	94.94
359.802	96.94
360.029	105.94
360.256	108.94
360.483	89.94
360.709	77.94
360.936	93.94
361.163	97.94
361.39	91.94
361.616	93.94
361.843	85.94
362.07	92.94
362.296	90.94
362.523	102.94
362.749	97.94
362.976	86.94
363.203	86.94
363.429	94.94
363.656	94.94
363.882	86.94
364.109	89.94
364.335	89.94
364.562	91.94
364.788	95.94
365.015	88.94
365.241	102.94
365.468	98.94
365.694	113.94
365.92	93.94
366.147	90.94
366.373	89.94
366.599	91.94
366.826	83.94
367.052	96.94
367.278	88.94
367.505	91.94
367.731	75.94
367.957	85.94
368.184	98.94
368.41	101.94
368.636	106.94
368.862	112.94
369.089	109.94
369.315	87.94
369.541	88.94
369.767	82.94
369.993	77.94
370.219	90.94
370.445	88.94
370.672	84.94
370.898	93.94
371.124	96.94
371.35	90.94
371.576	84.94
371.802	89.94
372.028	84.94
372.254	85.94
372.48	89.94
372.706	86.94
372.932	88.94
373.158	89.94
373.384	87.94
373.61	84.94
373.835	92.94
374.061	89.94
374.287	85.94
374.513	71.94
374.739	82.94
374.965	79.94
375.191	77.94
375.416	88.94
375.642	96.94
375.868	84.94
376.094	87.94
376.319	88.94
376.545	86.94
376.771	100.94
376.997	84.94
377.222	88.94
377.448	89.94
377.674	84.94
377.899	92.94
378.125	79.94
378.35	94.94
378.576	87.94
378.802	102.94
379.027	83.94
379.253	104.94
379.478	86.94
379.704	93.94
379.929	89.94
380.155	93.94
380.38	94.94
380.606	76.94
380.831	101.94
381.057	94.94
381.282	96.94
381.507	108.94
381.733	98.94
381.958	97.94
382.184	109.94
382.409	101.94
382.634	115.94
382.86	106.94
383.085	110.94
383.31	98.94
383.535	94.94
383.761	112.94
383.986	80.94
384.211	99.94
384.436	90.94
384.662	98.94
384.887	102.94
385.112	109.94
385.337	100.94
385.562	96.94
385.787	100.94
386.013	105.94
386.238	115.94
386.463	117.94
386.688	103.94
386.913	105.94
387.138	102.94
387.363	108.94
387.588	109.94
387.813	90.94
388.038	95.94
388.263	116.94
388.488	103.94
388.713	90.94
388.938	103.94
389.163	90.94
389.387	81.94
389.612	74.94
389.837	85.94
390.062	94.94
390.287	84.94
390.512	91.94
390.736	80.94
390.961	84.94
391.186	82.94
391.411	90.94
391.636	97.94
391.86	79.94
392.085	94.94
392.31	67.94
392.534	81.94
392.759	93.94
392.984	86.94
393.208	92.94
393.433	101.94
393.658	94.94
393.882	88.94
394.107	80.94
394.331	92.94
394.556	86.94
394.78	84.94
395.005	78.94
395.229	83.94
395.454	98.94
395.678	85.94
395.903	78.94
396.127	76.94
396.352	80.94
396.576	82.94
396.801	84.94
397.025	70.94
397.249	100.94
397.474	100.94
397.698	95.94
397.922	85.94
398.147	74.94
398.371	93.94
398.595	92.94
398.82	89.94
399.044	96.94
399.268	86.94
399.492	88.94
399.717	83.94
399.941	79.94
400.165	86.94
400.389	91.94
400.613	91.94
400.837	80.94
401.062	93.94
401.286	94.94
401.51	84.94
401.734	82.94
401.958	89.94
402.182	124.94
402.406	145.94
402.63	121.94
402.854	97.94
403.078	110.94
403.302	76.94
403.526	91.94
403.75	84.94
403.974	92.94
404.198	87.94
404.422	85.94
404.645	91.94
404.869	80.94
405.093	93.94
405.317	95.94
405.541	99.94
405.765	105.94
405.988	105.94
406.212	160.94
406.436	204.94
406.66	131.94
406.883	91.94
407.107	94.94
407.331	112.94
407.555	97.94
407.778	90.94
408.002	93.94
408.226	84.94
408.449	86.94
408.673	86.94
408.896	78.94
409.12	98.94
409.344	84.94
409.567	83.94
409.791	86.94
410.014	87.94
410.238	93.94
410.461	85.94
410.685	95.94
410.908	103.94
411.132	113.94
411.355	98.94
411.578	85.94
411.802	85.94
412.025	83.94
412.249	105.94
412.472	86.94
412.695	97.94
412.919	84.94
413.142	77.94
413.365	87.94
413.589	92.94
413.812	84.94
414.035	84.94
414.258	84.94
414.482	89.94
414.705	78.94
414.928	89.94
415.151	72.94
415.374	102.94
415.597	87.94
415.821	92.94
416.044	100.94
416.267	89.94
416.49	92.94
416.713	100.94
416.936	98.94
417.159	89.94
417.382	113.94
417.605	90.94
417.828	80.94
418.051	81.94
418.274	68.94
418.497	93.94
418.72	97.94
418.943	84.94
419.166	84.94
419.389	83.94
419.611	85.94
419.834	87.94
420.057	101.94
420.28	93.94
420.503	105.94
420.726	80.94
420.948	81.94
421.171	93.94
421.394	83.94
421.617	87.94
421.839	104.94
422.062	92.94
422.285	102.94
422.507	98.94
422.73	100.94
422.953	91.94
423.175	87.94
423.398	78.94
423.621	87.94
423.843	80.94
424.066	80.94
424.288	85.94
424.511	98.94
424.733	97.94
424.956	101.94
425.178	91.94
425.401	93.94
425.623	93.94
425.846	92.94
426.068	91.94
426.291	94.94
426.513	90.94
426.735	92.94
426.958	101.94
427.18	109.94
427.402	136.94
427.625	168.94
427.847	159.94
428.069	131.94
428.292	93.94
428.514	97.94
428.736	89.94
428.958	76.94
429.181	90.94
429.403	78.94
429.625	80.94
429.847	101.94
430.069	91.94
430.292	89.94
430.514	75.94
430.736	94.94
430.958	80.94
431.18	81.94
431.402	90.94
431.624	72.94
431.846	82.94
432.068	91.94
432.29	69.94
432.512	93.94
432.734	78.94
432.956	96.94
433.178	96.94
433.4	93.94
433.622	93.94
433.844	98.94
434.066	103.94
434.287	83.94
434.509	85.94
434.731	90.94
434.953	70.94
435.175	84.94
435.397	81.94
435.618	97.94
435.84	105.94
436.062	122.94
436.284	101.94
436.505	90.94
436.727	109.94
436.949	92.94
437.17	89.94
437.392	90.94
437.614	93.94
437.835	97.94
438.057	108.94
438.278	105.94
438.5	97.94
438.721	113.94
438.943	102.94
439.165	89.94
439.386	81.94
439.608	91.94
439.829	92.94
440.05	130.94
440.272	133.94
440.493	79.94
440.715	71.94
440.936	94.94
441.158	86.94
441.379	85.94
441.6	86.94
441.822	107.94
442.043	76.94
442.264	92.94
442.486	97.94
442.707	82.94
442.928	101.94
443.149	124.94
443.371	128.94
443.592	125.94
443.813	114.94
444.034	100.94
444.255	90.94
444.476	90.94
444.698	94.94
444.919	83.94
445.14	118.94
445.361	112.94
445.582	104.94
445.803	132.94
446.024	141.94
446.245	132.94
446.466	100.94
446.687	89.94
446.908	89.94
447.129	92.94
447.35	97.94
447.571	108.94
447.792	87.94
448.013	95.94
448.234	106.94
448.455	113.94
448.675	100.94
448.896	118.94
449.117	101.94
449.338	94.94
449.559	125.94
449.779	125.94
450	101.94
450.221	86.94
450.442	84.94
450.662	101.94
450.883	98.94
451.104	105.94
451.324	92.94
451.545	97.94
451.766	84.94
451.986	78.94
452.207	93.94
452.428	94.94
452.648	80.94
452.869	106.94
453.089	115.94
453.31	121.94
453.53	88.94
453.751	91.94
453.971	92.94
454.192	104.94
454.412	85.94
454.633	90.94
454.853	85.94
455.073	95.94
455.294	80.94
455.514	95.94
455.734	97.94
455.955	83.94
456.175	89.94
456.395	94.94
456.616	89.94
456.836	82.94
457.056	85.94
457.276	81.94
457.497	80.94
457.717	89.94
457.937	99.94
458.157	92.94
458.377	98.94
458.598	105.94
458.818	114.94
459.038	140.94
459.258	109.94
459.478	90.94
459.698	93.94
459.918	82.94
460.138	93.94
460.358	84.94
460.578	66.94
460.798	83.94
461.018	78.94
461.238	82.94
461.458	90.94
461.678	86.94
461.898	84.94
462.118	81.94
462.338	90.94
462.558	84.94
462.777	87.94
462.997	81.94
463.217	93.94
463.437	85.94
463.657	78.94
463.876	79.94
464.096	97.94
464.316	86.94
464.536	77.94
464.755	86.94
464.975	122.94
465.195	147.94
465.414	157.94
465.634	102.94
465.854	91.94
466.073	86.94
466.293	92.94
466.512	88.94
466.732	85.94
466.951	83.94
467.171	95.94
467.391	91.94
467.61	100.94
467.829	104.94
468.049	155.94
468.268	166.94
468.488	95.94
468.707	77.94
468.927	81.94
469.146	88.94
469.365	92.94
469.585	81.94
469.804	101.94
470.023	104.94
470.243	101.94
470.462	97.94
470.681	121.94
470.901	96.94
471.12	98.94
471.339	100.94
471.558	72.94
471.777	84.94
471.997	114.94
472.216	225.94
472.435	404.94
472.654	152.94
472.873	98.94
473.092	84.94
473.311	96.94
473.53	94.94
473.749	99.94
473.968	92.94
474.187	93.94
474.406	95.94
474.625	89.94
474.844	90.94
475.063	85.94
475.282	84.94
475.501	83.94
475.72	90.94
475.939	101.94
476.158	92.94
476.377	91.94
476.596	92.94
476.814	90.94
477.033	98.94
477.252	99.94
477.471	91.94
477.69	91.94
477.908	94.94
478.127	93.94
478.346	94.94
478.564	94.94
478.783	105.94
479.002	92.94
479.22	92.94
479.439	97.94
479.658	109.94
479.876	93.94
480.095	96.94
480.313	97.94
480.532	96.94
480.751	126.94
480.969	227.94
481.188	672.94
481.406	449.94
481.624	112.94
481.843	91.94
482.061	88.94
482.28	86.94
482.498	80.94
482.717	75.94
482.935	88.94
483.153	101.94
483.372	88.94
483.59	101.94
483.808	82.94
484.027	94.94
484.245	92.94
484.463	98.94
484.681	108.94
484.9	96.94
485.118	82.94
485.336	92.94
485.554	97.94
485.772	106.94
485.99	98.94
486.209	94.94
486.427	91.94
486.645	102.94
486.863	108.94
487.081	122.94
487.299	100.94
487.517	86.94
487.735	84.94
487.953	89.94
488.171	97.94
488.389	95.94
488.607	91.94
488.825	88.94
489.043	81.94
489.261	96.94
489.479	90.94
489.696	84.94
489.914	90.94
490.132	83.94
490.35	99.94
490.568	86.94
490.786	86.94
491.003	89.94
491.221	90.94
491.439	101.94
491.657	80.94
491.874	94.94
492.092	89.94
492.31	101.94
492.527	81.94
492.745	95.94
492.963	100.94
493.18	99.94
493.398	89.94
493.615	93.94
493.833	98.94
494.05	96.94
494.268	86.94
494.485	93.94
494.703	94.94
494.92	86.94
495.138	78.94
495.355	88.94
495.573	75.94
495.79	88.94
496.008	90.94
496.225	78.94
496.442	98.94
496.66	97.94
496.877	97.94
497.094	86.94
497.312	91.94
497.529	76.94
497.746	90.94
497.963	80.94
498.181	96.94
498.398	93.94
498.615	118.94
498.832	93.94
499.049	86.94
499.267	100.94
499.484	93.94
499.701	79.94
499.918	99.94
500.135	89.94
500.352	89.94
500.569	77.94
500.786	96.94
501.003	100.94
501.22	84.94
501.437	91.94
501.654	93.94
501.871	109.94
502.088	84.94
502.305	94.94
502.522	92.94
502.739	92.94
502.956	87.94
503.172	94.94
503.389	91.94
503.606	96.94
503.823	91.94
504.04	91.94
504.256	96.94
504.473	90.94
504.69	88.94
504.907	93.94
505.123	96.94
505.34	88.94
505.557	99.94
505.773	87.94
505.99	94.94
506.207	80.94
506.423	96.94
506.64	90.94
506.856	94.94
507.073	89.94
507.289	102.94
507.506	99.94
507.722	98.94
507.939	101.94
508.155	81.94
508.372	95.94
508.588	88.94
508.805	101.94
509.021	98.94
509.238	99.94
509.454	89.94
509.67	99.94
509.887	105.94
510.103	130.94
510.319	202.94
510.536	674.94
510.752	2246.94
510.968	668.94
511.184	145.94
511.401	104.94
511.617	103.94
511.833	88.94
512.049	78.94
512.265	91.94
512.481	93.94
512.698	99.94
512.914	85.94
513.13	99.94
513.346	92.94
513.562	91.94
513.778	89.94
513.994	92.94
514.21	101.94
514.426	120.94
514.642	132.94
514.858	115.94
515.074	153.94
515.29	386.94
515.506	1326.94
515.721	509.94
515.937	144.94
516.153	117.94
