Data from Circ_2015_H10_HRD10591_00060.txt Node
Date: Wed Jan 03 10:00:34 EST 2024
User: Yrep
Spectrometer: HR+D1059
Trigger mode: 1
Integration Time (sec): 1.000000E-1
Scans to average: 1
Electric dark correction enabled: true
Nonlinearity correction enabled: false
Boxcar width: 0
XAxis mode: Wavelengths
Number of Pixels in Spectrum: 2048
>>>>>Begin Spectral Data<<<<<
223.165	-25.5
223.4	-25.5
223.635	-25.5
223.869	-32.5
224.104	-25.5
224.338	-22.5
224.573	-13.5
224.808	-7.5
225.042	-4.5
225.277	-0.5
225.511	-5.5
225.746	8.5
225.98	28.5
226.215	6.5
226.449	22.5
226.683	15.5
226.918	24.5
227.152	31.5
227.387	25.5
227.621	25.5
227.856	41.5
228.09	39.5
228.324	50.5
228.559	59.5
228.793	56.5
229.027	56.5
229.262	76.5
229.496	61.5
229.73	82.5
229.964	70.5
230.199	78.5
230.433	76.5
230.667	82.5
230.901	74.5
231.136	72.5
231.37	83.5
231.604	86.5
231.838	78.5
232.072	88.5
232.306	80.5
232.541	90.5
232.775	68.5
233.009	91.5
233.243	81.5
233.477	82.5
233.711	73.5
233.945	76.5
234.179	80.5
234.413	82.5
234.647	94.5
234.881	73.5
235.115	79.5
235.349	75.5
235.583	82.5
235.817	76.5
236.051	75.5
236.285	80.5
236.519	62.5
236.753	69.5
236.987	76.5
237.221	77.5
237.455	80.5
237.689	64.5
237.922	66.5
238.156	74.5
238.39	79.5
238.624	74.5
238.858	50.5
239.091	67.5
239.325	75.5
239.559	73.5
239.793	76.5
240.027	93.5
240.26	72.5
240.494	73.5
240.728	73.5
240.961	86.5
241.195	69.5
241.429	66.5
241.662	76.5
241.896	71.5
242.13	69.5
242.363	74.5
242.597	82.5
242.83	76.5
243.064	60.5
243.298	76.5
243.531	82.5
243.765	66.5
243.998	69.5
244.232	65.5
244.465	80.5
244.699	85.5
244.932	72.5
245.166	83.5
245.399	65.5
245.633	73.5
245.866	82.5
246.099	78.5
246.333	82.5
246.566	72.5
246.8	73.5
247.033	67.5
247.266	67.5
247.5	78.5
247.733	81.5
247.966	78.5
248.2	80.5
248.433	74.5
248.666	66.5
248.899	89.5
249.133	87.5
249.366	91.5
249.599	98.5
249.832	87.5
250.066	85.5
250.299	75.5
250.532	83.5
250.765	75.5
250.998	86.5
251.231	75.5
251.465	80.5
251.698	68.5
251.931	80.5
252.164	68.5
252.397	71.5
252.63	71.5
252.863	66.5
253.096	71.5
253.329	86.5
253.562	87.5
253.795	68.5
254.028	89.5
254.261	72.5
254.494	72.5
254.727	87.5
254.96	84.5
255.193	80.5
255.426	69.5
255.659	67.5
255.892	69.5
256.124	73.5
256.357	89.5
256.59	99.5
256.823	84.5
257.056	80.5
257.289	82.5
257.521	72.5
257.754	83.5
257.987	72.5
258.22	78.5
258.452	79.5
258.685	85.5
258.918	90.5
259.151	86.5
259.383	80.5
259.616	65.5
259.849	68.5
260.081	86.5
260.314	75.5
260.547	91.5
260.779	80.5
261.012	76.5
261.244	83.5
261.477	83.5
261.71	85.5
261.942	88.5
262.175	110.5
262.407	78.5
262.64	77.5
262.872	86.5
263.105	56.5
263.337	64.5
263.57	93.5
263.802	84.5
264.035	82.5
264.267	71.5
264.499	83.5
264.732	83.5
264.964	88.5
265.197	75.5
265.429	81.5
265.661	78.5
265.894	76.5
266.126	88.5
266.358	73.5
266.591	68.5
266.823	77.5
267.055	66.5
267.287	72.5
267.52	88.5
267.752	75.5
267.984	90.5
268.216	68.5
268.448	76.5
268.681	86.5
268.913	79.5
269.145	74.5
269.377	88.5
269.609	90.5
269.841	84.5
270.073	83.5
270.306	70.5
270.538	81.5
270.77	80.5
271.002	77.5
271.234	90.5
271.466	90.5
271.698	80.5
271.93	82.5
272.162	88.5
272.394	95.5
272.626	86.5
272.858	71.5
273.09	80.5
273.322	75.5
273.553	80.5
273.785	97.5
274.017	92.5
274.249	79.5
274.481	78.5
274.713	74.5
274.945	76.5
275.176	79.5
275.408	90.5
275.64	74.5
275.872	79.5
276.104	80.5
276.335	85.5
276.567	91.5
276.799	103.5
277.031	94.5
277.262	87.5
277.494	77.5
277.726	74.5
277.957	88.5
278.189	79.5
278.421	78.5
278.652	85.5
278.884	84.5
279.115	83.5
279.347	76.5
279.579	81.5
279.81	81.5
280.042	91.5
280.273	96.5
280.505	71.5
280.736	73.5
280.968	80.5
281.199	85.5
281.431	91.5
281.662	80.5
281.894	86.5
282.125	101.5
282.356	100.5
282.588	119.5
282.819	98.5
283.051	92.5
283.282	91.5
283.513	90.5
283.745	89.5
283.976	74.5
284.207	86.5
284.439	79.5
284.67	83.5
284.901	100.5
285.132	84.5
285.364	72.5
285.595	87.5
285.826	81.5
286.057	88.5
286.288	83.5
286.52	91.5
286.751	80.5
286.982	68.5
287.213	87.5
287.444	89.5
287.675	77.5
287.906	77.5
288.138	87.5
288.369	99.5
288.6	87.5
288.831	94.5
289.062	90.5
289.293	92.5
289.524	75.5
289.755	98.5
289.986	75.5
290.217	81.5
290.448	86.5
290.679	78.5
290.91	96.5
291.141	75.5
291.371	77.5
291.602	83.5
291.833	93.5
292.064	83.5
292.295	80.5
292.526	88.5
292.757	84.5
292.987	86.5
293.218	79.5
293.449	69.5
293.68	96.5
293.91	80.5
294.141	71.5
294.372	80.5
294.603	74.5
294.833	75.5
295.064	94.5
295.295	88.5
295.525	84.5
295.756	86.5
295.987	114.5
296.217	125.5
296.448	110.5
296.679	98.5
296.909	73.5
297.14	70.5
297.37	83.5
297.601	74.5
297.831	80.5
298.062	93.5
298.292	83.5
298.523	77.5
298.753	89.5
298.984	84.5
299.214	75.5
299.445	90.5
299.675	87.5
299.905	79.5
300.136	99.5
300.366	77.5
300.597	87.5
300.827	86.5
301.057	88.5
301.288	94.5
301.518	78.5
301.748	92.5
301.979	103.5
302.209	76.5
302.439	82.5
302.669	83.5
302.9	84.5
303.13	78.5
303.36	86.5
303.59	94.5
303.82	86.5
304.051	92.5
304.281	90.5
304.511	79.5
304.741	93.5
304.971	93.5
305.201	86.5
305.431	88.5
305.661	91.5
305.891	88.5
306.121	97.5
306.352	114.5
306.582	107.5
306.812	86.5
307.042	91.5
307.272	98.5
307.502	102.5
307.731	97.5
307.961	91.5
308.191	95.5
308.421	79.5
308.651	98.5
308.881	89.5
309.111	86.5
309.341	88.5
309.571	83.5
309.8	99.5
310.03	90.5
310.26	103.5
310.49	81.5
310.72	75.5
310.949	81.5
311.179	96.5
311.409	91.5
311.639	88.5
311.868	102.5
312.098	95.5
312.328	107.5
312.557	97.5
312.787	91.5
313.017	93.5
313.246	81.5
313.476	89.5
313.706	94.5
313.935	94.5
314.165	93.5
314.394	112.5
314.624	84.5
314.853	113.5
315.083	85.5
315.312	83.5
315.542	96.5
315.771	98.5
316.001	87.5
316.23	86.5
316.46	87.5
316.689	91.5
316.919	86.5
317.148	89.5
317.377	98.5
317.607	89.5
317.836	90.5
318.065	97.5
318.295	91.5
318.524	81.5
318.753	93.5
318.983	89.5
319.212	102.5
319.441	99.5
319.67	89.5
319.9	74.5
320.129	103.5
320.358	90.5
320.587	97.5
320.816	102.5
321.046	99.5
321.275	107.5
321.504	81.5
321.733	88.5
321.962	89.5
322.191	79.5
322.42	89.5
322.649	95.5
322.878	110.5
323.108	108.5
323.337	103.5
323.566	130.5
323.795	152.5
324.024	200.5
324.253	357.5
324.482	764.5
324.71	1496.5
324.939	1989.5
325.168	734.5
325.397	224.5
325.626	137.5
325.855	116.5
326.084	112.5
326.313	124.5
326.542	133.5
326.77	212.5
326.999	427.5
327.228	860.5
327.457	1522.5
327.686	1254.5
327.914	342.5
328.143	201.5
328.372	184.5
328.6	130.5
328.829	112.5
329.058	119.5
329.287	115.5
329.515	112.5
329.744	115.5
329.972	135.5
330.201	201.5
330.43	238.5
330.658	153.5
330.887	140.5
331.115	106.5
331.344	106.5
331.572	91.5
331.801	94.5
332.03	100.5
332.258	83.5
332.486	97.5
332.715	84.5
332.943	100.5
333.172	105.5
333.4	104.5
333.629	113.5
333.857	128.5
334.085	142.5
334.314	185.5
334.542	288.5
334.771	283.5
334.999	131.5
335.227	91.5
335.455	90.5
335.684	89.5
335.912	95.5
336.14	95.5
336.369	91.5
336.597	116.5
336.825	83.5
337.053	90.5
337.281	89.5
337.51	83.5
337.738	96.5
337.966	83.5
338.194	90.5
338.422	86.5
338.65	85.5
338.878	82.5
339.106	87.5
339.334	81.5
339.562	96.5
339.79	97.5
340.018	86.5
340.246	94.5
340.474	86.5
340.702	88.5
340.93	78.5
341.158	87.5
341.386	112.5
341.614	97.5
341.842	98.5
342.07	80.5
342.298	85.5
342.526	100.5
342.754	92.5
342.981	90.5
343.209	82.5
343.437	94.5
343.665	83.5
343.893	80.5
344.12	83.5
344.348	78.5
344.576	76.5
344.804	82.5
345.031	99.5
345.259	99.5
345.487	99.5
345.714	96.5
345.942	93.5
346.17	92.5
346.397	88.5
346.625	82.5
346.853	87.5
347.08	95.5
347.308	83.5
347.535	88.5
347.763	99.5
347.99	91.5
348.218	90.5
348.445	97.5
348.673	93.5
348.9	107.5
349.128	91.5
349.355	99.5
349.583	85.5
349.81	91.5
350.037	81.5
350.265	96.5
350.492	91.5
350.72	89.5
350.947	98.5
351.174	108.5
351.402	105.5
351.629	101.5
351.856	96.5
352.083	103.5
352.311	86.5
352.538	104.5
352.765	97.5
352.992	103.5
353.22	85.5
353.447	110.5
353.674	87.5
353.901	99.5
354.128	92.5
354.355	78.5
354.583	96.5
354.81	99.5
355.037	90.5
355.264	95.5
355.491	87.5
355.718	97.5
355.945	90.5
356.172	90.5
356.399	99.5
356.626	94.5
356.853	95.5
357.08	96.5
357.307	77.5
357.534	76.5
357.761	96.5
357.988	91.5
358.215	87.5
358.441	95.5
358.668	87.5
358.895	90.5
359.122	80.5
359.349	87.5
359.576	84.5
359.802	88.5
360.029	104.5
360.256	92.5
360.483	96.5
360.709	85.5
360.936	92.5
361.163	99.5
361.39	95.5
361.616	74.5
361.843	86.5
362.07	79.5
362.296	87.5
362.523	92.5
362.749	89.5
362.976	101.5
363.203	91.5
363.429	78.5
363.656	94.5
363.882	80.5
364.109	81.5
364.335	91.5
364.562	97.5
364.788	87.5
365.015	102.5
365.241	97.5
365.468	100.5
365.694	87.5
365.92	92.5
366.147	95.5
366.373	85.5
366.599	91.5
366.826	83.5
367.052	83.5
367.278	92.5
367.505	87.5
367.731	84.5
367.957	79.5
368.184	98.5
368.41	94.5
368.636	101.5
368.862	118.5
369.089	94.5
369.315	82.5
369.541	78.5
369.767	87.5
369.993	92.5
370.219	95.5
370.445	83.5
370.672	95.5
370.898	100.5
371.124	91.5
371.35	83.5
371.576	90.5
371.802	78.5
372.028	96.5
372.254	81.5
372.48	92.5
372.706	74.5
372.932	95.5
373.158	90.5
373.384	83.5
373.61	84.5
373.835	78.5
374.061	99.5
374.287	82.5
374.513	91.5
374.739	70.5
374.965	89.5
375.191	87.5
375.416	84.5
375.642	80.5
375.868	92.5
376.094	79.5
376.319	89.5
376.545	100.5
376.771	90.5
376.997	81.5
377.222	95.5
377.448	97.5
377.674	91.5
377.899	99.5
378.125	97.5
378.35	88.5
378.576	91.5
378.802	89.5
379.027	87.5
379.253	92.5
379.478	93.5
379.704	74.5
379.929	93.5
380.155	101.5
380.38	86.5
380.606	97.5
380.831	90.5
381.057	88.5
381.282	87.5
381.507	85.5
381.733	89.5
381.958	94.5
382.184	99.5
382.409	86.5
382.634	87.5
382.86	94.5
383.085	108.5
383.31	94.5
383.535	105.5
383.761	92.5
383.986	93.5
384.211	95.5
384.436	83.5
384.662	97.5
384.887	103.5
385.112	95.5
385.337	111.5
385.562	114.5
385.787	95.5
386.013	100.5
386.238	94.5
386.463	92.5
386.688	110.5
386.913	99.5
387.138	107.5
387.363	110.5
387.588	101.5
387.813	105.5
388.038	102.5
388.263	119.5
388.488	108.5
388.713	90.5
388.938	95.5
389.163	88.5
389.387	93.5
389.612	87.5
389.837	99.5
390.062	81.5
390.287	100.5
390.512	84.5
390.736	77.5
390.961	87.5
391.186	101.5
391.411	92.5
391.636	98.5
391.86	95.5
392.085	85.5
392.31	92.5
392.534	79.5
392.759	84.5
392.984	96.5
393.208	77.5
393.433	87.5
393.658	83.5
393.882	87.5
394.107	87.5
394.331	98.5
394.556	83.5
394.78	85.5
395.005	85.5
395.229	82.5
395.454	86.5
395.678	81.5
395.903	107.5
396.127	68.5
396.352	75.5
396.576	88.5
396.801	85.5
397.025	92.5
397.249	90.5
397.474	82.5
397.698	88.5
397.922	87.5
398.147	88.5
398.371	81.5
398.595	79.5
398.82	87.5
399.044	91.5
399.268	85.5
399.492	96.5
399.717	84.5
399.941	88.5
400.165	81.5
400.389	89.5
400.613	92.5
400.837	97.5
401.062	80.5
401.286	98.5
401.51	87.5
401.734	75.5
401.958	94.5
402.182	116.5
402.406	137.5
402.63	112.5
402.854	96.5
403.078	87.5
403.302	81.5
403.526	108.5
403.75	84.5
403.974	86.5
404.198	92.5
404.422	96.5
404.645	78.5
404.869	97.5
405.093	99.5
405.317	102.5
405.541	100.5
405.765	98.5
405.988	91.5
406.212	147.5
406.436	186.5
406.66	135.5
406.883	101.5
407.107	101.5
407.331	90.5
407.555	74.5
407.778	88.5
408.002	87.5
408.226	101.5
408.449	91.5
408.673	85.5
408.896	83.5
409.12	95.5
409.344	82.5
409.567	102.5
409.791	82.5
410.014	89.5
410.238	88.5
410.461	76.5
410.685	87.5
410.908	92.5
411.132	100.5
411.355	96.5
411.578	87.5
411.802	75.5
412.025	101.5
412.249	87.5
412.472	94.5
412.695	98.5
412.919	95.5
413.142	75.5
413.365	103.5
413.589	79.5
413.812	82.5
414.035	97.5
414.258	88.5
414.482	91.5
414.705	89.5
414.928	87.5
415.151	94.5
415.374	97.5
415.597	89.5
415.821	78.5
416.044	84.5
416.267	92.5
416.49	72.5
416.713	98.5
416.936	91.5
417.159	80.5
417.382	91.5
417.605	73.5
417.828	90.5
418.051	83.5
418.274	79.5
418.497	75.5
418.72	75.5
418.943	84.5
419.166	86.5
419.389	90.5
419.611	75.5
419.834	95.5
420.057	86.5
420.28	93.5
420.503	83.5
420.726	96.5
420.948	79.5
421.171	97.5
421.394	76.5
421.617	83.5
421.839	71.5
422.062	86.5
422.285	94.5
422.507	77.5
422.73	106.5
422.953	98.5
423.175	91.5
423.398	90.5
423.621	90.5
423.843	99.5
424.066	88.5
424.288	95.5
424.511	94.5
424.733	98.5
424.956	94.5
425.178	74.5
425.401	105.5
425.623	87.5
425.846	89.5
426.068	76.5
426.291	81.5
426.513	87.5
426.735	84.5
426.958	92.5
427.18	93.5
427.402	110.5
427.625	154.5
427.847	139.5
428.069	134.5
428.292	89.5
428.514	85.5
428.736	71.5
428.958	79.5
429.181	81.5
429.403	78.5
429.625	85.5
429.847	92.5
430.069	95.5
430.292	93.5
430.514	79.5
430.736	74.5
430.958	76.5
431.18	81.5
431.402	92.5
431.624	71.5
431.846	73.5
432.068	87.5
432.29	70.5
432.512	86.5
432.734	90.5
432.956	98.5
433.178	97.5
433.4	91.5
433.622	82.5
433.844	88.5
434.066	86.5
434.287	100.5
434.509	80.5
434.731	75.5
434.953	73.5
435.175	80.5
435.397	86.5
435.618	89.5
435.84	101.5
436.062	116.5
436.284	114.5
436.505	90.5
436.727	84.5
436.949	81.5
437.17	95.5
437.392	74.5
437.614	79.5
437.835	86.5
438.057	108.5
438.278	105.5
438.5	88.5
438.721	117.5
438.943	96.5
439.165	96.5
439.386	86.5
439.608	89.5
439.829	102.5
440.05	114.5
440.272	118.5
440.493	90.5
440.715	76.5
440.936	86.5
441.158	90.5
441.379	80.5
441.6	82.5
441.822	93.5
442.043	86.5
442.264	89.5
442.486	92.5
442.707	91.5
442.928	96.5
443.149	99.5
443.371	110.5
443.592	110.5
443.813	110.5
444.034	104.5
444.255	83.5
444.476	86.5
444.698	95.5
444.919	81.5
445.14	123.5
445.361	109.5
445.582	102.5
445.803	120.5
446.024	120.5
446.245	127.5
446.466	106.5
446.687	84.5
446.908	96.5
447.129	70.5
447.35	84.5
447.571	88.5
447.792	83.5
448.013	89.5
448.234	99.5
448.455	103.5
448.675	105.5
448.896	110.5
449.117	76.5
449.338	95.5
449.559	104.5
449.779	118.5
450	93.5
450.221	75.5
450.442	76.5
450.662	91.5
450.883	99.5
451.104	90.5
451.324	90.5
451.545	89.5
451.766	85.5
451.986	79.5
452.207	94.5
452.428	107.5
452.648	86.5
452.869	81.5
453.089	96.5
453.31	100.5
453.53	91.5
453.751	87.5
453.971	81.5
454.192	98.5
454.412	83.5
454.633	90.5
454.853	98.5
455.073	83.5
455.294	80.5
455.514	94.5
455.734	80.5
455.955	93.5
456.175	91.5
456.395	78.5
456.616	68.5
456.836	82.5
457.056	62.5
457.276	74.5
457.497	83.5
457.717	76.5
457.937	86.5
458.157	97.5
458.377	77.5
458.598	116.5
458.818	140.5
459.038	131.5
459.258	112.5
459.478	83.5
459.698	90.5
459.918	93.5
460.138	75.5
460.358	84.5
460.578	97.5
460.798	102.5
461.018	91.5
461.238	82.5
461.458	89.5
461.678	87.5
461.898	90.5
462.118	75.5
462.338	93.5
462.558	81.5
462.777	81.5
462.997	80.5
463.217	71.5
463.437	74.5
463.657	81.5
463.876	92.5
464.096	87.5
464.316	81.5
464.536	75.5
464.755	75.5
464.975	86.5
465.195	129.5
465.414	135.5
465.634	96.5
465.854	82.5
466.073	90.5
466.293	89.5
466.512	81.5
466.732	73.5
466.951	73.5
467.171	83.5
467.391	90.5
467.61	96.5
467.829	107.5
468.049	132.5
468.268	152.5
468.488	98.5
468.707	80.5
468.927	79.5
469.146	82.5
469.365	88.5
469.585	94.5
469.804	103.5
470.023	89.5
470.243	78.5
470.462	83.5
470.681	104.5
470.901	82.5
471.12	84.5
471.339	84.5
471.558	83.5
471.777	82.5
471.997	100.5
472.216	208.5
472.435	368.5
472.654	144.5
472.873	99.5
473.092	82.5
473.311	97.5
473.53	86.5
473.749	89.5
473.968	89.5
474.187	97.5
474.406	85.5
474.625	72.5
474.844	66.5
475.063	96.5
475.282	98.5
475.501	90.5
475.72	94.5
475.939	89.5
476.158	67.5
476.377	87.5
476.596	91.5
476.814	79.5
477.033	83.5
477.252	83.5
477.471	95.5
477.69	100.5
477.908	85.5
478.127	84.5
478.346	85.5
478.564	97.5
478.783	102.5
479.002	84.5
479.22	88.5
479.439	98.5
479.658	96.5
479.876	84.5
480.095	84.5
480.313	85.5
480.532	93.5
480.751	116.5
480.969	214.5
481.188	645.5
481.406	410.5
481.624	131.5
481.843	82.5
482.061	83.5
482.28	93.5
482.498	79.5
482.717	88.5
482.935	88.5
483.153	85.5
483.372	73.5
483.59	82.5
483.808	96.5
484.027	91.5
484.245	92.5
484.463	72.5
484.681	90.5
484.9	80.5
485.118	87.5
485.336	90.5
485.554	100.5
485.772	80.5
485.99	100.5
486.209	108.5
486.427	88.5
486.645	99.5
486.863	102.5
487.081	92.5
487.299	96.5
487.517	81.5
487.735	75.5
487.953	95.5
488.171	96.5
488.389	93.5
488.607	76.5
488.825	104.5
489.043	96.5
489.261	88.5
489.479	88.5
489.696	94.5
489.914	83.5
490.132	82.5
490.35	88.5
490.568	81.5
490.786	87.5
491.003	96.5
491.221	88.5
491.439	79.5
491.657	94.5
491.874	86.5
492.092	100.5
492.31	95.5
492.527	102.5
492.745	98.5
492.963	82.5
493.18	101.5
493.398	90.5
493.615	97.5
493.833	98.5
494.05	88.5
494.268	84.5
494.485	87.5
494.703	90.5
494.92	91.5
495.138	95.5
495.355	90.5
495.573	91.5
495.79	75.5
496.008	96.5
496.225	94.5
496.442	98.5
496.66	91.5
496.877	86.5
497.094	73.5
497.312	79.5
497.529	84.5
497.746	91.5
497.963	78.5
498.181	101.5
498.398	95.5
498.615	98.5
498.832	101.5
499.049	91.5
499.267	85.5
499.484	80.5
499.701	88.5
499.918	85.5
500.135	85.5
500.352	80.5
500.569	80.5
500.786	80.5
501.003	97.5
501.22	103.5
501.437	94.5
501.654	93.5
501.871	100.5
502.088	83.5
502.305	83.5
502.522	87.5
502.739	83.5
502.956	81.5
503.172	84.5
503.389	93.5
503.606	97.5
503.823	105.5
504.04	86.5
504.256	84.5
504.473	82.5
504.69	87.5
504.907	97.5
505.123	97.5
505.34	82.5
505.557	90.5
505.773	79.5
505.99	98.5
506.207	87.5
506.423	70.5
506.64	80.5
506.856	90.5
507.073	81.5
507.289	91.5
507.506	88.5
507.722	104.5
507.939	98.5
508.155	85.5
508.372	93.5
508.588	98.5
508.805	92.5
509.021	88.5
509.238	98.5
509.454	95.5
509.67	96.5
509.887	102.5
510.103	115.5
510.319	183.5
510.536	625.5
510.752	1973.5
510.968	606.5
511.184	153.5
511.401	98.5
511.617	89.5
511.833	91.5
512.049	90.5
512.265	82.5
512.481	84.5
512.698	105.5
512.914	74.5
513.13	101.5
513.346	96.5
513.562	83.5
513.778	91.5
513.994	73.5
514.21	95.5
514.426	97.5
514.642	130.5
514.858	104.5
515.074	132.5
515.29	348.5
515.506	1176.5
515.721	467.5
515.937	146.5
516.153	106.5
516.369	97.5
516.585	82.5
516.801	88.5
517.016	89.5
517.232	102.5
517.448	83.5
517.664	80.5
517.879	80.5
518.095	88.5
518.311	82.5
518.527	103.5
518.742	95.5
518.958	101.5
519.173	94.5
519.389	80.5
519.605	93.5
519.82	91.5
520.036	111.5
520.251	119.5
520.467	115.5
520.682	107.5
520.898	83.5
521.113	99.5
521.329	120.5
521.544	180.5
521.76	430.5
521.975	1858.5
522.19	1188.5
522.406	274.5
522.621	121.5
522.836	90.5
523.052	101.5
523.267	86.5
523.482	92.5
523.698	106.5
523.913	111.5
524.128	107.5
524.343	92.5
524.559	90.5
524.774	76.5
524.989	96.5
525.204	84.5
525.419	91.5
525.634	88.5
525.849	97.5
526.064	74.5
526.28	91.5
526.495	87.5
526.71	91.5
526.925	81.5
527.14	80.5
527.355	102.5
527.57	91.5
527.785	88.5
527.999	81.5
528.214	93.5
528.429	79.5
528.644	90.5
528.859	89.5
529.074	94.5
529.289	98.5
529.503	154.5
529.718	102.5
529.933	91.5
530.148	71.5
530.363	87.5
530.577	76.5
530.792	90.5
531.007	98.5
531.221	87.5
531.436	76.5
531.651	71.5
531.865	84.5
532.08	91.5
532.295	88.5
532.509	95.5
532.724	81.5
532.938	101.5
533.153	91.5
533.367	74.5
533.582	87.5
533.796	89.5
534.011	83.5
534.225	82.5
534.44	95.5
534.654	96.5
534.868	93.5
535.083	92.5
535.297	84.5
535.511	99.5
535.726	88.5
535.94	83.5
536.154	106.5
536.369	98.5
536.583	90.5
536.797	93.5
