Data from Circ_2015_H10_HRD10591_00013.txt Node
Date: Wed Jan 03 10:00:25 EST 2024
User: Yrep
Spectrometer: HR+D1059
Trigger mode: 1
Integration Time (sec): 1.000000E-1
Scans to average: 1
Electric dark correction enabled: true
Nonlinearity correction enabled: false
Boxcar width: 0
XAxis mode: Wavelengths
Number of Pixels in Spectrum: 2048
>>>>>Begin Spectral Data<<<<<
223.165	-29.19
223.4	-29.19
223.635	-29.19
223.869	-17.19
224.104	-10.19
224.338	-13.19
224.573	-5.19
224.808	-29.19
225.042	2.81
225.277	-2.19
225.511	5.81
225.746	-11.19
225.98	-1.19
226.215	-1.19
226.449	26.81
226.683	14.81
226.918	29.81
227.152	39.81
227.387	24.81
227.621	25.81
227.856	40.81
228.09	35.81
228.324	56.81
228.559	54.81
228.793	53.81
229.027	50.81
229.262	66.81
229.496	75.81
229.73	64.81
229.964	77.81
230.199	72.81
230.433	77.81
230.667	58.81
230.901	73.81
231.136	69.81
231.37	72.81
231.604	79.81
231.838	62.81
232.072	80.81
232.306	71.81
232.541	73.81
232.775	76.81
233.009	82.81
233.243	67.81
233.477	81.81
233.711	62.81
233.945	76.81
234.179	85.81
234.413	63.81
234.647	72.81
234.881	84.81
235.115	76.81
235.349	77.81
235.583	58.81
235.817	76.81
236.051	69.81
236.285	68.81
236.519	77.81
236.753	71.81
236.987	90.81
237.221	93.81
237.455	90.81
237.689	89.81
237.922	84.81
238.156	71.81
238.39	74.81
238.624	70.81
238.858	69.81
239.091	74.81
239.325	76.81
239.559	79.81
239.793	73.81
240.027	74.81
240.26	69.81
240.494	79.81
240.728	73.81
240.961	86.81
241.195	83.81
241.429	87.81
241.662	72.81
241.896	80.81
242.13	68.81
242.363	72.81
242.597	76.81
242.83	74.81
243.064	60.81
243.298	69.81
243.531	81.81
243.765	64.81
243.998	83.81
244.232	74.81
244.465	74.81
244.699	76.81
244.932	89.81
245.166	78.81
245.399	73.81
245.633	82.81
245.866	71.81
246.099	80.81
246.333	73.81
246.566	71.81
246.8	57.81
247.033	77.81
247.266	76.81
247.5	71.81
247.733	74.81
247.966	74.81
248.2	73.81
248.433	75.81
248.666	76.81
248.899	79.81
249.133	97.81
249.366	94.81
249.599	96.81
249.832	68.81
250.066	77.81
250.299	53.81
250.532	75.81
250.765	94.81
250.998	80.81
251.231	81.81
251.465	76.81
251.698	58.81
251.931	58.81
252.164	80.81
252.397	72.81
252.63	67.81
252.863	84.81
253.096	72.81
253.329	73.81
253.562	78.81
253.795	69.81
254.028	95.81
254.261	82.81
254.494	84.81
254.727	93.81
254.96	85.81
255.193	82.81
255.426	72.81
255.659	82.81
255.892	68.81
256.124	64.81
256.357	70.81
256.59	77.81
256.823	74.81
257.056	77.81
257.289	81.81
257.521	73.81
257.754	73.81
257.987	73.81
258.22	72.81
258.452	75.81
258.685	80.81
258.918	75.81
259.151	78.81
259.383	87.81
259.616	80.81
259.849	81.81
260.081	78.81
260.314	62.81
260.547	76.81
260.779	74.81
261.012	73.81
261.244	69.81
261.477	80.81
261.71	86.81
261.942	82.81
262.175	97.81
262.407	84.81
262.64	83.81
262.872	87.81
263.105	86.81
263.337	81.81
263.57	77.81
263.802	71.81
264.035	88.81
264.267	71.81
264.499	78.81
264.732	79.81
264.964	70.81
265.197	70.81
265.429	85.81
265.661	76.81
265.894	87.81
266.126	91.81
266.358	85.81
266.591	82.81
266.823	85.81
267.055	78.81
267.287	78.81
267.52	76.81
267.752	89.81
267.984	85.81
268.216	77.81
268.448	70.81
268.681	70.81
268.913	91.81
269.145	89.81
269.377	76.81
269.609	84.81
269.841	89.81
270.073	87.81
270.306	81.81
270.538	84.81
270.77	78.81
271.002	80.81
271.234	96.81
271.466	88.81
271.698	71.81
271.93	78.81
272.162	76.81
272.394	88.81
272.626	74.81
272.858	79.81
273.09	78.81
273.322	75.81
273.553	85.81
273.785	76.81
274.017	88.81
274.249	83.81
274.481	85.81
274.713	86.81
274.945	81.81
275.176	83.81
275.408	84.81
275.64	92.81
275.872	73.81
276.104	78.81
276.335	96.81
276.567	82.81
276.799	102.81
277.031	103.81
277.262	97.81
277.494	83.81
277.726	70.81
277.957	76.81
278.189	84.81
278.421	81.81
278.652	99.81
278.884	72.81
279.115	85.81
279.347	75.81
279.579	78.81
279.81	83.81
280.042	81.81
280.273	86.81
280.505	78.81
280.736	85.81
280.968	78.81
281.199	75.81
281.431	79.81
281.662	79.81
281.894	88.81
282.125	93.81
282.356	126.81
282.588	138.81
282.819	127.81
283.051	85.81
283.282	83.81
283.513	80.81
283.745	83.81
283.976	73.81
284.207	78.81
284.439	87.81
284.67	78.81
284.901	86.81
285.132	85.81
285.364	81.81
285.595	77.81
285.826	72.81
286.057	97.81
286.288	85.81
286.52	97.81
286.751	86.81
286.982	97.81
287.213	77.81
287.444	84.81
287.675	86.81
287.906	82.81
288.138	83.81
288.369	90.81
288.6	84.81
288.831	86.81
289.062	86.81
289.293	87.81
289.524	71.81
289.755	88.81
289.986	85.81
290.217	90.81
290.448	73.81
290.679	97.81
290.91	83.81
291.141	96.81
291.371	94.81
291.602	74.81
291.833	72.81
292.064	79.81
292.295	97.81
292.526	76.81
292.757	78.81
292.987	85.81
293.218	73.81
293.449	74.81
293.68	87.81
293.91	86.81
294.141	83.81
294.372	87.81
294.603	77.81
294.833	85.81
295.064	84.81
295.295	79.81
295.525	107.81
295.756	95.81
295.987	103.81
296.217	122.81
296.448	114.81
296.679	97.81
296.909	85.81
297.14	84.81
297.37	75.81
297.601	84.81
297.831	80.81
298.062	74.81
298.292	92.81
298.523	87.81
298.753	81.81
298.984	81.81
299.214	99.81
299.445	70.81
299.675	85.81
299.905	79.81
300.136	73.81
300.366	87.81
300.597	83.81
300.827	73.81
301.057	80.81
301.288	89.81
301.518	92.81
301.748	60.81
301.979	85.81
302.209	72.81
302.439	73.81
302.669	81.81
302.9	86.81
303.13	88.81
303.36	85.81
303.59	92.81
303.82	108.81
304.051	91.81
304.281	88.81
304.511	81.81
304.741	90.81
304.971	78.81
305.201	81.81
305.431	60.81
305.661	82.81
305.891	97.81
306.121	89.81
306.352	91.81
306.582	104.81
306.812	85.81
307.042	77.81
307.272	71.81
307.502	88.81
307.731	74.81
307.961	83.81
308.191	75.81
308.421	82.81
308.651	73.81
308.881	82.81
309.111	97.81
309.341	90.81
309.571	80.81
309.8	93.81
310.03	84.81
310.26	82.81
310.49	86.81
310.72	98.81
310.949	99.81
311.179	101.81
311.409	92.81
311.639	89.81
311.868	89.81
312.098	96.81
312.328	96.81
312.557	93.81
312.787	120.81
313.017	104.81
313.246	93.81
313.476	89.81
313.706	86.81
313.935	98.81
314.165	93.81
314.394	75.81
314.624	81.81
314.853	93.81
315.083	84.81
315.312	89.81
315.542	92.81
315.771	81.81
316.001	85.81
316.23	66.81
316.46	82.81
316.689	86.81
316.919	87.81
317.148	76.81
317.377	95.81
317.607	82.81
317.836	81.81
318.065	84.81
318.295	85.81
318.524	87.81
318.753	96.81
318.983	81.81
319.212	95.81
319.441	97.81
319.67	96.81
319.9	86.81
320.129	99.81
320.358	92.81
320.587	91.81
320.816	103.81
321.046	86.81
321.275	93.81
321.504	78.81
321.733	82.81
321.962	97.81
322.191	90.81
322.42	88.81
322.649	108.81
322.878	105.81
323.108	101.81
323.337	100.81
323.566	109.81
323.795	149.81
324.024	186.81
324.253	353.81
324.482	728.81
324.71	1501.81
324.939	1991.81
325.168	744.81
325.397	225.81
325.626	137.81
325.855	117.81
326.084	101.81
326.313	117.81
326.542	142.81
326.77	222.81
326.999	416.81
327.228	847.81
327.457	1492.81
327.686	1216.81
327.914	326.81
328.143	182.81
328.372	137.81
328.6	122.81
328.829	110.81
329.058	115.81
329.287	113.81
329.515	101.81
329.744	104.81
329.972	95.81
330.201	104.81
330.43	134.81
330.658	116.81
330.887	128.81
331.115	120.81
331.344	78.81
331.572	100.81
331.801	92.81
332.03	84.81
332.258	90.81
332.486	104.81
332.715	78.81
332.943	97.81
333.172	92.81
333.4	86.81
333.629	87.81
333.857	113.81
334.085	96.81
334.314	116.81
334.542	132.81
334.771	132.81
334.999	92.81
335.227	99.81
335.455	85.81
335.684	103.81
335.912	88.81
336.14	86.81
336.369	93.81
336.597	105.81
336.825	90.81
337.053	95.81
337.281	90.81
337.51	80.81
337.738	93.81
337.966	90.81
338.194	89.81
338.422	82.81
338.65	85.81
338.878	90.81
339.106	96.81
339.334	88.81
339.562	96.81
339.79	100.81
340.018	92.81
340.246	93.81
340.474	96.81
340.702	87.81
340.93	88.81
341.158	88.81
341.386	89.81
341.614	92.81
341.842	93.81
342.07	103.81
342.298	83.81
342.526	87.81
342.754	87.81
342.981	93.81
343.209	94.81
343.437	93.81
343.665	90.81
343.893	71.81
344.12	75.81
344.348	91.81
344.576	83.81
344.804	92.81
345.031	89.81
345.259	101.81
345.487	93.81
345.714	100.81
345.942	90.81
346.17	92.81
346.397	90.81
346.625	90.81
346.853	70.81
347.08	84.81
347.308	92.81
347.535	96.81
347.763	91.81
347.99	95.81
348.218	87.81
348.445	104.81
348.673	97.81
348.9	86.81
349.128	76.81
349.355	80.81
349.583	79.81
349.81	91.81
350.037	100.81
350.265	99.81
350.492	84.81
350.72	96.81
350.947	94.81
351.174	108.81
351.402	91.81
351.629	86.81
351.856	89.81
352.083	112.81
352.311	100.81
352.538	102.81
352.765	106.81
352.992	102.81
353.22	107.81
353.447	101.81
353.674	94.81
353.901	104.81
354.128	93.81
354.355	92.81
354.583	81.81
354.81	90.81
355.037	102.81
355.264	76.81
355.491	87.81
355.718	91.81
355.945	94.81
356.172	99.81
356.399	70.81
356.626	92.81
356.853	101.81
357.08	89.81
357.307	97.81
357.534	80.81
357.761	97.81
357.988	111.81
358.215	104.81
358.441	94.81
358.668	78.81
358.895	83.81
359.122	73.81
359.349	79.81
359.576	92.81
359.802	80.81
360.029	97.81
360.256	109.81
360.483	94.81
360.709	84.81
360.936	85.81
361.163	84.81
361.39	96.81
361.616	89.81
361.843	94.81
362.07	90.81
362.296	104.81
362.523	102.81
362.749	83.81
362.976	88.81
363.203	92.81
363.429	78.81
363.656	68.81
363.882	93.81
364.109	92.81
364.335	80.81
364.562	101.81
364.788	93.81
365.015	87.81
365.241	104.81
365.468	102.81
365.694	92.81
365.92	93.81
366.147	72.81
366.373	71.81
366.599	82.81
366.826	79.81
367.052	85.81
367.278	86.81
367.505	90.81
367.731	78.81
367.957	81.81
368.184	90.81
368.41	89.81
368.636	105.81
368.862	105.81
369.089	109.81
369.315	93.81
369.541	74.81
369.767	102.81
369.993	90.81
370.219	81.81
370.445	69.81
370.672	79.81
370.898	79.81
371.124	85.81
371.35	86.81
371.576	89.81
371.802	79.81
372.028	80.81
372.254	71.81
372.48	80.81
372.706	74.81
372.932	84.81
373.158	80.81
373.384	89.81
373.61	108.81
373.835	88.81
374.061	88.81
374.287	91.81
374.513	91.81
374.739	70.81
374.965	92.81
375.191	89.81
375.416	82.81
375.642	84.81
375.868	82.81
376.094	71.81
376.319	86.81
376.545	96.81
376.771	86.81
376.997	95.81
377.222	104.81
377.448	89.81
377.674	87.81
377.899	90.81
378.125	92.81
378.35	82.81
378.576	98.81
378.802	83.81
379.027	84.81
379.253	85.81
379.478	86.81
379.704	90.81
379.929	99.81
380.155	97.81
380.38	89.81
380.606	102.81
380.831	97.81
381.057	96.81
381.282	112.81
381.507	99.81
381.733	92.81
381.958	103.81
382.184	89.81
382.409	100.81
382.634	105.81
382.86	108.81
383.085	93.81
383.31	103.81
383.535	119.81
383.761	110.81
383.986	88.81
384.211	102.81
384.436	93.81
384.662	99.81
384.887	103.81
385.112	119.81
385.337	117.81
385.562	116.81
385.787	108.81
386.013	134.81
386.238	124.81
386.463	122.81
386.688	122.81
386.913	120.81
387.138	137.81
387.363	111.81
387.588	103.81
387.813	102.81
388.038	109.81
388.263	120.81
388.488	117.81
388.713	94.81
388.938	112.81
389.163	85.81
389.387	88.81
389.612	80.81
389.837	93.81
390.062	75.81
390.287	94.81
390.512	81.81
390.736	94.81
390.961	69.81
391.186	94.81
391.411	78.81
391.636	97.81
391.86	71.81
392.085	84.81
392.31	83.81
392.534	88.81
392.759	101.81
392.984	97.81
393.208	82.81
393.433	118.81
393.658	112.81
393.882	82.81
394.107	84.81
394.331	76.81
394.556	83.81
394.78	85.81
395.005	89.81
395.229	79.81
395.454	91.81
395.678	77.81
395.903	80.81
396.127	87.81
396.352	91.81
396.576	100.81
396.801	89.81
397.025	78.81
397.249	91.81
397.474	81.81
397.698	101.81
397.922	94.81
398.147	90.81
398.371	79.81
398.595	83.81
398.82	88.81
399.044	80.81
399.268	67.81
399.492	89.81
399.717	88.81
399.941	79.81
400.165	89.81
400.389	85.81
400.613	81.81
400.837	84.81
401.062	80.81
401.286	76.81
401.51	79.81
401.734	102.81
401.958	88.81
402.182	105.81
402.406	151.81
402.63	115.81
402.854	86.81
403.078	80.81
403.302	93.81
403.526	84.81
403.75	90.81
403.974	78.81
404.198	80.81
404.422	82.81
404.645	87.81
404.869	68.81
405.093	73.81
405.317	95.81
405.541	87.81
405.765	93.81
405.988	105.81
406.212	135.81
406.436	197.81
406.66	134.81
406.883	107.81
407.107	83.81
407.331	89.81
407.555	110.81
407.778	84.81
408.002	83.81
408.226	94.81
408.449	94.81
408.673	97.81
408.896	81.81
409.12	91.81
409.344	72.81
409.567	88.81
409.791	111.81
410.014	92.81
410.238	96.81
410.461	98.81
410.685	77.81
410.908	93.81
411.132	102.81
411.355	93.81
411.578	95.81
411.802	90.81
412.025	79.81
412.249	81.81
412.472	76.81
412.695	87.81
412.919	91.81
413.142	86.81
413.365	81.81
413.589	72.81
413.812	83.81
414.035	83.81
414.258	90.81
414.482	82.81
414.705	98.81
414.928	76.81
415.151	80.81
415.374	95.81
415.597	89.81
415.821	90.81
416.044	88.81
416.267	96.81
416.49	84.81
416.713	74.81
416.936	91.81
417.159	77.81
417.382	86.81
417.605	79.81
417.828	88.81
418.051	79.81
418.274	102.81
418.497	87.81
418.72	90.81
418.943	88.81
419.166	88.81
419.389	92.81
419.611	95.81
419.834	87.81
420.057	92.81
420.28	76.81
420.503	82.81
420.726	92.81
420.948	73.81
421.171	88.81
421.394	98.81
421.617	91.81
421.839	89.81
422.062	93.81
422.285	93.81
422.507	102.81
422.73	103.81
422.953	105.81
423.175	91.81
423.398	89.81
423.621	84.81
423.843	82.81
424.066	81.81
424.288	68.81
424.511	79.81
424.733	96.81
424.956	95.81
425.178	97.81
425.401	93.81
425.623	88.81
425.846	74.81
426.068	92.81
426.291	77.81
426.513	96.81
426.735	88.81
426.958	84.81
427.18	100.81
427.402	115.81
427.625	156.81
427.847	120.81
428.069	119.81
428.292	86.81
428.514	82.81
428.736	89.81
428.958	76.81
429.181	87.81
429.403	92.81
429.625	94.81
429.847	75.81
430.069	86.81
430.292	56.81
430.514	84.81
430.736	101.81
430.958	81.81
431.18	85.81
431.402	87.81
431.624	82.81
431.846	68.81
432.068	86.81
432.29	95.81
432.512	83.81
432.734	74.81
432.956	93.81
433.178	94.81
433.4	92.81
433.622	84.81
433.844	73.81
434.066	80.81
434.287	83.81
434.509	90.81
434.731	75.81
434.953	94.81
435.175	81.81
435.397	94.81
435.618	87.81
435.84	93.81
436.062	128.81
436.284	109.81
436.505	96.81
436.727	85.81
436.949	93.81
437.17	87.81
437.392	90.81
437.614	83.81
437.835	93.81
438.057	96.81
438.278	102.81
438.5	89.81
438.721	97.81
438.943	95.81
439.165	93.81
439.386	75.81
439.608	86.81
439.829	103.81
440.05	110.81
440.272	122.81
440.493	88.81
440.715	80.81
440.936	74.81
441.158	84.81
441.379	83.81
441.6	73.81
441.822	83.81
442.043	71.81
442.264	93.81
442.486	98.81
442.707	96.81
442.928	100.81
443.149	103.81
443.371	99.81
443.592	93.81
443.813	110.81
444.034	97.81
444.255	96.81
444.476	84.81
444.698	76.81
444.919	81.81
445.14	128.81
445.361	110.81
445.582	113.81
445.803	128.81
446.024	118.81
446.245	110.81
446.466	106.81
446.687	84.81
446.908	85.81
447.129	99.81
447.35	81.81
447.571	89.81
447.792	88.81
448.013	91.81
448.234	114.81
448.455	92.81
448.675	109.81
448.896	96.81
449.117	86.81
449.338	91.81
449.559	111.81
449.779	123.81
450	95.81
450.221	76.81
450.442	81.81
450.662	86.81
450.883	87.81
451.104	87.81
451.324	90.81
451.545	78.81
451.766	84.81
451.986	95.81
452.207	98.81
452.428	82.81
452.648	100.81
452.869	95.81
453.089	103.81
453.31	95.81
453.53	94.81
453.751	86.81
453.971	108.81
454.192	106.81
454.412	86.81
454.633	79.81
454.853	86.81
455.073	101.81
455.294	102.81
455.514	90.81
455.734	73.81
455.955	76.81
456.175	79.81
456.395	73.81
456.616	82.81
456.836	87.81
457.056	77.81
457.276	99.81
457.497	88.81
457.717	87.81
457.937	89.81
458.157	83.81
458.377	105.81
458.598	102.81
458.818	118.81
459.038	141.81
459.258	126.81
459.478	80.81
459.698	81.81
459.918	76.81
460.138	76.81
460.358	80.81
460.578	74.81
460.798	90.81
461.018	86.81
461.238	79.81
461.458	72.81
461.678	85.81
461.898	86.81
462.118	94.81
462.338	78.81
462.558	63.81
462.777	77.81
462.997	106.81
463.217	80.81
463.437	78.81
463.657	89.81
463.876	64.81
464.096	71.81
464.316	80.81
464.536	82.81
464.755	97.81
464.975	94.81
465.195	121.81
465.414	145.81
465.634	113.81
465.854	81.81
466.073	89.81
466.293	84.81
466.512	80.81
466.732	88.81
466.951	91.81
467.171	89.81
467.391	74.81
467.61	99.81
467.829	93.81
468.049	102.81
468.268	103.81
468.488	103.81
468.707	97.81
468.927	82.81
469.146	86.81
469.365	78.81
469.585	75.81
469.804	83.81
470.023	89.81
470.243	74.81
470.462	90.81
470.681	92.81
470.901	79.81
471.12	80.81
471.339	88.81
471.558	95.81
471.777	72.81
471.997	95.81
472.216	109.81
472.435	156.81
472.654	90.81
472.873	68.81
473.092	86.81
473.311	81.81
473.53	72.81
473.749	89.81
473.968	87.81
474.187	96.81
474.406	105.81
474.625	99.81
474.844	79.81
475.063	73.81
475.282	83.81
475.501	79.81
475.72	73.81
475.939	74.81
476.158	89.81
476.377	82.81
476.596	77.81
476.814	87.81
477.033	74.81
477.252	92.81
477.471	79.81
477.69	93.81
477.908	90.81
478.127	84.81
478.346	83.81
478.564	87.81
478.783	98.81
479.002	89.81
479.22	87.81
479.439	92.81
479.658	99.81
479.876	102.81
480.095	84.81
480.313	88.81
480.532	88.81
480.751	81.81
480.969	109.81
481.188	198.81
481.406	170.81
481.624	98.81
481.843	75.81
482.061	82.81
482.28	85.81
482.498	80.81
482.717	78.81
482.935	74.81
483.153	89.81
483.372	75.81
483.59	85.81
483.808	74.81
484.027	69.81
484.245	82.81
484.463	89.81
484.681	95.81
484.9	79.81
485.118	102.81
485.336	91.81
485.554	91.81
485.772	97.81
485.99	99.81
486.209	96.81
486.427	89.81
486.645	102.81
486.863	92.81
487.081	107.81
487.299	87.81
487.517	89.81
487.735	78.81
487.953	89.81
488.171	87.81
488.389	92.81
488.607	88.81
488.825	90.81
489.043	81.81
489.261	90.81
489.479	81.81
489.696	70.81
489.914	76.81
490.132	88.81
490.35	78.81
490.568	74.81
490.786	79.81
491.003	88.81
491.221	99.81
491.439	85.81
491.657	87.81
491.874	80.81
492.092	73.81
492.31	73.81
492.527	82.81
492.745	92.81
492.963	81.81
493.18	78.81
493.398	92.81
493.615	94.81
493.833	87.81
494.05	88.81
494.268	95.81
494.485	90.81
494.703	92.81
494.92	99.81
495.138	86.81
495.355	79.81
495.573	88.81
495.79	94.81
496.008	76.81
496.225	89.81
496.442	88.81
496.66	79.81
496.877	83.81
497.094	90.81
497.312	87.81
497.529	85.81
497.746	85.81
497.963	79.81
498.181	80.81
498.398	93.81
498.615	99.81
498.832	91.81
499.049	76.81
499.267	90.81
499.484	82.81
499.701	88.81
499.918	87.81
500.135	78.81
500.352	91.81
500.569	87.81
500.786	87.81
501.003	86.81
501.22	88.81
501.437	98.81
501.654	95.81
501.871	94.81
502.088	89.81
502.305	86.81
502.522	77.81
502.739	89.81
502.956	88.81
503.172	79.81
503.389	90.81
503.606	106.81
503.823	89.81
504.04	95.81
504.256	89.81
504.473	80.81
504.69	77.81
504.907	80.81
505.123	74.81
505.34	82.81
505.557	79.81
505.773	89.81
505.99	71.81
506.207	87.81
506.423	80.81
506.64	86.81
506.856	84.81
507.073	80.81
507.289	80.81
507.506	84.81
507.722	100.81
507.939	119.81
508.155	90.81
508.372	89.81
508.588	83.81
508.805	83.81
509.021	100.81
509.238	88.81
509.454	85.81
509.67	85.81
509.887	89.81
510.103	124.81
510.319	189.81
510.536	640.81
510.752	2039.81
510.968	616.81
511.184	140.81
511.401	109.81
511.617	91.81
511.833	86.81
512.049	72.81
512.265	97.81
512.481	84.81
512.698	82.81
512.914	86.81
513.13	92.81
513.346	88.81
513.562	110.81
513.778	95.81
513.994	94.81
514.21	82.81
514.426	96.81
514.642	111.81
514.858	111.81
515.074	136.81
515.29	344.81
515.506	1148.81
515.721	485.81
515.937	136.81
516.153	102.81
516.369	92.81
516.585	73.81
516.801	91.81
517.016	89.81
