Data from Circ_2015_H10_HRD10591_00100.txt Node
Date: Wed Jan 03 10:00:42 EST 2024
User: Yrep
Spectrometer: HR+D1059
Trigger mode: 1
Integration Time (sec): 1.000000E-1
Scans to average: 1
Electric dark correction enabled: true
Nonlinearity correction enabled: false
Boxcar width: 0
XAxis mode: Wavelengths
Number of Pixels in Spectrum: 2048
>>>>>Begin Spectral Data<<<<<
223.165	-20.44
223.4	-20.44
223.635	-20.44
223.869	-12.44
224.104	-22.44
224.338	-32.44
224.573	-6.44
224.808	-30.44
225.042	-6.44
225.277	-2.44
225.511	8.56
225.746	-8.44
225.98	11.56
226.215	25.56
226.449	28.56
226.683	22.56
226.918	19.56
227.152	25.56
227.387	29.56
227.621	34.56
227.856	34.56
228.09	44.56
228.324	36.56
228.559	41.56
228.793	53.56
229.027	63.56
229.262	66.56
229.496	77.56
229.73	87.56
229.964	85.56
230.199	75.56
230.433	75.56
230.667	85.56
230.901	65.56
231.136	72.56
231.37	74.56
231.604	75.56
231.838	74.56
232.072	71.56
232.306	69.56
232.541	92.56
232.775	81.56
233.009	73.56
233.243	84.56
233.477	85.56
233.711	82.56
233.945	89.56
234.179	80.56
234.413	80.56
234.647	82.56
234.881	71.56
235.115	83.56
235.349	77.56
235.583	77.56
235.817	86.56
236.051	74.56
236.285	82.56
236.519	79.56
236.753	66.56
236.987	73.56
237.221	76.56
237.455	72.56
237.689	67.56
237.922	68.56
238.156	93.56
238.39	86.56
238.624	72.56
238.858	78.56
239.091	72.56
239.325	77.56
239.559	70.56
239.793	81.56
240.027	68.56
240.26	74.56
240.494	80.56
240.728	79.56
240.961	63.56
241.195	70.56
241.429	76.56
241.662	74.56
241.896	66.56
242.13	80.56
242.363	69.56
242.597	71.56
242.83	66.56
243.064	66.56
243.298	77.56
243.531	83.56
243.765	76.56
243.998	74.56
244.232	79.56
244.465	76.56
244.699	67.56
244.932	73.56
245.166	85.56
245.399	64.56
245.633	69.56
245.866	79.56
246.099	80.56
246.333	81.56
246.566	61.56
246.8	78.56
247.033	78.56
247.266	87.56
247.5	67.56
247.733	75.56
247.966	91.56
248.2	86.56
248.433	75.56
248.666	80.56
248.899	75.56
249.133	85.56
249.366	92.56
249.599	91.56
249.832	75.56
250.066	71.56
250.299	61.56
250.532	84.56
250.765	97.56
250.998	80.56
251.231	70.56
251.465	74.56
251.698	75.56
251.931	92.56
252.164	76.56
252.397	74.56
252.63	86.56
252.863	75.56
253.096	75.56
253.329	82.56
253.562	74.56
253.795	89.56
254.028	84.56
254.261	82.56
254.494	67.56
254.727	75.56
254.96	88.56
255.193	89.56
255.426	84.56
255.659	79.56
255.892	70.56
256.124	90.56
256.357	84.56
256.59	96.56
256.823	83.56
257.056	96.56
257.289	83.56
257.521	75.56
257.754	72.56
257.987	75.56
258.22	78.56
258.452	84.56
258.685	83.56
258.918	71.56
259.151	69.56
259.383	81.56
259.616	69.56
259.849	63.56
260.081	90.56
260.314	81.56
260.547	67.56
260.779	87.56
261.012	81.56
261.244	69.56
261.477	84.56
261.71	90.56
261.942	99.56
262.175	107.56
262.407	84.56
262.64	88.56
262.872	98.56
263.105	64.56
263.337	75.56
263.57	82.56
263.802	66.56
264.035	86.56
264.267	79.56
264.499	75.56
264.732	81.56
264.964	85.56
265.197	92.56
265.429	92.56
265.661	80.56
265.894	84.56
266.126	74.56
266.358	89.56
266.591	87.56
266.823	70.56
267.055	90.56
267.287	76.56
267.52	87.56
267.752	85.56
267.984	84.56
268.216	82.56
268.448	93.56
268.681	81.56
268.913	75.56
269.145	81.56
269.377	88.56
269.609	77.56
269.841	92.56
270.073	91.56
270.306	87.56
270.538	88.56
270.77	87.56
271.002	80.56
271.234	80.56
271.466	96.56
271.698	80.56
271.93	83.56
272.162	76.56
272.394	86.56
272.626	94.56
272.858	96.56
273.09	84.56
273.322	76.56
273.553	78.56
273.785	78.56
274.017	72.56
274.249	87.56
274.481	76.56
274.713	82.56
274.945	82.56
275.176	90.56
275.408	85.56
275.64	79.56
275.872	87.56
276.104	95.56
276.335	93.56
276.567	97.56
276.799	105.56
277.031	122.56
277.262	96.56
277.494	88.56
277.726	77.56
277.957	80.56
278.189	83.56
278.421	100.56
278.652	87.56
278.884	80.56
279.115	92.56
279.347	73.56
279.579	85.56
279.81	76.56
280.042	106.56
280.273	113.56
280.505	90.56
280.736	82.56
280.968	87.56
281.199	65.56
281.431	101.56
281.662	76.56
281.894	102.56
282.125	100.56
282.356	101.56
282.588	143.56
282.819	111.56
283.051	76.56
283.282	74.56
283.513	95.56
283.745	85.56
283.976	80.56
284.207	82.56
284.439	97.56
284.67	91.56
284.901	71.56
285.132	85.56
285.364	88.56
285.595	83.56
285.826	96.56
286.057	78.56
286.288	86.56
286.52	88.56
286.751	80.56
286.982	81.56
287.213	97.56
287.444	62.56
287.675	85.56
287.906	89.56
288.138	90.56
288.369	83.56
288.6	89.56
288.831	83.56
289.062	83.56
289.293	89.56
289.524	83.56
289.755	81.56
289.986	89.56
290.217	86.56
290.448	98.56
290.679	99.56
290.91	76.56
291.141	79.56
291.371	91.56
291.602	82.56
291.833	91.56
292.064	85.56
292.295	91.56
292.526	82.56
292.757	84.56
292.987	99.56
293.218	83.56
293.449	93.56
293.68	87.56
293.91	77.56
294.141	92.56
294.372	86.56
294.603	75.56
294.833	88.56
295.064	92.56
295.295	91.56
295.525	92.56
295.756	103.56
295.987	117.56
296.217	124.56
296.448	108.56
296.679	86.56
296.909	73.56
297.14	94.56
297.37	84.56
297.601	88.56
297.831	85.56
298.062	91.56
298.292	82.56
298.523	82.56
298.753	81.56
298.984	91.56
299.214	97.56
299.445	85.56
299.675	80.56
299.905	84.56
300.136	80.56
300.366	73.56
300.597	100.56
300.827	101.56
301.057	101.56
301.288	80.56
301.518	83.56
301.748	82.56
301.979	105.56
302.209	93.56
302.439	80.56
302.669	96.56
302.9	89.56
303.13	82.56
303.36	87.56
303.59	92.56
303.82	114.56
304.051	83.56
304.281	77.56
304.511	90.56
304.741	78.56
304.971	84.56
305.201	90.56
305.431	87.56
305.661	96.56
305.891	106.56
306.121	92.56
306.352	99.56
306.582	91.56
306.812	80.56
307.042	92.56
307.272	102.56
307.502	109.56
307.731	97.56
307.961	112.56
308.191	81.56
308.421	88.56
308.651	93.56
308.881	87.56
309.111	98.56
309.341	95.56
309.571	108.56
309.8	79.56
310.03	85.56
310.26	90.56
310.49	100.56
310.72	93.56
310.949	104.56
311.179	83.56
311.409	98.56
311.639	103.56
311.868	96.56
312.098	89.56
312.328	95.56
312.557	118.56
312.787	97.56
313.017	95.56
313.246	109.56
313.476	88.56
313.706	95.56
313.935	95.56
314.165	103.56
314.394	98.56
314.624	86.56
314.853	94.56
315.083	96.56
315.312	89.56
315.542	92.56
315.771	97.56
316.001	90.56
316.23	93.56
316.46	89.56
316.689	97.56
316.919	85.56
317.148	93.56
317.377	85.56
317.607	90.56
317.836	89.56
318.065	88.56
318.295	77.56
318.524	88.56
318.753	82.56
318.983	94.56
319.212	85.56
319.441	107.56
319.67	91.56
319.9	87.56
320.129	84.56
320.358	84.56
320.587	93.56
320.816	100.56
321.046	96.56
321.275	101.56
321.504	95.56
321.733	92.56
321.962	101.56
322.191	101.56
322.42	94.56
322.649	116.56
322.878	95.56
323.108	119.56
323.337	101.56
323.566	119.56
323.795	140.56
324.024	195.56
324.253	374.56
324.482	779.56
324.71	1631.56
324.939	2118.56
325.168	779.56
325.397	244.56
325.626	139.56
325.855	127.56
326.084	124.56
326.313	120.56
326.542	163.56
326.77	218.56
326.999	447.56
327.228	897.56
327.457	1660.56
327.686	1332.56
327.914	392.56
328.143	225.56
328.372	203.56
328.6	148.56
328.829	121.56
329.058	129.56
329.287	118.56
329.515	123.56
329.744	134.56
329.972	186.56
330.201	259.56
330.43	360.56
330.658	205.56
330.887	137.56
331.115	102.56
331.344	106.56
331.572	96.56
331.801	105.56
332.03	101.56
332.258	97.56
332.486	87.56
332.715	81.56
332.943	99.56
333.172	88.56
333.4	93.56
333.629	107.56
333.857	146.56
334.085	161.56
334.314	261.56
334.542	447.56
334.771	410.56
334.999	175.56
335.227	113.56
335.455	100.56
335.684	94.56
335.912	111.56
336.14	86.56
336.369	92.56
336.597	85.56
336.825	101.56
337.053	81.56
337.281	101.56
337.51	87.56
337.738	94.56
337.966	92.56
338.194	99.56
338.422	99.56
338.65	102.56
338.878	104.56
339.106	83.56
339.334	76.56
339.562	78.56
339.79	93.56
340.018	89.56
340.246	101.56
340.474	91.56
340.702	81.56
340.93	79.56
341.158	86.56
341.386	98.56
341.614	96.56
341.842	83.56
342.07	83.56
342.298	91.56
342.526	75.56
342.754	76.56
342.981	93.56
343.209	97.56
343.437	96.56
343.665	89.56
343.893	74.56
344.12	92.56
344.348	93.56
344.576	95.56
344.804	98.56
345.031	97.56
345.259	91.56
345.487	92.56
345.714	88.56
345.942	87.56
346.17	85.56
346.397	84.56
346.625	95.56
346.853	93.56
347.08	89.56
347.308	94.56
347.535	95.56
347.763	109.56
347.99	88.56
348.218	108.56
348.445	101.56
348.673	106.56
348.9	89.56
349.128	89.56
349.355	86.56
349.583	83.56
349.81	95.56
350.037	86.56
350.265	110.56
350.492	90.56
350.72	92.56
350.947	91.56
351.174	100.56
351.402	106.56
351.629	100.56
351.856	92.56
352.083	92.56
352.311	106.56
352.538	106.56
352.765	96.56
352.992	108.56
353.22	101.56
353.447	108.56
353.674	108.56
353.901	86.56
354.128	99.56
354.355	84.56
354.583	97.56
354.81	96.56
355.037	93.56
355.264	91.56
355.491	92.56
355.718	94.56
355.945	93.56
356.172	85.56
356.399	83.56
356.626	83.56
356.853	111.56
357.08	83.56
357.307	92.56
357.534	95.56
357.761	84.56
357.988	73.56
358.215	100.56
358.441	88.56
358.668	76.56
358.895	82.56
359.122	87.56
359.349	87.56
359.576	83.56
359.802	111.56
360.029	114.56
360.256	111.56
360.483	103.56
360.709	85.56
360.936	86.56
361.163	95.56
361.39	91.56
361.616	91.56
361.843	82.56
362.07	96.56
362.296	83.56
362.523	87.56
362.749	93.56
362.976	88.56
363.203	66.56
363.429	87.56
363.656	85.56
363.882	80.56
364.109	88.56
364.335	85.56
364.562	86.56
364.788	85.56
365.015	95.56
365.241	107.56
365.468	94.56
365.694	103.56
365.92	88.56
366.147	96.56
366.373	89.56
366.599	89.56
366.826	102.56
367.052	97.56
367.278	89.56
367.505	92.56
367.731	104.56
367.957	84.56
368.184	98.56
368.41	105.56
368.636	108.56
368.862	109.56
369.089	107.56
369.315	86.56
369.541	95.56
369.767	90.56
369.993	85.56
370.219	95.56
370.445	89.56
370.672	91.56
370.898	86.56
371.124	91.56
371.35	84.56
371.576	82.56
371.802	78.56
372.028	102.56
372.254	90.56
372.48	79.56
372.706	89.56
372.932	89.56
373.158	75.56
373.384	85.56
373.61	84.56
373.835	100.56
374.061	78.56
374.287	93.56
374.513	96.56
374.739	82.56
374.965	92.56
375.191	94.56
375.416	80.56
375.642	86.56
375.868	88.56
376.094	77.56
376.319	73.56
376.545	86.56
376.771	84.56
376.997	75.56
377.222	99.56
377.448	85.56
377.674	90.56
377.899	92.56
378.125	102.56
378.35	102.56
378.576	100.56
378.802	88.56
379.027	85.56
379.253	95.56
379.478	101.56
379.704	89.56
379.929	104.56
380.155	93.56
380.38	102.56
380.606	95.56
380.831	87.56
381.057	99.56
381.282	91.56
381.507	92.56
381.733	86.56
381.958	83.56
382.184	97.56
382.409	96.56
382.634	100.56
382.86	100.56
383.085	94.56
383.31	85.56
383.535	102.56
383.761	89.56
383.986	95.56
384.211	104.56
384.436	91.56
384.662	81.56
384.887	97.56
385.112	114.56
385.337	91.56
385.562	102.56
385.787	86.56
386.013	100.56
386.238	126.56
386.463	100.56
386.688	112.56
386.913	113.56
387.138	73.56
387.363	104.56
387.588	106.56
387.813	93.56
388.038	95.56
388.263	95.56
388.488	106.56
388.713	101.56
388.938	96.56
389.163	90.56
389.387	92.56
389.612	95.56
389.837	88.56
390.062	89.56
390.287	81.56
390.512	85.56
390.736	85.56
390.961	96.56
391.186	97.56
391.411	98.56
391.636	91.56
391.86	78.56
392.085	98.56
392.31	96.56
392.534	103.56
392.759	82.56
392.984	82.56
393.208	85.56
393.433	95.56
393.658	91.56
393.882	79.56
394.107	85.56
394.331	96.56
394.556	88.56
394.78	89.56
395.005	77.56
395.229	95.56
395.454	91.56
395.678	75.56
395.903	86.56
396.127	98.56
396.352	95.56
396.576	82.56
396.801	76.56
397.025	79.56
397.249	79.56
397.474	82.56
397.698	87.56
397.922	84.56
398.147	76.56
398.371	81.56
398.595	92.56
398.82	88.56
399.044	83.56
399.268	91.56
399.492	86.56
399.717	79.56
399.941	85.56
400.165	91.56
400.389	75.56
400.613	88.56
400.837	92.56
401.062	85.56
401.286	88.56
401.51	79.56
401.734	96.56
401.958	98.56
402.182	117.56
402.406	137.56
402.63	114.56
402.854	90.56
403.078	91.56
403.302	74.56
403.526	90.56
403.75	79.56
403.974	84.56
404.198	86.56
404.422	88.56
404.645	75.56
404.869	97.56
405.093	87.56
405.317	102.56
405.541	95.56
405.765	92.56
405.988	113.56
406.212	160.56
406.436	208.56
406.66	133.56
406.883	104.56
407.107	103.56
407.331	84.56
407.555	105.56
407.778	94.56
408.002	88.56
408.226	83.56
408.449	88.56
408.673	71.56
408.896	83.56
409.12	97.56
409.344	90.56
409.567	88.56
409.791	94.56
410.014	79.56
410.238	76.56
410.461	89.56
410.685	95.56
410.908	100.56
411.132	95.56
411.355	92.56
411.578	87.56
411.802	88.56
412.025	80.56
412.249	92.56
412.472	97.56
412.695	106.56
412.919	85.56
413.142	84.56
413.365	81.56
413.589	101.56
413.812	90.56
414.035	82.56
414.258	102.56
414.482	100.56
414.705	77.56
414.928	78.56
415.151	94.56
415.374	87.56
415.597	82.56
415.821	87.56
416.044	83.56
416.267	96.56
416.49	77.56
416.713	81.56
416.936	82.56
417.159	83.56
417.382	79.56
417.605	84.56
417.828	108.56
418.051	82.56
418.274	94.56
418.497	94.56
418.72	92.56
418.943	90.56
419.166	90.56
419.389	103.56
419.611	89.56
419.834	72.56
420.057	80.56
420.28	84.56
420.503	94.56
420.726	96.56
420.948	87.56
421.171	84.56
421.394	82.56
421.617	64.56
421.839	86.56
422.062	85.56
422.285	95.56
422.507	85.56
422.73	113.56
422.953	103.56
423.175	84.56
423.398	88.56
423.621	87.56
423.843	75.56
424.066	85.56
424.288	81.56
424.511	92.56
424.733	101.56
424.956	93.56
425.178	97.56
425.401	95.56
425.623	102.56
425.846	84.56
426.068	88.56
426.291	87.56
426.513	97.56
426.735	108.56
426.958	97.56
427.18	102.56
427.402	118.56
427.625	151.56
427.847	146.56
428.069	147.56
428.292	91.56
428.514	84.56
428.736	86.56
428.958	78.56
429.181	77.56
429.403	94.56
429.625	82.56
429.847	83.56
430.069	99.56
430.292	84.56
430.514	97.56
430.736	92.56
430.958	79.56
431.18	74.56
431.402	71.56
431.624	75.56
431.846	97.56
432.068	90.56
432.29	92.56
432.512	84.56
432.734	94.56
432.956	84.56
433.178	99.56
433.4	102.56
433.622	97.56
433.844	83.56
434.066	94.56
434.287	92.56
434.509	91.56
434.731	76.56
434.953	91.56
435.175	79.56
435.397	107.56
435.618	88.56
435.84	104.56
436.062	118.56
436.284	89.56
436.505	104.56
436.727	92.56
436.949	84.56
437.17	80.56
437.392	85.56
437.614	99.56
437.835	100.56
438.057	101.56
438.278	101.56
438.5	84.56
438.721	89.56
438.943	101.56
439.165	90.56
439.386	90.56
439.608	97.56
439.829	93.56
440.05	112.56
440.272	123.56
440.493	93.56
440.715	84.56
440.936	97.56
441.158	93.56
441.379	84.56
441.6	83.56
441.822	94.56
442.043	101.56
442.264	93.56
442.486	91.56
442.707	72.56
442.928	101.56
443.149	109.56
443.371	118.56
443.592	107.56
443.813	102.56
444.034	100.56
444.255	84.56
444.476	93.56
444.698	84.56
444.919	87.56
445.14	125.56
445.361	112.56
445.582	102.56
445.803	134.56
446.024	108.56
446.245	115.56
446.466	107.56
446.687	80.56
446.908	76.56
447.129	81.56
447.35	86.56
447.571	86.56
447.792	94.56
448.013	87.56
448.234	107.56
448.455	99.56
448.675	122.56
448.896	111.56
449.117	96.56
449.338	94.56
449.559	105.56
449.779	118.56
450	86.56
450.221	81.56
450.442	85.56
450.662	86.56
450.883	105.56
451.104	99.56
451.324	91.56
451.545	93.56
451.766	81.56
451.986	79.56
452.207	95.56
452.428	89.56
452.648	79.56
452.869	92.56
453.089	95.56
453.31	103.56
453.53	90.56
453.751	84.56
453.971	95.56
454.192	106.56
454.412	81.56
454.633	91.56
454.853	96.56
455.073	85.56
455.294	93.56
455.514	98.56
455.734	73.56
455.955	87.56
456.175	83.56
456.395	84.56
456.616	89.56
456.836	78.56
457.056	70.56
457.276	67.56
457.497	85.56
457.717	69.56
457.937	97.56
458.157	89.56
458.377	86.56
458.598	109.56
458.818	133.56
459.038	140.56
459.258	107.56
459.478	81.56
459.698	74.56
459.918	81.56
460.138	90.56
460.358	76.56
460.578	90.56
460.798	98.56
461.018	82.56
461.238	80.56
461.458	88.56
461.678	96.56
461.898	82.56
462.118	92.56
462.338	93.56
462.558	96.56
462.777	89.56
462.997	90.56
463.217	86.56
463.437	77.56
463.657	98.56
463.876	85.56
464.096	89.56
464.316	86.56
464.536	94.56
464.755	92.56
464.975	106.56
465.195	139.56
465.414	148.56
465.634	94.56
465.854	86.56
466.073	77.56
466.293	91.56
466.512	71.56
466.732	89.56
466.951	92.56
467.171	99.56
467.391	98.56
467.61	102.56
467.829	109.56
468.049	178.56
468.268	221.56
468.488	122.56
468.707	95.56
468.927	81.56
469.146	90.56
469.365	74.56
469.585	86.56
469.804	97.56
470.023	88.56
470.243	87.56
470.462	105.56
470.681	103.56
470.901	84.56
471.12	67.56
471.339	94.56
471.558	83.56
471.777	93.56
471.997	120.56
472.216	330.56
472.435	591.56
472.654	188.56
472.873	105.56
473.092	96.56
473.311	95.56
473.53	104.56
473.749	96.56
473.968	91.56
474.187	101.56
474.406	92.56
474.625	84.56
474.844	94.56
475.063	69.56
475.282	85.56
475.501	79.56
475.72	94.56
475.939	69.56
476.158	84.56
476.377	80.56
476.596	85.56
476.814	97.56
477.033	85.56
477.252	91.56
477.471	73.56
477.69	89.56
477.908	71.56
478.127	91.56
478.346	84.56
478.564	87.56
478.783	87.56
479.002	94.56
479.22	101.56
479.439	93.56
479.658	105.56
479.876	100.56
480.095	88.56
480.313	96.56
480.532	102.56
480.751	127.56
480.969	292.56
481.188	983.56
481.406	637.56
481.624	139.56
481.843	88.56
482.061	106.56
482.28	100.56
482.498	95.56
482.717	99.56
482.935	89.56
483.153	97.56
483.372	101.56
483.59	98.56
483.808	91.56
484.027	84.56
484.245	86.56
484.463	87.56
484.681	101.56
484.9	87.56
485.118	88.56
485.336	88.56
485.554	106.56
485.772	103.56
485.99	106.56
486.209	106.56
486.427	102.56
486.645	112.56
486.863	100.56
487.081	99.56
487.299	97.56
487.517	100.56
487.735	84.56
487.953	83.56
488.171	95.56
488.389	77.56
488.607	105.56
488.825	91.56
489.043	82.56
489.261	83.56
489.479	82.56
489.696	105.56
489.914	104.56
490.132	80.56
490.35	85.56
490.568	84.56
490.786	79.56
491.003	92.56
491.221	90.56
491.439	84.56
491.657	89.56
491.874	89.56
492.092	93.56
492.31	76.56
492.527	88.56
492.745	92.56
492.963	84.56
493.18	86.56
493.398	77.56
493.615	94.56
493.833	91.56
494.05	82.56
494.268	75.56
494.485	92.56
494.703	83.56
494.92	96.56
495.138	74.56
495.355	87.56
495.573	93.56
495.79	98.56
496.008	89.56
496.225	82.56
496.442	77.56
496.66	97.56
496.877	103.56
497.094	93.56
497.312	73.56
497.529	83.56
497.746	81.56
497.963	91.56
498.181	102.56
498.398	89.56
498.615	109.56
498.832	103.56
499.049	82.56
499.267	85.56
499.484	90.56
499.701	87.56
499.918	96.56
500.135	100.56
500.352	102.56
500.569	85.56
500.786	109.56
501.003	88.56
501.22	83.56
501.437	90.56
501.654	90.56
501.871	91.56
502.088	80.56
502.305	85.56
502.522	83.56
502.739	85.56
502.956	84.56
503.172	93.56
503.389	98.56
503.606	113.56
503.823	109.56
504.04	80.56
504.256	76.56
504.473	76.56
504.69	93.56
504.907	78.56
505.123	84.56
505.34	83.56
505.557	82.56
505.773	81.56
505.99	105.56
506.207	85.56
506.423	86.56
506.64	68.56
506.856	96.56
507.073	92.56
507.289	92.56
507.506	88.56
507.722	116.56
507.939	94.56
508.155	79.56
508.372	93.56
508.588	96.56
508.805	84.56
509.021	91.56
509.238	90.56
509.454	85.56
509.67	98.56
509.887	107.56
510.103	122.56
510.319	185.56
510.536	639.56
510.752	2088.56
510.968	613.56
511.184	153.56
511.401	102.56
511.617	98.56
511.833	99.56
512.049	91.56
512.265	87.56
512.481	94.56
512.698	101.56
512.914	95.56
513.13	84.56
513.346	110.56
513.562	99.56
513.778	83.56
513.994	84.56
514.21	100.56
514.426	118.56
514.642	125.56
514.858	117.56
515.074	155.56
515.29	372.56
515.506	1260.56
515.721	484.56
515.937	140.56
516.153	99.56
