Data from Circ_2015_H10_HRD10591_00014.txt Node
Date: Wed Jan 03 10:00:25 EST 2024
User: Yrep
Spectrometer: HR+D1059
Trigger mode: 1
Integration Time (sec): 1.000000E-1
Scans to average: 1
Electric dark correction enabled: true
Nonlinearity correction enabled: false
Boxcar width: 0
XAxis mode: Wavelengths
Number of Pixels in Spectrum: 2048
>>>>>Begin Spectral Data<<<<<
223.165	-19.12
223.4	-19.12
223.635	-19.12
223.869	-15.12
224.104	-15.12
224.338	-14.12
224.573	-16.12
224.808	-10.12
225.042	-15.12
225.277	-1.12
225.511	0.88
225.746	8.88
225.98	11.88
226.215	14.88
226.449	17.88
226.683	12.88
226.918	31.88
227.152	6.88
227.387	31.88
227.621	45.88
227.856	47.88
228.09	44.88
228.324	49.88
228.559	62.88
228.793	61.88
229.027	69.88
229.262	50.88
229.496	72.88
229.73	90.88
229.964	81.88
230.199	79.88
230.433	69.88
230.667	80.88
230.901	72.88
231.136	75.88
231.37	70.88
231.604	80.88
231.838	66.88
232.072	72.88
232.306	81.88
232.541	76.88
232.775	76.88
233.009	78.88
233.243	90.88
233.477	80.88
233.711	69.88
233.945	87.88
234.179	76.88
234.413	84.88
234.647	74.88
234.881	79.88
235.115	67.88
235.349	66.88
235.583	81.88
235.817	71.88
236.051	86.88
236.285	85.88
236.519	81.88
236.753	69.88
236.987	84.88
237.221	84.88
237.455	88.88
237.689	74.88
237.922	77.88
238.156	75.88
238.39	69.88
238.624	72.88
238.858	85.88
239.091	75.88
239.325	71.88
239.559	69.88
239.793	69.88
240.027	69.88
240.26	67.88
240.494	73.88
240.728	56.88
240.961	78.88
241.195	77.88
241.429	64.88
241.662	71.88
241.896	67.88
242.13	65.88
242.363	74.88
242.597	71.88
242.83	80.88
243.064	83.88
243.298	75.88
243.531	73.88
243.765	78.88
243.998	69.88
244.232	67.88
244.465	85.88
244.699	81.88
244.932	84.88
245.166	76.88
245.399	79.88
245.633	83.88
245.866	85.88
246.099	77.88
246.333	85.88
246.566	88.88
246.8	73.88
247.033	74.88
247.266	69.88
247.5	71.88
247.733	75.88
247.966	80.88
248.2	75.88
248.433	75.88
248.666	60.88
248.899	63.88
249.133	76.88
249.366	95.88
249.599	91.88
249.832	83.88
250.066	84.88
250.299	81.88
250.532	73.88
250.765	75.88
250.998	79.88
251.231	71.88
251.465	74.88
251.698	80.88
251.931	81.88
252.164	93.88
252.397	65.88
252.63	72.88
252.863	68.88
253.096	80.88
253.329	89.88
253.562	91.88
253.795	80.88
254.028	63.88
254.261	78.88
254.494	70.88
254.727	82.88
254.96	83.88
255.193	79.88
255.426	68.88
255.659	82.88
255.892	70.88
256.124	90.88
256.357	84.88
256.59	83.88
256.823	71.88
257.056	77.88
257.289	75.88
257.521	86.88
257.754	62.88
257.987	79.88
258.22	79.88
258.452	82.88
258.685	68.88
258.918	81.88
259.151	66.88
259.383	77.88
259.616	76.88
259.849	86.88
260.081	86.88
260.314	85.88
260.547	86.88
260.779	91.88
261.012	77.88
261.244	72.88
261.477	81.88
261.71	96.88
261.942	92.88
262.175	105.88
262.407	78.88
262.64	72.88
262.872	76.88
263.105	80.88
263.337	77.88
263.57	86.88
263.802	86.88
264.035	92.88
264.267	82.88
264.499	85.88
264.732	89.88
264.964	80.88
265.197	78.88
265.429	77.88
265.661	77.88
265.894	81.88
266.126	85.88
266.358	77.88
266.591	85.88
266.823	70.88
267.055	82.88
267.287	76.88
267.52	74.88
267.752	84.88
267.984	84.88
268.216	92.88
268.448	90.88
268.681	83.88
268.913	81.88
269.145	80.88
269.377	67.88
269.609	81.88
269.841	77.88
270.073	85.88
270.306	76.88
270.538	90.88
270.77	75.88
271.002	77.88
271.234	81.88
271.466	74.88
271.698	85.88
271.93	81.88
272.162	93.88
272.394	87.88
272.626	90.88
272.858	75.88
273.09	83.88
273.322	88.88
273.553	84.88
273.785	75.88
274.017	82.88
274.249	74.88
274.481	77.88
274.713	84.88
274.945	81.88
275.176	78.88
275.408	82.88
275.64	85.88
275.872	71.88
276.104	81.88
276.335	87.88
276.567	89.88
276.799	94.88
277.031	96.88
277.262	82.88
277.494	83.88
277.726	88.88
277.957	81.88
278.189	63.88
278.421	77.88
278.652	85.88
278.884	74.88
279.115	92.88
279.347	87.88
279.579	88.88
279.81	92.88
280.042	95.88
280.273	84.88
280.505	69.88
280.736	90.88
280.968	76.88
281.199	80.88
281.431	85.88
281.662	95.88
281.894	119.88
282.125	95.88
282.356	120.88
282.588	143.88
282.819	103.88
283.051	85.88
283.282	91.88
283.513	90.88
283.745	87.88
283.976	95.88
284.207	85.88
284.439	78.88
284.67	92.88
284.901	77.88
285.132	75.88
285.364	84.88
285.595	93.88
285.826	83.88
286.057	83.88
286.288	84.88
286.52	77.88
286.751	79.88
286.982	82.88
287.213	101.88
287.444	80.88
287.675	72.88
287.906	83.88
288.138	93.88
288.369	80.88
288.6	88.88
288.831	78.88
289.062	87.88
289.293	89.88
289.524	78.88
289.755	88.88
289.986	90.88
290.217	72.88
290.448	101.88
290.679	69.88
290.91	72.88
291.141	85.88
291.371	92.88
291.602	81.88
291.833	100.88
292.064	102.88
292.295	85.88
292.526	84.88
292.757	100.88
292.987	72.88
293.218	92.88
293.449	85.88
293.68	88.88
293.91	83.88
294.141	93.88
294.372	84.88
294.603	90.88
294.833	82.88
295.064	73.88
295.295	93.88
295.525	104.88
295.756	87.88
295.987	114.88
296.217	139.88
296.448	119.88
296.679	95.88
296.909	93.88
297.14	88.88
297.37	91.88
297.601	97.88
297.831	89.88
298.062	84.88
298.292	76.88
298.523	82.88
298.753	94.88
298.984	77.88
299.214	82.88
299.445	87.88
299.675	101.88
299.905	97.88
300.136	84.88
300.366	100.88
300.597	83.88
300.827	86.88
301.057	96.88
301.288	103.88
301.518	87.88
301.748	95.88
301.979	96.88
302.209	95.88
302.439	90.88
302.669	89.88
302.9	88.88
303.13	80.88
303.36	82.88
303.59	76.88
303.82	100.88
304.051	92.88
304.281	72.88
304.511	96.88
304.741	91.88
304.971	82.88
305.201	87.88
305.431	88.88
305.661	86.88
305.891	84.88
306.121	90.88
306.352	92.88
306.582	85.88
306.812	96.88
307.042	89.88
307.272	94.88
307.502	98.88
307.731	98.88
307.961	96.88
308.191	89.88
308.421	87.88
308.651	73.88
308.881	85.88
309.111	88.88
309.341	91.88
309.571	90.88
309.8	99.88
310.03	89.88
310.26	92.88
310.49	96.88
310.72	100.88
310.949	113.88
311.179	95.88
311.409	92.88
311.639	76.88
311.868	89.88
312.098	97.88
312.328	89.88
312.557	103.88
312.787	80.88
313.017	97.88
313.246	82.88
313.476	97.88
313.706	88.88
313.935	91.88
314.165	86.88
314.394	80.88
314.624	92.88
314.853	89.88
315.083	101.88
315.312	77.88
315.542	95.88
315.771	83.88
316.001	94.88
316.23	88.88
316.46	89.88
316.689	80.88
316.919	98.88
317.148	87.88
317.377	93.88
317.607	93.88
317.836	88.88
318.065	93.88
318.295	91.88
318.524	91.88
318.753	90.88
318.983	90.88
319.212	89.88
319.441	113.88
319.67	100.88
319.9	97.88
320.129	73.88
320.358	95.88
320.587	91.88
320.816	88.88
321.046	91.88
321.275	83.88
321.504	99.88
321.733	101.88
321.962	101.88
322.191	86.88
322.42	97.88
322.649	93.88
322.878	112.88
323.108	102.88
323.337	121.88
323.566	128.88
323.795	169.88
324.024	193.88
324.253	359.88
324.482	763.88
324.71	1549.88
324.939	2025.88
325.168	754.88
325.397	226.88
325.626	139.88
325.855	129.88
326.084	119.88
326.313	105.88
326.542	140.88
326.77	212.88
326.999	416.88
327.228	885.88
327.457	1624.88
327.686	1272.88
327.914	348.88
328.143	177.88
328.372	156.88
328.6	131.88
328.829	100.88
329.058	128.88
329.287	115.88
329.515	114.88
329.744	96.88
329.972	104.88
330.201	121.88
330.43	140.88
330.658	124.88
330.887	124.88
331.115	96.88
331.344	93.88
331.572	93.88
331.801	101.88
332.03	88.88
332.258	90.88
332.486	82.88
332.715	97.88
332.943	88.88
333.172	89.88
333.4	103.88
333.629	99.88
333.857	104.88
334.085	102.88
334.314	122.88
334.542	143.88
334.771	131.88
334.999	101.88
335.227	85.88
335.455	92.88
335.684	113.88
335.912	100.88
336.14	88.88
336.369	88.88
336.597	99.88
336.825	96.88
337.053	100.88
337.281	80.88
337.51	87.88
337.738	100.88
337.966	86.88
338.194	100.88
338.422	97.88
338.65	89.88
338.878	91.88
339.106	84.88
339.334	83.88
339.562	89.88
339.79	84.88
340.018	85.88
340.246	87.88
340.474	86.88
340.702	87.88
340.93	89.88
341.158	107.88
341.386	92.88
341.614	87.88
341.842	83.88
342.07	85.88
342.298	82.88
342.526	92.88
342.754	90.88
342.981	82.88
343.209	85.88
343.437	96.88
343.665	91.88
343.893	81.88
344.12	87.88
344.348	83.88
344.576	93.88
344.804	84.88
345.031	91.88
345.259	96.88
345.487	98.88
345.714	97.88
345.942	82.88
346.17	85.88
346.397	106.88
346.625	93.88
346.853	86.88
347.08	92.88
347.308	93.88
347.535	90.88
347.763	97.88
347.99	83.88
348.218	103.88
348.445	97.88
348.673	91.88
348.9	77.88
349.128	89.88
349.355	89.88
349.583	83.88
349.81	91.88
350.037	97.88
350.265	97.88
350.492	106.88
350.72	96.88
350.947	100.88
351.174	100.88
351.402	95.88
351.629	88.88
351.856	93.88
352.083	103.88
352.311	99.88
352.538	104.88
352.765	99.88
352.992	119.88
353.22	124.88
353.447	91.88
353.674	107.88
353.901	91.88
354.128	97.88
354.355	88.88
354.583	105.88
354.81	92.88
355.037	93.88
355.264	99.88
355.491	94.88
355.718	100.88
355.945	97.88
356.172	91.88
356.399	102.88
356.626	89.88
356.853	77.88
357.08	91.88
357.307	95.88
357.534	83.88
357.761	81.88
357.988	93.88
358.215	103.88
358.441	107.88
358.668	96.88
358.895	97.88
359.122	92.88
359.349	94.88
359.576	77.88
359.802	100.88
360.029	95.88
360.256	92.88
360.483	99.88
360.709	96.88
360.936	93.88
361.163	92.88
361.39	79.88
361.616	89.88
361.843	93.88
362.07	86.88
362.296	100.88
362.523	90.88
362.749	83.88
362.976	96.88
363.203	87.88
363.429	91.88
363.656	79.88
363.882	87.88
364.109	94.88
364.335	83.88
364.562	84.88
364.788	88.88
365.015	86.88
365.241	102.88
365.468	86.88
365.694	97.88
365.92	105.88
366.147	92.88
366.373	76.88
366.599	85.88
366.826	86.88
367.052	98.88
367.278	77.88
367.505	76.88
367.731	91.88
367.957	100.88
368.184	84.88
368.41	93.88
368.636	107.88
368.862	111.88
369.089	106.88
369.315	104.88
369.541	84.88
369.767	82.88
369.993	85.88
370.219	77.88
370.445	93.88
370.672	86.88
370.898	75.88
371.124	81.88
371.35	72.88
371.576	81.88
371.802	91.88
372.028	77.88
372.254	97.88
372.48	81.88
372.706	86.88
372.932	78.88
373.158	71.88
373.384	83.88
373.61	89.88
373.835	84.88
374.061	95.88
374.287	88.88
374.513	90.88
374.739	83.88
374.965	96.88
375.191	90.88
375.416	88.88
375.642	96.88
375.868	99.88
376.094	97.88
376.319	94.88
376.545	76.88
376.771	77.88
376.997	89.88
377.222	92.88
377.448	88.88
377.674	91.88
377.899	88.88
378.125	92.88
378.35	98.88
378.576	90.88
378.802	93.88
379.027	81.88
379.253	91.88
379.478	87.88
379.704	87.88
379.929	93.88
380.155	80.88
380.38	103.88
380.606	102.88
380.831	101.88
381.057	105.88
381.282	110.88
381.507	79.88
381.733	107.88
381.958	88.88
382.184	83.88
382.409	103.88
382.634	98.88
382.86	89.88
383.085	111.88
383.31	108.88
383.535	105.88
383.761	106.88
383.986	97.88
384.211	104.88
384.436	93.88
384.662	127.88
384.887	109.88
385.112	108.88
385.337	121.88
385.562	106.88
385.787	127.88
386.013	141.88
386.238	137.88
386.463	110.88
386.688	133.88
386.913	107.88
387.138	105.88
387.363	96.88
387.588	94.88
387.813	111.88
388.038	122.88
388.263	123.88
388.488	126.88
388.713	92.88
388.938	87.88
389.163	87.88
389.387	91.88
389.612	87.88
389.837	72.88
390.062	87.88
390.287	85.88
390.512	90.88
390.736	96.88
390.961	92.88
391.186	85.88
391.411	113.88
391.636	84.88
391.86	98.88
392.085	86.88
392.31	90.88
392.534	85.88
392.759	82.88
392.984	95.88
393.208	92.88
393.433	119.88
393.658	109.88
393.882	89.88
394.107	84.88
394.331	95.88
394.556	93.88
394.78	92.88
395.005	84.88
395.229	88.88
395.454	83.88
395.678	95.88
395.903	73.88
396.127	92.88
396.352	80.88
396.576	100.88
396.801	101.88
397.025	114.88
397.249	93.88
397.474	103.88
397.698	76.88
397.922	99.88
398.147	81.88
398.371	88.88
398.595	84.88
398.82	71.88
399.044	99.88
399.268	88.88
399.492	98.88
399.717	88.88
399.941	84.88
400.165	76.88
400.389	93.88
400.613	71.88
400.837	77.88
401.062	91.88
401.286	111.88
401.51	79.88
401.734	87.88
401.958	76.88
402.182	100.88
402.406	136.88
402.63	100.88
402.854	74.88
403.078	96.88
403.302	78.88
403.526	82.88
403.75	84.88
403.974	84.88
404.198	79.88
404.422	88.88
404.645	75.88
404.869	100.88
405.093	90.88
405.317	116.88
405.541	101.88
405.765	88.88
405.988	111.88
406.212	160.88
406.436	192.88
406.66	140.88
406.883	83.88
407.107	85.88
407.331	99.88
407.555	102.88
407.778	98.88
408.002	87.88
408.226	84.88
408.449	87.88
408.673	92.88
408.896	95.88
409.12	87.88
409.344	93.88
409.567	93.88
409.791	108.88
410.014	88.88
410.238	87.88
410.461	86.88
410.685	80.88
410.908	95.88
411.132	104.88
411.355	88.88
411.578	100.88
411.802	88.88
412.025	83.88
412.249	107.88
412.472	97.88
412.695	99.88
412.919	88.88
413.142	76.88
413.365	85.88
413.589	89.88
413.812	75.88
414.035	98.88
414.258	86.88
414.482	87.88
414.705	85.88
414.928	88.88
415.151	77.88
415.374	86.88
415.597	73.88
415.821	84.88
416.044	95.88
416.267	102.88
416.49	85.88
416.713	101.88
416.936	78.88
417.159	90.88
417.382	89.88
417.605	90.88
417.828	83.88
418.051	86.88
418.274	94.88
418.497	91.88
418.72	84.88
418.943	81.88
419.166	100.88
419.389	90.88
419.611	91.88
419.834	99.88
420.057	91.88
420.28	84.88
420.503	88.88
420.726	88.88
420.948	92.88
421.171	99.88
421.394	85.88
421.617	96.88
421.839	92.88
422.062	74.88
422.285	83.88
422.507	101.88
422.73	123.88
422.953	101.88
423.175	90.88
423.398	84.88
423.621	91.88
423.843	92.88
424.066	91.88
424.288	82.88
424.511	85.88
424.733	104.88
424.956	96.88
425.178	88.88
425.401	95.88
425.623	99.88
425.846	103.88
426.068	85.88
426.291	84.88
426.513	87.88
426.735	84.88
426.958	76.88
427.18	82.88
427.402	119.88
427.625	149.88
427.847	122.88
428.069	100.88
428.292	76.88
428.514	90.88
428.736	87.88
428.958	84.88
429.181	81.88
429.403	89.88
429.625	78.88
429.847	94.88
430.069	92.88
430.292	92.88
430.514	92.88
430.736	92.88
430.958	99.88
431.18	85.88
431.402	86.88
431.624	93.88
431.846	90.88
432.068	90.88
432.29	82.88
432.512	82.88
432.734	85.88
432.956	79.88
433.178	93.88
433.4	104.88
433.622	95.88
433.844	90.88
434.066	106.88
434.287	95.88
434.509	82.88
434.731	85.88
434.953	85.88
435.175	87.88
435.397	93.88
435.618	85.88
435.84	98.88
436.062	106.88
436.284	121.88
436.505	83.88
436.727	101.88
436.949	94.88
437.17	83.88
437.392	80.88
437.614	67.88
437.835	104.88
438.057	119.88
438.278	93.88
438.5	103.88
438.721	118.88
438.943	99.88
439.165	85.88
439.386	80.88
439.608	96.88
439.829	100.88
440.05	110.88
440.272	139.88
440.493	95.88
440.715	86.88
440.936	89.88
441.158	80.88
441.379	81.88
441.6	88.88
441.822	102.88
442.043	82.88
442.264	99.88
442.486	90.88
442.707	80.88
442.928	93.88
443.149	109.88
443.371	106.88
443.592	95.88
443.813	112.88
444.034	100.88
444.255	95.88
444.476	107.88
444.698	88.88
444.919	82.88
445.14	132.88
445.361	107.88
445.582	117.88
445.803	135.88
446.024	129.88
446.245	132.88
446.466	99.88
446.687	83.88
446.908	83.88
447.129	91.88
447.35	100.88
447.571	90.88
447.792	92.88
448.013	83.88
448.234	93.88
448.455	97.88
448.675	113.88
448.896	120.88
449.117	97.88
449.338	108.88
449.559	117.88
449.779	117.88
450	81.88
450.221	94.88
450.442	80.88
450.662	106.88
450.883	102.88
451.104	109.88
451.324	94.88
451.545	98.88
451.766	84.88
451.986	85.88
452.207	90.88
452.428	88.88
452.648	82.88
452.869	104.88
453.089	119.88
453.31	111.88
453.53	86.88
453.751	83.88
453.971	101.88
454.192	93.88
454.412	92.88
454.633	75.88
454.853	88.88
455.073	87.88
455.294	84.88
455.514	111.88
455.734	86.88
455.955	85.88
456.175	89.88
456.395	88.88
456.616	82.88
456.836	89.88
457.056	86.88
457.276	74.88
457.497	83.88
457.717	83.88
457.937	82.88
458.157	80.88
458.377	77.88
458.598	100.88
458.818	125.88
459.038	145.88
459.258	98.88
459.478	84.88
459.698	101.88
459.918	96.88
460.138	84.88
460.358	80.88
460.578	87.88
460.798	84.88
461.018	83.88
461.238	88.88
461.458	80.88
461.678	98.88
461.898	82.88
462.118	90.88
462.338	71.88
462.558	81.88
462.777	73.88
462.997	83.88
463.217	88.88
463.437	95.88
463.657	89.88
463.876	77.88
464.096	87.88
464.316	77.88
464.536	99.88
464.755	98.88
464.975	89.88
465.195	143.88
465.414	151.88
465.634	97.88
465.854	89.88
466.073	99.88
466.293	99.88
466.512	85.88
466.732	80.88
466.951	80.88
467.171	89.88
467.391	97.88
467.61	99.88
467.829	92.88
468.049	105.88
468.268	103.88
468.488	84.88
468.707	83.88
468.927	87.88
469.146	76.88
469.365	94.88
469.585	92.88
469.804	76.88
470.023	92.88
470.243	82.88
470.462	84.88
470.681	103.88
470.901	98.88
471.12	86.88
471.339	94.88
471.558	97.88
471.777	91.88
471.997	97.88
472.216	131.88
472.435	156.88
472.654	93.88
472.873	87.88
473.092	86.88
473.311	96.88
473.53	71.88
473.749	99.88
473.968	88.88
474.187	95.88
474.406	95.88
474.625	71.88
474.844	90.88
475.063	87.88
475.282	85.88
475.501	81.88
475.72	89.88
475.939	73.88
476.158	87.88
476.377	75.88
476.596	82.88
476.814	99.88
477.033	93.88
477.252	93.88
477.471	99.88
477.69	88.88
477.908	84.88
478.127	96.88
478.346	95.88
478.564	85.88
478.783	100.88
479.002	101.88
479.22	93.88
479.439	102.88
479.658	97.88
479.876	75.88
480.095	95.88
480.313	92.88
480.532	88.88
480.751	86.88
480.969	127.88
481.188	239.88
481.406	166.88
481.624	92.88
481.843	77.88
482.061	78.88
482.28	88.88
482.498	81.88
482.717	84.88
482.935	85.88
483.153	88.88
483.372	89.88
483.59	88.88
483.808	79.88
484.027	91.88
484.245	86.88
484.463	96.88
484.681	92.88
484.9	93.88
485.118	92.88
485.336	100.88
485.554	96.88
485.772	95.88
485.99	109.88
486.209	111.88
486.427	103.88
486.645	92.88
486.863	104.88
487.081	114.88
487.299	95.88
487.517	91.88
487.735	96.88
487.953	96.88
488.171	88.88
488.389	100.88
488.607	102.88
488.825	92.88
489.043	78.88
489.261	88.88
489.479	88.88
489.696	87.88
489.914	94.88
490.132	90.88
490.35	92.88
490.568	85.88
490.786	101.88
491.003	86.88
491.221	81.88
491.439	86.88
491.657	92.88
491.874	101.88
492.092	96.88
492.31	89.88
492.527	91.88
492.745	87.88
492.963	85.88
493.18	97.88
493.398	88.88
493.615	84.88
493.833	106.88
494.05	85.88
494.268	97.88
494.485	80.88
494.703	82.88
494.92	95.88
495.138	93.88
495.355	103.88
495.573	90.88
495.79	101.88
496.008	96.88
496.225	106.88
496.442	96.88
496.66	83.88
496.877	75.88
497.094	96.88
497.312	81.88
497.529	92.88
497.746	88.88
497.963	112.88
498.181	92.88
498.398	95.88
498.615	93.88
498.832	95.88
499.049	90.88
499.267	80.88
499.484	92.88
499.701	93.88
499.918	92.88
500.135	92.88
500.352	92.88
500.569	79.88
500.786	90.88
501.003	93.88
501.22	80.88
501.437	94.88
501.654	93.88
501.871	91.88
502.088	95.88
502.305	96.88
502.522	87.88
502.739	84.88
502.956	91.88
503.172	79.88
503.389	93.88
503.606	112.88
503.823	93.88
504.04	87.88
504.256	93.88
504.473	89.88
504.69	89.88
504.907	93.88
505.123	91.88
505.34	87.88
505.557	86.88
505.773	82.88
505.99	91.88
506.207	85.88
506.423	81.88
506.64	98.88
506.856	83.88
507.073	84.88
507.289	96.88
507.506	88.88
507.722	114.88
507.939	104.88
508.155	97.88
508.372	87.88
508.588	104.88
508.805	94.88
509.021	104.88
509.238	100.88
509.454	97.88
509.67	99.88
509.887	101.88
510.103	130.88
510.319	201.88
510.536	682.88
510.752	2231.88
510.968	653.88
511.184	146.88
511.401	115.88
511.617	108.88
511.833	84.88
512.049	84.88
512.265	97.88
512.481	102.88
512.698	100.88
512.914	87.88
513.13	82.88
513.346	98.88
513.562	73.88
513.778	79.88
513.994	76.88
514.21	98.88
514.426	117.88
514.642	106.88
514.858	116.88
515.074	153.88
515.29	399.88
515.506	1291.88
515.721	499.88
515.937	153.88
516.153	117.88
516.369	104.88
