Data from Circ_2015_H10_HRD10591_00046.txt Node
Date: Wed Jan 03 10:00:32 EST 2024
User: Yrep
Spectrometer: HR+D1059
Trigger mode: 1
Integration Time (sec): 1.000000E-1
Scans to average: 1
Electric dark correction enabled: true
Nonlinearity correction enabled: false
Boxcar width: 0
XAxis mode: Wavelengths
Number of Pixels in Spectrum: 2048
>>>>>Begin Spectral Data<<<<<
223.165	-12.5
223.4	-12.5
223.635	-12.5
223.869	-29.5
224.104	-25.5
224.338	-13.5
224.573	-1.5
224.808	-8.5
225.042	3.5
225.277	-1.5
225.511	-4.5
225.746	7.5
225.98	1.5
226.215	1.5
226.449	10.5
226.683	3.5
226.918	32.5
227.152	36.5
227.387	33.5
227.621	33.5
227.856	31.5
228.09	54.5
228.324	66.5
228.559	52.5
228.793	41.5
229.027	48.5
229.262	57.5
229.496	63.5
229.73	67.5
229.964	68.5
230.199	67.5
230.433	80.5
230.667	59.5
230.901	59.5
231.136	75.5
231.37	77.5
231.604	68.5
231.838	85.5
232.072	77.5
232.306	87.5
232.541	74.5
232.775	72.5
233.009	71.5
233.243	87.5
233.477	80.5
233.711	69.5
233.945	78.5
234.179	65.5
234.413	88.5
234.647	79.5
234.881	71.5
235.115	84.5
235.349	71.5
235.583	84.5
235.817	65.5
236.051	72.5
236.285	68.5
236.519	72.5
236.753	79.5
236.987	85.5
237.221	80.5
237.455	68.5
237.689	67.5
237.922	79.5
238.156	69.5
238.39	70.5
238.624	72.5
238.858	77.5
239.091	81.5
239.325	79.5
239.559	80.5
239.793	69.5
240.027	83.5
240.26	73.5
240.494	84.5
240.728	81.5
240.961	83.5
241.195	80.5
241.429	78.5
241.662	61.5
241.896	78.5
242.13	78.5
242.363	65.5
242.597	68.5
242.83	80.5
243.064	63.5
243.298	68.5
243.531	82.5
243.765	70.5
243.998	89.5
244.232	71.5
244.465	78.5
244.699	80.5
244.932	70.5
245.166	74.5
245.399	75.5
245.633	90.5
245.866	69.5
246.099	75.5
246.333	82.5
246.566	62.5
246.8	81.5
247.033	96.5
247.266	77.5
247.5	68.5
247.733	73.5
247.966	76.5
248.2	76.5
248.433	79.5
248.666	76.5
248.899	81.5
249.133	82.5
249.366	72.5
249.599	75.5
249.832	70.5
250.066	82.5
250.299	72.5
250.532	80.5
250.765	83.5
250.998	82.5
251.231	74.5
251.465	83.5
251.698	77.5
251.931	81.5
252.164	75.5
252.397	76.5
252.63	79.5
252.863	79.5
253.096	70.5
253.329	70.5
253.562	92.5
253.795	86.5
254.028	86.5
254.261	78.5
254.494	70.5
254.727	71.5
254.96	81.5
255.193	73.5
255.426	69.5
255.659	68.5
255.892	87.5
256.124	79.5
256.357	78.5
256.59	78.5
256.823	89.5
257.056	94.5
257.289	70.5
257.521	87.5
257.754	69.5
257.987	72.5
258.22	78.5
258.452	87.5
258.685	85.5
258.918	87.5
259.151	86.5
259.383	73.5
259.616	80.5
259.849	69.5
260.081	74.5
260.314	71.5
260.547	85.5
260.779	87.5
261.012	75.5
261.244	68.5
261.477	90.5
261.71	75.5
261.942	99.5
262.175	97.5
262.407	88.5
262.64	77.5
262.872	83.5
263.105	64.5
263.337	81.5
263.57	71.5
263.802	90.5
264.035	77.5
264.267	66.5
264.499	83.5
264.732	89.5
264.964	80.5
265.197	78.5
265.429	82.5
265.661	86.5
265.894	78.5
266.126	84.5
266.358	86.5
266.591	78.5
266.823	76.5
267.055	88.5
267.287	79.5
267.52	79.5
267.752	81.5
267.984	73.5
268.216	74.5
268.448	89.5
268.681	88.5
268.913	80.5
269.145	76.5
269.377	83.5
269.609	81.5
269.841	68.5
270.073	78.5
270.306	72.5
270.538	84.5
270.77	77.5
271.002	79.5
271.234	88.5
271.466	86.5
271.698	79.5
271.93	62.5
272.162	78.5
272.394	82.5
272.626	83.5
272.858	87.5
273.09	80.5
273.322	88.5
273.553	73.5
273.785	81.5
274.017	75.5
274.249	71.5
274.481	76.5
274.713	74.5
274.945	81.5
275.176	92.5
275.408	84.5
275.64	84.5
275.872	78.5
276.104	93.5
276.335	82.5
276.567	85.5
276.799	89.5
277.031	93.5
277.262	91.5
277.494	89.5
277.726	84.5
277.957	68.5
278.189	83.5
278.421	77.5
278.652	82.5
278.884	85.5
279.115	90.5
279.347	78.5
279.579	69.5
279.81	75.5
280.042	89.5
280.273	97.5
280.505	82.5
280.736	82.5
280.968	88.5
281.199	82.5
281.431	84.5
281.662	75.5
281.894	86.5
282.125	90.5
282.356	87.5
282.588	122.5
282.819	89.5
283.051	88.5
283.282	94.5
283.513	81.5
283.745	78.5
283.976	90.5
284.207	71.5
284.439	70.5
284.67	85.5
284.901	76.5
285.132	90.5
285.364	79.5
285.595	85.5
285.826	87.5
286.057	86.5
286.288	90.5
286.52	75.5
286.751	86.5
286.982	80.5
287.213	81.5
287.444	66.5
287.675	96.5
287.906	78.5
288.138	90.5
288.369	85.5
288.6	91.5
288.831	65.5
289.062	81.5
289.293	88.5
289.524	73.5
289.755	90.5
289.986	87.5
290.217	89.5
290.448	88.5
290.679	83.5
290.91	107.5
291.141	68.5
291.371	74.5
291.602	88.5
291.833	73.5
292.064	70.5
292.295	85.5
292.526	88.5
292.757	78.5
292.987	81.5
293.218	70.5
293.449	84.5
293.68	85.5
293.91	71.5
294.141	93.5
294.372	90.5
294.603	88.5
294.833	87.5
295.064	77.5
295.295	87.5
295.525	98.5
295.756	74.5
295.987	96.5
296.217	116.5
296.448	100.5
296.679	91.5
296.909	84.5
297.14	81.5
297.37	87.5
297.601	88.5
297.831	73.5
298.062	77.5
298.292	84.5
298.523	83.5
298.753	80.5
298.984	84.5
299.214	83.5
299.445	96.5
299.675	90.5
299.905	84.5
300.136	83.5
300.366	86.5
300.597	89.5
300.827	96.5
301.057	98.5
301.288	97.5
301.518	93.5
301.748	75.5
301.979	95.5
302.209	78.5
302.439	79.5
302.669	87.5
302.9	75.5
303.13	80.5
303.36	90.5
303.59	103.5
303.82	100.5
304.051	90.5
304.281	88.5
304.511	81.5
304.741	82.5
304.971	95.5
305.201	87.5
305.431	83.5
305.661	87.5
305.891	86.5
306.121	102.5
306.352	80.5
306.582	99.5
306.812	81.5
307.042	86.5
307.272	90.5
307.502	100.5
307.731	94.5
307.961	83.5
308.191	97.5
308.421	75.5
308.651	91.5
308.881	85.5
309.111	87.5
309.341	95.5
309.571	87.5
309.8	101.5
310.03	91.5
310.26	90.5
310.49	91.5
310.72	101.5
310.949	95.5
311.179	97.5
311.409	95.5
311.639	89.5
311.868	86.5
312.098	79.5
312.328	100.5
312.557	90.5
312.787	95.5
313.017	105.5
313.246	98.5
313.476	84.5
313.706	81.5
313.935	98.5
314.165	81.5
314.394	72.5
314.624	84.5
314.853	95.5
315.083	86.5
315.312	86.5
315.542	81.5
315.771	84.5
316.001	102.5
316.23	92.5
316.46	70.5
316.689	79.5
316.919	83.5
317.148	70.5
317.377	86.5
317.607	77.5
317.836	75.5
318.065	101.5
318.295	88.5
318.524	80.5
318.753	90.5
318.983	82.5
319.212	92.5
319.441	91.5
319.67	103.5
319.9	95.5
320.129	90.5
320.358	89.5
320.587	97.5
320.816	99.5
321.046	94.5
321.275	85.5
321.504	95.5
321.733	77.5
321.962	99.5
322.191	95.5
322.42	85.5
322.649	109.5
322.878	108.5
323.108	103.5
323.337	106.5
323.566	110.5
323.795	140.5
324.024	198.5
324.253	370.5
324.482	757.5
324.71	1572.5
324.939	2067.5
325.168	767.5
325.397	225.5
325.626	137.5
325.855	112.5
326.084	136.5
326.313	124.5
326.542	145.5
326.77	218.5
326.999	418.5
327.228	903.5
327.457	1571.5
327.686	1295.5
327.914	353.5
328.143	195.5
328.372	153.5
328.6	131.5
328.829	118.5
329.058	116.5
329.287	106.5
329.515	88.5
329.744	117.5
329.972	129.5
330.201	180.5
330.43	213.5
330.658	142.5
330.887	123.5
331.115	115.5
331.344	89.5
331.572	103.5
331.801	88.5
332.03	94.5
332.258	81.5
332.486	81.5
332.715	86.5
332.943	95.5
333.172	97.5
333.4	89.5
333.629	105.5
333.857	117.5
334.085	129.5
334.314	183.5
334.542	259.5
334.771	248.5
334.999	121.5
335.227	95.5
335.455	85.5
335.684	102.5
335.912	101.5
336.14	87.5
336.369	90.5
336.597	96.5
336.825	81.5
337.053	84.5
337.281	93.5
337.51	90.5
337.738	97.5
337.966	93.5
338.194	86.5
338.422	86.5
338.65	97.5
338.878	93.5
339.106	81.5
339.334	88.5
339.562	91.5
339.79	95.5
340.018	98.5
340.246	91.5
340.474	95.5
340.702	94.5
340.93	85.5
341.158	76.5
341.386	88.5
341.614	85.5
341.842	102.5
342.07	92.5
342.298	83.5
342.526	70.5
342.754	79.5
342.981	75.5
343.209	63.5
343.437	110.5
343.665	96.5
343.893	94.5
344.12	92.5
344.348	94.5
344.576	74.5
344.804	84.5
345.031	85.5
345.259	84.5
345.487	95.5
345.714	95.5
345.942	83.5
346.17	87.5
346.397	89.5
346.625	80.5
346.853	95.5
347.08	86.5
347.308	96.5
347.535	87.5
347.763	91.5
347.99	89.5
348.218	94.5
348.445	94.5
348.673	85.5
348.9	86.5
349.128	83.5
349.355	87.5
349.583	90.5
349.81	93.5
350.037	103.5
350.265	83.5
350.492	85.5
350.72	78.5
350.947	76.5
351.174	106.5
351.402	112.5
351.629	100.5
351.856	101.5
352.083	89.5
352.311	90.5
352.538	96.5
352.765	102.5
352.992	105.5
353.22	112.5
353.447	112.5
353.674	97.5
353.901	96.5
354.128	87.5
354.355	94.5
354.583	89.5
354.81	88.5
355.037	88.5
355.264	87.5
355.491	84.5
355.718	87.5
355.945	80.5
356.172	79.5
356.399	85.5
356.626	89.5
356.853	83.5
357.08	79.5
357.307	94.5
357.534	86.5
357.761	90.5
357.988	77.5
358.215	99.5
358.441	101.5
358.668	94.5
358.895	90.5
359.122	94.5
359.349	86.5
359.576	89.5
359.802	82.5
360.029	107.5
360.256	107.5
360.483	90.5
360.709	86.5
360.936	103.5
361.163	88.5
361.39	92.5
361.616	89.5
361.843	88.5
362.07	79.5
362.296	75.5
362.523	98.5
362.749	85.5
362.976	82.5
363.203	95.5
363.429	88.5
363.656	88.5
363.882	82.5
364.109	79.5
364.335	87.5
364.562	86.5
364.788	90.5
365.015	85.5
365.241	87.5
365.468	94.5
365.694	82.5
365.92	94.5
366.147	78.5
366.373	76.5
366.599	82.5
366.826	87.5
367.052	75.5
367.278	88.5
367.505	79.5
367.731	82.5
367.957	67.5
368.184	87.5
368.41	90.5
368.636	90.5
368.862	119.5
369.089	123.5
369.315	87.5
369.541	84.5
369.767	81.5
369.993	91.5
370.219	87.5
370.445	81.5
370.672	96.5
370.898	103.5
371.124	76.5
371.35	84.5
371.576	78.5
371.802	71.5
372.028	77.5
372.254	79.5
372.48	81.5
372.706	74.5
372.932	102.5
373.158	90.5
373.384	85.5
373.61	80.5
373.835	80.5
374.061	93.5
374.287	97.5
374.513	90.5
374.739	91.5
374.965	79.5
375.191	85.5
375.416	82.5
375.642	94.5
375.868	79.5
376.094	81.5
376.319	85.5
376.545	87.5
376.771	101.5
376.997	87.5
377.222	86.5
377.448	94.5
377.674	92.5
377.899	84.5
378.125	69.5
378.35	78.5
378.576	89.5
378.802	89.5
379.027	88.5
379.253	88.5
379.478	97.5
379.704	95.5
379.929	89.5
380.155	78.5
380.38	80.5
380.606	87.5
380.831	87.5
381.057	96.5
381.282	91.5
381.507	88.5
381.733	91.5
381.958	87.5
382.184	102.5
382.409	100.5
382.634	80.5
382.86	90.5
383.085	95.5
383.31	100.5
383.535	84.5
383.761	87.5
383.986	101.5
384.211	91.5
384.436	93.5
384.662	88.5
384.887	110.5
385.112	100.5
385.337	101.5
385.562	101.5
385.787	113.5
386.013	112.5
386.238	104.5
386.463	105.5
386.688	106.5
386.913	97.5
387.138	100.5
387.363	96.5
387.588	92.5
387.813	94.5
388.038	98.5
388.263	110.5
388.488	90.5
388.713	109.5
388.938	94.5
389.163	81.5
389.387	93.5
389.612	87.5
389.837	83.5
390.062	94.5
390.287	93.5
390.512	81.5
390.736	78.5
390.961	101.5
391.186	81.5
391.411	79.5
391.636	83.5
391.86	82.5
392.085	90.5
392.31	82.5
392.534	74.5
392.759	86.5
392.984	82.5
393.208	94.5
393.433	91.5
393.658	110.5
393.882	87.5
394.107	77.5
394.331	90.5
394.556	74.5
394.78	86.5
395.005	88.5
395.229	94.5
395.454	86.5
395.678	76.5
395.903	92.5
396.127	88.5
396.352	80.5
396.576	86.5
396.801	86.5
397.025	80.5
397.249	89.5
397.474	90.5
397.698	79.5
397.922	63.5
398.147	87.5
398.371	86.5
398.595	76.5
398.82	89.5
399.044	89.5
399.268	76.5
399.492	81.5
399.717	79.5
399.941	90.5
400.165	95.5
400.389	105.5
400.613	91.5
400.837	93.5
401.062	93.5
401.286	77.5
401.51	90.5
401.734	82.5
401.958	90.5
402.182	97.5
402.406	144.5
402.63	118.5
402.854	88.5
403.078	90.5
403.302	82.5
403.526	76.5
403.75	70.5
403.974	96.5
404.198	83.5
404.422	78.5
404.645	80.5
404.869	104.5
405.093	99.5
405.317	96.5
405.541	102.5
405.765	91.5
405.988	109.5
406.212	144.5
406.436	181.5
406.66	137.5
406.883	106.5
407.107	85.5
407.331	88.5
407.555	97.5
407.778	89.5
408.002	73.5
408.226	92.5
408.449	77.5
408.673	94.5
408.896	81.5
409.12	77.5
409.344	78.5
409.567	85.5
409.791	78.5
410.014	92.5
410.238	87.5
410.461	85.5
410.685	82.5
410.908	87.5
411.132	103.5
411.355	87.5
411.578	101.5
411.802	80.5
412.025	85.5
412.249	86.5
412.472	98.5
412.695	97.5
412.919	86.5
413.142	101.5
413.365	100.5
413.589	94.5
413.812	93.5
414.035	89.5
414.258	102.5
414.482	90.5
414.705	68.5
414.928	75.5
415.151	81.5
415.374	105.5
415.597	94.5
415.821	84.5
416.044	71.5
416.267	73.5
416.49	85.5
416.713	93.5
416.936	75.5
417.159	89.5
417.382	76.5
417.605	76.5
417.828	91.5
418.051	86.5
418.274	82.5
418.497	87.5
418.72	86.5
418.943	98.5
419.166	90.5
419.389	88.5
419.611	88.5
419.834	81.5
420.057	97.5
420.28	83.5
420.503	96.5
420.726	88.5
420.948	88.5
421.171	102.5
421.394	79.5
421.617	90.5
421.839	83.5
422.062	91.5
422.285	94.5
422.507	96.5
422.73	105.5
422.953	97.5
423.175	94.5
423.398	86.5
423.621	88.5
423.843	81.5
424.066	85.5
424.288	86.5
424.511	91.5
424.733	91.5
424.956	88.5
425.178	87.5
425.401	91.5
425.623	86.5
425.846	85.5
426.068	83.5
426.291	91.5
426.513	92.5
426.735	82.5
426.958	87.5
427.18	98.5
427.402	133.5
427.625	151.5
427.847	144.5
428.069	113.5
428.292	95.5
428.514	82.5
428.736	99.5
428.958	85.5
429.181	79.5
429.403	86.5
429.625	69.5
429.847	90.5
430.069	97.5
430.292	100.5
430.514	98.5
430.736	70.5
430.958	93.5
431.18	100.5
431.402	85.5
431.624	79.5
431.846	70.5
432.068	79.5
432.29	83.5
432.512	97.5
432.734	101.5
432.956	75.5
433.178	89.5
433.4	79.5
433.622	67.5
433.844	90.5
434.066	92.5
434.287	97.5
434.509	96.5
434.731	98.5
434.953	76.5
435.175	77.5
435.397	93.5
435.618	88.5
435.84	107.5
436.062	99.5
436.284	109.5
436.505	89.5
436.727	99.5
436.949	95.5
437.17	81.5
437.392	88.5
437.614	90.5
437.835	103.5
438.057	103.5
438.278	100.5
438.5	98.5
438.721	122.5
438.943	104.5
439.165	90.5
439.386	83.5
439.608	80.5
439.829	88.5
440.05	109.5
440.272	130.5
440.493	87.5
440.715	76.5
440.936	86.5
441.158	83.5
441.379	79.5
441.6	85.5
441.822	91.5
442.043	84.5
442.264	99.5
442.486	95.5
442.707	81.5
442.928	97.5
443.149	138.5
443.371	118.5
443.592	123.5
443.813	106.5
444.034	108.5
444.255	111.5
444.476	91.5
444.698	82.5
444.919	83.5
445.14	123.5
445.361	120.5
445.582	114.5
445.803	138.5
446.024	125.5
446.245	129.5
446.466	103.5
446.687	93.5
446.908	101.5
447.129	89.5
447.35	88.5
447.571	74.5
447.792	91.5
448.013	98.5
448.234	98.5
448.455	84.5
448.675	89.5
448.896	108.5
449.117	102.5
449.338	101.5
449.559	125.5
449.779	131.5
450	91.5
450.221	87.5
450.442	73.5
450.662	98.5
450.883	94.5
451.104	107.5
451.324	100.5
451.545	83.5
451.766	89.5
451.986	94.5
452.207	94.5
452.428	109.5
452.648	96.5
452.869	94.5
453.089	99.5
453.31	111.5
453.53	110.5
453.751	96.5
453.971	84.5
454.192	97.5
454.412	89.5
454.633	79.5
454.853	82.5
455.073	85.5
455.294	103.5
455.514	89.5
455.734	73.5
455.955	83.5
456.175	83.5
456.395	81.5
456.616	93.5
456.836	78.5
457.056	85.5
457.276	82.5
457.497	84.5
457.717	81.5
457.937	96.5
458.157	91.5
458.377	95.5
458.598	107.5
458.818	133.5
459.038	154.5
459.258	112.5
459.478	85.5
459.698	86.5
459.918	69.5
460.138	76.5
460.358	96.5
460.578	81.5
460.798	83.5
461.018	76.5
461.238	88.5
461.458	81.5
461.678	78.5
461.898	75.5
462.118	92.5
462.338	90.5
462.558	85.5
462.777	83.5
462.997	90.5
463.217	89.5
463.437	67.5
463.657	86.5
463.876	75.5
464.096	91.5
464.316	67.5
464.536	78.5
464.755	86.5
464.975	81.5
465.195	128.5
465.414	145.5
465.634	96.5
465.854	90.5
466.073	101.5
466.293	76.5
466.512	85.5
466.732	83.5
466.951	65.5
467.171	98.5
467.391	102.5
467.61	89.5
467.829	102.5
468.049	128.5
468.268	156.5
468.488	87.5
468.707	92.5
468.927	86.5
469.146	66.5
469.365	73.5
469.585	86.5
469.804	95.5
470.023	88.5
470.243	94.5
470.462	100.5
470.681	98.5
470.901	92.5
471.12	84.5
471.339	84.5
471.558	87.5
471.777	98.5
471.997	112.5
472.216	182.5
472.435	305.5
472.654	135.5
472.873	96.5
473.092	87.5
473.311	86.5
473.53	86.5
473.749	72.5
473.968	92.5
474.187	92.5
474.406	94.5
474.625	88.5
474.844	73.5
475.063	90.5
475.282	89.5
475.501	95.5
475.72	89.5
475.939	84.5
476.158	71.5
476.377	89.5
476.596	83.5
476.814	92.5
477.033	90.5
477.252	81.5
477.471	95.5
477.69	83.5
477.908	85.5
478.127	91.5
478.346	93.5
478.564	75.5
478.783	99.5
479.002	107.5
479.22	111.5
479.439	95.5
479.658	102.5
479.876	83.5
480.095	84.5
480.313	89.5
480.532	95.5
480.751	113.5
480.969	204.5
481.188	519.5
481.406	347.5
481.624	101.5
481.843	103.5
482.061	87.5
482.28	103.5
482.498	78.5
482.717	89.5
482.935	82.5
483.153	82.5
483.372	97.5
483.59	76.5
483.808	88.5
484.027	90.5
484.245	82.5
484.463	71.5
484.681	76.5
484.9	94.5
485.118	95.5
485.336	80.5
485.554	92.5
485.772	92.5
485.99	99.5
486.209	104.5
486.427	107.5
486.645	91.5
486.863	98.5
487.081	98.5
487.299	86.5
487.517	95.5
487.735	86.5
487.953	83.5
488.171	89.5
488.389	80.5
488.607	91.5
488.825	95.5
489.043	78.5
489.261	84.5
489.479	83.5
489.696	94.5
489.914	87.5
490.132	93.5
490.35	79.5
490.568	79.5
490.786	87.5
491.003	82.5
491.221	89.5
491.439	93.5
491.657	80.5
491.874	87.5
492.092	93.5
492.31	89.5
492.527	84.5
492.745	85.5
492.963	82.5
493.18	83.5
493.398	102.5
493.615	106.5
493.833	97.5
494.05	74.5
494.268	89.5
494.485	93.5
494.703	88.5
494.92	90.5
495.138	82.5
495.355	87.5
495.573	81.5
495.79	97.5
496.008	96.5
496.225	97.5
496.442	76.5
496.66	86.5
496.877	78.5
497.094	69.5
497.312	89.5
497.529	75.5
497.746	91.5
497.963	93.5
498.181	80.5
498.398	91.5
498.615	100.5
498.832	94.5
499.049	97.5
499.267	85.5
499.484	85.5
499.701	92.5
499.918	91.5
500.135	67.5
500.352	83.5
500.569	73.5
500.786	84.5
501.003	82.5
501.22	96.5
501.437	93.5
501.654	92.5
501.871	111.5
502.088	93.5
502.305	77.5
502.522	86.5
502.739	94.5
502.956	80.5
503.172	93.5
503.389	98.5
503.606	96.5
503.823	102.5
504.04	90.5
504.256	78.5
504.473	86.5
504.69	79.5
504.907	82.5
505.123	92.5
505.34	87.5
505.557	79.5
505.773	81.5
505.99	97.5
506.207	89.5
506.423	83.5
506.64	77.5
506.856	84.5
507.073	101.5
507.289	98.5
507.506	90.5
507.722	96.5
507.939	106.5
508.155	104.5
508.372	87.5
508.588	95.5
508.805	89.5
509.021	94.5
509.238	98.5
509.454	85.5
509.67	89.5
509.887	109.5
510.103	122.5
510.319	192.5
510.536	624.5
510.752	2077.5
510.968	602.5
511.184	142.5
511.401	105.5
511.617	104.5
511.833	80.5
512.049	99.5
512.265	76.5
512.481	94.5
512.698	100.5
512.914	82.5
513.13	84.5
513.346	84.5
513.562	87.5
513.778	83.5
513.994	85.5
514.21	82.5
514.426	99.5
514.642	102.5
514.858	101.5
515.074	134.5
515.29	358.5
515.506	1199.5
515.721	446.5
515.937	133.5
516.153	92.5
516.369	83.5
516.585	89.5
516.801	87.5
517.016	81.5
517.232	94.5
517.448	75.5
517.664	81.5
517.879	76.5
518.095	94.5
518.311	90.5
518.527	94.5
518.742	79.5
518.958	87.5
519.173	87.5
519.389	99.5
519.605	88.5
519.82	98.5
520.036	95.5
520.251	112.5
520.467	109.5
520.682	103.5
520.898	108.5
521.113	110.5
521.329	120.5
521.544	159.5
521.76	435.5
521.975	1963.5
522.19	1250.5
522.406	271.5
522.621	113.5
522.836	96.5
523.052	88.5
523.267	81.5
523.482	77.5
523.698	91.5
523.913	97.5
524.128	109.5
524.343	94.5
524.559	93.5
524.774	87.5
524.989	93.5
525.204	93.5
525.419	96.5
525.634	74.5
525.849	78.5
526.064	91.5
526.28	82.5
526.495	95.5
526.71	87.5
526.925	86.5
527.14	83.5
527.355	88.5
527.57	92.5
527.785	102.5
527.999	88.5
528.214	99.5
528.429	80.5
528.644	90.5
528.859	94.5
529.074	105.5
529.289	108.5
529.503	153.5
529.718	89.5
529.933	90.5
530.148	83.5
530.363	81.5
530.577	71.5
530.792	95.5
531.007	71.5
531.221	102.5
531.436	78.5
531.651	97.5
531.865	91.5
532.08	73.5
532.295	83.5
532.509	84.5
532.724	94.5
532.938	96.5
533.153	88.5
533.367	94.5
533.582	94.5
533.796	78.5
534.011	78.5
534.225	84.5
534.44	82.5
534.654	82.5
534.868	83.5
535.083	99.5
535.297	105.5
535.511	110.5
535.726	97.5
535.94	86.5
536.154	101.5
536.369	87.5
536.583	86.5
536.797	89.5
537.011	74.5
