Data from Circ_2015_H10_HRD10591_00030.txt Node
Date: Wed Jan 03 10:00:28 EST 2024
User: Yrep
Spectrometer: HR+D1059
Trigger mode: 1
Integration Time (sec): 1.000000E-1
Scans to average: 1
Electric dark correction enabled: true
Nonlinearity correction enabled: false
Boxcar width: 0
XAxis mode: Wavelengths
Number of Pixels in Spectrum: 2048
>>>>>Begin Spectral Data<<<<<
223.165	-36.38
223.4	-36.38
223.635	-36.38
223.869	-27.38
224.104	-11.38
224.338	-22.38
224.573	-9.38
224.808	-8.38
225.042	-15.38
225.277	-1.38
225.511	-0.38
225.746	-3.38
225.98	20.62
226.215	10.62
226.449	19.62
226.683	14.62
226.918	33.62
227.152	36.62
227.387	30.62
227.621	22.62
227.856	38.62
228.09	37.62
228.324	42.62
228.559	47.62
228.793	58.62
229.027	64.62
229.262	64.62
229.496	69.62
229.73	81.62
229.964	94.62
230.199	70.62
230.433	68.62
230.667	69.62
230.901	76.62
231.136	68.62
231.37	74.62
231.604	72.62
231.838	74.62
232.072	76.62
232.306	90.62
232.541	69.62
232.775	74.62
233.009	79.62
233.243	84.62
233.477	75.62
233.711	82.62
233.945	86.62
234.179	66.62
234.413	67.62
234.647	76.62
234.881	83.62
235.115	78.62
235.349	85.62
235.583	81.62
235.817	72.62
236.051	76.62
236.285	75.62
236.519	60.62
236.753	75.62
236.987	75.62
237.221	81.62
237.455	83.62
237.689	86.62
237.922	77.62
238.156	78.62
238.39	70.62
238.624	56.62
238.858	64.62
239.091	75.62
239.325	66.62
239.559	82.62
239.793	76.62
240.027	80.62
240.26	76.62
240.494	74.62
240.728	82.62
240.961	72.62
241.195	74.62
241.429	71.62
241.662	54.62
241.896	81.62
242.13	66.62
242.363	80.62
242.597	50.62
242.83	65.62
243.064	73.62
243.298	71.62
243.531	87.62
243.765	70.62
243.998	68.62
244.232	75.62
244.465	82.62
244.699	82.62
244.932	80.62
245.166	73.62
245.399	85.62
245.633	73.62
245.866	64.62
246.099	64.62
246.333	94.62
246.566	60.62
246.8	68.62
247.033	69.62
247.266	58.62
247.5	69.62
247.733	74.62
247.966	69.62
248.2	70.62
248.433	81.62
248.666	70.62
248.899	76.62
249.133	91.62
249.366	82.62
249.599	82.62
249.832	76.62
250.066	90.62
250.299	82.62
250.532	84.62
250.765	82.62
250.998	78.62
251.231	63.62
251.465	80.62
251.698	73.62
251.931	67.62
252.164	76.62
252.397	89.62
252.63	84.62
252.863	73.62
253.096	85.62
253.329	76.62
253.562	77.62
253.795	79.62
254.028	73.62
254.261	77.62
254.494	79.62
254.727	70.62
254.96	64.62
255.193	63.62
255.426	88.62
255.659	74.62
255.892	77.62
256.124	72.62
256.357	64.62
256.59	86.62
256.823	82.62
257.056	72.62
257.289	74.62
257.521	71.62
257.754	80.62
257.987	89.62
258.22	77.62
258.452	79.62
258.685	76.62
258.918	70.62
259.151	74.62
259.383	87.62
259.616	73.62
259.849	88.62
260.081	75.62
260.314	78.62
260.547	54.62
260.779	82.62
261.012	87.62
261.244	72.62
261.477	70.62
261.71	84.62
261.942	98.62
262.175	106.62
262.407	93.62
262.64	99.62
262.872	91.62
263.105	85.62
263.337	84.62
263.57	75.62
263.802	81.62
264.035	77.62
264.267	80.62
264.499	66.62
264.732	80.62
264.964	79.62
265.197	75.62
265.429	85.62
265.661	86.62
265.894	78.62
266.126	88.62
266.358	86.62
266.591	69.62
266.823	70.62
267.055	83.62
267.287	75.62
267.52	73.62
267.752	78.62
267.984	76.62
268.216	82.62
268.448	73.62
268.681	78.62
268.913	78.62
269.145	73.62
269.377	78.62
269.609	86.62
269.841	85.62
270.073	73.62
270.306	65.62
270.538	72.62
270.77	81.62
271.002	72.62
271.234	86.62
271.466	70.62
271.698	74.62
271.93	82.62
272.162	76.62
272.394	82.62
272.626	93.62
272.858	75.62
273.09	60.62
273.322	89.62
273.553	85.62
273.785	95.62
274.017	72.62
274.249	87.62
274.481	74.62
274.713	79.62
274.945	86.62
275.176	79.62
275.408	90.62
275.64	87.62
275.872	86.62
276.104	91.62
276.335	87.62
276.567	97.62
276.799	120.62
277.031	105.62
277.262	106.62
277.494	83.62
277.726	81.62
277.957	81.62
278.189	81.62
278.421	85.62
278.652	85.62
278.884	86.62
279.115	82.62
279.347	82.62
279.579	86.62
279.81	72.62
280.042	93.62
280.273	98.62
280.505	102.62
280.736	89.62
280.968	96.62
281.199	85.62
281.431	74.62
281.662	87.62
281.894	85.62
282.125	88.62
282.356	110.62
282.588	145.62
282.819	108.62
283.051	93.62
283.282	82.62
283.513	105.62
283.745	90.62
283.976	80.62
284.207	75.62
284.439	69.62
284.67	74.62
284.901	88.62
285.132	82.62
285.364	95.62
285.595	77.62
285.826	84.62
286.057	70.62
286.288	98.62
286.52	99.62
286.751	83.62
286.982	82.62
287.213	72.62
287.444	78.62
287.675	89.62
287.906	85.62
288.138	75.62
288.369	76.62
288.6	89.62
288.831	84.62
289.062	94.62
289.293	85.62
289.524	93.62
289.755	82.62
289.986	92.62
290.217	66.62
290.448	87.62
290.679	83.62
290.91	84.62
291.141	81.62
291.371	92.62
291.602	85.62
291.833	73.62
292.064	86.62
292.295	92.62
292.526	84.62
292.757	103.62
292.987	73.62
293.218	87.62
293.449	98.62
293.68	93.62
293.91	82.62
294.141	99.62
294.372	88.62
294.603	82.62
294.833	70.62
295.064	92.62
295.295	98.62
295.525	99.62
295.756	118.62
295.987	96.62
296.217	125.62
296.448	121.62
296.679	88.62
296.909	86.62
297.14	86.62
297.37	87.62
297.601	87.62
297.831	87.62
298.062	103.62
298.292	88.62
298.523	94.62
298.753	93.62
298.984	94.62
299.214	78.62
299.445	84.62
299.675	90.62
299.905	96.62
300.136	82.62
300.366	84.62
300.597	78.62
300.827	83.62
301.057	95.62
301.288	103.62
301.518	91.62
301.748	76.62
301.979	110.62
302.209	93.62
302.439	84.62
302.669	86.62
302.9	84.62
303.13	87.62
303.36	86.62
303.59	101.62
303.82	101.62
304.051	88.62
304.281	88.62
304.511	82.62
304.741	84.62
304.971	99.62
305.201	94.62
305.431	94.62
305.661	90.62
305.891	86.62
306.121	97.62
306.352	90.62
306.582	113.62
306.812	95.62
307.042	89.62
307.272	105.62
307.502	94.62
307.731	97.62
307.961	82.62
308.191	102.62
308.421	93.62
308.651	96.62
308.881	91.62
309.111	95.62
309.341	79.62
309.571	99.62
309.8	104.62
310.03	89.62
310.26	104.62
310.49	96.62
310.72	104.62
310.949	102.62
311.179	111.62
311.409	98.62
311.639	91.62
311.868	107.62
312.098	93.62
312.328	100.62
312.557	111.62
312.787	110.62
313.017	108.62
313.246	98.62
313.476	95.62
313.706	80.62
313.935	94.62
314.165	101.62
314.394	110.62
314.624	101.62
314.853	95.62
315.083	89.62
315.312	103.62
315.542	81.62
315.771	95.62
316.001	88.62
316.23	95.62
316.46	78.62
316.689	90.62
316.919	87.62
317.148	85.62
317.377	94.62
317.607	106.62
317.836	89.62
318.065	101.62
318.295	90.62
318.524	74.62
318.753	91.62
318.983	91.62
319.212	105.62
319.441	107.62
319.67	96.62
319.9	83.62
320.129	92.62
320.358	90.62
320.587	92.62
320.816	103.62
321.046	95.62
321.275	83.62
321.504	101.62
321.733	103.62
321.962	106.62
322.191	102.62
322.42	122.62
322.649	114.62
322.878	127.62
323.108	119.62
323.337	138.62
323.566	138.62
323.795	157.62
324.024	241.62
324.253	459.62
324.482	987.62
324.71	2104.62
324.939	2722.62
325.168	978.62
325.397	281.62
325.626	168.62
325.855	135.62
326.084	120.62
326.313	129.62
326.542	154.62
326.77	253.62
326.999	536.62
327.228	1109.62
327.457	2067.62
327.686	1665.62
327.914	453.62
328.143	241.62
328.372	204.62
328.6	150.62
328.829	122.62
329.058	140.62
329.287	144.62
329.515	130.62
329.744	127.62
329.972	141.62
330.201	200.62
330.43	238.62
330.658	182.62
330.887	154.62
331.115	138.62
331.344	95.62
331.572	101.62
331.801	101.62
332.03	98.62
332.258	98.62
332.486	76.62
332.715	92.62
332.943	100.62
333.172	100.62
333.4	101.62
333.629	116.62
333.857	132.62
334.085	149.62
334.314	186.62
334.542	284.62
334.771	256.62
334.999	131.62
335.227	120.62
335.455	96.62
335.684	93.62
335.912	82.62
336.14	90.62
336.369	104.62
336.597	93.62
336.825	106.62
337.053	90.62
337.281	86.62
337.51	90.62
337.738	87.62
337.966	86.62
338.194	89.62
338.422	95.62
338.65	95.62
338.878	90.62
339.106	95.62
339.334	95.62
339.562	91.62
339.79	93.62
340.018	84.62
340.246	93.62
340.474	113.62
340.702	88.62
340.93	93.62
341.158	79.62
341.386	103.62
341.614	106.62
341.842	80.62
342.07	75.62
342.298	86.62
342.526	88.62
342.754	85.62
342.981	95.62
343.209	81.62
343.437	86.62
343.665	98.62
343.893	94.62
344.12	81.62
344.348	94.62
344.576	98.62
344.804	86.62
345.031	94.62
345.259	89.62
345.487	98.62
345.714	103.62
345.942	84.62
346.17	82.62
346.397	94.62
346.625	73.62
346.853	97.62
347.08	92.62
347.308	110.62
347.535	121.62
347.763	94.62
347.99	99.62
348.218	86.62
348.445	95.62
348.673	93.62
348.9	96.62
349.128	87.62
349.355	93.62
349.583	94.62
349.81	96.62
350.037	99.62
350.265	97.62
350.492	86.62
350.72	83.62
350.947	105.62
351.174	111.62
351.402	106.62
351.629	111.62
351.856	106.62
352.083	103.62
352.311	100.62
352.538	105.62
352.765	113.62
352.992	106.62
353.22	99.62
353.447	115.62
353.674	110.62
353.901	87.62
354.128	102.62
354.355	95.62
354.583	110.62
354.81	90.62
355.037	72.62
355.264	94.62
355.491	100.62
355.718	93.62
355.945	92.62
356.172	103.62
356.399	97.62
356.626	91.62
356.853	88.62
357.08	82.62
357.307	93.62
357.534	93.62
357.761	95.62
357.988	86.62
358.215	107.62
358.441	89.62
358.668	90.62
358.895	87.62
359.122	95.62
359.349	99.62
359.576	82.62
359.802	105.62
360.029	129.62
360.256	119.62
360.483	107.62
360.709	87.62
360.936	91.62
361.163	89.62
361.39	83.62
361.616	107.62
361.843	95.62
362.07	92.62
362.296	97.62
362.523	106.62
362.749	95.62
362.976	86.62
363.203	85.62
363.429	80.62
363.656	87.62
363.882	97.62
364.109	87.62
364.335	83.62
364.562	94.62
364.788	91.62
365.015	89.62
365.241	102.62
365.468	119.62
365.694	106.62
365.92	91.62
366.147	93.62
366.373	94.62
366.599	79.62
366.826	79.62
367.052	90.62
367.278	93.62
367.505	78.62
367.731	89.62
367.957	96.62
368.184	92.62
368.41	95.62
368.636	102.62
368.862	118.62
369.089	113.62
369.315	94.62
369.541	89.62
369.767	95.62
369.993	92.62
370.219	88.62
370.445	84.62
370.672	106.62
370.898	78.62
371.124	81.62
371.35	71.62
371.576	99.62
371.802	86.62
372.028	80.62
372.254	78.62
372.48	83.62
372.706	88.62
372.932	95.62
373.158	80.62
373.384	86.62
373.61	87.62
373.835	90.62
374.061	80.62
374.287	83.62
374.513	83.62
374.739	82.62
374.965	74.62
375.191	78.62
375.416	84.62
375.642	99.62
375.868	91.62
376.094	84.62
376.319	85.62
376.545	88.62
376.771	91.62
376.997	103.62
377.222	96.62
377.448	90.62
377.674	84.62
377.899	92.62
378.125	75.62
378.35	90.62
378.576	93.62
378.802	89.62
379.027	84.62
379.253	102.62
379.478	92.62
379.704	88.62
379.929	97.62
380.155	78.62
380.38	107.62
380.606	98.62
380.831	96.62
381.057	110.62
381.282	96.62
381.507	99.62
381.733	103.62
381.958	99.62
382.184	102.62
382.409	101.62
382.634	120.62
382.86	111.62
383.085	96.62
383.31	97.62
383.535	99.62
383.761	112.62
383.986	99.62
384.211	96.62
384.436	87.62
384.662	106.62
384.887	99.62
385.112	111.62
385.337	112.62
385.562	117.62
385.787	94.62
386.013	114.62
386.238	113.62
386.463	107.62
386.688	115.62
386.913	124.62
387.138	107.62
387.363	128.62
387.588	108.62
387.813	110.62
388.038	113.62
388.263	117.62
388.488	120.62
388.713	103.62
388.938	97.62
389.163	105.62
389.387	99.62
389.612	95.62
389.837	79.62
390.062	93.62
390.287	90.62
390.512	98.62
390.736	84.62
390.961	87.62
391.186	90.62
391.411	86.62
391.636	93.62
391.86	73.62
392.085	83.62
392.31	89.62
392.534	74.62
392.759	79.62
392.984	87.62
393.208	92.62
393.433	103.62
393.658	111.62
393.882	83.62
394.107	83.62
394.331	81.62
394.556	89.62
394.78	84.62
395.005	89.62
395.229	85.62
395.454	87.62
395.678	87.62
395.903	74.62
396.127	86.62
396.352	86.62
396.576	84.62
396.801	82.62
397.025	98.62
397.249	85.62
397.474	94.62
397.698	82.62
397.922	81.62
398.147	99.62
398.371	90.62
398.595	98.62
398.82	83.62
399.044	83.62
399.268	81.62
399.492	83.62
399.717	72.62
399.941	84.62
400.165	99.62
400.389	103.62
400.613	94.62
400.837	79.62
401.062	92.62
401.286	92.62
401.51	88.62
401.734	90.62
401.958	98.62
402.182	125.62
402.406	156.62
402.63	112.62
402.854	104.62
403.078	95.62
403.302	89.62
403.526	78.62
403.75	81.62
403.974	93.62
404.198	104.62
404.422	88.62
404.645	95.62
404.869	97.62
405.093	97.62
405.317	115.62
405.541	104.62
405.765	100.62
405.988	110.62
406.212	168.62
406.436	248.62
406.66	160.62
406.883	112.62
407.107	95.62
407.331	91.62
407.555	111.62
407.778	95.62
408.002	109.62
408.226	99.62
408.449	83.62
408.673	94.62
408.896	97.62
409.12	94.62
409.344	87.62
409.567	90.62
409.791	91.62
410.014	99.62
410.238	83.62
410.461	94.62
410.685	94.62
410.908	107.62
411.132	93.62
411.355	98.62
411.578	101.62
411.802	88.62
412.025	90.62
412.249	102.62
412.472	105.62
412.695	107.62
412.919	94.62
413.142	88.62
413.365	75.62
413.589	103.62
413.812	99.62
414.035	95.62
414.258	107.62
414.482	95.62
414.705	91.62
414.928	92.62
415.151	84.62
415.374	80.62
415.597	99.62
415.821	96.62
416.044	90.62
416.267	93.62
416.49	84.62
416.713	89.62
416.936	104.62
417.159	75.62
417.382	83.62
417.605	91.62
417.828	97.62
418.051	101.62
418.274	95.62
418.497	85.62
418.72	91.62
418.943	72.62
419.166	84.62
419.389	91.62
419.611	79.62
419.834	87.62
420.057	92.62
420.28	82.62
420.503	80.62
420.726	77.62
420.948	94.62
421.171	99.62
421.394	86.62
421.617	97.62
421.839	88.62
422.062	106.62
422.285	91.62
422.507	107.62
422.73	115.62
422.953	91.62
423.175	95.62
423.398	78.62
423.621	98.62
423.843	82.62
424.066	84.62
424.288	76.62
424.511	82.62
424.733	87.62
424.956	107.62
425.178	110.62
425.401	118.62
425.623	110.62
425.846	91.62
426.068	77.62
426.291	110.62
426.513	93.62
426.735	101.62
426.958	100.62
427.18	110.62
427.402	145.62
427.625	179.62
427.847	154.62
428.069	133.62
428.292	94.62
428.514	74.62
428.736	84.62
428.958	82.62
429.181	100.62
429.403	74.62
429.625	86.62
429.847	94.62
430.069	101.62
430.292	90.62
430.514	81.62
430.736	94.62
430.958	84.62
431.18	82.62
431.402	86.62
431.624	74.62
431.846	80.62
432.068	83.62
432.29	86.62
432.512	95.62
432.734	96.62
432.956	106.62
433.178	106.62
433.4	105.62
433.622	98.62
433.844	86.62
434.066	85.62
434.287	97.62
434.509	95.62
434.731	90.62
434.953	78.62
435.175	87.62
435.397	89.62
435.618	100.62
435.84	105.62
436.062	140.62
436.284	108.62
436.505	97.62
436.727	90.62
436.949	99.62
437.17	85.62
437.392	79.62
437.614	90.62
437.835	111.62
438.057	110.62
438.278	116.62
438.5	105.62
438.721	124.62
438.943	101.62
439.165	86.62
439.386	96.62
439.608	86.62
439.829	111.62
440.05	128.62
440.272	157.62
440.493	114.62
440.715	96.62
440.936	76.62
441.158	83.62
441.379	82.62
441.6	94.62
441.822	76.62
442.043	94.62
442.264	106.62
442.486	107.62
442.707	91.62
442.928	105.62
443.149	132.62
443.371	126.62
443.592	119.62
443.813	106.62
444.034	102.62
444.255	104.62
444.476	95.62
444.698	75.62
444.919	82.62
445.14	138.62
445.361	114.62
445.582	124.62
445.803	142.62
446.024	144.62
446.245	137.62
446.466	136.62
446.687	89.62
446.908	82.62
447.129	91.62
447.35	82.62
447.571	84.62
447.792	95.62
448.013	87.62
448.234	102.62
448.455	110.62
448.675	124.62
448.896	130.62
449.117	105.62
449.338	106.62
449.559	146.62
449.779	155.62
450	95.62
450.221	90.62
450.442	83.62
450.662	105.62
450.883	96.62
451.104	112.62
451.324	95.62
451.545	80.62
451.766	92.62
451.986	87.62
452.207	87.62
452.428	71.62
452.648	92.62
452.869	114.62
453.089	118.62
453.31	123.62
453.53	108.62
453.751	95.62
453.971	107.62
454.192	96.62
454.412	93.62
454.633	68.62
454.853	88.62
455.073	79.62
455.294	87.62
455.514	95.62
455.734	82.62
455.955	85.62
456.175	84.62
456.395	94.62
456.616	88.62
456.836	82.62
457.056	87.62
457.276	93.62
457.497	87.62
457.717	82.62
457.937	87.62
458.157	84.62
458.377	95.62
458.598	102.62
458.818	161.62
459.038	190.62
459.258	117.62
459.478	97.62
459.698	85.62
459.918	85.62
460.138	92.62
460.358	87.62
460.578	80.62
460.798	84.62
461.018	78.62
461.238	86.62
461.458	84.62
461.678	99.62
461.898	73.62
462.118	86.62
462.338	85.62
462.558	90.62
462.777	79.62
462.997	71.62
463.217	92.62
463.437	84.62
463.657	90.62
463.876	83.62
464.096	83.62
464.316	90.62
464.536	106.62
464.755	87.62
464.975	107.62
465.195	168.62
465.414	173.62
465.634	106.62
465.854	73.62
466.073	76.62
466.293	97.62
466.512	96.62
466.732	107.62
466.951	90.62
467.171	89.62
467.391	90.62
467.61	108.62
467.829	100.62
468.049	137.62
468.268	169.62
468.488	96.62
468.707	81.62
468.927	86.62
469.146	91.62
469.365	91.62
469.585	82.62
469.804	78.62
470.023	108.62
470.243	99.62
470.462	103.62
470.681	117.62
470.901	91.62
471.12	88.62
471.339	88.62
471.558	88.62
471.777	72.62
471.997	84.62
472.216	197.62
472.435	324.62
472.654	132.62
472.873	107.62
473.092	78.62
473.311	74.62
473.53	89.62
473.749	87.62
473.968	86.62
474.187	100.62
474.406	96.62
474.625	76.62
474.844	86.62
475.063	80.62
475.282	98.62
475.501	81.62
475.72	103.62
475.939	88.62
476.158	77.62
476.377	98.62
476.596	75.62
476.814	98.62
477.033	94.62
477.252	79.62
477.471	77.62
477.69	95.62
477.908	91.62
478.127	96.62
478.346	93.62
478.564	90.62
478.783	91.62
479.002	91.62
479.22	92.62
479.439	112.62
479.658	107.62
479.876	96.62
480.095	94.62
480.313	89.62
480.532	98.62
480.751	126.62
480.969	203.62
481.188	551.62
481.406	386.62
481.624	130.62
481.843	91.62
482.061	103.62
482.28	91.62
482.498	83.62
482.717	85.62
482.935	87.62
483.153	77.62
483.372	86.62
483.59	91.62
483.808	84.62
484.027	99.62
484.245	80.62
484.463	99.62
484.681	93.62
484.9	88.62
485.118	96.62
485.336	104.62
485.554	86.62
485.772	84.62
485.99	91.62
486.209	85.62
486.427	107.62
486.645	114.62
486.863	95.62
487.081	114.62
487.299	95.62
487.517	95.62
487.735	102.62
487.953	94.62
488.171	98.62
488.389	103.62
488.607	100.62
488.825	85.62
489.043	85.62
489.261	95.62
489.479	89.62
489.696	100.62
489.914	100.62
490.132	82.62
490.35	80.62
490.568	92.62
490.786	80.62
491.003	96.62
491.221	94.62
491.439	83.62
491.657	81.62
491.874	103.62
492.092	90.62
492.31	82.62
492.527	87.62
492.745	86.62
492.963	80.62
493.18	100.62
493.398	83.62
493.615	82.62
493.833	108.62
494.05	91.62
494.268	85.62
494.485	91.62
494.703	78.62
494.92	92.62
495.138	109.62
495.355	92.62
495.573	96.62
495.79	86.62
496.008	87.62
496.225	84.62
496.442	90.62
496.66	94.62
496.877	85.62
497.094	97.62
497.312	95.62
497.529	78.62
497.746	94.62
497.963	82.62
498.181	84.62
498.398	85.62
498.615	102.62
498.832	94.62
499.049	98.62
499.267	79.62
499.484	94.62
499.701	90.62
499.918	104.62
500.135	88.62
500.352	87.62
500.569	79.62
500.786	102.62
501.003	79.62
501.22	95.62
501.437	79.62
501.654	99.62
501.871	115.62
502.088	99.62
502.305	105.62
502.522	74.62
502.739	90.62
502.956	90.62
503.172	93.62
503.389	97.62
503.606	94.62
503.823	86.62
504.04	94.62
504.256	86.62
504.473	86.62
504.69	90.62
504.907	94.62
505.123	89.62
505.34	67.62
505.557	86.62
505.773	80.62
505.99	84.62
506.207	93.62
506.423	81.62
506.64	69.62
506.856	80.62
507.073	86.62
507.289	86.62
507.506	100.62
507.722	110.62
507.939	110.62
508.155	94.62
508.372	98.62
508.588	75.62
508.805	84.62
509.021	97.62
509.238	84.62
509.454	95.62
509.67	114.62
509.887	102.62
510.103	138.62
510.319	225.62
510.536	816.62
510.752	2745.62
510.968	773.62
511.184	153.62
511.401	119.62
511.617	93.62
511.833	100.62
512.049	89.62
512.265	93.62
512.481	103.62
512.698	85.62
512.914	91.62
513.13	96.62
513.346	71.62
513.562	96.62
513.778	104.62
513.994	86.62
514.21	104.62
514.426	131.62
514.642	145.62
514.858	132.62
515.074	170.62
515.29	499.62
515.506	1720.62
