Data from Circ_2015_H10_HRD10591_00021.txt Node
Date: Wed Jan 03 10:00:27 EST 2024
User: Yrep
Spectrometer: HR+D1059
Trigger mode: 1
Integration Time (sec): 1.000000E-1
Scans to average: 1
Electric dark correction enabled: true
Nonlinearity correction enabled: false
Boxcar width: 0
XAxis mode: Wavelengths
Number of Pixels in Spectrum: 2048
>>>>>Begin Spectral Data<<<<<
223.165	-13.38
223.4	-13.38
223.635	-13.38
223.869	-21.38
224.104	-26.38
224.338	-15.38
224.573	-21.38
224.808	-7.38
225.042	-1.38
225.277	-12.38
225.511	-10.38
225.746	0.62
225.98	18.62
226.215	8.62
226.449	15.62
226.683	29.62
226.918	25.62
227.152	30.62
227.387	43.62
227.621	50.62
227.856	39.62
228.09	44.62
228.324	59.62
228.559	63.62
228.793	54.62
229.027	59.62
229.262	68.62
229.496	74.62
229.73	70.62
229.964	74.62
230.199	69.62
230.433	74.62
230.667	77.62
230.901	83.62
231.136	69.62
231.37	78.62
231.604	92.62
231.838	67.62
232.072	93.62
232.306	81.62
232.541	86.62
232.775	77.62
233.009	70.62
233.243	85.62
233.477	73.62
233.711	75.62
233.945	96.62
234.179	82.62
234.413	84.62
234.647	73.62
234.881	74.62
235.115	64.62
235.349	74.62
235.583	89.62
235.817	81.62
236.051	80.62
236.285	80.62
236.519	73.62
236.753	76.62
236.987	77.62
237.221	83.62
237.455	62.62
237.689	78.62
237.922	68.62
238.156	81.62
238.39	72.62
238.624	68.62
238.858	84.62
239.091	78.62
239.325	76.62
239.559	81.62
239.793	70.62
240.027	84.62
240.26	79.62
240.494	71.62
240.728	73.62
240.961	78.62
241.195	68.62
241.429	74.62
241.662	86.62
241.896	73.62
242.13	75.62
242.363	91.62
242.597	79.62
242.83	56.62
243.064	71.62
243.298	91.62
243.531	73.62
243.765	80.62
243.998	67.62
244.232	74.62
244.465	86.62
244.699	82.62
244.932	73.62
245.166	81.62
245.399	75.62
245.633	72.62
245.866	74.62
246.099	76.62
246.333	80.62
246.566	67.62
246.8	87.62
247.033	67.62
247.266	81.62
247.5	83.62
247.733	105.62
247.966	85.62
248.2	77.62
248.433	71.62
248.666	73.62
248.899	78.62
249.133	76.62
249.366	88.62
249.599	76.62
249.832	74.62
250.066	89.62
250.299	88.62
250.532	72.62
250.765	85.62
250.998	83.62
251.231	75.62
251.465	89.62
251.698	65.62
251.931	77.62
252.164	79.62
252.397	73.62
252.63	72.62
252.863	68.62
253.096	82.62
253.329	81.62
253.562	72.62
253.795	90.62
254.028	93.62
254.261	88.62
254.494	81.62
254.727	81.62
254.96	82.62
255.193	80.62
255.426	68.62
255.659	63.62
255.892	85.62
256.124	86.62
256.357	80.62
256.59	78.62
256.823	81.62
257.056	87.62
257.289	82.62
257.521	75.62
257.754	78.62
257.987	78.62
258.22	92.62
258.452	85.62
258.685	70.62
258.918	79.62
259.151	84.62
259.383	85.62
259.616	87.62
259.849	63.62
260.081	91.62
260.314	73.62
260.547	74.62
260.779	80.62
261.012	71.62
261.244	85.62
261.477	75.62
261.71	88.62
261.942	119.62
262.175	104.62
262.407	81.62
262.64	85.62
262.872	62.62
263.105	77.62
263.337	90.62
263.57	78.62
263.802	89.62
264.035	73.62
264.267	78.62
264.499	90.62
264.732	92.62
264.964	70.62
265.197	69.62
265.429	81.62
265.661	76.62
265.894	85.62
266.126	77.62
266.358	90.62
266.591	88.62
266.823	83.62
267.055	79.62
267.287	90.62
267.52	79.62
267.752	73.62
267.984	74.62
268.216	81.62
268.448	88.62
268.681	69.62
268.913	70.62
269.145	71.62
269.377	93.62
269.609	78.62
269.841	84.62
270.073	88.62
270.306	88.62
270.538	88.62
270.77	77.62
271.002	66.62
271.234	88.62
271.466	89.62
271.698	87.62
271.93	67.62
272.162	79.62
272.394	102.62
272.626	81.62
272.858	92.62
273.09	78.62
273.322	81.62
273.553	77.62
273.785	79.62
274.017	89.62
274.249	87.62
274.481	79.62
274.713	71.62
274.945	90.62
275.176	87.62
275.408	75.62
275.64	85.62
275.872	72.62
276.104	92.62
276.335	76.62
276.567	81.62
276.799	107.62
277.031	96.62
277.262	90.62
277.494	85.62
277.726	85.62
277.957	91.62
278.189	83.62
278.421	88.62
278.652	84.62
278.884	72.62
279.115	76.62
279.347	72.62
279.579	81.62
279.81	86.62
280.042	88.62
280.273	79.62
280.505	94.62
280.736	82.62
280.968	84.62
281.199	94.62
281.431	101.62
281.662	92.62
281.894	86.62
282.125	104.62
282.356	101.62
282.588	127.62
282.819	112.62
283.051	89.62
283.282	92.62
283.513	102.62
283.745	89.62
283.976	96.62
284.207	75.62
284.439	79.62
284.67	87.62
284.901	89.62
285.132	86.62
285.364	84.62
285.595	82.62
285.826	89.62
286.057	105.62
286.288	89.62
286.52	76.62
286.751	82.62
286.982	77.62
287.213	74.62
287.444	82.62
287.675	80.62
287.906	83.62
288.138	94.62
288.369	101.62
288.6	82.62
288.831	77.62
289.062	78.62
289.293	90.62
289.524	88.62
289.755	93.62
289.986	82.62
290.217	86.62
290.448	86.62
290.679	88.62
290.91	90.62
291.141	78.62
291.371	93.62
291.602	99.62
291.833	70.62
292.064	90.62
292.295	83.62
292.526	86.62
292.757	77.62
292.987	92.62
293.218	87.62
293.449	85.62
293.68	90.62
293.91	97.62
294.141	86.62
294.372	78.62
294.603	76.62
294.833	93.62
295.064	81.62
295.295	78.62
295.525	80.62
295.756	87.62
295.987	97.62
296.217	128.62
296.448	107.62
296.679	88.62
296.909	101.62
297.14	80.62
297.37	97.62
297.601	83.62
297.831	96.62
298.062	83.62
298.292	86.62
298.523	87.62
298.753	84.62
298.984	82.62
299.214	93.62
299.445	91.62
299.675	96.62
299.905	86.62
300.136	100.62
300.366	84.62
300.597	84.62
300.827	92.62
301.057	90.62
301.288	93.62
301.518	97.62
301.748	103.62
301.979	98.62
302.209	101.62
302.439	90.62
302.669	94.62
302.9	83.62
303.13	94.62
303.36	92.62
303.59	97.62
303.82	99.62
304.051	95.62
304.281	79.62
304.511	98.62
304.741	97.62
304.971	87.62
305.201	79.62
305.431	78.62
305.661	84.62
305.891	90.62
306.121	91.62
306.352	85.62
306.582	98.62
306.812	90.62
307.042	98.62
307.272	92.62
307.502	104.62
307.731	89.62
307.961	87.62
308.191	85.62
308.421	91.62
308.651	88.62
308.881	94.62
309.111	100.62
309.341	102.62
309.571	108.62
309.8	91.62
310.03	104.62
310.26	87.62
310.49	93.62
310.72	93.62
310.949	86.62
311.179	105.62
311.409	82.62
311.639	84.62
311.868	96.62
312.098	82.62
312.328	107.62
312.557	103.62
312.787	92.62
313.017	103.62
313.246	98.62
313.476	90.62
313.706	98.62
313.935	89.62
314.165	93.62
314.394	86.62
314.624	102.62
314.853	90.62
315.083	93.62
315.312	99.62
315.542	89.62
315.771	83.62
316.001	97.62
316.23	101.62
316.46	90.62
316.689	103.62
316.919	92.62
317.148	90.62
317.377	84.62
317.607	94.62
317.836	85.62
318.065	103.62
318.295	96.62
318.524	88.62
318.753	97.62
318.983	98.62
319.212	108.62
319.441	111.62
319.67	103.62
319.9	76.62
320.129	92.62
320.358	92.62
320.587	91.62
320.816	96.62
321.046	86.62
321.275	88.62
321.504	96.62
321.733	89.62
321.962	86.62
322.191	102.62
322.42	105.62
322.649	96.62
322.878	109.62
323.108	117.62
323.337	122.62
323.566	116.62
323.795	152.62
324.024	181.62
324.253	344.62
324.482	727.62
324.71	1448.62
324.939	1973.62
325.168	721.62
325.397	229.62
325.626	148.62
325.855	119.62
326.084	128.62
326.313	141.62
326.542	153.62
326.77	218.62
326.999	389.62
327.228	854.62
327.457	1484.62
327.686	1181.62
327.914	338.62
328.143	183.62
328.372	136.62
328.6	113.62
328.829	112.62
329.058	132.62
329.287	122.62
329.515	104.62
329.744	92.62
329.972	113.62
330.201	135.62
330.43	156.62
330.658	133.62
330.887	128.62
331.115	106.62
331.344	97.62
331.572	96.62
331.801	103.62
332.03	99.62
332.258	101.62
332.486	95.62
332.715	95.62
332.943	83.62
333.172	113.62
333.4	102.62
333.629	107.62
333.857	97.62
334.085	118.62
334.314	126.62
334.542	168.62
334.771	163.62
334.999	102.62
335.227	89.62
335.455	87.62
335.684	92.62
335.912	98.62
336.14	100.62
336.369	88.62
336.597	83.62
336.825	84.62
337.053	105.62
337.281	101.62
337.51	82.62
337.738	85.62
337.966	77.62
338.194	78.62
338.422	105.62
338.65	89.62
338.878	89.62
339.106	107.62
339.334	93.62
339.562	96.62
339.79	88.62
340.018	94.62
340.246	73.62
340.474	102.62
340.702	88.62
340.93	85.62
341.158	89.62
341.386	92.62
341.614	93.62
341.842	99.62
342.07	80.62
342.298	87.62
342.526	83.62
342.754	97.62
342.981	94.62
343.209	93.62
343.437	96.62
343.665	90.62
343.893	85.62
344.12	84.62
344.348	79.62
344.576	96.62
344.804	96.62
345.031	90.62
345.259	89.62
345.487	75.62
345.714	78.62
345.942	91.62
346.17	104.62
346.397	83.62
346.625	88.62
346.853	93.62
347.08	103.62
347.308	101.62
347.535	101.62
347.763	81.62
347.99	88.62
348.218	104.62
348.445	107.62
348.673	105.62
348.9	88.62
349.128	92.62
349.355	83.62
349.583	89.62
349.81	98.62
350.037	98.62
350.265	99.62
350.492	82.62
350.72	105.62
350.947	104.62
351.174	112.62
351.402	100.62
351.629	104.62
351.856	94.62
352.083	94.62
352.311	102.62
352.538	109.62
352.765	106.62
352.992	108.62
353.22	124.62
353.447	104.62
353.674	98.62
353.901	100.62
354.128	91.62
354.355	97.62
354.583	93.62
354.81	93.62
355.037	110.62
355.264	94.62
355.491	95.62
355.718	95.62
355.945	91.62
356.172	92.62
356.399	96.62
356.626	94.62
356.853	89.62
357.08	94.62
357.307	84.62
357.534	84.62
357.761	81.62
357.988	86.62
358.215	104.62
358.441	88.62
358.668	93.62
358.895	95.62
359.122	93.62
359.349	81.62
359.576	77.62
359.802	87.62
360.029	121.62
360.256	97.62
360.483	94.62
360.709	94.62
360.936	86.62
361.163	94.62
361.39	102.62
361.616	100.62
361.843	101.62
362.07	96.62
362.296	87.62
362.523	92.62
362.749	78.62
362.976	82.62
363.203	81.62
363.429	90.62
363.656	86.62
363.882	85.62
364.109	108.62
364.335	97.62
364.562	85.62
364.788	84.62
365.015	86.62
365.241	90.62
365.468	95.62
365.694	109.62
365.92	86.62
366.147	99.62
366.373	101.62
366.599	88.62
366.826	87.62
367.052	94.62
367.278	100.62
367.505	99.62
367.731	95.62
367.957	89.62
368.184	78.62
368.41	112.62
368.636	98.62
368.862	93.62
369.089	96.62
369.315	82.62
369.541	87.62
369.767	89.62
369.993	90.62
370.219	102.62
370.445	85.62
370.672	89.62
370.898	85.62
371.124	85.62
371.35	82.62
371.576	85.62
371.802	90.62
372.028	82.62
372.254	94.62
372.48	89.62
372.706	88.62
372.932	88.62
373.158	101.62
373.384	92.62
373.61	83.62
373.835	100.62
374.061	101.62
374.287	88.62
374.513	80.62
374.739	86.62
374.965	93.62
375.191	85.62
375.416	89.62
375.642	96.62
375.868	87.62
376.094	90.62
376.319	94.62
376.545	94.62
376.771	92.62
376.997	102.62
377.222	97.62
377.448	93.62
377.674	78.62
377.899	109.62
378.125	97.62
378.35	90.62
378.576	90.62
378.802	94.62
379.027	93.62
379.253	96.62
379.478	108.62
379.704	105.62
379.929	91.62
380.155	94.62
380.38	93.62
380.606	100.62
380.831	87.62
381.057	84.62
381.282	108.62
381.507	91.62
381.733	102.62
381.958	105.62
382.184	97.62
382.409	98.62
382.634	106.62
382.86	89.62
383.085	93.62
383.31	108.62
383.535	96.62
383.761	111.62
383.986	102.62
384.211	104.62
384.436	102.62
384.662	108.62
384.887	104.62
385.112	100.62
385.337	112.62
385.562	112.62
385.787	117.62
386.013	115.62
386.238	133.62
386.463	109.62
386.688	111.62
386.913	93.62
387.138	113.62
387.363	103.62
387.588	101.62
387.813	111.62
388.038	115.62
388.263	104.62
388.488	116.62
388.713	96.62
388.938	104.62
389.163	93.62
389.387	92.62
389.612	103.62
389.837	76.62
390.062	88.62
390.287	72.62
390.512	85.62
390.736	96.62
390.961	98.62
391.186	101.62
391.411	91.62
391.636	103.62
391.86	85.62
392.085	82.62
392.31	91.62
392.534	76.62
392.759	97.62
392.984	101.62
393.208	107.62
393.433	112.62
393.658	101.62
393.882	92.62
394.107	87.62
394.331	97.62
394.556	90.62
394.78	84.62
395.005	97.62
395.229	74.62
395.454	95.62
395.678	84.62
395.903	84.62
396.127	95.62
396.352	93.62
396.576	99.62
396.801	93.62
397.025	102.62
397.249	94.62
397.474	88.62
397.698	91.62
397.922	73.62
398.147	86.62
398.371	81.62
398.595	89.62
398.82	74.62
399.044	81.62
399.268	83.62
399.492	89.62
399.717	92.62
399.941	80.62
400.165	91.62
400.389	92.62
400.613	85.62
400.837	77.62
401.062	81.62
401.286	88.62
401.51	69.62
401.734	90.62
401.958	105.62
402.182	114.62
402.406	140.62
402.63	112.62
402.854	93.62
403.078	102.62
403.302	82.62
403.526	84.62
403.75	96.62
403.974	90.62
404.198	95.62
404.422	85.62
404.645	74.62
404.869	85.62
405.093	90.62
405.317	89.62
405.541	93.62
405.765	92.62
405.988	107.62
406.212	136.62
406.436	188.62
406.66	140.62
406.883	104.62
407.107	87.62
407.331	85.62
407.555	86.62
407.778	89.62
408.002	91.62
408.226	89.62
408.449	79.62
408.673	85.62
408.896	84.62
409.12	85.62
409.344	90.62
409.567	102.62
409.791	81.62
410.014	98.62
410.238	91.62
410.461	80.62
410.685	91.62
410.908	97.62
411.132	105.62
411.355	90.62
411.578	87.62
411.802	84.62
412.025	101.62
412.249	82.62
412.472	87.62
412.695	118.62
412.919	100.62
413.142	81.62
413.365	81.62
413.589	92.62
413.812	83.62
414.035	98.62
414.258	85.62
414.482	97.62
414.705	97.62
414.928	98.62
415.151	89.62
415.374	93.62
415.597	94.62
415.821	76.62
416.044	103.62
416.267	87.62
416.49	96.62
416.713	93.62
416.936	91.62
417.159	81.62
417.382	74.62
417.605	83.62
417.828	92.62
418.051	116.62
418.274	95.62
418.497	85.62
418.72	82.62
418.943	92.62
419.166	92.62
419.389	96.62
419.611	100.62
419.834	97.62
420.057	89.62
420.28	69.62
420.503	91.62
420.726	75.62
420.948	89.62
421.171	102.62
421.394	86.62
421.617	78.62
421.839	96.62
422.062	76.62
422.285	92.62
422.507	91.62
422.73	105.62
422.953	91.62
423.175	79.62
423.398	87.62
423.621	86.62
423.843	85.62
424.066	85.62
424.288	98.62
424.511	83.62
424.733	81.62
424.956	98.62
425.178	100.62
425.401	96.62
425.623	89.62
425.846	94.62
426.068	75.62
426.291	103.62
426.513	88.62
426.735	92.62
426.958	84.62
427.18	100.62
427.402	115.62
427.625	141.62
427.847	134.62
428.069	107.62
428.292	86.62
428.514	87.62
428.736	76.62
428.958	73.62
429.181	89.62
429.403	86.62
429.625	81.62
429.847	99.62
430.069	91.62
430.292	105.62
430.514	93.62
430.736	89.62
430.958	81.62
431.18	88.62
431.402	84.62
431.624	82.62
431.846	88.62
432.068	90.62
432.29	80.62
432.512	88.62
432.734	83.62
432.956	95.62
433.178	88.62
433.4	97.62
433.622	72.62
433.844	101.62
434.066	84.62
434.287	81.62
434.509	74.62
434.731	98.62
434.953	94.62
435.175	83.62
435.397	72.62
435.618	91.62
435.84	95.62
436.062	113.62
436.284	112.62
436.505	92.62
436.727	96.62
436.949	77.62
437.17	85.62
437.392	83.62
437.614	91.62
437.835	96.62
438.057	95.62
438.278	104.62
438.5	89.62
438.721	109.62
438.943	89.62
439.165	85.62
439.386	88.62
439.608	85.62
439.829	89.62
440.05	104.62
440.272	122.62
440.493	78.62
440.715	81.62
440.936	89.62
441.158	91.62
441.379	89.62
441.6	91.62
441.822	90.62
442.043	106.62
442.264	98.62
442.486	99.62
442.707	83.62
442.928	89.62
443.149	102.62
443.371	116.62
443.592	92.62
443.813	87.62
444.034	105.62
444.255	84.62
444.476	83.62
444.698	97.62
444.919	90.62
445.14	115.62
445.361	117.62
445.582	115.62
445.803	125.62
446.024	123.62
446.245	131.62
446.466	97.62
446.687	88.62
446.908	82.62
447.129	92.62
447.35	91.62
447.571	91.62
447.792	95.62
448.013	94.62
448.234	105.62
448.455	93.62
448.675	114.62
448.896	100.62
449.117	93.62
449.338	105.62
449.559	116.62
449.779	125.62
450	104.62
450.221	73.62
450.442	74.62
450.662	97.62
450.883	92.62
451.104	105.62
451.324	78.62
451.545	91.62
451.766	94.62
451.986	90.62
452.207	92.62
452.428	96.62
452.648	93.62
452.869	99.62
453.089	103.62
453.31	116.62
453.53	98.62
453.751	95.62
453.971	117.62
454.192	114.62
454.412	98.62
454.633	86.62
454.853	96.62
455.073	97.62
455.294	85.62
455.514	88.62
455.734	93.62
455.955	91.62
456.175	77.62
456.395	83.62
456.616	90.62
456.836	76.62
457.056	76.62
457.276	82.62
457.497	71.62
457.717	85.62
457.937	90.62
458.157	82.62
458.377	88.62
458.598	82.62
458.818	142.62
459.038	134.62
459.258	101.62
459.478	87.62
459.698	84.62
459.918	85.62
460.138	75.62
460.358	89.62
460.578	86.62
460.798	89.62
461.018	85.62
461.238	88.62
461.458	89.62
461.678	70.62
461.898	88.62
462.118	85.62
462.338	86.62
462.558	79.62
462.777	89.62
462.997	84.62
463.217	92.62
463.437	94.62
463.657	90.62
463.876	93.62
464.096	75.62
464.316	78.62
464.536	76.62
464.755	81.62
464.975	100.62
465.195	145.62
465.414	154.62
465.634	103.62
465.854	96.62
466.073	83.62
466.293	71.62
466.512	84.62
466.732	88.62
466.951	75.62
467.171	90.62
467.391	89.62
467.61	92.62
467.829	99.62
468.049	92.62
468.268	106.62
468.488	91.62
468.707	85.62
468.927	87.62
469.146	76.62
469.365	86.62
469.585	86.62
469.804	85.62
470.023	85.62
470.243	69.62
470.462	81.62
470.681	93.62
470.901	87.62
471.12	84.62
471.339	90.62
471.558	84.62
471.777	78.62
471.997	98.62
472.216	140.62
472.435	178.62
472.654	120.62
472.873	84.62
473.092	81.62
473.311	93.62
473.53	96.62
473.749	84.62
473.968	94.62
474.187	97.62
474.406	95.62
474.625	88.62
474.844	91.62
475.063	86.62
475.282	96.62
475.501	84.62
475.72	82.62
475.939	90.62
476.158	93.62
476.377	82.62
476.596	82.62
476.814	100.62
477.033	92.62
477.252	74.62
477.471	87.62
477.69	85.62
477.908	84.62
478.127	86.62
478.346	103.62
478.564	83.62
478.783	102.62
479.002	99.62
479.22	92.62
479.439	101.62
479.658	89.62
479.876	97.62
480.095	85.62
480.313	91.62
480.532	100.62
480.751	107.62
480.969	120.62
481.188	266.62
481.406	191.62
481.624	104.62
481.843	86.62
482.061	90.62
482.28	83.62
482.498	100.62
482.717	83.62
482.935	88.62
483.153	83.62
483.372	84.62
483.59	83.62
483.808	75.62
484.027	102.62
484.245	88.62
484.463	78.62
484.681	94.62
484.9	89.62
485.118	89.62
485.336	106.62
485.554	93.62
485.772	104.62
485.99	95.62
486.209	115.62
486.427	96.62
486.645	89.62
486.863	90.62
487.081	93.62
487.299	97.62
487.517	90.62
487.735	87.62
487.953	83.62
488.171	87.62
488.389	105.62
488.607	97.62
488.825	82.62
489.043	84.62
489.261	101.62
489.479	99.62
489.696	96.62
489.914	91.62
490.132	83.62
490.35	85.62
490.568	97.62
490.786	73.62
491.003	73.62
491.221	94.62
491.439	105.62
491.657	100.62
491.874	98.62
492.092	88.62
492.31	74.62
492.527	80.62
492.745	89.62
492.963	86.62
493.18	86.62
493.398	98.62
493.615	89.62
493.833	103.62
494.05	89.62
494.268	94.62
494.485	82.62
494.703	83.62
494.92	81.62
495.138	90.62
495.355	93.62
495.573	87.62
495.79	93.62
496.008	90.62
496.225	90.62
496.442	97.62
496.66	92.62
496.877	79.62
497.094	80.62
497.312	95.62
497.529	84.62
497.746	90.62
497.963	88.62
498.181	79.62
498.398	78.62
498.615	111.62
498.832	90.62
499.049	93.62
499.267	91.62
499.484	95.62
499.701	89.62
499.918	88.62
500.135	83.62
500.352	78.62
500.569	87.62
500.786	94.62
501.003	92.62
501.22	86.62
501.437	99.62
501.654	101.62
501.871	91.62
502.088	81.62
502.305	98.62
502.522	88.62
502.739	89.62
502.956	96.62
503.172	89.62
503.389	88.62
503.606	96.62
503.823	89.62
504.04	85.62
504.256	85.62
504.473	80.62
504.69	93.62
504.907	92.62
505.123	87.62
505.34	88.62
505.557	89.62
505.773	91.62
505.99	76.62
506.207	82.62
506.423	104.62
506.64	92.62
506.856	83.62
507.073	88.62
507.289	96.62
507.506	101.62
507.722	85.62
507.939	89.62
508.155	91.62
508.372	93.62
508.588	86.62
508.805	92.62
509.021	92.62
509.238	77.62
509.454	103.62
509.67	96.62
509.887	93.62
510.103	125.62
510.319	190.62
510.536	623.62
510.752	2046.62
510.968	614.62
511.184	138.62
511.401	113.62
511.617	99.62
511.833	90.62
512.049	93.62
512.265	80.62
512.481	76.62
512.698	74.62
512.914	89.62
513.13	86.62
513.346	78.62
513.562	92.62
513.778	102.62
513.994	106.62
514.21	103.62
514.426	94.62
514.642	106.62
514.858	120.62
515.074	144.62
515.29	340.62
515.506	1181.62
515.721	444.62
515.937	120.62
516.153	113.62
