Data from Circ_2015_H10_HRD10591_00092.txt Node
Date: Wed Jan 03 10:00:41 EST 2024
User: Yrep
Spectrometer: HR+D1059
Trigger mode: 1
Integration Time (sec): 1.000000E-1
Scans to average: 1
Electric dark correction enabled: true
Nonlinearity correction enabled: false
Boxcar width: 0
XAxis mode: Wavelengths
Number of Pixels in Spectrum: 2048
>>>>>Begin Spectral Data<<<<<
223.165	-27
223.4	-27
223.635	-27
223.869	-21
224.104	-10
224.338	-10
224.573	-37
224.808	-13
225.042	-14
225.277	12
225.511	-2
225.746	-1
225.98	13
226.215	12
226.449	20
226.683	25
226.918	25
227.152	28
227.387	38
227.621	50
227.856	35
228.09	52
228.324	49
228.559	66
228.793	60
229.027	63
229.262	66
229.496	62
229.73	75
229.964	80
230.199	80
230.433	69
230.667	74
230.901	83
231.136	83
231.37	75
231.604	86
231.838	79
232.072	83
232.306	89
232.541	86
232.775	83
233.009	92
233.243	75
233.477	91
233.711	81
233.945	77
234.179	91
234.413	80
234.647	83
234.881	86
235.115	74
235.349	92
235.583	71
235.817	74
236.051	68
236.285	80
236.519	79
236.753	78
236.987	78
237.221	87
237.455	79
237.689	79
237.922	72
238.156	72
238.39	77
238.624	78
238.858	72
239.091	76
239.325	76
239.559	81
239.793	68
240.027	78
240.26	90
240.494	90
240.728	81
240.961	81
241.195	75
241.429	79
241.662	84
241.896	73
242.13	75
242.363	76
242.597	64
242.83	77
243.064	76
243.298	80
243.531	90
243.765	74
243.998	78
244.232	77
244.465	80
244.699	89
244.932	92
245.166	77
245.399	66
245.633	77
245.866	74
246.099	77
246.333	87
246.566	64
246.8	77
247.033	91
247.266	82
247.5	73
247.733	83
247.966	83
248.2	82
248.433	87
248.666	85
248.899	72
249.133	84
249.366	104
249.599	105
249.832	78
250.066	80
250.299	80
250.532	72
250.765	66
250.998	88
251.231	76
251.465	86
251.698	76
251.931	79
252.164	78
252.397	87
252.63	79
252.863	81
253.096	69
253.329	76
253.562	80
253.795	81
254.028	73
254.261	88
254.494	58
254.727	87
254.96	86
255.193	83
255.426	71
255.659	86
255.892	93
256.124	80
256.357	103
256.59	75
256.823	78
257.056	71
257.289	90
257.521	83
257.754	89
257.987	75
258.22	75
258.452	85
258.685	92
258.918	80
259.151	90
259.383	94
259.616	78
259.849	87
260.081	75
260.314	82
260.547	89
260.779	96
261.012	93
261.244	90
261.477	73
261.71	95
261.942	102
262.175	108
262.407	80
262.64	87
262.872	79
263.105	75
263.337	90
263.57	87
263.802	76
264.035	83
264.267	84
264.499	82
264.732	84
264.964	69
265.197	81
265.429	82
265.661	92
265.894	87
266.126	95
266.358	80
266.591	85
266.823	89
267.055	67
267.287	96
267.52	85
267.752	84
267.984	99
268.216	79
268.448	94
268.681	71
268.913	87
269.145	84
269.377	83
269.609	82
269.841	88
270.073	89
270.306	86
270.538	91
270.77	84
271.002	98
271.234	75
271.466	74
271.698	88
271.93	98
272.162	91
272.394	100
272.626	89
272.858	93
273.09	86
273.322	88
273.553	98
273.785	82
274.017	90
274.249	83
274.481	108
274.713	73
274.945	94
275.176	82
275.408	80
275.64	95
275.872	91
276.104	86
276.335	90
276.567	92
276.799	109
277.031	120
277.262	99
277.494	108
277.726	80
277.957	85
278.189	84
278.421	99
278.652	91
278.884	105
279.115	94
279.347	97
279.579	100
279.81	92
280.042	111
280.273	106
280.505	103
280.736	80
280.968	70
281.199	79
281.431	85
281.662	87
281.894	83
282.125	103
282.356	104
282.588	136
282.819	104
283.051	94
283.282	80
283.513	88
283.745	99
283.976	90
284.207	89
284.439	92
284.67	96
284.901	92
285.132	93
285.364	95
285.595	84
285.826	94
286.057	84
286.288	90
286.52	75
286.751	87
286.982	105
287.213	85
287.444	78
287.675	93
287.906	102
288.138	89
288.369	101
288.6	101
288.831	92
289.062	91
289.293	87
289.524	92
289.755	94
289.986	88
290.217	94
290.448	88
290.679	83
290.91	77
291.141	88
291.371	84
291.602	85
291.833	86
292.064	77
292.295	90
292.526	81
292.757	88
292.987	90
293.218	77
293.449	104
293.68	78
293.91	101
294.141	79
294.372	78
294.603	88
294.833	86
295.064	91
295.295	98
295.525	87
295.756	92
295.987	107
296.217	123
296.448	127
296.679	92
296.909	89
297.14	74
297.37	89
297.601	99
297.831	81
298.062	91
298.292	99
298.523	78
298.753	99
298.984	107
299.214	88
299.445	102
299.675	107
299.905	95
300.136	94
300.366	91
300.597	93
300.827	88
301.057	98
301.288	103
301.518	95
301.748	89
301.979	92
302.209	94
302.439	96
302.669	89
302.9	90
303.13	104
303.36	112
303.59	111
303.82	100
304.051	107
304.281	106
304.511	101
304.741	92
304.971	82
305.201	86
305.431	94
305.661	84
305.891	95
306.121	93
306.352	108
306.582	102
306.812	101
307.042	92
307.272	101
307.502	99
307.731	99
307.961	110
308.191	96
308.421	94
308.651	87
308.881	86
309.111	85
309.341	94
309.571	88
309.8	99
310.03	100
310.26	95
310.49	95
310.72	85
310.949	104
311.179	116
311.409	86
311.639	98
311.868	109
312.098	87
312.328	92
312.557	102
312.787	110
313.017	111
313.246	99
313.476	90
313.706	84
313.935	101
314.165	104
314.394	118
314.624	96
314.853	108
315.083	86
315.312	103
315.542	90
315.771	97
316.001	95
316.23	99
316.46	95
316.689	100
316.919	86
317.148	89
317.377	101
317.607	96
317.836	85
318.065	88
318.295	94
318.524	83
318.753	95
318.983	89
319.212	104
319.441	106
319.67	86
319.9	97
320.129	77
320.358	90
320.587	94
320.816	91
321.046	100
321.275	93
321.504	96
321.733	98
321.962	106
322.191	96
322.42	114
322.649	115
322.878	120
323.108	130
323.337	126
323.566	135
323.795	152
324.024	194
324.253	367
324.482	798
324.71	1599
324.939	2132
325.168	767
325.397	230
325.626	150
325.855	137
326.084	129
326.313	123
326.542	148
326.77	220
326.999	460
327.228	912
327.457	1640
327.686	1292
327.914	378
328.143	227
328.372	221
328.6	163
328.829	141
329.058	132
329.287	138
329.515	112
329.744	130
329.972	169
330.201	266
330.43	345
330.658	213
330.887	145
331.115	133
331.344	98
331.572	121
331.801	110
332.03	80
332.258	83
332.486	103
332.715	86
332.943	102
333.172	118
333.4	111
333.629	105
333.857	136
334.085	164
334.314	252
334.542	409
334.771	386
334.999	154
335.227	123
335.455	98
335.684	105
335.912	94
336.14	80
336.369	88
336.597	93
336.825	95
337.053	103
337.281	99
337.51	80
337.738	108
337.966	85
338.194	79
338.422	95
338.65	105
338.878	85
339.106	97
339.334	87
339.562	95
339.79	91
340.018	88
340.246	93
340.474	97
340.702	97
340.93	105
341.158	87
341.386	102
341.614	92
341.842	86
342.07	91
342.298	102
342.526	87
342.754	103
342.981	83
343.209	102
343.437	100
343.665	108
343.893	94
344.12	96
344.348	87
344.576	92
344.804	87
345.031	93
345.259	113
345.487	109
345.714	87
345.942	103
346.17	97
346.397	78
346.625	100
346.853	103
347.08	99
347.308	94
347.535	107
347.763	101
347.99	91
348.218	102
348.445	109
348.673	109
348.9	93
349.128	87
349.355	87
349.583	98
349.81	97
350.037	94
350.265	99
350.492	90
350.72	101
350.947	99
351.174	120
351.402	93
351.629	100
351.856	105
352.083	90
352.311	110
352.538	108
352.765	102
352.992	117
353.22	118
353.447	107
353.674	91
353.901	114
354.128	99
354.355	88
354.583	103
354.81	103
355.037	104
355.264	94
355.491	100
355.718	82
355.945	102
356.172	92
356.399	101
356.626	92
356.853	104
357.08	87
357.307	99
357.534	91
357.761	87
357.988	102
358.215	96
358.441	88
358.668	97
358.895	90
359.122	90
359.349	92
359.576	92
359.802	111
360.029	101
360.256	108
360.483	89
360.709	80
360.936	91
361.163	98
361.39	77
361.616	103
361.843	86
362.07	98
362.296	95
362.523	84
362.749	100
362.976	97
363.203	96
363.429	95
363.656	87
363.882	103
364.109	93
364.335	91
364.562	93
364.788	85
365.015	92
365.241	97
365.468	105
365.694	100
365.92	94
366.147	79
366.373	90
366.599	93
366.826	91
367.052	109
367.278	107
367.505	90
367.731	83
367.957	87
368.184	91
368.41	96
368.636	97
368.862	115
369.089	101
369.315	102
369.541	95
369.767	80
369.993	116
370.219	89
370.445	89
370.672	98
370.898	89
371.124	98
371.35	98
371.576	79
371.802	88
372.028	92
372.254	91
372.48	98
372.706	95
372.932	84
373.158	95
373.384	90
373.61	92
373.835	100
374.061	84
374.287	114
374.513	96
374.739	78
374.965	91
375.191	85
375.416	103
375.642	104
375.868	80
376.094	92
376.319	83
376.545	82
376.771	91
376.997	91
377.222	90
377.448	104
377.674	89
377.899	89
378.125	85
378.35	89
378.576	104
378.802	101
379.027	90
379.253	99
379.478	86
379.704	91
379.929	80
380.155	87
380.38	99
380.606	105
380.831	99
381.057	91
381.282	97
381.507	93
381.733	86
381.958	86
382.184	100
382.409	97
382.634	100
382.86	101
383.085	99
383.31	102
383.535	94
383.761	99
383.986	100
384.211	91
384.436	104
384.662	102
384.887	90
385.112	109
385.337	103
385.562	115
385.787	108
386.013	103
386.238	110
386.463	100
386.688	105
386.913	114
387.138	117
387.363	99
387.588	108
387.813	94
388.038	103
388.263	106
388.488	102
388.713	102
388.938	111
389.163	108
389.387	81
389.612	86
389.837	85
390.062	79
390.287	85
390.512	78
390.736	93
390.961	91
391.186	94
391.411	102
391.636	104
391.86	88
392.085	80
392.31	73
392.534	88
392.759	100
392.984	80
393.208	87
393.433	100
393.658	106
393.882	84
394.107	80
394.331	92
394.556	89
394.78	87
395.005	82
395.229	86
395.454	92
395.678	99
395.903	82
396.127	82
396.352	82
396.576	94
396.801	105
397.025	91
397.249	109
397.474	97
397.698	82
397.922	95
398.147	102
398.371	87
398.595	84
398.82	79
399.044	96
399.268	93
399.492	87
399.717	87
399.941	94
400.165	91
400.389	94
400.613	89
400.837	84
401.062	108
401.286	103
401.51	93
401.734	82
401.958	98
402.182	127
402.406	144
402.63	116
402.854	94
403.078	87
403.302	92
403.526	83
403.75	95
403.974	91
404.198	85
404.422	62
404.645	89
404.869	96
405.093	102
405.317	103
405.541	98
405.765	97
405.988	103
406.212	140
406.436	185
406.66	144
406.883	98
407.107	101
407.331	99
407.555	92
407.778	103
408.002	99
408.226	87
408.449	94
408.673	89
408.896	78
409.12	89
409.344	92
409.567	91
409.791	99
410.014	87
410.238	103
410.461	100
410.685	103
410.908	96
411.132	103
411.355	98
411.578	101
411.802	82
412.025	100
412.249	84
412.472	95
412.695	111
412.919	100
413.142	104
413.365	93
413.589	86
413.812	89
414.035	93
414.258	113
414.482	86
414.705	105
414.928	106
415.151	92
415.374	91
415.597	91
415.821	86
416.044	92
416.267	80
416.49	87
416.713	95
416.936	92
417.159	98
417.382	94
417.605	87
417.828	94
418.051	87
418.274	90
418.497	91
418.72	74
418.943	85
419.166	91
419.389	73
419.611	95
419.834	92
420.057	87
420.28	74
420.503	94
420.726	86
420.948	101
421.171	87
421.394	85
421.617	84
421.839	101
422.062	88
422.285	102
422.507	98
422.73	108
422.953	95
423.175	103
423.398	92
423.621	71
423.843	90
424.066	77
424.288	85
424.511	88
424.733	93
424.956	108
425.178	95
425.401	90
425.623	109
425.846	94
426.068	93
426.291	74
426.513	76
426.735	106
426.958	89
427.18	112
427.402	135
427.625	145
427.847	124
428.069	133
428.292	100
428.514	96
428.736	90
428.958	89
429.181	90
429.403	83
429.625	91
429.847	87
430.069	107
430.292	102
430.514	97
430.736	104
430.958	93
431.18	90
431.402	94
431.624	109
431.846	79
432.068	95
432.29	101
432.512	68
432.734	77
432.956	103
433.178	107
433.4	104
433.622	82
433.844	96
434.066	93
434.287	94
434.509	90
434.731	98
434.953	89
435.175	91
435.397	85
435.618	93
435.84	86
436.062	123
436.284	116
436.505	92
436.727	88
436.949	97
437.17	87
437.392	85
437.614	94
437.835	91
438.057	115
438.278	110
438.5	103
438.721	119
438.943	92
439.165	93
439.386	101
439.608	94
439.829	92
440.05	110
440.272	152
440.493	108
440.715	84
440.936	83
441.158	83
441.379	89
441.6	77
441.822	90
442.043	84
442.264	94
442.486	104
442.707	108
442.928	110
443.149	128
443.371	132
443.592	117
443.813	104
444.034	111
444.255	93
444.476	84
444.698	76
444.919	93
445.14	125
445.361	110
445.582	130
445.803	133
446.024	126
446.245	131
446.466	129
446.687	92
446.908	80
447.129	96
447.35	91
447.571	89
447.792	102
448.013	120
448.234	116
448.455	96
448.675	120
448.896	107
449.117	104
449.338	89
449.559	114
449.779	117
450	91
450.221	98
450.442	91
450.662	79
450.883	102
451.104	107
451.324	100
451.545	91
451.766	93
451.986	85
452.207	99
452.428	90
452.648	104
452.869	100
453.089	115
453.31	97
453.53	86
453.751	99
453.971	95
454.192	104
454.412	94
454.633	89
454.853	84
455.073	107
455.294	83
455.514	102
455.734	83
455.955	102
456.175	85
456.395	91
456.616	92
456.836	84
457.056	87
457.276	77
457.497	83
457.717	89
457.937	92
458.157	85
458.377	83
458.598	105
458.818	138
459.038	141
459.258	108
459.478	87
459.698	93
459.918	79
460.138	98
460.358	87
460.578	100
460.798	87
461.018	90
461.238	86
461.458	98
461.678	87
461.898	93
462.118	81
462.338	91
462.558	98
462.777	94
462.997	66
463.217	95
463.437	85
463.657	79
463.876	93
464.096	108
464.316	96
464.536	85
464.755	96
464.975	108
465.195	150
465.414	138
465.634	102
465.854	91
466.073	94
466.293	98
466.512	79
466.732	93
466.951	80
467.171	90
467.391	94
467.61	107
467.829	112
468.049	180
468.268	224
468.488	103
468.707	78
468.927	80
469.146	89
469.365	86
469.585	95
469.804	108
470.023	97
470.243	87
470.462	116
470.681	121
470.901	103
471.12	87
471.339	95
471.558	105
471.777	117
471.997	141
472.216	311
472.435	559
472.654	190
472.873	95
473.092	86
473.311	88
473.53	87
473.749	100
473.968	106
474.187	109
474.406	99
474.625	100
474.844	87
475.063	95
475.282	72
475.501	80
475.72	93
475.939	101
476.158	89
476.377	88
476.596	99
476.814	99
477.033	97
477.252	99
477.471	100
477.69	90
477.908	58
478.127	96
478.346	87
478.564	87
478.783	91
479.002	94
479.22	93
479.439	99
479.658	96
479.876	93
480.095	89
480.313	98
480.532	105
480.751	132
480.969	297
481.188	954
481.406	592
481.624	142
481.843	98
482.061	86
482.28	84
482.498	86
482.717	101
482.935	76
483.153	95
483.372	94
483.59	96
483.808	85
484.027	98
484.245	98
484.463	90
484.681	98
484.9	85
485.118	107
485.336	93
485.554	99
485.772	95
485.99	101
486.209	104
486.427	112
486.645	122
486.863	94
487.081	99
487.299	89
487.517	96
487.735	92
487.953	85
488.171	98
488.389	103
488.607	79
488.825	87
489.043	89
489.261	86
489.479	84
489.696	83
489.914	86
490.132	92
490.35	102
490.568	94
490.786	94
491.003	81
491.221	89
491.439	102
491.657	90
491.874	94
492.092	95
492.31	92
492.527	84
492.745	92
492.963	95
493.18	91
493.398	92
493.615	94
493.833	89
494.05	89
494.268	98
494.485	89
494.703	87
494.92	79
495.138	73
495.355	104
495.573	92
495.79	94
496.008	85
496.225	101
496.442	78
496.66	74
496.877	91
497.094	85
497.312	100
497.529	83
497.746	93
497.963	94
498.181	93
498.398	93
498.615	99
498.832	111
499.049	108
499.267	94
499.484	82
499.701	119
499.918	92
500.135	90
500.352	92
500.569	91
500.786	103
501.003	89
501.22	88
501.437	92
501.654	98
501.871	99
502.088	80
502.305	97
502.522	88
502.739	90
502.956	93
503.172	107
503.389	103
503.606	103
503.823	106
504.04	81
504.256	93
504.473	92
504.69	92
504.907	92
505.123	92
505.34	91
505.557	102
505.773	97
505.99	95
506.207	84
506.423	97
506.64	84
506.856	89
507.073	95
507.289	96
507.506	94
507.722	117
507.939	94
508.155	87
508.372	99
508.588	103
508.805	115
509.021	102
509.238	94
509.454	110
509.67	94
509.887	106
510.103	115
510.319	202
510.536	634
510.752	2030
510.968	614
511.184	144
511.401	92
511.617	99
511.833	98
512.049	87
512.265	87
512.481	85
512.698	95
512.914	92
513.13	91
513.346	92
513.562	93
513.778	85
513.994	95
514.21	104
514.426	123
514.642	118
514.858	126
515.074	148
515.29	354
515.506	1194
515.721	496
515.937	155
516.153	115
516.369	101
516.585	91
516.801	104
517.016	101
517.232	94
517.448	105
517.664	98
517.879	91
518.095	91
518.311	111
518.527	101
518.742	79
518.958	96
519.173	99
519.389	104
519.605	107
519.82	91
520.036	102
520.251	102
520.467	113
520.682	101
520.898	98
521.113	110
521.329	138
521.544	168
521.76	460
521.975	1958
522.19	1260
522.406	289
522.621	122
522.836	91
523.052	92
523.267	99
523.482	80
523.698	104
523.913	106
524.128	109
524.343	99
524.559	100
524.774	91
524.989	108
525.204	96
525.419	105
525.634	100
525.849	90
526.064	91
526.28	83
526.495	90
526.71	86
526.925	101
527.14	96
527.355	91
527.57	84
527.785	95
527.999	92
528.214	97
528.429	103
528.644	106
528.859	108
529.074	84
529.289	118
529.503	167
529.718	109
529.933	71
530.148	99
530.363	92
530.577	97
530.792	90
531.007	80
531.221	96
531.436	60
531.651	82
531.865	88
532.08	95
532.295	94
532.509	106
532.724	101
532.938	103
533.153	97
533.367	90
533.582	93
533.796	92
534.011	88
534.225	77
534.44	107
534.654	92
534.868	99
535.083	92
535.297	86
535.511	110
535.726	95
535.94	96
536.154	88
536.369	92
536.583	86
536.797	90
537.011	84
537.225	88
537.44	81
537.654	83
537.868	104
538.082	83
538.296	98
538.51	100
538.724	95
538.938	93
539.153	87
539.367	102
539.581	83
539.795	99
540.009	89
540.222	96
540.436	84
540.65	85
540.864	94
541.078	83
541.292	99
541.506	90
541.72	86
541.934	85
542.147	89
542.361	87
542.575	86
542.789	88
543.002	72
543.216	90
543.43	100
543.644	78
543.857	87
544.071	105
544.285	90
544.498	103
544.712	103
544.925	91
545.139	88
545.352	98
545.566	84
545.779	98
545.993	87
546.206	83
546.42	94
546.633	103
546.847	99
547.06	93
547.274	82
547.487	99
547.7	91
547.914	88
548.127	81
548.34	82
548.554	91
548.767	91
548.98	105
549.193	94
549.407	90
549.62	104
549.833	76
550.046	98
550.259	89
550.473	88
550.686	74
550.899	95
551.112	79
551.325	89
551.538	83
551.751	99
551.964	94
552.177	85
552.39	98
552.603	85
552.816	85
553.029	77
553.242	91
553.455	90
553.667	91
553.88	99
554.093	88
554.306	86
554.519	101
554.732	89
554.944	82
555.157	88
555.37	90
555.583	92
555.795	91
556.008	95
556.221	94
556.433	110
556.646	81
556.859	88
557.071	90
557.284	107
557.496	99
557.709	118
557.921	95
558.134	93
558.346	90
558.559	101
558.771	93
558.984	99
559.196	97
559.409	101
559.621	92
559.833	91
560.046	94
560.258	80
560.47	91
560.683	101
560.895	87
561.107	87
561.32	92
561.532	86
561.744	88
561.956	84
562.168	98
562.381	91
562.593	82
562.805	68
563.017	75
563.229	86
563.441	84
563.653	99
563.865	87
564.077	87
564.289	80
564.501	93
564.713	96
564.925	93
565.137	105
565.349	92
565.561	84
565.773	89
565.985	83
566.197	94
566.408	101
566.62	90
566.832	90
567.044	69
567.255	84
567.467	77
567.679	80
567.891	92
568.102	85
568.314	77
568.526	94
568.737	90
568.949	101
569.161	83
569.372	103
569.584	96
569.795	103
570.007	115
570.218	224
570.43	134
570.641	103
570.853	92
571.064	88
571.276	81
571.487	84
571.698	106
571.91	84
572.121	78
572.333	92
572.544	79
572.755	91
572.966	101
573.178	83
573.389	82
573.6	89
573.811	85
574.023	87
574.234	91
574.445	84
574.656	84
574.867	92
575.078	90
575.289	80
575.501	87
575.712	96
575.923	88
576.134	86
576.345	88
576.556	83
576.767	93
576.978	100
577.188	92
577.399	88
577.61	85
577.821	101
578.032	116
578.243	233
578.454	615
578.665	184
578.875	95
579.086	85
579.297	96
579.508	90
579.718	87
579.929	82
580.14	83
580.35	89
580.561	89
580.772	80
580.982	60
581.193	72
581.403	83
581.614	90
581.825	86
582.035	81
582.246	96
582.456	76
582.667	90
582.877	79
