Data from Circ_2015_H10_HRD10591_00061.txt Node
Date: Wed Jan 03 10:00:35 EST 2024
User: Yrep
Spectrometer: HR+D1059
Trigger mode: 1
Integration Time (sec): 1.000000E-1
Scans to average: 1
Electric dark correction enabled: true
Nonlinearity correction enabled: false
Boxcar width: 0
XAxis mode: Wavelengths
Number of Pixels in Spectrum: 2048
>>>>>Begin Spectral Data<<<<<
223.165	-17.81
223.4	-17.81
223.635	-17.81
223.869	-26.81
224.104	-18.81
224.338	-13.81
224.573	-2.81
224.808	-1.81
225.042	-3.81
225.277	-24.81
225.511	-1.81
225.746	-3.81
225.98	6.19
226.215	27.19
226.449	26.19
226.683	24.19
226.918	18.19
227.152	14.19
227.387	37.19
227.621	42.19
227.856	56.19
228.09	47.19
228.324	52.19
228.559	59.19
228.793	76.19
229.027	65.19
229.262	61.19
229.496	59.19
229.73	82.19
229.964	96.19
230.199	77.19
230.433	77.19
230.667	76.19
230.901	78.19
231.136	68.19
231.37	82.19
231.604	76.19
231.838	73.19
232.072	83.19
232.306	86.19
232.541	76.19
232.775	90.19
233.009	78.19
233.243	79.19
233.477	62.19
233.711	87.19
233.945	84.19
234.179	85.19
234.413	81.19
234.647	77.19
234.881	93.19
235.115	79.19
235.349	92.19
235.583	85.19
235.817	83.19
236.051	73.19
236.285	90.19
236.519	91.19
236.753	99.19
236.987	77.19
237.221	91.19
237.455	78.19
237.689	71.19
237.922	75.19
238.156	75.19
238.39	76.19
238.624	71.19
238.858	76.19
239.091	76.19
239.325	77.19
239.559	76.19
239.793	83.19
240.027	73.19
240.26	67.19
240.494	64.19
240.728	75.19
240.961	81.19
241.195	77.19
241.429	71.19
241.662	74.19
241.896	89.19
242.13	86.19
242.363	88.19
242.597	83.19
242.83	85.19
243.064	76.19
243.298	64.19
243.531	82.19
243.765	74.19
243.998	67.19
244.232	77.19
244.465	84.19
244.699	83.19
244.932	76.19
245.166	77.19
245.399	75.19
245.633	91.19
245.866	80.19
246.099	78.19
246.333	90.19
246.566	84.19
246.8	75.19
247.033	89.19
247.266	93.19
247.5	61.19
247.733	82.19
247.966	83.19
248.2	79.19
248.433	84.19
248.666	73.19
248.899	75.19
249.133	101.19
249.366	92.19
249.599	89.19
249.832	82.19
250.066	74.19
250.299	77.19
250.532	86.19
250.765	82.19
250.998	79.19
251.231	77.19
251.465	82.19
251.698	87.19
251.931	80.19
252.164	76.19
252.397	88.19
252.63	71.19
252.863	71.19
253.096	58.19
253.329	85.19
253.562	87.19
253.795	83.19
254.028	78.19
254.261	90.19
254.494	89.19
254.727	91.19
254.96	77.19
255.193	79.19
255.426	77.19
255.659	75.19
255.892	86.19
256.124	76.19
256.357	77.19
256.59	84.19
256.823	85.19
257.056	66.19
257.289	78.19
257.521	81.19
257.754	75.19
257.987	75.19
258.22	86.19
258.452	85.19
258.685	87.19
258.918	79.19
259.151	79.19
259.383	85.19
259.616	85.19
259.849	86.19
260.081	82.19
260.314	80.19
260.547	84.19
260.779	90.19
261.012	74.19
261.244	85.19
261.477	85.19
261.71	72.19
261.942	105.19
262.175	117.19
262.407	81.19
262.64	74.19
262.872	71.19
263.105	86.19
263.337	86.19
263.57	72.19
263.802	79.19
264.035	91.19
264.267	73.19
264.499	76.19
264.732	92.19
264.964	88.19
265.197	78.19
265.429	76.19
265.661	75.19
265.894	91.19
266.126	85.19
266.358	85.19
266.591	93.19
266.823	95.19
267.055	78.19
267.287	79.19
267.52	74.19
267.752	75.19
267.984	77.19
268.216	84.19
268.448	85.19
268.681	81.19
268.913	76.19
269.145	84.19
269.377	85.19
269.609	87.19
269.841	83.19
270.073	83.19
270.306	79.19
270.538	86.19
270.77	75.19
271.002	84.19
271.234	85.19
271.466	83.19
271.698	77.19
271.93	79.19
272.162	88.19
272.394	87.19
272.626	106.19
272.858	77.19
273.09	78.19
273.322	69.19
273.553	86.19
273.785	78.19
274.017	95.19
274.249	80.19
274.481	97.19
274.713	75.19
274.945	92.19
275.176	101.19
275.408	89.19
275.64	81.19
275.872	84.19
276.104	87.19
276.335	101.19
276.567	90.19
276.799	99.19
277.031	102.19
277.262	102.19
277.494	92.19
277.726	85.19
277.957	91.19
278.189	83.19
278.421	90.19
278.652	85.19
278.884	72.19
279.115	95.19
279.347	86.19
279.579	74.19
279.81	85.19
280.042	85.19
280.273	90.19
280.505	87.19
280.736	79.19
280.968	84.19
281.199	88.19
281.431	77.19
281.662	76.19
281.894	102.19
282.125	89.19
282.356	101.19
282.588	106.19
282.819	101.19
283.051	84.19
283.282	80.19
283.513	67.19
283.745	89.19
283.976	85.19
284.207	86.19
284.439	74.19
284.67	74.19
284.901	79.19
285.132	97.19
285.364	79.19
285.595	84.19
285.826	87.19
286.057	85.19
286.288	87.19
286.52	89.19
286.751	83.19
286.982	76.19
287.213	97.19
287.444	90.19
287.675	80.19
287.906	86.19
288.138	97.19
288.369	102.19
288.6	84.19
288.831	83.19
289.062	87.19
289.293	88.19
289.524	99.19
289.755	88.19
289.986	87.19
290.217	74.19
290.448	87.19
290.679	88.19
290.91	97.19
291.141	77.19
291.371	94.19
291.602	79.19
291.833	89.19
292.064	85.19
292.295	94.19
292.526	85.19
292.757	91.19
292.987	74.19
293.218	88.19
293.449	74.19
293.68	77.19
293.91	78.19
294.141	90.19
294.372	96.19
294.603	85.19
294.833	79.19
295.064	95.19
295.295	93.19
295.525	90.19
295.756	101.19
295.987	104.19
296.217	139.19
296.448	106.19
296.679	91.19
296.909	85.19
297.14	92.19
297.37	94.19
297.601	100.19
297.831	86.19
298.062	89.19
298.292	87.19
298.523	75.19
298.753	89.19
298.984	86.19
299.214	96.19
299.445	76.19
299.675	106.19
299.905	94.19
300.136	100.19
300.366	92.19
300.597	94.19
300.827	105.19
301.057	97.19
301.288	107.19
301.518	102.19
301.748	93.19
301.979	108.19
302.209	97.19
302.439	90.19
302.669	85.19
302.9	93.19
303.13	94.19
303.36	101.19
303.59	102.19
303.82	104.19
304.051	85.19
304.281	95.19
304.511	90.19
304.741	89.19
304.971	97.19
305.201	83.19
305.431	84.19
305.661	94.19
305.891	85.19
306.121	97.19
306.352	101.19
306.582	97.19
306.812	98.19
307.042	99.19
307.272	101.19
307.502	97.19
307.731	96.19
307.961	101.19
308.191	92.19
308.421	81.19
308.651	77.19
308.881	91.19
309.111	88.19
309.341	95.19
309.571	104.19
309.8	89.19
310.03	95.19
310.26	92.19
310.49	94.19
310.72	104.19
310.949	100.19
311.179	95.19
311.409	92.19
311.639	92.19
311.868	99.19
312.098	104.19
312.328	99.19
312.557	91.19
312.787	96.19
313.017	103.19
313.246	101.19
313.476	74.19
313.706	85.19
313.935	90.19
314.165	99.19
314.394	99.19
314.624	94.19
314.853	92.19
315.083	82.19
315.312	88.19
315.542	91.19
315.771	97.19
316.001	99.19
316.23	95.19
316.46	82.19
316.689	106.19
316.919	98.19
317.148	95.19
317.377	100.19
317.607	92.19
317.836	95.19
318.065	81.19
318.295	93.19
318.524	91.19
318.753	88.19
318.983	84.19
319.212	105.19
319.441	89.19
319.67	106.19
319.9	98.19
320.129	85.19
320.358	100.19
320.587	95.19
320.816	105.19
321.046	100.19
321.275	87.19
321.504	108.19
321.733	99.19
321.962	100.19
322.191	94.19
322.42	102.19
322.649	119.19
322.878	106.19
323.108	114.19
323.337	115.19
323.566	134.19
323.795	130.19
324.024	203.19
324.253	355.19
324.482	726.19
324.71	1470.19
324.939	1945.19
325.168	724.19
325.397	227.19
325.626	140.19
325.855	131.19
326.084	134.19
326.313	133.19
326.542	146.19
326.77	213.19
326.999	419.19
327.228	819.19
327.457	1500.19
327.686	1173.19
327.914	334.19
328.143	196.19
328.372	168.19
328.6	135.19
328.829	115.19
329.058	125.19
329.287	121.19
329.515	123.19
329.744	107.19
329.972	142.19
330.201	177.19
330.43	212.19
330.658	159.19
330.887	146.19
331.115	113.19
331.344	106.19
331.572	89.19
331.801	100.19
332.03	98.19
332.258	81.19
332.486	100.19
332.715	86.19
332.943	92.19
333.172	93.19
333.4	93.19
333.629	106.19
333.857	125.19
334.085	137.19
334.314	185.19
334.542	267.19
334.771	253.19
334.999	138.19
335.227	99.19
335.455	105.19
335.684	100.19
335.912	103.19
336.14	102.19
336.369	98.19
336.597	85.19
336.825	94.19
337.053	102.19
337.281	87.19
337.51	83.19
337.738	92.19
337.966	91.19
338.194	99.19
338.422	92.19
338.65	99.19
338.878	79.19
339.106	90.19
339.334	90.19
339.562	87.19
339.79	97.19
340.018	77.19
340.246	81.19
340.474	93.19
340.702	89.19
340.93	90.19
341.158	85.19
341.386	103.19
341.614	95.19
341.842	90.19
342.07	60.19
342.298	85.19
342.526	94.19
342.754	90.19
342.981	96.19
343.209	81.19
343.437	107.19
343.665	90.19
343.893	83.19
344.12	88.19
344.348	98.19
344.576	81.19
344.804	85.19
345.031	84.19
345.259	98.19
345.487	100.19
345.714	71.19
345.942	90.19
346.17	90.19
346.397	82.19
346.625	94.19
346.853	94.19
347.08	88.19
347.308	100.19
347.535	94.19
347.763	94.19
347.99	83.19
348.218	90.19
348.445	92.19
348.673	92.19
348.9	89.19
349.128	93.19
349.355	92.19
349.583	97.19
349.81	85.19
350.037	98.19
350.265	94.19
350.492	103.19
350.72	91.19
350.947	102.19
351.174	107.19
351.402	113.19
351.629	103.19
351.856	101.19
352.083	94.19
352.311	98.19
352.538	94.19
352.765	118.19
352.992	122.19
353.22	103.19
353.447	97.19
353.674	92.19
353.901	90.19
354.128	102.19
354.355	81.19
354.583	96.19
354.81	97.19
355.037	92.19
355.264	103.19
355.491	100.19
355.718	98.19
355.945	100.19
356.172	94.19
356.399	113.19
356.626	89.19
356.853	97.19
357.08	99.19
357.307	91.19
357.534	87.19
357.761	90.19
357.988	106.19
358.215	104.19
358.441	92.19
358.668	98.19
358.895	84.19
359.122	89.19
359.349	89.19
359.576	83.19
359.802	95.19
360.029	98.19
360.256	113.19
360.483	97.19
360.709	95.19
360.936	98.19
361.163	98.19
361.39	104.19
361.616	97.19
361.843	90.19
362.07	95.19
362.296	99.19
362.523	87.19
362.749	98.19
362.976	88.19
363.203	88.19
363.429	79.19
363.656	76.19
363.882	94.19
364.109	88.19
364.335	103.19
364.562	87.19
364.788	91.19
365.015	99.19
365.241	106.19
365.468	113.19
365.694	97.19
365.92	94.19
366.147	104.19
366.373	90.19
366.599	81.19
366.826	83.19
367.052	86.19
367.278	89.19
367.505	85.19
367.731	91.19
367.957	115.19
368.184	97.19
368.41	92.19
368.636	115.19
368.862	117.19
369.089	112.19
369.315	99.19
369.541	86.19
369.767	100.19
369.993	102.19
370.219	88.19
370.445	86.19
370.672	99.19
370.898	92.19
371.124	88.19
371.35	83.19
371.576	84.19
371.802	94.19
372.028	92.19
372.254	79.19
372.48	75.19
372.706	83.19
372.932	92.19
373.158	72.19
373.384	99.19
373.61	95.19
373.835	90.19
374.061	93.19
374.287	83.19
374.513	90.19
374.739	92.19
374.965	96.19
375.191	89.19
375.416	95.19
375.642	90.19
375.868	115.19
376.094	90.19
376.319	88.19
376.545	92.19
376.771	86.19
376.997	88.19
377.222	93.19
377.448	80.19
377.674	100.19
377.899	70.19
378.125	88.19
378.35	91.19
378.576	98.19
378.802	97.19
379.027	102.19
379.253	100.19
379.478	98.19
379.704	90.19
379.929	101.19
380.155	97.19
380.38	83.19
380.606	99.19
380.831	102.19
381.057	106.19
381.282	90.19
381.507	93.19
381.733	94.19
381.958	99.19
382.184	92.19
382.409	97.19
382.634	113.19
382.86	105.19
383.085	108.19
383.31	109.19
383.535	93.19
383.761	102.19
383.986	89.19
384.211	107.19
384.436	95.19
384.662	101.19
384.887	105.19
385.112	93.19
385.337	91.19
385.562	103.19
385.787	109.19
386.013	128.19
386.238	109.19
386.463	95.19
386.688	102.19
386.913	95.19
387.138	106.19
387.363	87.19
387.588	103.19
387.813	107.19
388.038	107.19
388.263	103.19
388.488	101.19
388.713	100.19
388.938	97.19
389.163	91.19
389.387	92.19
389.612	102.19
389.837	109.19
390.062	83.19
390.287	104.19
390.512	85.19
390.736	94.19
390.961	97.19
391.186	93.19
391.411	101.19
391.636	95.19
391.86	71.19
392.085	72.19
392.31	99.19
392.534	84.19
392.759	84.19
392.984	93.19
393.208	84.19
393.433	86.19
393.658	91.19
393.882	92.19
394.107	95.19
394.331	94.19
394.556	90.19
394.78	72.19
395.005	94.19
395.229	98.19
395.454	93.19
395.678	77.19
395.903	87.19
396.127	84.19
396.352	80.19
396.576	80.19
396.801	74.19
397.025	93.19
397.249	76.19
397.474	94.19
397.698	77.19
397.922	100.19
398.147	83.19
398.371	71.19
398.595	100.19
398.82	87.19
399.044	76.19
399.268	74.19
399.492	92.19
399.717	88.19
399.941	97.19
400.165	93.19
400.389	80.19
400.613	99.19
400.837	102.19
401.062	77.19
401.286	94.19
401.51	89.19
401.734	77.19
401.958	85.19
402.182	111.19
402.406	158.19
402.63	106.19
402.854	86.19
403.078	80.19
403.302	85.19
403.526	87.19
403.75	91.19
403.974	77.19
404.198	94.19
404.422	95.19
404.645	84.19
404.869	90.19
405.093	82.19
405.317	102.19
405.541	115.19
405.765	81.19
405.988	92.19
406.212	146.19
406.436	202.19
406.66	140.19
406.883	109.19
407.107	97.19
407.331	98.19
407.555	98.19
407.778	95.19
408.002	96.19
408.226	82.19
408.449	98.19
408.673	87.19
408.896	89.19
409.12	94.19
409.344	93.19
409.567	103.19
409.791	91.19
410.014	92.19
410.238	84.19
410.461	82.19
410.685	90.19
410.908	92.19
411.132	100.19
411.355	100.19
411.578	82.19
411.802	94.19
412.025	81.19
412.249	88.19
412.472	91.19
412.695	99.19
412.919	101.19
413.142	87.19
413.365	74.19
413.589	93.19
413.812	79.19
414.035	91.19
414.258	82.19
414.482	105.19
414.705	88.19
414.928	92.19
415.151	95.19
415.374	94.19
415.597	91.19
415.821	84.19
416.044	86.19
416.267	106.19
416.49	91.19
416.713	102.19
416.936	81.19
417.159	95.19
417.382	91.19
417.605	88.19
417.828	98.19
418.051	92.19
418.274	96.19
418.497	87.19
418.72	90.19
418.943	86.19
419.166	87.19
419.389	89.19
419.611	87.19
419.834	78.19
420.057	107.19
420.28	89.19
420.503	73.19
420.726	95.19
420.948	92.19
421.171	84.19
421.394	77.19
421.617	79.19
421.839	91.19
422.062	84.19
422.285	106.19
422.507	89.19
422.73	118.19
422.953	96.19
423.175	80.19
423.398	89.19
423.621	91.19
423.843	89.19
424.066	61.19
424.288	92.19
424.511	100.19
424.733	100.19
424.956	103.19
425.178	102.19
425.401	95.19
425.623	115.19
425.846	82.19
426.068	100.19
426.291	100.19
426.513	87.19
426.735	90.19
426.958	90.19
427.18	94.19
427.402	107.19
427.625	148.19
427.847	143.19
428.069	121.19
428.292	78.19
428.514	90.19
428.736	81.19
428.958	87.19
429.181	84.19
429.403	75.19
429.625	102.19
429.847	98.19
430.069	101.19
430.292	101.19
430.514	103.19
430.736	94.19
430.958	96.19
431.18	82.19
431.402	87.19
431.624	91.19
431.846	84.19
432.068	83.19
432.29	82.19
432.512	87.19
432.734	89.19
432.956	89.19
433.178	84.19
433.4	90.19
433.622	98.19
433.844	83.19
434.066	99.19
434.287	85.19
434.509	89.19
434.731	88.19
434.953	90.19
435.175	94.19
435.397	92.19
435.618	95.19
435.84	94.19
436.062	110.19
436.284	99.19
436.505	103.19
436.727	103.19
436.949	97.19
437.17	79.19
437.392	84.19
437.614	83.19
437.835	115.19
438.057	107.19
438.278	94.19
438.5	113.19
438.721	133.19
438.943	94.19
439.165	94.19
439.386	90.19
439.608	94.19
439.829	93.19
440.05	107.19
440.272	116.19
440.493	93.19
440.715	103.19
440.936	88.19
441.158	81.19
441.379	83.19
441.6	98.19
441.822	90.19
442.043	85.19
442.264	93.19
442.486	101.19
442.707	111.19
442.928	101.19
443.149	124.19
443.371	123.19
443.592	118.19
443.813	104.19
444.034	106.19
444.255	91.19
444.476	93.19
444.698	79.19
444.919	89.19
445.14	123.19
445.361	118.19
445.582	103.19
445.803	132.19
446.024	121.19
446.245	120.19
446.466	99.19
446.687	85.19
446.908	86.19
447.129	81.19
447.35	89.19
447.571	92.19
447.792	88.19
448.013	100.19
448.234	103.19
448.455	92.19
448.675	105.19
448.896	119.19
449.117	106.19
449.338	89.19
449.559	110.19
449.779	104.19
450	101.19
450.221	74.19
450.442	83.19
450.662	92.19
450.883	104.19
451.104	103.19
451.324	79.19
451.545	102.19
451.766	89.19
451.986	92.19
452.207	96.19
452.428	98.19
452.648	104.19
452.869	111.19
453.089	107.19
453.31	102.19
453.53	86.19
453.751	86.19
453.971	98.19
454.192	104.19
454.412	89.19
454.633	91.19
454.853	87.19
455.073	81.19
455.294	79.19
455.514	91.19
455.734	72.19
455.955	83.19
456.175	89.19
456.395	90.19
456.616	70.19
456.836	85.19
457.056	81.19
457.276	87.19
457.497	73.19
457.717	85.19
457.937	83.19
458.157	89.19
458.377	89.19
458.598	114.19
458.818	117.19
459.038	144.19
459.258	113.19
459.478	86.19
459.698	74.19
459.918	109.19
460.138	105.19
460.358	95.19
460.578	95.19
460.798	90.19
461.018	94.19
461.238	92.19
461.458	78.19
461.678	81.19
461.898	81.19
462.118	87.19
462.338	91.19
462.558	88.19
462.777	82.19
462.997	87.19
463.217	100.19
463.437	87.19
463.657	82.19
463.876	98.19
464.096	98.19
464.316	87.19
464.536	83.19
464.755	83.19
464.975	94.19
465.195	142.19
465.414	140.19
465.634	99.19
465.854	95.19
466.073	90.19
466.293	86.19
466.512	85.19
466.732	96.19
466.951	95.19
467.171	91.19
467.391	95.19
467.61	107.19
467.829	100.19
468.049	125.19
468.268	169.19
468.488	101.19
468.707	96.19
468.927	85.19
469.146	83.19
469.365	79.19
469.585	85.19
469.804	93.19
470.023	90.19
470.243	86.19
470.462	98.19
470.681	108.19
470.901	94.19
471.12	86.19
471.339	93.19
471.558	91.19
471.777	92.19
471.997	103.19
472.216	195.19
472.435	355.19
472.654	147.19
472.873	87.19
473.092	103.19
473.311	95.19
473.53	95.19
473.749	95.19
473.968	92.19
474.187	79.19
474.406	92.19
474.625	104.19
474.844	75.19
475.063	82.19
475.282	85.19
475.501	82.19
475.72	87.19
475.939	90.19
476.158	82.19
476.377	94.19
476.596	95.19
476.814	94.19
477.033	82.19
477.252	83.19
477.471	99.19
477.69	109.19
477.908	87.19
478.127	90.19
478.346	93.19
478.564	95.19
478.783	84.19
479.002	89.19
479.22	96.19
479.439	92.19
479.658	98.19
479.876	119.19
480.095	101.19
480.313	90.19
480.532	117.19
480.751	114.19
480.969	202.19
481.188	570.19
481.406	371.19
481.624	117.19
481.843	95.19
482.061	86.19
482.28	79.19
482.498	98.19
482.717	89.19
482.935	87.19
483.153	83.19
483.372	102.19
483.59	91.19
483.808	95.19
484.027	101.19
484.245	91.19
484.463	96.19
484.681	100.19
484.9	82.19
485.118	95.19
485.336	96.19
485.554	103.19
485.772	83.19
485.99	89.19
486.209	107.19
486.427	113.19
486.645	100.19
486.863	97.19
487.081	107.19
487.299	93.19
487.517	101.19
487.735	86.19
487.953	89.19
488.171	94.19
488.389	89.19
488.607	84.19
488.825	84.19
489.043	89.19
489.261	94.19
489.479	96.19
489.696	96.19
489.914	94.19
490.132	89.19
490.35	87.19
490.568	84.19
490.786	81.19
491.003	83.19
491.221	104.19
491.439	84.19
491.657	100.19
491.874	88.19
492.092	93.19
492.31	86.19
492.527	85.19
492.745	81.19
492.963	86.19
493.18	81.19
493.398	99.19
493.615	91.19
493.833	82.19
494.05	84.19
494.268	92.19
494.485	85.19
494.703	93.19
494.92	86.19
495.138	87.19
495.355	93.19
495.573	94.19
495.79	95.19
496.008	92.19
496.225	78.19
496.442	91.19
496.66	86.19
496.877	85.19
497.094	84.19
497.312	85.19
497.529	89.19
497.746	96.19
497.963	85.19
498.181	89.19
498.398	86.19
498.615	108.19
498.832	122.19
499.049	92.19
499.267	83.19
499.484	80.19
499.701	78.19
499.918	103.19
500.135	84.19
500.352	87.19
500.569	93.19
500.786	95.19
501.003	94.19
501.22	81.19
501.437	100.19
501.654	96.19
501.871	107.19
502.088	99.19
502.305	77.19
502.522	86.19
502.739	84.19
502.956	75.19
503.172	94.19
503.389	99.19
503.606	105.19
503.823	87.19
504.04	78.19
504.256	99.19
504.473	91.19
504.69	86.19
504.907	86.19
505.123	96.19
505.34	91.19
505.557	88.19
505.773	92.19
505.99	91.19
506.207	94.19
506.423	87.19
506.64	101.19
506.856	97.19
507.073	104.19
507.289	94.19
507.506	107.19
507.722	102.19
507.939	107.19
508.155	90.19
508.372	82.19
508.588	92.19
508.805	102.19
509.021	89.19
509.238	90.19
509.454	92.19
509.67	96.19
509.887	109.19
510.103	133.19
510.319	192.19
510.536	639.19
510.752	2067.19
510.968	626.19
511.184	169.19
511.401	106.19
511.617	107.19
511.833	78.19
512.049	102.19
512.265	91.19
512.481	95.19
512.698	94.19
512.914	94.19
513.13	89.19
513.346	98.19
513.562	86.19
513.778	97.19
513.994	99.19
514.21	106.19
514.426	101.19
514.642	127.19
514.858	121.19
515.074	145.19
515.29	380.19
515.506	1188.19
515.721	482.19
