Data from Circ_2015_H10_HRD10591_00009.txt Node
Date: Wed Jan 03 10:00:24 EST 2024
User: Yrep
Spectrometer: HR+D1059
Trigger mode: 1
Integration Time (sec): 1.000000E-1
Scans to average: 1
Electric dark correction enabled: true
Nonlinearity correction enabled: false
Boxcar width: 0
XAxis mode: Wavelengths
Number of Pixels in Spectrum: 2048
>>>>>Begin Spectral Data<<<<<
223.165	-21.31
223.4	-21.31
223.635	-21.31
223.869	-29.31
224.104	-17.31
224.338	-16.31
224.573	-27.31
224.808	-26.31
225.042	-3.31
225.277	7.69
225.511	-8.31
225.746	6.69
225.98	15.69
226.215	13.69
226.449	23.69
226.683	35.69
226.918	20.69
227.152	25.69
227.387	20.69
227.621	23.69
227.856	43.69
228.09	41.69
228.324	47.69
228.559	56.69
228.793	49.69
229.027	58.69
229.262	59.69
229.496	73.69
229.73	84.69
229.964	77.69
230.199	83.69
230.433	75.69
230.667	88.69
230.901	82.69
231.136	66.69
231.37	73.69
231.604	79.69
231.838	73.69
232.072	77.69
232.306	84.69
232.541	86.69
232.775	77.69
233.009	75.69
233.243	87.69
233.477	77.69
233.711	84.69
233.945	84.69
234.179	60.69
234.413	73.69
234.647	93.69
234.881	82.69
235.115	85.69
235.349	78.69
235.583	82.69
235.817	89.69
236.051	87.69
236.285	92.69
236.519	84.69
236.753	89.69
236.987	89.69
237.221	83.69
237.455	84.69
237.689	73.69
237.922	89.69
238.156	71.69
238.39	58.69
238.624	77.69
238.858	76.69
239.091	70.69
239.325	70.69
239.559	83.69
239.793	88.69
240.027	79.69
240.26	85.69
240.494	67.69
240.728	69.69
240.961	73.69
241.195	61.69
241.429	71.69
241.662	84.69
241.896	77.69
242.13	92.69
242.363	78.69
242.597	77.69
242.83	74.69
243.064	79.69
243.298	75.69
243.531	81.69
243.765	74.69
243.998	93.69
244.232	86.69
244.465	75.69
244.699	71.69
244.932	79.69
245.166	82.69
245.399	88.69
245.633	81.69
245.866	79.69
246.099	70.69
246.333	70.69
246.566	81.69
246.8	76.69
247.033	75.69
247.266	79.69
247.5	79.69
247.733	85.69
247.966	77.69
248.2	85.69
248.433	91.69
248.666	82.69
248.899	83.69
249.133	87.69
249.366	102.69
249.599	95.69
249.832	81.69
250.066	86.69
250.299	66.69
250.532	70.69
250.765	81.69
250.998	77.69
251.231	72.69
251.465	75.69
251.698	90.69
251.931	83.69
252.164	90.69
252.397	95.69
252.63	80.69
252.863	85.69
253.096	86.69
253.329	81.69
253.562	75.69
253.795	82.69
254.028	82.69
254.261	77.69
254.494	70.69
254.727	83.69
254.96	83.69
255.193	71.69
255.426	87.69
255.659	78.69
255.892	88.69
256.124	73.69
256.357	84.69
256.59	82.69
256.823	81.69
257.056	89.69
257.289	80.69
257.521	76.69
257.754	79.69
257.987	83.69
258.22	70.69
258.452	85.69
258.685	82.69
258.918	78.69
259.151	82.69
259.383	88.69
259.616	82.69
259.849	95.69
260.081	80.69
260.314	67.69
260.547	82.69
260.779	81.69
261.012	85.69
261.244	84.69
261.477	84.69
261.71	76.69
261.942	115.69
262.175	118.69
262.407	87.69
262.64	91.69
262.872	81.69
263.105	83.69
263.337	76.69
263.57	79.69
263.802	83.69
264.035	90.69
264.267	73.69
264.499	69.69
264.732	82.69
264.964	92.69
265.197	79.69
265.429	85.69
265.661	90.69
265.894	94.69
266.126	73.69
266.358	78.69
266.591	89.69
266.823	85.69
267.055	76.69
267.287	80.69
267.52	87.69
267.752	87.69
267.984	88.69
268.216	76.69
268.448	77.69
268.681	85.69
268.913	88.69
269.145	97.69
269.377	94.69
269.609	77.69
269.841	87.69
270.073	87.69
270.306	80.69
270.538	89.69
270.77	75.69
271.002	87.69
271.234	83.69
271.466	83.69
271.698	83.69
271.93	94.69
272.162	77.69
272.394	79.69
272.626	79.69
272.858	94.69
273.09	82.69
273.322	90.69
273.553	84.69
273.785	88.69
274.017	85.69
274.249	79.69
274.481	78.69
274.713	71.69
274.945	79.69
275.176	77.69
275.408	83.69
275.64	69.69
275.872	93.69
276.104	94.69
276.335	86.69
276.567	92.69
276.799	100.69
277.031	100.69
277.262	85.69
277.494	79.69
277.726	97.69
277.957	74.69
278.189	85.69
278.421	85.69
278.652	74.69
278.884	99.69
279.115	93.69
279.347	77.69
279.579	97.69
279.81	88.69
280.042	80.69
280.273	97.69
280.505	90.69
280.736	99.69
280.968	83.69
281.199	86.69
281.431	86.69
281.662	88.69
281.894	94.69
282.125	94.69
282.356	113.69
282.588	117.69
282.819	110.69
283.051	89.69
283.282	94.69
283.513	89.69
283.745	95.69
283.976	73.69
284.207	90.69
284.439	87.69
284.67	93.69
284.901	83.69
285.132	75.69
285.364	91.69
285.595	89.69
285.826	79.69
286.057	84.69
286.288	73.69
286.52	89.69
286.751	92.69
286.982	85.69
287.213	87.69
287.444	93.69
287.675	89.69
287.906	88.69
288.138	93.69
288.369	88.69
288.6	94.69
288.831	78.69
289.062	98.69
289.293	88.69
289.524	93.69
289.755	97.69
289.986	92.69
290.217	94.69
290.448	94.69
290.679	85.69
290.91	88.69
291.141	78.69
291.371	79.69
291.602	84.69
291.833	83.69
292.064	81.69
292.295	85.69
292.526	81.69
292.757	92.69
292.987	89.69
293.218	84.69
293.449	86.69
293.68	86.69
293.91	77.69
294.141	78.69
294.372	79.69
294.603	71.69
294.833	75.69
295.064	81.69
295.295	80.69
295.525	81.69
295.756	88.69
295.987	90.69
296.217	129.69
296.448	121.69
296.679	91.69
296.909	74.69
297.14	101.69
297.37	89.69
297.601	90.69
297.831	96.69
298.062	90.69
298.292	93.69
298.523	91.69
298.753	87.69
298.984	92.69
299.214	89.69
299.445	89.69
299.675	85.69
299.905	93.69
300.136	82.69
300.366	86.69
300.597	79.69
300.827	90.69
301.057	102.69
301.288	103.69
301.518	99.69
301.748	85.69
301.979	107.69
302.209	84.69
302.439	102.69
302.669	94.69
302.9	91.69
303.13	85.69
303.36	92.69
303.59	100.69
303.82	109.69
304.051	92.69
304.281	74.69
304.511	94.69
304.741	83.69
304.971	82.69
305.201	77.69
305.431	90.69
305.661	98.69
305.891	93.69
306.121	96.69
306.352	79.69
306.582	93.69
306.812	99.69
307.042	91.69
307.272	97.69
307.502	112.69
307.731	87.69
307.961	82.69
308.191	116.69
308.421	93.69
308.651	90.69
308.881	85.69
309.111	95.69
309.341	102.69
309.571	89.69
309.8	88.69
310.03	81.69
310.26	73.69
310.49	79.69
310.72	84.69
310.949	93.69
311.179	101.69
311.409	93.69
311.639	79.69
311.868	90.69
312.098	77.69
312.328	82.69
312.557	104.69
312.787	110.69
313.017	104.69
313.246	85.69
313.476	82.69
313.706	87.69
313.935	97.69
314.165	98.69
314.394	95.69
314.624	82.69
314.853	89.69
315.083	91.69
315.312	93.69
315.542	88.69
315.771	84.69
316.001	89.69
316.23	92.69
316.46	91.69
316.689	95.69
316.919	92.69
317.148	96.69
317.377	97.69
317.607	92.69
317.836	79.69
318.065	87.69
318.295	87.69
318.524	88.69
318.753	93.69
318.983	85.69
319.212	114.69
319.441	93.69
319.67	90.69
319.9	99.69
320.129	82.69
320.358	101.69
320.587	104.69
320.816	102.69
321.046	105.69
321.275	96.69
321.504	91.69
321.733	94.69
321.962	84.69
322.191	106.69
322.42	100.69
322.649	102.69
322.878	99.69
323.108	115.69
323.337	122.69
323.566	150.69
323.795	134.69
324.024	187.69
324.253	352.69
324.482	762.69
324.71	1502.69
324.939	2010.69
325.168	774.69
325.397	235.69
325.626	146.69
325.855	131.69
326.084	126.69
326.313	134.69
326.542	151.69
326.77	214.69
326.999	415.69
327.228	877.69
327.457	1570.69
327.686	1259.69
327.914	339.69
328.143	188.69
328.372	139.69
328.6	116.69
328.829	115.69
329.058	109.69
329.287	113.69
329.515	108.69
329.744	92.69
329.972	112.69
330.201	118.69
330.43	114.69
330.658	116.69
330.887	118.69
331.115	124.69
331.344	95.69
331.572	98.69
331.801	89.69
332.03	101.69
332.258	108.69
332.486	82.69
332.715	96.69
332.943	95.69
333.172	92.69
333.4	95.69
333.629	102.69
333.857	117.69
334.085	106.69
334.314	127.69
334.542	132.69
334.771	118.69
334.999	108.69
335.227	91.69
335.455	75.69
335.684	96.69
335.912	93.69
336.14	106.69
336.369	89.69
336.597	101.69
336.825	91.69
337.053	100.69
337.281	99.69
337.51	89.69
337.738	98.69
337.966	100.69
338.194	78.69
338.422	88.69
338.65	93.69
338.878	90.69
339.106	89.69
339.334	95.69
339.562	94.69
339.79	76.69
340.018	76.69
340.246	77.69
340.474	92.69
340.702	87.69
340.93	92.69
341.158	94.69
341.386	83.69
341.614	86.69
341.842	101.69
342.07	95.69
342.298	94.69
342.526	78.69
342.754	93.69
342.981	77.69
343.209	82.69
343.437	107.69
343.665	89.69
343.893	82.69
344.12	91.69
344.348	113.69
344.576	93.69
344.804	89.69
345.031	89.69
345.259	77.69
345.487	105.69
345.714	90.69
345.942	86.69
346.17	90.69
346.397	92.69
346.625	95.69
346.853	89.69
347.08	84.69
347.308	97.69
347.535	87.69
347.763	98.69
347.99	101.69
348.218	106.69
348.445	110.69
348.673	97.69
348.9	108.69
349.128	91.69
349.355	99.69
349.583	102.69
349.81	79.69
350.037	90.69
350.265	105.69
350.492	117.69
350.72	91.69
350.947	99.69
351.174	102.69
351.402	106.69
351.629	119.69
351.856	103.69
352.083	95.69
352.311	105.69
352.538	97.69
352.765	105.69
352.992	98.69
353.22	96.69
353.447	111.69
353.674	109.69
353.901	90.69
354.128	105.69
354.355	95.69
354.583	92.69
354.81	92.69
355.037	79.69
355.264	93.69
355.491	91.69
355.718	98.69
355.945	96.69
356.172	97.69
356.399	88.69
356.626	93.69
356.853	98.69
357.08	98.69
357.307	85.69
357.534	104.69
357.761	97.69
357.988	106.69
358.215	100.69
358.441	111.69
358.668	93.69
358.895	95.69
359.122	87.69
359.349	90.69
359.576	84.69
359.802	97.69
360.029	109.69
360.256	102.69
360.483	89.69
360.709	90.69
360.936	93.69
361.163	75.69
361.39	98.69
361.616	98.69
361.843	93.69
362.07	90.69
362.296	86.69
362.523	85.69
362.749	95.69
362.976	93.69
363.203	88.69
363.429	88.69
363.656	92.69
363.882	95.69
364.109	87.69
364.335	94.69
364.562	87.69
364.788	81.69
365.015	98.69
365.241	93.69
365.468	114.69
365.694	97.69
365.92	89.69
366.147	87.69
366.373	88.69
366.599	101.69
366.826	87.69
367.052	99.69
367.278	92.69
367.505	92.69
367.731	96.69
367.957	102.69
368.184	82.69
368.41	89.69
368.636	101.69
368.862	96.69
369.089	93.69
369.315	100.69
369.541	90.69
369.767	95.69
369.993	93.69
370.219	92.69
370.445	93.69
370.672	85.69
370.898	71.69
371.124	96.69
371.35	92.69
371.576	75.69
371.802	86.69
372.028	83.69
372.254	83.69
372.48	76.69
372.706	89.69
372.932	98.69
373.158	90.69
373.384	85.69
373.61	105.69
373.835	90.69
374.061	81.69
374.287	95.69
374.513	92.69
374.739	86.69
374.965	82.69
375.191	79.69
375.416	94.69
375.642	101.69
375.868	90.69
376.094	91.69
376.319	89.69
376.545	89.69
376.771	89.69
376.997	106.69
377.222	89.69
377.448	89.69
377.674	76.69
377.899	86.69
378.125	89.69
378.35	92.69
378.576	86.69
378.802	82.69
379.027	110.69
379.253	101.69
379.478	91.69
379.704	83.69
379.929	89.69
380.155	103.69
380.38	100.69
380.606	98.69
380.831	107.69
381.057	92.69
381.282	100.69
381.507	108.69
381.733	115.69
381.958	92.69
382.184	93.69
382.409	113.69
382.634	108.69
382.86	92.69
383.085	120.69
383.31	134.69
383.535	107.69
383.761	105.69
383.986	121.69
384.211	108.69
384.436	115.69
384.662	105.69
384.887	115.69
385.112	135.69
385.337	122.69
385.562	103.69
385.787	114.69
386.013	124.69
386.238	124.69
386.463	114.69
386.688	120.69
386.913	119.69
387.138	110.69
387.363	130.69
387.588	100.69
387.813	129.69
388.038	122.69
388.263	122.69
388.488	116.69
388.713	102.69
388.938	93.69
389.163	92.69
389.387	98.69
389.612	101.69
389.837	77.69
390.062	107.69
390.287	103.69
390.512	82.69
390.736	89.69
390.961	94.69
391.186	89.69
391.411	87.69
391.636	106.69
391.86	100.69
392.085	91.69
392.31	95.69
392.534	83.69
392.759	90.69
392.984	107.69
393.208	97.69
393.433	112.69
393.658	97.69
393.882	80.69
394.107	78.69
394.331	74.69
394.556	90.69
394.78	85.69
395.005	96.69
395.229	93.69
395.454	87.69
395.678	80.69
395.903	94.69
396.127	98.69
396.352	89.69
396.576	98.69
396.801	101.69
397.025	121.69
397.249	95.69
397.474	83.69
397.698	105.69
397.922	85.69
398.147	82.69
398.371	88.69
398.595	98.69
398.82	83.69
399.044	98.69
399.268	98.69
399.492	92.69
399.717	92.69
399.941	94.69
400.165	95.69
400.389	99.69
400.613	71.69
400.837	96.69
401.062	89.69
401.286	78.69
401.51	91.69
401.734	92.69
401.958	89.69
402.182	108.69
402.406	135.69
402.63	120.69
402.854	101.69
403.078	97.69
403.302	88.69
403.526	94.69
403.75	86.69
403.974	84.69
404.198	94.69
404.422	99.69
404.645	108.69
404.869	82.69
405.093	93.69
405.317	101.69
405.541	107.69
405.765	109.69
405.988	102.69
406.212	157.69
406.436	197.69
406.66	119.69
406.883	103.69
407.107	88.69
407.331	91.69
407.555	96.69
407.778	82.69
408.002	84.69
408.226	71.69
408.449	67.69
408.673	95.69
408.896	100.69
409.12	89.69
409.344	89.69
409.567	97.69
409.791	98.69
410.014	99.69
410.238	95.69
410.461	82.69
410.685	94.69
410.908	105.69
411.132	91.69
411.355	109.69
411.578	100.69
411.802	77.69
412.025	95.69
412.249	96.69
412.472	90.69
412.695	100.69
412.919	91.69
413.142	81.69
413.365	81.69
413.589	76.69
413.812	82.69
414.035	91.69
414.258	87.69
414.482	75.69
414.705	80.69
414.928	89.69
415.151	80.69
415.374	102.69
415.597	93.69
415.821	89.69
416.044	97.69
416.267	89.69
416.49	82.69
416.713	74.69
416.936	88.69
417.159	100.69
417.382	87.69
417.605	85.69
417.828	94.69
418.051	91.69
418.274	89.69
418.497	96.69
418.72	83.69
418.943	84.69
419.166	76.69
419.389	92.69
419.611	89.69
419.834	105.69
420.057	87.69
420.28	92.69
420.503	80.69
420.726	90.69
420.948	97.69
421.171	88.69
421.394	88.69
421.617	98.69
421.839	96.69
422.062	93.69
422.285	101.69
422.507	97.69
422.73	107.69
422.953	110.69
423.175	93.69
423.398	89.69
423.621	98.69
423.843	88.69
424.066	98.69
424.288	98.69
424.511	92.69
424.733	88.69
424.956	91.69
425.178	92.69
425.401	90.69
425.623	99.69
425.846	96.69
426.068	106.69
426.291	96.69
426.513	89.69
426.735	86.69
426.958	93.69
427.18	99.69
427.402	131.69
427.625	135.69
427.847	135.69
428.069	105.69
428.292	91.69
428.514	87.69
428.736	81.69
428.958	81.69
429.181	98.69
429.403	108.69
429.625	92.69
429.847	91.69
430.069	101.69
430.292	91.69
430.514	85.69
430.736	86.69
430.958	93.69
431.18	73.69
431.402	85.69
431.624	86.69
431.846	83.69
432.068	92.69
432.29	95.69
432.512	93.69
432.734	93.69
432.956	90.69
433.178	78.69
433.4	83.69
433.622	98.69
433.844	93.69
434.066	78.69
434.287	99.69
434.509	83.69
434.731	92.69
434.953	90.69
435.175	90.69
435.397	87.69
435.618	101.69
435.84	87.69
436.062	114.69
436.284	117.69
436.505	107.69
436.727	97.69
436.949	105.69
437.17	90.69
437.392	87.69
437.614	95.69
437.835	101.69
438.057	106.69
438.278	102.69
438.5	98.69
438.721	109.69
438.943	99.69
439.165	97.69
439.386	89.69
439.608	96.69
439.829	97.69
440.05	113.69
440.272	141.69
440.493	98.69
440.715	83.69
440.936	89.69
441.158	75.69
441.379	92.69
441.6	92.69
441.822	103.69
442.043	98.69
442.264	110.69
442.486	97.69
442.707	99.69
442.928	106.69
443.149	122.69
443.371	107.69
443.592	102.69
443.813	112.69
444.034	103.69
444.255	99.69
444.476	90.69
444.698	93.69
444.919	82.69
445.14	130.69
445.361	120.69
445.582	117.69
445.803	116.69
446.024	118.69
446.245	118.69
446.466	117.69
446.687	94.69
446.908	94.69
447.129	97.69
447.35	87.69
447.571	96.69
447.792	84.69
448.013	102.69
448.234	99.69
448.455	113.69
448.675	101.69
448.896	118.69
449.117	101.69
449.338	90.69
449.559	121.69
449.779	120.69
450	84.69
450.221	92.69
450.442	68.69
450.662	90.69
450.883	99.69
451.104	110.69
451.324	97.69
451.545	91.69
451.766	83.69
451.986	96.69
452.207	89.69
452.428	89.69
452.648	102.69
452.869	101.69
453.089	94.69
453.31	102.69
453.53	92.69
453.751	75.69
453.971	91.69
454.192	113.69
454.412	84.69
454.633	87.69
454.853	99.69
455.073	91.69
455.294	108.69
455.514	82.69
455.734	78.69
455.955	88.69
456.175	86.69
456.395	81.69
456.616	85.69
456.836	82.69
457.056	83.69
457.276	95.69
457.497	80.69
457.717	93.69
457.937	85.69
458.157	77.69
458.377	86.69
458.598	112.69
458.818	142.69
459.038	133.69
459.258	116.69
459.478	100.69
459.698	79.69
459.918	85.69
460.138	89.69
460.358	75.69
460.578	87.69
460.798	88.69
461.018	94.69
461.238	94.69
461.458	98.69
461.678	81.69
461.898	90.69
462.118	83.69
462.338	82.69
462.558	83.69
462.777	84.69
462.997	80.69
463.217	86.69
463.437	75.69
463.657	84.69
463.876	84.69
464.096	92.69
464.316	87.69
464.536	99.69
464.755	97.69
464.975	98.69
465.195	128.69
465.414	135.69
465.634	102.69
465.854	84.69
466.073	85.69
466.293	66.69
466.512	94.69
466.732	85.69
466.951	96.69
467.171	101.69
467.391	90.69
467.61	94.69
467.829	79.69
468.049	94.69
468.268	110.69
468.488	95.69
468.707	98.69
468.927	90.69
469.146	94.69
469.365	101.69
469.585	93.69
469.804	88.69
470.023	98.69
470.243	87.69
470.462	94.69
470.681	107.69
470.901	95.69
471.12	93.69
471.339	92.69
471.558	87.69
471.777	86.69
471.997	91.69
472.216	104.69
472.435	116.69
472.654	103.69
472.873	90.69
473.092	87.69
473.311	79.69
473.53	92.69
473.749	84.69
473.968	97.69
474.187	105.69
474.406	93.69
474.625	89.69
474.844	90.69
475.063	79.69
475.282	98.69
475.501	80.69
475.72	79.69
475.939	81.69
476.158	93.69
476.377	94.69
476.596	91.69
476.814	95.69
477.033	93.69
477.252	75.69
477.471	94.69
477.69	87.69
477.908	80.69
478.127	96.69
478.346	88.69
478.564	92.69
478.783	82.69
479.002	90.69
479.22	86.69
479.439	96.69
479.658	106.69
479.876	88.69
480.095	95.69
480.313	94.69
480.532	97.69
480.751	85.69
480.969	117.69
481.188	173.69
481.406	136.69
481.624	90.69
481.843	92.69
482.061	95.69
482.28	102.69
482.498	86.69
482.717	87.69
482.935	91.69
483.153	79.69
483.372	92.69
483.59	86.69
483.808	94.69
484.027	96.69
484.245	82.69
484.463	91.69
484.681	92.69
484.9	90.69
485.118	104.69
485.336	100.69
485.554	101.69
485.772	106.69
485.99	110.69
486.209	113.69
486.427	101.69
486.645	111.69
486.863	118.69
487.081	94.69
487.299	91.69
487.517	86.69
487.735	104.69
487.953	93.69
488.171	92.69
488.389	86.69
488.607	95.69
488.825	99.69
489.043	86.69
489.261	99.69
489.479	85.69
489.696	101.69
489.914	88.69
490.132	85.69
490.35	92.69
490.568	86.69
490.786	95.69
491.003	91.69
491.221	98.69
491.439	89.69
491.657	87.69
491.874	103.69
492.092	103.69
492.31	93.69
492.527	88.69
492.745	95.69
492.963	92.69
493.18	87.69
493.398	98.69
493.615	108.69
493.833	97.69
494.05	81.69
494.268	63.69
494.485	89.69
494.703	96.69
494.92	81.69
495.138	87.69
495.355	90.69
495.573	84.69
495.79	91.69
496.008	94.69
496.225	96.69
496.442	97.69
496.66	99.69
496.877	81.69
497.094	100.69
497.312	88.69
497.529	94.69
497.746	87.69
497.963	82.69
498.181	106.69
498.398	102.69
498.615	110.69
498.832	106.69
499.049	86.69
499.267	87.69
499.484	100.69
499.701	89.69
499.918	86.69
500.135	94.69
500.352	100.69
500.569	88.69
500.786	95.69
501.003	86.69
501.22	96.69
501.437	85.69
501.654	89.69
501.871	102.69
502.088	100.69
502.305	97.69
502.522	88.69
502.739	93.69
502.956	102.69
503.172	93.69
503.389	100.69
503.606	93.69
503.823	100.69
504.04	81.69
504.256	89.69
504.473	84.69
504.69	94.69
504.907	95.69
505.123	94.69
505.34	96.69
505.557	82.69
505.773	78.69
505.99	81.69
506.207	90.69
506.423	100.69
506.64	95.69
506.856	99.69
507.073	98.69
507.289	93.69
507.506	97.69
507.722	97.69
507.939	87.69
508.155	97.69
508.372	103.69
508.588	113.69
508.805	95.69
509.021	104.69
509.238	96.69
509.454	107.69
509.67	114.69
509.887	107.69
510.103	119.69
510.319	189.69
510.536	625.69
510.752	2041.69
510.968	618.69
511.184	148.69
511.401	110.69
511.617	108.69
511.833	102.69
512.049	90.69
512.265	103.69
512.481	105.69
512.698	96.69
512.914	94.69
513.13	101.69
513.346	94.69
513.562	81.69
513.778	84.69
513.994	86.69
514.21	97.69
514.426	112.69
514.642	112.69
514.858	107.69
515.074	139.69
515.29	354.69
515.506	1154.69
515.721	463.69
