Data from Circ_2015_H10_HRD10591_00005.txt Node
Date: Wed Jan 03 10:00:23 EST 2024
User: Yrep
Spectrometer: HR+D1059
Trigger mode: 1
Integration Time (sec): 1.000000E-1
Scans to average: 1
Electric dark correction enabled: true
Nonlinearity correction enabled: false
Boxcar width: 0
XAxis mode: Wavelengths
Number of Pixels in Spectrum: 2048
>>>>>Begin Spectral Data<<<<<
223.165	-22.75
223.4	-22.75
223.635	-22.75
223.869	-19.75
224.104	-19.75
224.338	-23.75
224.573	-12.75
224.808	-12.75
225.042	-11.75
225.277	1.25
225.511	-11.75
225.746	9.25
225.98	15.25
226.215	19.25
226.449	5.25
226.683	30.25
226.918	15.25
227.152	39.25
227.387	18.25
227.621	25.25
227.856	32.25
228.09	50.25
228.324	52.25
228.559	54.25
228.793	60.25
229.027	57.25
229.262	67.25
229.496	55.25
229.73	78.25
229.964	65.25
230.199	69.25
230.433	84.25
230.667	84.25
230.901	60.25
231.136	67.25
231.37	73.25
231.604	78.25
231.838	62.25
232.072	71.25
232.306	71.25
232.541	72.25
232.775	79.25
233.009	75.25
233.243	89.25
233.477	76.25
233.711	73.25
233.945	85.25
234.179	72.25
234.413	80.25
234.647	73.25
234.881	79.25
235.115	70.25
235.349	74.25
235.583	83.25
235.817	69.25
236.051	66.25
236.285	66.25
236.519	61.25
236.753	77.25
236.987	92.25
237.221	77.25
237.455	80.25
237.689	82.25
237.922	72.25
238.156	73.25
238.39	73.25
238.624	54.25
238.858	70.25
239.091	53.25
239.325	77.25
239.559	69.25
239.793	64.25
240.027	75.25
240.26	75.25
240.494	58.25
240.728	84.25
240.961	71.25
241.195	71.25
241.429	66.25
241.662	69.25
241.896	80.25
242.13	74.25
242.363	75.25
242.597	75.25
242.83	84.25
243.064	75.25
243.298	75.25
243.531	72.25
243.765	64.25
243.998	72.25
244.232	78.25
244.465	70.25
244.699	55.25
244.932	72.25
245.166	76.25
245.399	80.25
245.633	69.25
245.866	72.25
246.099	67.25
246.333	72.25
246.566	65.25
246.8	63.25
247.033	72.25
247.266	85.25
247.5	77.25
247.733	76.25
247.966	76.25
248.2	74.25
248.433	57.25
248.666	73.25
248.899	68.25
249.133	77.25
249.366	87.25
249.599	78.25
249.832	71.25
250.066	74.25
250.299	71.25
250.532	74.25
250.765	71.25
250.998	73.25
251.231	66.25
251.465	78.25
251.698	75.25
251.931	83.25
252.164	67.25
252.397	65.25
252.63	71.25
252.863	69.25
253.096	81.25
253.329	76.25
253.562	72.25
253.795	73.25
254.028	75.25
254.261	75.25
254.494	83.25
254.727	71.25
254.96	88.25
255.193	70.25
255.426	86.25
255.659	64.25
255.892	84.25
256.124	72.25
256.357	70.25
256.59	64.25
256.823	72.25
257.056	80.25
257.289	66.25
257.521	71.25
257.754	69.25
257.987	84.25
258.22	67.25
258.452	75.25
258.685	81.25
258.918	78.25
259.151	72.25
259.383	79.25
259.616	96.25
259.849	77.25
260.081	84.25
260.314	73.25
260.547	65.25
260.779	78.25
261.012	77.25
261.244	81.25
261.477	80.25
261.71	74.25
261.942	101.25
262.175	95.25
262.407	69.25
262.64	80.25
262.872	83.25
263.105	81.25
263.337	86.25
263.57	80.25
263.802	79.25
264.035	89.25
264.267	65.25
264.499	76.25
264.732	73.25
264.964	79.25
265.197	94.25
265.429	71.25
265.661	90.25
265.894	77.25
266.126	89.25
266.358	82.25
266.591	82.25
266.823	83.25
267.055	71.25
267.287	82.25
267.52	79.25
267.752	79.25
267.984	79.25
268.216	72.25
268.448	94.25
268.681	62.25
268.913	84.25
269.145	86.25
269.377	83.25
269.609	81.25
269.841	75.25
270.073	69.25
270.306	69.25
270.538	70.25
270.77	77.25
271.002	84.25
271.234	88.25
271.466	86.25
271.698	98.25
271.93	81.25
272.162	60.25
272.394	82.25
272.626	79.25
272.858	67.25
273.09	86.25
273.322	96.25
273.553	78.25
273.785	74.25
274.017	72.25
274.249	85.25
274.481	87.25
274.713	69.25
274.945	75.25
275.176	78.25
275.408	87.25
275.64	94.25
275.872	88.25
276.104	86.25
276.335	90.25
276.567	77.25
276.799	99.25
277.031	92.25
277.262	81.25
277.494	97.25
277.726	97.25
277.957	78.25
278.189	73.25
278.421	101.25
278.652	81.25
278.884	79.25
279.115	83.25
279.347	84.25
279.579	71.25
279.81	69.25
280.042	82.25
280.273	72.25
280.505	84.25
280.736	83.25
280.968	81.25
281.199	103.25
281.431	80.25
281.662	72.25
281.894	84.25
282.125	95.25
282.356	104.25
282.588	124.25
282.819	112.25
283.051	84.25
283.282	92.25
283.513	69.25
283.745	82.25
283.976	89.25
284.207	82.25
284.439	79.25
284.67	88.25
284.901	82.25
285.132	86.25
285.364	68.25
285.595	91.25
285.826	83.25
286.057	71.25
286.288	66.25
286.52	75.25
286.751	72.25
286.982	74.25
287.213	84.25
287.444	82.25
287.675	92.25
287.906	84.25
288.138	87.25
288.369	94.25
288.6	73.25
288.831	79.25
289.062	77.25
289.293	77.25
289.524	90.25
289.755	82.25
289.986	82.25
290.217	82.25
290.448	73.25
290.679	76.25
290.91	94.25
291.141	89.25
291.371	79.25
291.602	85.25
291.833	97.25
292.064	77.25
292.295	76.25
292.526	76.25
292.757	79.25
292.987	87.25
293.218	72.25
293.449	82.25
293.68	82.25
293.91	65.25
294.141	79.25
294.372	81.25
294.603	79.25
294.833	94.25
295.064	73.25
295.295	68.25
295.525	82.25
295.756	94.25
295.987	91.25
296.217	109.25
296.448	104.25
296.679	94.25
296.909	96.25
297.14	94.25
297.37	65.25
297.601	79.25
297.831	82.25
298.062	83.25
298.292	94.25
298.523	86.25
298.753	73.25
298.984	97.25
299.214	88.25
299.445	87.25
299.675	85.25
299.905	80.25
300.136	94.25
300.366	73.25
300.597	88.25
300.827	72.25
301.057	97.25
301.288	82.25
301.518	88.25
301.748	71.25
301.979	97.25
302.209	78.25
302.439	92.25
302.669	85.25
302.9	84.25
303.13	84.25
303.36	82.25
303.59	82.25
303.82	113.25
304.051	85.25
304.281	71.25
304.511	102.25
304.741	86.25
304.971	80.25
305.201	79.25
305.431	78.25
305.661	85.25
305.891	95.25
306.121	80.25
306.352	78.25
306.582	85.25
306.812	84.25
307.042	76.25
307.272	79.25
307.502	78.25
307.731	79.25
307.961	93.25
308.191	89.25
308.421	80.25
308.651	83.25
308.881	76.25
309.111	94.25
309.341	80.25
309.571	105.25
309.8	87.25
310.03	94.25
310.26	91.25
310.49	87.25
310.72	92.25
310.949	93.25
311.179	76.25
311.409	80.25
311.639	89.25
311.868	90.25
312.098	75.25
312.328	91.25
312.557	104.25
312.787	93.25
313.017	92.25
313.246	92.25
313.476	94.25
313.706	88.25
313.935	80.25
314.165	104.25
314.394	99.25
314.624	76.25
314.853	81.25
315.083	81.25
315.312	86.25
315.542	81.25
315.771	86.25
316.001	92.25
316.23	74.25
316.46	84.25
316.689	84.25
316.919	92.25
317.148	90.25
317.377	97.25
317.607	90.25
317.836	81.25
318.065	94.25
318.295	72.25
318.524	85.25
318.753	91.25
318.983	71.25
319.212	81.25
319.441	99.25
319.67	95.25
319.9	92.25
320.129	89.25
320.358	99.25
320.587	84.25
320.816	95.25
321.046	101.25
321.275	91.25
321.504	91.25
321.733	98.25
321.962	88.25
322.191	98.25
322.42	91.25
322.649	94.25
322.878	95.25
323.108	91.25
323.337	104.25
323.566	129.25
323.795	134.25
324.024	176.25
324.253	341.25
324.482	680.25
324.71	1423.25
324.939	1908.25
325.168	740.25
325.397	221.25
325.626	135.25
325.855	108.25
326.084	109.25
326.313	125.25
326.542	144.25
326.77	232.25
326.999	412.25
327.228	840.25
327.457	1505.25
327.686	1195.25
327.914	316.25
328.143	171.25
328.372	126.25
328.6	103.25
328.829	112.25
329.058	110.25
329.287	112.25
329.515	97.25
329.744	112.25
329.972	95.25
330.201	95.25
330.43	104.25
330.658	106.25
330.887	122.25
331.115	104.25
331.344	90.25
331.572	107.25
331.801	81.25
332.03	79.25
332.258	75.25
332.486	89.25
332.715	81.25
332.943	75.25
333.172	89.25
333.4	90.25
333.629	95.25
333.857	100.25
334.085	85.25
334.314	88.25
334.542	113.25
334.771	104.25
334.999	87.25
335.227	95.25
335.455	94.25
335.684	99.25
335.912	91.25
336.14	91.25
336.369	91.25
336.597	104.25
336.825	88.25
337.053	101.25
337.281	86.25
337.51	93.25
337.738	89.25
337.966	96.25
338.194	88.25
338.422	90.25
338.65	103.25
338.878	78.25
339.106	72.25
339.334	91.25
339.562	81.25
339.79	85.25
340.018	73.25
340.246	95.25
340.474	96.25
340.702	84.25
340.93	88.25
341.158	93.25
341.386	78.25
341.614	81.25
341.842	84.25
342.07	96.25
342.298	76.25
342.526	76.25
342.754	64.25
342.981	68.25
343.209	85.25
343.437	96.25
343.665	87.25
343.893	80.25
344.12	86.25
344.348	74.25
344.576	83.25
344.804	98.25
345.031	93.25
345.259	80.25
345.487	95.25
345.714	84.25
345.942	94.25
346.17	91.25
346.397	84.25
346.625	84.25
346.853	91.25
347.08	96.25
347.308	82.25
347.535	88.25
347.763	93.25
347.99	105.25
348.218	77.25
348.445	88.25
348.673	93.25
348.9	81.25
349.128	96.25
349.355	94.25
349.583	82.25
349.81	84.25
350.037	83.25
350.265	89.25
350.492	88.25
350.72	89.25
350.947	91.25
351.174	100.25
351.402	90.25
351.629	87.25
351.856	106.25
352.083	100.25
352.311	100.25
352.538	113.25
352.765	109.25
352.992	111.25
353.22	102.25
353.447	99.25
353.674	87.25
353.901	99.25
354.128	92.25
354.355	89.25
354.583	96.25
354.81	88.25
355.037	98.25
355.264	102.25
355.491	94.25
355.718	86.25
355.945	82.25
356.172	94.25
356.399	100.25
356.626	96.25
356.853	89.25
357.08	79.25
357.307	87.25
357.534	88.25
357.761	92.25
357.988	99.25
358.215	92.25
358.441	101.25
358.668	100.25
358.895	79.25
359.122	86.25
359.349	84.25
359.576	92.25
359.802	99.25
360.029	84.25
360.256	90.25
360.483	82.25
360.709	86.25
360.936	81.25
361.163	79.25
361.39	85.25
361.616	95.25
361.843	81.25
362.07	82.25
362.296	88.25
362.523	77.25
362.749	72.25
362.976	83.25
363.203	87.25
363.429	83.25
363.656	77.25
363.882	87.25
364.109	86.25
364.335	79.25
364.562	82.25
364.788	75.25
365.015	85.25
365.241	98.25
365.468	102.25
365.694	100.25
365.92	83.25
366.147	94.25
366.373	89.25
366.599	83.25
366.826	62.25
367.052	78.25
367.278	66.25
367.505	78.25
367.731	74.25
367.957	91.25
368.184	88.25
368.41	101.25
368.636	101.25
368.862	106.25
369.089	102.25
369.315	85.25
369.541	79.25
369.767	92.25
369.993	94.25
370.219	85.25
370.445	84.25
370.672	81.25
370.898	68.25
371.124	85.25
371.35	78.25
371.576	66.25
371.802	88.25
372.028	82.25
372.254	89.25
372.48	91.25
372.706	84.25
372.932	80.25
373.158	79.25
373.384	88.25
373.61	76.25
373.835	91.25
374.061	93.25
374.287	95.25
374.513	94.25
374.739	88.25
374.965	84.25
375.191	96.25
375.416	87.25
375.642	98.25
375.868	82.25
376.094	70.25
376.319	90.25
376.545	81.25
376.771	83.25
376.997	99.25
377.222	101.25
377.448	71.25
377.674	95.25
377.899	87.25
378.125	111.25
378.35	95.25
378.576	82.25
378.802	88.25
379.027	87.25
379.253	78.25
379.478	97.25
379.704	88.25
379.929	100.25
380.155	87.25
380.38	82.25
380.606	95.25
380.831	97.25
381.057	100.25
381.282	102.25
381.507	85.25
381.733	93.25
381.958	101.25
382.184	84.25
382.409	95.25
382.634	99.25
382.86	103.25
383.085	107.25
383.31	111.25
383.535	112.25
383.761	99.25
383.986	94.25
384.211	105.25
384.436	107.25
384.662	90.25
384.887	92.25
385.112	111.25
385.337	125.25
385.562	114.25
385.787	112.25
386.013	127.25
386.238	131.25
386.463	120.25
386.688	131.25
386.913	111.25
387.138	136.25
387.363	110.25
387.588	99.25
387.813	101.25
388.038	113.25
388.263	136.25
388.488	125.25
388.713	103.25
388.938	100.25
389.163	89.25
389.387	92.25
389.612	103.25
389.837	82.25
390.062	91.25
390.287	111.25
390.512	97.25
390.736	91.25
390.961	78.25
391.186	117.25
391.411	100.25
391.636	100.25
391.86	89.25
392.085	77.25
392.31	75.25
392.534	84.25
392.759	84.25
392.984	86.25
393.208	96.25
393.433	110.25
393.658	104.25
393.882	78.25
394.107	83.25
394.331	77.25
394.556	81.25
394.78	82.25
395.005	72.25
395.229	98.25
395.454	88.25
395.678	94.25
395.903	86.25
396.127	89.25
396.352	87.25
396.576	87.25
396.801	106.25
397.025	107.25
397.249	93.25
397.474	96.25
397.698	97.25
397.922	76.25
398.147	64.25
398.371	78.25
398.595	79.25
398.82	78.25
399.044	86.25
399.268	83.25
399.492	80.25
399.717	71.25
399.941	83.25
400.165	83.25
400.389	92.25
400.613	85.25
400.837	80.25
401.062	85.25
401.286	99.25
401.51	71.25
401.734	88.25
401.958	95.25
402.182	101.25
402.406	136.25
402.63	107.25
402.854	83.25
403.078	81.25
403.302	75.25
403.526	73.25
403.75	69.25
403.974	89.25
404.198	78.25
404.422	79.25
404.645	83.25
404.869	89.25
405.093	81.25
405.317	83.25
405.541	83.25
405.765	90.25
405.988	85.25
406.212	132.25
406.436	179.25
406.66	129.25
406.883	85.25
407.107	88.25
407.331	93.25
407.555	96.25
407.778	92.25
408.002	91.25
408.226	93.25
408.449	76.25
408.673	86.25
408.896	89.25
409.12	96.25
409.344	79.25
409.567	81.25
409.791	93.25
410.014	103.25
410.238	97.25
410.461	96.25
410.685	89.25
410.908	90.25
411.132	91.25
411.355	84.25
411.578	74.25
411.802	83.25
412.025	98.25
412.249	94.25
412.472	78.25
412.695	95.25
412.919	89.25
413.142	87.25
413.365	86.25
413.589	84.25
413.812	92.25
414.035	89.25
414.258	93.25
414.482	79.25
414.705	63.25
414.928	82.25
415.151	94.25
415.374	86.25
415.597	81.25
415.821	86.25
416.044	92.25
416.267	83.25
416.49	67.25
416.713	76.25
416.936	78.25
417.159	84.25
417.382	81.25
417.605	87.25
417.828	94.25
418.051	92.25
418.274	89.25
418.497	95.25
418.72	85.25
418.943	78.25
419.166	88.25
419.389	82.25
419.611	90.25
419.834	80.25
420.057	80.25
420.28	66.25
420.503	70.25
420.726	57.25
420.948	77.25
421.171	87.25
421.394	97.25
421.617	75.25
421.839	90.25
422.062	81.25
422.285	89.25
422.507	87.25
422.73	94.25
422.953	82.25
423.175	87.25
423.398	71.25
423.621	86.25
423.843	76.25
424.066	80.25
424.288	78.25
424.511	103.25
424.733	89.25
424.956	89.25
425.178	109.25
425.401	89.25
425.623	92.25
425.846	87.25
426.068	84.25
426.291	100.25
426.513	86.25
426.735	83.25
426.958	79.25
427.18	89.25
427.402	113.25
427.625	149.25
427.847	123.25
428.069	101.25
428.292	80.25
428.514	81.25
428.736	78.25
428.958	91.25
429.181	82.25
429.403	77.25
429.625	93.25
429.847	81.25
430.069	86.25
430.292	76.25
430.514	84.25
430.736	80.25
430.958	84.25
431.18	81.25
431.402	91.25
431.624	84.25
431.846	76.25
432.068	73.25
432.29	78.25
432.512	84.25
432.734	87.25
432.956	83.25
433.178	76.25
433.4	98.25
433.622	102.25
433.844	71.25
434.066	73.25
434.287	93.25
434.509	88.25
434.731	89.25
434.953	77.25
435.175	73.25
435.397	90.25
435.618	97.25
435.84	88.25
436.062	103.25
436.284	105.25
436.505	86.25
436.727	93.25
436.949	92.25
437.17	75.25
437.392	88.25
437.614	76.25
437.835	88.25
438.057	96.25
438.278	96.25
438.5	107.25
438.721	91.25
438.943	101.25
439.165	71.25
439.386	80.25
439.608	94.25
439.829	80.25
440.05	116.25
440.272	120.25
440.493	79.25
440.715	89.25
440.936	81.25
441.158	78.25
441.379	79.25
441.6	97.25
441.822	73.25
442.043	63.25
442.264	103.25
442.486	89.25
442.707	79.25
442.928	97.25
443.149	103.25
443.371	97.25
443.592	111.25
443.813	90.25
444.034	104.25
444.255	92.25
444.476	82.25
444.698	91.25
444.919	82.25
445.14	129.25
445.361	97.25
445.582	103.25
445.803	139.25
446.024	115.25
446.245	111.25
446.466	108.25
446.687	90.25
446.908	85.25
447.129	87.25
447.35	84.25
447.571	78.25
447.792	88.25
448.013	92.25
448.234	92.25
448.455	100.25
448.675	114.25
448.896	111.25
449.117	94.25
449.338	95.25
449.559	117.25
449.779	119.25
450	89.25
450.221	88.25
450.442	90.25
450.662	87.25
450.883	89.25
451.104	91.25
451.324	81.25
451.545	92.25
451.766	90.25
451.986	89.25
452.207	78.25
452.428	90.25
452.648	99.25
452.869	95.25
453.089	110.25
453.31	100.25
453.53	85.25
453.751	81.25
453.971	108.25
454.192	91.25
454.412	80.25
454.633	75.25
454.853	86.25
455.073	70.25
455.294	85.25
455.514	79.25
455.734	86.25
455.955	90.25
456.175	71.25
456.395	69.25
456.616	71.25
456.836	92.25
457.056	81.25
457.276	76.25
457.497	78.25
457.717	75.25
457.937	91.25
458.157	80.25
458.377	80.25
458.598	91.25
458.818	121.25
459.038	123.25
459.258	114.25
459.478	80.25
459.698	92.25
459.918	89.25
460.138	81.25
460.358	65.25
460.578	75.25
460.798	89.25
461.018	83.25
461.238	75.25
461.458	79.25
461.678	79.25
461.898	71.25
462.118	78.25
462.338	76.25
462.558	84.25
462.777	83.25
462.997	75.25
463.217	92.25
463.437	79.25
463.657	64.25
463.876	88.25
464.096	84.25
464.316	67.25
464.536	88.25
464.755	84.25
464.975	80.25
465.195	126.25
465.414	141.25
465.634	89.25
465.854	81.25
466.073	83.25
466.293	84.25
466.512	81.25
466.732	87.25
466.951	75.25
467.171	83.25
467.391	78.25
467.61	86.25
467.829	85.25
468.049	85.25
468.268	79.25
468.488	88.25
468.707	82.25
468.927	77.25
469.146	82.25
469.365	80.25
469.585	79.25
469.804	85.25
470.023	88.25
470.243	92.25
470.462	84.25
470.681	90.25
470.901	102.25
471.12	75.25
471.339	86.25
471.558	76.25
471.777	79.25
471.997	76.25
472.216	70.25
472.435	105.25
472.654	84.25
472.873	92.25
473.092	74.25
473.311	74.25
473.53	73.25
473.749	91.25
473.968	88.25
474.187	86.25
474.406	83.25
474.625	82.25
474.844	94.25
475.063	69.25
475.282	81.25
475.501	84.25
475.72	77.25
475.939	76.25
476.158	77.25
476.377	82.25
476.596	79.25
476.814	96.25
477.033	81.25
477.252	82.25
477.471	73.25
477.69	73.25
477.908	84.25
478.127	97.25
478.346	72.25
478.564	75.25
478.783	91.25
479.002	95.25
479.22	84.25
479.439	97.25
479.658	79.25
479.876	84.25
480.095	89.25
480.313	91.25
480.532	78.25
480.751	85.25
480.969	99.25
481.188	131.25
481.406	108.25
481.624	84.25
481.843	85.25
482.061	86.25
482.28	91.25
482.498	78.25
482.717	81.25
482.935	73.25
483.153	91.25
483.372	84.25
483.59	83.25
483.808	94.25
484.027	93.25
484.245	67.25
484.463	82.25
484.681	89.25
484.9	83.25
485.118	72.25
485.336	84.25
485.554	93.25
485.772	94.25
485.99	101.25
486.209	99.25
486.427	112.25
486.645	93.25
486.863	102.25
487.081	91.25
487.299	92.25
487.517	82.25
487.735	100.25
487.953	87.25
488.171	92.25
488.389	102.25
488.607	87.25
488.825	91.25
489.043	85.25
489.261	103.25
489.479	97.25
489.696	82.25
489.914	72.25
490.132	78.25
490.35	81.25
490.568	78.25
490.786	82.25
491.003	79.25
491.221	76.25
491.439	76.25
491.657	77.25
491.874	92.25
492.092	87.25
492.31	87.25
492.527	81.25
492.745	89.25
492.963	82.25
493.18	73.25
493.398	80.25
493.615	91.25
493.833	103.25
494.05	79.25
494.268	72.25
494.485	79.25
494.703	74.25
494.92	92.25
495.138	71.25
495.355	88.25
495.573	76.25
495.79	86.25
496.008	77.25
496.225	82.25
496.442	85.25
496.66	92.25
496.877	96.25
497.094	101.25
497.312	86.25
497.529	91.25
497.746	90.25
497.963	79.25
498.181	85.25
498.398	87.25
498.615	97.25
498.832	101.25
499.049	88.25
499.267	96.25
499.484	88.25
499.701	86.25
499.918	87.25
500.135	87.25
500.352	72.25
500.569	84.25
500.786	77.25
501.003	92.25
501.22	86.25
501.437	87.25
501.654	89.25
501.871	93.25
502.088	71.25
502.305	76.25
502.522	81.25
502.739	75.25
502.956	87.25
503.172	66.25
503.389	87.25
503.606	85.25
503.823	93.25
504.04	79.25
504.256	72.25
504.473	106.25
504.69	91.25
504.907	100.25
505.123	76.25
505.34	74.25
505.557	94.25
505.773	79.25
505.99	90.25
506.207	86.25
506.423	85.25
506.64	88.25
506.856	68.25
507.073	68.25
507.289	79.25
507.506	81.25
507.722	107.25
507.939	95.25
508.155	81.25
508.372	79.25
508.588	82.25
508.805	89.25
509.021	81.25
509.238	76.25
509.454	95.25
509.67	93.25
509.887	106.25
510.103	114.25
510.319	163.25
510.536	547.25
510.752	1759.25
510.968	546.25
511.184	137.25
511.401	96.25
511.617	104.25
511.833	93.25
512.049	72.25
512.265	71.25
512.481	87.25
512.698	80.25
512.914	69.25
513.13	86.25
513.346	72.25
513.562	81.25
513.778	71.25
513.994	96.25
514.21	86.25
514.426	98.25
514.642	108.25
514.858	87.25
515.074	153.25
515.29	312.25
515.506	995.25
515.721	395.25
515.937	133.25
516.153	81.25
516.369	80.25
516.585	66.25
516.801	86.25
517.016	85.25
517.232	82.25
517.448	95.25
