Data from Circ_2015_H10_HRD10591_00033.txt Node
Date: Wed Jan 03 10:00:29 EST 2024
User: Yrep
Spectrometer: HR+D1059
Trigger mode: 1
Integration Time (sec): 1.000000E-1
Scans to average: 1
Electric dark correction enabled: true
Nonlinearity correction enabled: false
Boxcar width: 0
XAxis mode: Wavelengths
Number of Pixels in Spectrum: 2048
>>>>>Begin Spectral Data<<<<<
223.165	-15.75
223.4	-15.75
223.635	-15.75
223.869	-17.75
224.104	-18.75
224.338	-24.75
224.573	-11.75
224.808	-7.75
225.042	-4.75
225.277	-6.75
225.511	-0.75
225.746	3.25
225.98	4.25
226.215	1.25
226.449	23.25
226.683	18.25
226.918	30.25
227.152	28.25
227.387	43.25
227.621	53.25
227.856	50.25
228.09	48.25
228.324	56.25
228.559	63.25
228.793	49.25
229.027	66.25
229.262	54.25
229.496	69.25
229.73	88.25
229.964	94.25
230.199	71.25
230.433	78.25
230.667	86.25
230.901	84.25
231.136	67.25
231.37	83.25
231.604	80.25
231.838	85.25
232.072	99.25
232.306	84.25
232.541	82.25
232.775	77.25
233.009	84.25
233.243	84.25
233.477	90.25
233.711	81.25
233.945	88.25
234.179	102.25
234.413	79.25
234.647	92.25
234.881	93.25
235.115	66.25
235.349	88.25
235.583	90.25
235.817	83.25
236.051	80.25
236.285	87.25
236.519	80.25
236.753	82.25
236.987	77.25
237.221	80.25
237.455	82.25
237.689	84.25
237.922	79.25
238.156	71.25
238.39	72.25
238.624	85.25
238.858	85.25
239.091	76.25
239.325	63.25
239.559	72.25
239.793	89.25
240.027	72.25
240.26	74.25
240.494	94.25
240.728	84.25
240.961	87.25
241.195	80.25
241.429	88.25
241.662	69.25
241.896	77.25
242.13	98.25
242.363	81.25
242.597	83.25
242.83	90.25
243.064	68.25
243.298	84.25
243.531	79.25
243.765	80.25
243.998	81.25
244.232	78.25
244.465	89.25
244.699	86.25
244.932	84.25
245.166	73.25
245.399	83.25
245.633	80.25
245.866	74.25
246.099	88.25
246.333	78.25
246.566	87.25
246.8	86.25
247.033	86.25
247.266	77.25
247.5	90.25
247.733	87.25
247.966	73.25
248.2	83.25
248.433	105.25
248.666	74.25
248.899	91.25
249.133	86.25
249.366	94.25
249.599	95.25
249.832	74.25
250.066	97.25
250.299	88.25
250.532	103.25
250.765	99.25
250.998	80.25
251.231	74.25
251.465	87.25
251.698	89.25
251.931	73.25
252.164	90.25
252.397	83.25
252.63	79.25
252.863	87.25
253.096	84.25
253.329	89.25
253.562	83.25
253.795	82.25
254.028	76.25
254.261	83.25
254.494	76.25
254.727	74.25
254.96	83.25
255.193	92.25
255.426	76.25
255.659	67.25
255.892	79.25
256.124	79.25
256.357	86.25
256.59	84.25
256.823	90.25
257.056	84.25
257.289	79.25
257.521	77.25
257.754	95.25
257.987	83.25
258.22	82.25
258.452	87.25
258.685	78.25
258.918	77.25
259.151	94.25
259.383	82.25
259.616	83.25
259.849	94.25
260.081	87.25
260.314	94.25
260.547	86.25
260.779	91.25
261.012	84.25
261.244	87.25
261.477	90.25
261.71	94.25
261.942	105.25
262.175	105.25
262.407	111.25
262.64	87.25
262.872	85.25
263.105	80.25
263.337	83.25
263.57	66.25
263.802	86.25
264.035	84.25
264.267	83.25
264.499	81.25
264.732	92.25
264.964	86.25
265.197	80.25
265.429	85.25
265.661	88.25
265.894	81.25
266.126	99.25
266.358	94.25
266.591	91.25
266.823	75.25
267.055	87.25
267.287	87.25
267.52	85.25
267.752	83.25
267.984	75.25
268.216	83.25
268.448	79.25
268.681	83.25
268.913	88.25
269.145	85.25
269.377	81.25
269.609	72.25
269.841	88.25
270.073	90.25
270.306	100.25
270.538	93.25
270.77	78.25
271.002	80.25
271.234	72.25
271.466	69.25
271.698	86.25
271.93	78.25
272.162	86.25
272.394	81.25
272.626	87.25
272.858	77.25
273.09	77.25
273.322	75.25
273.553	80.25
273.785	88.25
274.017	89.25
274.249	86.25
274.481	83.25
274.713	86.25
274.945	85.25
275.176	78.25
275.408	84.25
275.64	84.25
275.872	87.25
276.104	79.25
276.335	100.25
276.567	104.25
276.799	116.25
277.031	114.25
277.262	99.25
277.494	104.25
277.726	101.25
277.957	97.25
278.189	84.25
278.421	90.25
278.652	86.25
278.884	86.25
279.115	91.25
279.347	91.25
279.579	79.25
279.81	90.25
280.042	86.25
280.273	109.25
280.505	96.25
280.736	79.25
280.968	79.25
281.199	90.25
281.431	84.25
281.662	92.25
281.894	84.25
282.125	103.25
282.356	124.25
282.588	133.25
282.819	105.25
283.051	76.25
283.282	84.25
283.513	88.25
283.745	91.25
283.976	92.25
284.207	85.25
284.439	92.25
284.67	91.25
284.901	84.25
285.132	80.25
285.364	96.25
285.595	89.25
285.826	94.25
286.057	88.25
286.288	97.25
286.52	76.25
286.751	86.25
286.982	85.25
287.213	90.25
287.444	68.25
287.675	85.25
287.906	92.25
288.138	92.25
288.369	96.25
288.6	82.25
288.831	91.25
289.062	78.25
289.293	84.25
289.524	88.25
289.755	91.25
289.986	88.25
290.217	99.25
290.448	90.25
290.679	97.25
290.91	83.25
291.141	97.25
291.371	95.25
291.602	85.25
291.833	94.25
292.064	102.25
292.295	74.25
292.526	103.25
292.757	84.25
292.987	78.25
293.218	90.25
293.449	70.25
293.68	93.25
293.91	97.25
294.141	101.25
294.372	99.25
294.603	95.25
294.833	92.25
295.064	88.25
295.295	87.25
295.525	86.25
295.756	100.25
295.987	123.25
296.217	150.25
296.448	117.25
296.679	102.25
296.909	90.25
297.14	97.25
297.37	84.25
297.601	93.25
297.831	85.25
298.062	83.25
298.292	90.25
298.523	71.25
298.753	92.25
298.984	100.25
299.214	101.25
299.445	91.25
299.675	71.25
299.905	87.25
300.136	84.25
300.366	83.25
300.597	90.25
300.827	93.25
301.057	97.25
301.288	105.25
301.518	91.25
301.748	88.25
301.979	121.25
302.209	89.25
302.439	91.25
302.669	93.25
302.9	83.25
303.13	90.25
303.36	110.25
303.59	99.25
303.82	98.25
304.051	76.25
304.281	89.25
304.511	104.25
304.741	96.25
304.971	91.25
305.201	87.25
305.431	89.25
305.661	91.25
305.891	83.25
306.121	108.25
306.352	92.25
306.582	100.25
306.812	99.25
307.042	80.25
307.272	92.25
307.502	93.25
307.731	90.25
307.961	93.25
308.191	89.25
308.421	107.25
308.651	101.25
308.881	85.25
309.111	103.25
309.341	102.25
309.571	94.25
309.8	92.25
310.03	93.25
310.26	90.25
310.49	95.25
310.72	98.25
310.949	102.25
311.179	90.25
311.409	103.25
311.639	111.25
311.868	102.25
312.098	97.25
312.328	88.25
312.557	103.25
312.787	103.25
313.017	114.25
313.246	104.25
313.476	83.25
313.706	104.25
313.935	93.25
314.165	87.25
314.394	102.25
314.624	85.25
314.853	97.25
315.083	109.25
315.312	104.25
315.542	99.25
315.771	93.25
316.001	95.25
316.23	104.25
316.46	93.25
316.689	88.25
316.919	101.25
317.148	99.25
317.377	110.25
317.607	95.25
317.836	93.25
318.065	91.25
318.295	105.25
318.524	90.25
318.753	103.25
318.983	91.25
319.212	100.25
319.441	96.25
319.67	103.25
319.9	93.25
320.129	98.25
320.358	104.25
320.587	92.25
320.816	99.25
321.046	102.25
321.275	105.25
321.504	119.25
321.733	110.25
321.962	100.25
322.191	98.25
322.42	114.25
322.649	102.25
322.878	105.25
323.108	116.25
323.337	110.25
323.566	136.25
323.795	142.25
324.024	207.25
324.253	409.25
324.482	864.25
324.71	1812.25
324.939	2370.25
325.168	866.25
325.397	258.25
325.626	143.25
325.855	135.25
326.084	131.25
326.313	130.25
326.542	139.25
326.77	238.25
326.999	492.25
327.228	975.25
327.457	1822.25
327.686	1462.25
327.914	390.25
328.143	209.25
328.372	171.25
328.6	138.25
328.829	110.25
329.058	118.25
329.287	128.25
329.515	118.25
329.744	104.25
329.972	128.25
330.201	173.25
330.43	192.25
330.658	150.25
330.887	147.25
331.115	125.25
331.344	116.25
331.572	107.25
331.801	111.25
332.03	103.25
332.258	101.25
332.486	84.25
332.715	75.25
332.943	98.25
333.172	91.25
333.4	95.25
333.629	120.25
333.857	148.25
334.085	130.25
334.314	181.25
334.542	213.25
334.771	192.25
334.999	134.25
335.227	106.25
335.455	112.25
335.684	98.25
335.912	85.25
336.14	85.25
336.369	95.25
336.597	95.25
336.825	91.25
337.053	94.25
337.281	94.25
337.51	86.25
337.738	95.25
337.966	98.25
338.194	109.25
338.422	95.25
338.65	91.25
338.878	92.25
339.106	86.25
339.334	84.25
339.562	90.25
339.79	80.25
340.018	101.25
340.246	106.25
340.474	103.25
340.702	92.25
340.93	94.25
341.158	90.25
341.386	92.25
341.614	119.25
341.842	108.25
342.07	95.25
342.298	94.25
342.526	93.25
342.754	93.25
342.981	94.25
343.209	86.25
343.437	100.25
343.665	93.25
343.893	90.25
344.12	94.25
344.348	88.25
344.576	83.25
344.804	89.25
345.031	90.25
345.259	102.25
345.487	79.25
345.714	86.25
345.942	79.25
346.17	100.25
346.397	104.25
346.625	100.25
346.853	96.25
347.08	87.25
347.308	89.25
347.535	100.25
347.763	101.25
347.99	95.25
348.218	96.25
348.445	118.25
348.673	92.25
348.9	95.25
349.128	96.25
349.355	92.25
349.583	106.25
349.81	104.25
350.037	99.25
350.265	95.25
350.492	92.25
350.72	89.25
350.947	98.25
351.174	105.25
351.402	97.25
351.629	106.25
351.856	115.25
352.083	92.25
352.311	103.25
352.538	103.25
352.765	91.25
352.992	108.25
353.22	110.25
353.447	106.25
353.674	101.25
353.901	98.25
354.128	104.25
354.355	93.25
354.583	91.25
354.81	107.25
355.037	99.25
355.264	96.25
355.491	86.25
355.718	95.25
355.945	94.25
356.172	98.25
356.399	82.25
356.626	96.25
356.853	114.25
357.08	97.25
357.307	104.25
357.534	105.25
357.761	91.25
357.988	101.25
358.215	104.25
358.441	93.25
358.668	83.25
358.895	92.25
359.122	98.25
359.349	82.25
359.576	87.25
359.802	99.25
360.029	119.25
360.256	100.25
360.483	96.25
360.709	90.25
360.936	103.25
361.163	91.25
361.39	94.25
361.616	96.25
361.843	82.25
362.07	106.25
362.296	99.25
362.523	105.25
362.749	91.25
362.976	83.25
363.203	106.25
363.429	89.25
363.656	84.25
363.882	87.25
364.109	90.25
364.335	83.25
364.562	96.25
364.788	91.25
365.015	98.25
365.241	91.25
365.468	106.25
365.694	103.25
365.92	105.25
366.147	88.25
366.373	94.25
366.599	91.25
366.826	84.25
367.052	88.25
367.278	95.25
367.505	79.25
367.731	85.25
367.957	88.25
368.184	101.25
368.41	99.25
368.636	119.25
368.862	126.25
369.089	112.25
369.315	92.25
369.541	107.25
369.767	110.25
369.993	103.25
370.219	70.25
370.445	91.25
370.672	82.25
370.898	76.25
371.124	92.25
371.35	82.25
371.576	82.25
371.802	96.25
372.028	89.25
372.254	96.25
372.48	83.25
372.706	112.25
372.932	80.25
373.158	87.25
373.384	93.25
373.61	99.25
373.835	92.25
374.061	79.25
374.287	93.25
374.513	76.25
374.739	80.25
374.965	91.25
375.191	99.25
375.416	88.25
375.642	86.25
375.868	92.25
376.094	100.25
376.319	102.25
376.545	88.25
376.771	97.25
376.997	89.25
377.222	79.25
377.448	90.25
377.674	91.25
377.899	87.25
378.125	88.25
378.35	104.25
378.576	108.25
378.802	100.25
379.027	83.25
379.253	100.25
379.478	88.25
379.704	98.25
379.929	99.25
380.155	93.25
380.38	91.25
380.606	104.25
380.831	78.25
381.057	103.25
381.282	99.25
381.507	98.25
381.733	87.25
381.958	100.25
382.184	106.25
382.409	106.25
382.634	107.25
382.86	109.25
383.085	90.25
383.31	97.25
383.535	101.25
383.761	101.25
383.986	116.25
384.211	95.25
384.436	101.25
384.662	115.25
384.887	105.25
385.112	101.25
385.337	110.25
385.562	112.25
385.787	115.25
386.013	116.25
386.238	111.25
386.463	111.25
386.688	119.25
386.913	112.25
387.138	112.25
387.363	115.25
387.588	107.25
387.813	100.25
388.038	103.25
388.263	132.25
388.488	105.25
388.713	99.25
388.938	102.25
389.163	92.25
389.387	102.25
389.612	99.25
389.837	95.25
390.062	93.25
390.287	94.25
390.512	89.25
390.736	83.25
390.961	95.25
391.186	89.25
391.411	104.25
391.636	106.25
391.86	85.25
392.085	85.25
392.31	80.25
392.534	84.25
392.759	97.25
392.984	87.25
393.208	87.25
393.433	110.25
393.658	118.25
393.882	91.25
394.107	89.25
394.331	95.25
394.556	86.25
394.78	83.25
395.005	98.25
395.229	90.25
395.454	86.25
395.678	87.25
395.903	80.25
396.127	95.25
396.352	88.25
396.576	94.25
396.801	93.25
397.025	100.25
397.249	91.25
397.474	75.25
397.698	93.25
397.922	89.25
398.147	101.25
398.371	86.25
398.595	86.25
398.82	88.25
399.044	89.25
399.268	82.25
399.492	95.25
399.717	103.25
399.941	95.25
400.165	84.25
400.389	83.25
400.613	96.25
400.837	90.25
401.062	97.25
401.286	91.25
401.51	86.25
401.734	89.25
401.958	103.25
402.182	118.25
402.406	165.25
402.63	117.25
402.854	83.25
403.078	87.25
403.302	101.25
403.526	95.25
403.75	84.25
403.974	92.25
404.198	89.25
404.422	91.25
404.645	89.25
404.869	88.25
405.093	99.25
405.317	95.25
405.541	102.25
405.765	102.25
405.988	118.25
406.212	168.25
406.436	223.25
406.66	144.25
406.883	103.25
407.107	85.25
407.331	108.25
407.555	102.25
407.778	100.25
408.002	95.25
408.226	94.25
408.449	92.25
408.673	107.25
408.896	90.25
409.12	100.25
409.344	94.25
409.567	87.25
409.791	98.25
410.014	107.25
410.238	91.25
410.461	91.25
410.685	104.25
410.908	95.25
411.132	101.25
411.355	95.25
411.578	84.25
411.802	92.25
412.025	104.25
412.249	98.25
412.472	100.25
412.695	109.25
412.919	94.25
413.142	104.25
413.365	91.25
413.589	98.25
413.812	90.25
414.035	77.25
414.258	96.25
414.482	89.25
414.705	96.25
414.928	95.25
415.151	83.25
415.374	93.25
415.597	90.25
415.821	96.25
416.044	91.25
416.267	97.25
416.49	79.25
416.713	88.25
416.936	90.25
417.159	89.25
417.382	87.25
417.605	83.25
417.828	95.25
418.051	88.25
418.274	78.25
418.497	95.25
418.72	91.25
418.943	99.25
419.166	92.25
419.389	96.25
419.611	94.25
419.834	107.25
420.057	90.25
420.28	85.25
420.503	94.25
420.726	87.25
420.948	92.25
421.171	94.25
421.394	103.25
421.617	89.25
421.839	94.25
422.062	108.25
422.285	99.25
422.507	106.25
422.73	103.25
422.953	101.25
423.175	86.25
423.398	89.25
423.621	90.25
423.843	96.25
424.066	93.25
424.288	96.25
424.511	95.25
424.733	99.25
424.956	101.25
425.178	94.25
425.401	112.25
425.623	102.25
425.846	97.25
426.068	87.25
426.291	91.25
426.513	89.25
426.735	87.25
426.958	86.25
427.18	96.25
427.402	130.25
427.625	164.25
427.847	153.25
428.069	133.25
428.292	88.25
428.514	95.25
428.736	86.25
428.958	79.25
429.181	100.25
429.403	80.25
429.625	92.25
429.847	99.25
430.069	96.25
430.292	92.25
430.514	93.25
430.736	91.25
430.958	101.25
431.18	81.25
431.402	79.25
431.624	75.25
431.846	75.25
432.068	86.25
432.29	86.25
432.512	85.25
432.734	92.25
432.956	93.25
433.178	106.25
433.4	122.25
433.622	87.25
433.844	89.25
434.066	92.25
434.287	85.25
434.509	95.25
434.731	86.25
434.953	80.25
435.175	93.25
435.397	94.25
435.618	75.25
435.84	98.25
436.062	116.25
436.284	115.25
436.505	115.25
436.727	108.25
436.949	103.25
437.17	81.25
437.392	88.25
437.614	100.25
437.835	107.25
438.057	120.25
438.278	122.25
438.5	108.25
438.721	132.25
438.943	104.25
439.165	100.25
439.386	85.25
439.608	97.25
439.829	88.25
440.05	114.25
440.272	150.25
440.493	93.25
440.715	96.25
440.936	95.25
441.158	94.25
441.379	86.25
441.6	85.25
441.822	90.25
442.043	99.25
442.264	102.25
442.486	98.25
442.707	106.25
442.928	102.25
443.149	124.25
443.371	131.25
443.592	122.25
443.813	104.25
444.034	102.25
444.255	84.25
444.476	96.25
444.698	92.25
444.919	88.25
445.14	135.25
445.361	132.25
445.582	118.25
445.803	139.25
446.024	128.25
446.245	125.25
446.466	122.25
446.687	90.25
446.908	92.25
447.129	86.25
447.35	84.25
447.571	96.25
447.792	89.25
448.013	100.25
448.234	104.25
448.455	106.25
448.675	114.25
448.896	130.25
449.117	110.25
449.338	98.25
449.559	124.25
449.779	124.25
450	85.25
450.221	80.25
450.442	98.25
450.662	98.25
450.883	113.25
451.104	118.25
451.324	95.25
451.545	96.25
451.766	73.25
451.986	90.25
452.207	96.25
452.428	85.25
452.648	97.25
452.869	111.25
453.089	118.25
453.31	110.25
453.53	82.25
453.751	101.25
453.971	97.25
454.192	105.25
454.412	108.25
454.633	95.25
454.853	94.25
455.073	85.25
455.294	86.25
455.514	96.25
455.734	92.25
455.955	86.25
456.175	76.25
456.395	84.25
456.616	88.25
456.836	83.25
457.056	84.25
457.276	98.25
457.497	87.25
457.717	95.25
457.937	115.25
458.157	99.25
458.377	99.25
458.598	121.25
458.818	152.25
459.038	164.25
459.258	123.25
459.478	106.25
459.698	90.25
459.918	88.25
460.138	90.25
460.358	92.25
460.578	100.25
460.798	83.25
461.018	97.25
461.238	80.25
461.458	76.25
461.678	99.25
461.898	101.25
462.118	103.25
462.338	85.25
462.558	88.25
462.777	100.25
462.997	87.25
463.217	86.25
463.437	98.25
463.657	87.25
463.876	94.25
464.096	88.25
464.316	95.25
464.536	101.25
464.755	105.25
464.975	94.25
465.195	159.25
465.414	163.25
465.634	87.25
465.854	95.25
466.073	105.25
466.293	98.25
466.512	82.25
466.732	91.25
466.951	98.25
467.171	90.25
467.391	106.25
467.61	101.25
467.829	123.25
468.049	138.25
468.268	138.25
468.488	78.25
468.707	88.25
468.927	93.25
469.146	92.25
469.365	85.25
469.585	95.25
469.804	85.25
470.023	114.25
470.243	97.25
470.462	96.25
470.681	115.25
470.901	94.25
471.12	79.25
471.339	85.25
471.558	91.25
471.777	101.25
471.997	107.25
472.216	183.25
472.435	255.25
472.654	134.25
472.873	89.25
473.092	91.25
473.311	104.25
473.53	80.25
473.749	92.25
473.968	115.25
474.187	109.25
474.406	96.25
474.625	80.25
474.844	96.25
475.063	97.25
475.282	84.25
475.501	86.25
475.72	101.25
475.939	86.25
476.158	91.25
476.377	84.25
476.596	73.25
476.814	83.25
477.033	90.25
477.252	99.25
477.471	79.25
477.69	87.25
477.908	83.25
478.127	83.25
478.346	98.25
478.564	98.25
478.783	100.25
479.002	103.25
479.22	82.25
479.439	99.25
479.658	108.25
479.876	90.25
480.095	86.25
480.313	106.25
480.532	100.25
480.751	98.25
480.969	165.25
481.188	412.25
481.406	288.25
481.624	101.25
481.843	90.25
482.061	94.25
482.28	86.25
482.498	89.25
482.717	85.25
482.935	87.25
483.153	85.25
483.372	92.25
483.59	90.25
483.808	96.25
484.027	80.25
484.245	87.25
484.463	93.25
484.681	103.25
484.9	101.25
485.118	91.25
485.336	86.25
485.554	109.25
485.772	83.25
485.99	106.25
486.209	104.25
486.427	95.25
486.645	90.25
486.863	109.25
487.081	99.25
487.299	90.25
487.517	99.25
487.735	77.25
487.953	91.25
488.171	100.25
488.389	109.25
488.607	102.25
488.825	88.25
489.043	99.25
489.261	99.25
489.479	85.25
489.696	87.25
489.914	98.25
490.132	91.25
490.35	85.25
490.568	73.25
490.786	87.25
491.003	91.25
491.221	93.25
491.439	75.25
491.657	87.25
491.874	97.25
492.092	90.25
492.31	89.25
492.527	92.25
492.745	99.25
492.963	98.25
493.18	86.25
493.398	98.25
493.615	105.25
493.833	107.25
494.05	92.25
494.268	86.25
494.485	83.25
494.703	103.25
494.92	96.25
495.138	90.25
495.355	101.25
495.573	106.25
495.79	67.25
496.008	84.25
496.225	92.25
496.442	91.25
496.66	93.25
496.877	86.25
497.094	88.25
497.312	90.25
497.529	79.25
497.746	85.25
497.963	92.25
498.181	87.25
498.398	93.25
498.615	105.25
498.832	98.25
499.049	106.25
499.267	89.25
499.484	99.25
499.701	92.25
499.918	97.25
500.135	98.25
500.352	92.25
500.569	91.25
500.786	83.25
501.003	101.25
501.22	88.25
501.437	86.25
501.654	115.25
501.871	100.25
502.088	87.25
502.305	89.25
502.522	86.25
502.739	86.25
502.956	107.25
503.172	92.25
503.389	79.25
503.606	118.25
503.823	102.25
504.04	92.25
504.256	84.25
504.473	90.25
504.69	94.25
504.907	89.25
505.123	88.25
505.34	92.25
505.557	99.25
505.773	92.25
505.99	105.25
506.207	80.25
506.423	84.25
506.64	103.25
506.856	95.25
507.073	97.25
507.289	84.25
507.506	98.25
507.722	126.25
507.939	124.25
508.155	90.25
508.372	94.25
508.588	93.25
508.805	89.25
509.021	87.25
509.238	104.25
509.454	104.25
509.67	95.25
509.887	113.25
510.103	132.25
510.319	198.25
510.536	763.25
510.752	2463.25
510.968	723.25
511.184	172.25
511.401	107.25
511.617	102.25
511.833	90.25
512.049	97.25
512.265	76.25
512.481	95.25
512.698	95.25
512.914	92.25
513.13	87.25
513.346	96.25
513.562	86.25
513.778	90.25
513.994	91.25
514.21	102.25
514.426	107.25
514.642	135.25
