Data from Circ_2015_H10_HRD10591_00065.txt Node
Date: Wed Jan 03 10:00:35 EST 2024
User: Yrep
Spectrometer: HR+D1059
Trigger mode: 1
Integration Time (sec): 1.000000E-1
Scans to average: 1
Electric dark correction enabled: true
Nonlinearity correction enabled: false
Boxcar width: 0
XAxis mode: Wavelengths
Number of Pixels in Spectrum: 2048
>>>>>Begin Spectral Data<<<<<
223.165	-24.06
223.4	-24.06
223.635	-24.06
223.869	-16.06
224.104	-14.06
224.338	-13.06
224.573	-13.06
224.808	-11.06
225.042	-9.06
225.277	-16.06
225.511	-9.06
225.746	-4.06
225.98	16.94
226.215	4.94
226.449	34.94
226.683	17.94
226.918	26.94
227.152	27.94
227.387	37.94
227.621	43.94
227.856	45.94
228.09	51.94
228.324	53.94
228.559	63.94
228.793	62.94
229.027	65.94
229.262	63.94
229.496	70.94
229.73	73.94
229.964	76.94
230.199	65.94
230.433	78.94
230.667	65.94
230.901	68.94
231.136	69.94
231.37	74.94
231.604	81.94
231.838	80.94
232.072	81.94
232.306	88.94
232.541	76.94
232.775	83.94
233.009	77.94
233.243	90.94
233.477	73.94
233.711	82.94
233.945	79.94
234.179	76.94
234.413	78.94
234.647	75.94
234.881	65.94
235.115	89.94
235.349	72.94
235.583	74.94
235.817	76.94
236.051	88.94
236.285	70.94
236.519	81.94
236.753	96.94
236.987	79.94
237.221	78.94
237.455	75.94
237.689	67.94
237.922	76.94
238.156	84.94
238.39	76.94
238.624	75.94
238.858	92.94
239.091	82.94
239.325	68.94
239.559	78.94
239.793	71.94
240.027	60.94
240.26	74.94
240.494	67.94
240.728	64.94
240.961	59.94
241.195	75.94
241.429	76.94
241.662	74.94
241.896	73.94
242.13	73.94
242.363	81.94
242.597	85.94
242.83	67.94
243.064	73.94
243.298	80.94
243.531	68.94
243.765	70.94
243.998	72.94
244.232	78.94
244.465	89.94
244.699	84.94
244.932	81.94
245.166	74.94
245.399	74.94
245.633	70.94
245.866	83.94
246.099	89.94
246.333	59.94
246.566	81.94
246.8	73.94
247.033	79.94
247.266	93.94
247.5	70.94
247.733	59.94
247.966	79.94
248.2	77.94
248.433	75.94
248.666	82.94
248.899	67.94
249.133	77.94
249.366	93.94
249.599	98.94
249.832	67.94
250.066	74.94
250.299	75.94
250.532	65.94
250.765	89.94
250.998	79.94
251.231	69.94
251.465	74.94
251.698	77.94
251.931	79.94
252.164	74.94
252.397	75.94
252.63	91.94
252.863	83.94
253.096	69.94
253.329	76.94
253.562	69.94
253.795	77.94
254.028	72.94
254.261	88.94
254.494	69.94
254.727	80.94
254.96	86.94
255.193	73.94
255.426	86.94
255.659	77.94
255.892	86.94
256.124	79.94
256.357	81.94
256.59	60.94
256.823	80.94
257.056	92.94
257.289	72.94
257.521	73.94
257.754	62.94
257.987	87.94
258.22	86.94
258.452	83.94
258.685	76.94
258.918	71.94
259.151	91.94
259.383	80.94
259.616	74.94
259.849	84.94
260.081	75.94
260.314	89.94
260.547	76.94
260.779	82.94
261.012	86.94
261.244	76.94
261.477	80.94
261.71	81.94
261.942	102.94
262.175	91.94
262.407	73.94
262.64	75.94
262.872	81.94
263.105	93.94
263.337	74.94
263.57	86.94
263.802	74.94
264.035	80.94
264.267	82.94
264.499	83.94
264.732	80.94
264.964	87.94
265.197	89.94
265.429	89.94
265.661	71.94
265.894	75.94
266.126	76.94
266.358	71.94
266.591	82.94
266.823	72.94
267.055	78.94
267.287	76.94
267.52	75.94
267.752	75.94
267.984	98.94
268.216	91.94
268.448	78.94
268.681	83.94
268.913	80.94
269.145	72.94
269.377	84.94
269.609	81.94
269.841	75.94
270.073	91.94
270.306	85.94
270.538	75.94
270.77	67.94
271.002	74.94
271.234	94.94
271.466	67.94
271.698	82.94
271.93	80.94
272.162	82.94
272.394	80.94
272.626	81.94
272.858	81.94
273.09	89.94
273.322	69.94
273.553	79.94
273.785	92.94
274.017	88.94
274.249	78.94
274.481	74.94
274.713	76.94
274.945	84.94
275.176	93.94
275.408	87.94
275.64	87.94
275.872	89.94
276.104	78.94
276.335	82.94
276.567	80.94
276.799	87.94
277.031	106.94
277.262	99.94
277.494	91.94
277.726	72.94
277.957	82.94
278.189	79.94
278.421	73.94
278.652	78.94
278.884	83.94
279.115	88.94
279.347	84.94
279.579	80.94
279.81	78.94
280.042	91.94
280.273	92.94
280.505	90.94
280.736	89.94
280.968	79.94
281.199	81.94
281.431	79.94
281.662	66.94
281.894	82.94
282.125	89.94
282.356	97.94
282.588	106.94
282.819	96.94
283.051	97.94
283.282	89.94
283.513	89.94
283.745	91.94
283.976	96.94
284.207	94.94
284.439	92.94
284.67	88.94
284.901	77.94
285.132	78.94
285.364	92.94
285.595	78.94
285.826	81.94
286.057	78.94
286.288	73.94
286.52	83.94
286.751	82.94
286.982	78.94
287.213	95.94
287.444	84.94
287.675	92.94
287.906	77.94
288.138	93.94
288.369	77.94
288.6	92.94
288.831	90.94
289.062	71.94
289.293	74.94
289.524	81.94
289.755	78.94
289.986	63.94
290.217	81.94
290.448	91.94
290.679	83.94
290.91	74.94
291.141	83.94
291.371	88.94
291.602	83.94
291.833	89.94
292.064	90.94
292.295	100.94
292.526	91.94
292.757	73.94
292.987	91.94
293.218	68.94
293.449	81.94
293.68	80.94
293.91	84.94
294.141	80.94
294.372	94.94
294.603	96.94
294.833	81.94
295.064	93.94
295.295	74.94
295.525	84.94
295.756	95.94
295.987	89.94
296.217	128.94
296.448	103.94
296.679	91.94
296.909	92.94
297.14	90.94
297.37	86.94
297.601	85.94
297.831	85.94
298.062	83.94
298.292	103.94
298.523	95.94
298.753	89.94
298.984	87.94
299.214	88.94
299.445	83.94
299.675	84.94
299.905	87.94
300.136	85.94
300.366	73.94
300.597	104.94
300.827	80.94
301.057	92.94
301.288	91.94
301.518	89.94
301.748	92.94
301.979	99.94
302.209	97.94
302.439	85.94
302.669	97.94
302.9	95.94
303.13	83.94
303.36	84.94
303.59	109.94
303.82	71.94
304.051	80.94
304.281	87.94
304.511	86.94
304.741	81.94
304.971	91.94
305.201	79.94
305.431	88.94
305.661	97.94
305.891	100.94
306.121	103.94
306.352	90.94
306.582	88.94
306.812	76.94
307.042	86.94
307.272	96.94
307.502	84.94
307.731	99.94
307.961	85.94
308.191	97.94
308.421	98.94
308.651	96.94
308.881	85.94
309.111	81.94
309.341	88.94
309.571	80.94
309.8	89.94
310.03	84.94
310.26	83.94
310.49	97.94
310.72	83.94
310.949	84.94
311.179	84.94
311.409	84.94
311.639	83.94
311.868	75.94
312.098	90.94
312.328	98.94
312.557	99.94
312.787	82.94
313.017	113.94
313.246	77.94
313.476	84.94
313.706	84.94
313.935	95.94
314.165	88.94
314.394	88.94
314.624	102.94
314.853	90.94
315.083	112.94
315.312	84.94
315.542	89.94
315.771	85.94
316.001	79.94
316.23	81.94
316.46	89.94
316.689	101.94
316.919	94.94
317.148	88.94
317.377	96.94
317.607	88.94
317.836	88.94
318.065	95.94
318.295	96.94
318.524	94.94
318.753	78.94
318.983	91.94
319.212	87.94
319.441	89.94
319.67	113.94
319.9	89.94
320.129	90.94
320.358	80.94
320.587	88.94
320.816	95.94
321.046	74.94
321.275	101.94
321.504	85.94
321.733	95.94
321.962	94.94
322.191	99.94
322.42	89.94
322.649	77.94
322.878	107.94
323.108	96.94
323.337	115.94
323.566	121.94
323.795	136.94
324.024	180.94
324.253	291.94
324.482	633.94
324.71	1293.94
324.939	1723.94
325.168	653.94
325.397	206.94
325.626	133.94
325.855	120.94
326.084	109.94
326.313	111.94
326.542	135.94
326.77	194.94
326.999	358.94
327.228	738.94
327.457	1333.94
327.686	1071.94
327.914	303.94
328.143	196.94
328.372	155.94
328.6	108.94
328.829	102.94
329.058	109.94
329.287	107.94
329.515	108.94
329.744	104.94
329.972	114.94
330.201	166.94
330.43	211.94
330.658	142.94
330.887	128.94
331.115	115.94
331.344	82.94
331.572	101.94
331.801	90.94
332.03	91.94
332.258	97.94
332.486	85.94
332.715	92.94
332.943	79.94
333.172	100.94
333.4	82.94
333.629	95.94
333.857	109.94
334.085	128.94
334.314	175.94
334.542	258.94
334.771	250.94
334.999	133.94
335.227	86.94
335.455	90.94
335.684	100.94
335.912	79.94
336.14	93.94
336.369	104.94
336.597	87.94
336.825	93.94
337.053	89.94
337.281	85.94
337.51	90.94
337.738	82.94
337.966	79.94
338.194	97.94
338.422	86.94
338.65	75.94
338.878	86.94
339.106	92.94
339.334	73.94
339.562	87.94
339.79	87.94
340.018	81.94
340.246	85.94
340.474	91.94
340.702	83.94
340.93	90.94
341.158	97.94
341.386	86.94
341.614	103.94
341.842	92.94
342.07	91.94
342.298	89.94
342.526	88.94
342.754	90.94
342.981	82.94
343.209	84.94
343.437	98.94
343.665	82.94
343.893	85.94
344.12	73.94
344.348	81.94
344.576	89.94
344.804	92.94
345.031	94.94
345.259	87.94
345.487	86.94
345.714	68.94
345.942	93.94
346.17	83.94
346.397	83.94
346.625	104.94
346.853	85.94
347.08	88.94
347.308	98.94
347.535	85.94
347.763	109.94
347.99	95.94
348.218	100.94
348.445	73.94
348.673	81.94
348.9	95.94
349.128	82.94
349.355	77.94
349.583	83.94
349.81	78.94
350.037	83.94
350.265	81.94
350.492	83.94
350.72	85.94
350.947	81.94
351.174	91.94
351.402	87.94
351.629	81.94
351.856	90.94
352.083	82.94
352.311	113.94
352.538	89.94
352.765	89.94
352.992	99.94
353.22	91.94
353.447	83.94
353.674	92.94
353.901	87.94
354.128	85.94
354.355	71.94
354.583	92.94
354.81	97.94
355.037	80.94
355.264	81.94
355.491	72.94
355.718	85.94
355.945	88.94
356.172	96.94
356.399	103.94
356.626	90.94
356.853	81.94
357.08	71.94
357.307	85.94
357.534	81.94
357.761	100.94
357.988	89.94
358.215	84.94
358.441	100.94
358.668	85.94
358.895	91.94
359.122	73.94
359.349	83.94
359.576	96.94
359.802	98.94
360.029	99.94
360.256	84.94
360.483	77.94
360.709	88.94
360.936	72.94
361.163	90.94
361.39	93.94
361.616	108.94
361.843	93.94
362.07	101.94
362.296	91.94
362.523	96.94
362.749	92.94
362.976	90.94
363.203	89.94
363.429	90.94
363.656	81.94
363.882	79.94
364.109	77.94
364.335	75.94
364.562	88.94
364.788	104.94
365.015	96.94
365.241	102.94
365.468	98.94
365.694	99.94
365.92	87.94
366.147	96.94
366.373	74.94
366.599	92.94
366.826	72.94
367.052	91.94
367.278	82.94
367.505	84.94
367.731	95.94
367.957	88.94
368.184	71.94
368.41	88.94
368.636	83.94
368.862	108.94
369.089	93.94
369.315	98.94
369.541	90.94
369.767	96.94
369.993	67.94
370.219	73.94
370.445	70.94
370.672	89.94
370.898	76.94
371.124	87.94
371.35	89.94
371.576	76.94
371.802	74.94
372.028	85.94
372.254	75.94
372.48	95.94
372.706	83.94
372.932	76.94
373.158	77.94
373.384	104.94
373.61	86.94
373.835	99.94
374.061	86.94
374.287	78.94
374.513	83.94
374.739	68.94
374.965	80.94
375.191	71.94
375.416	73.94
375.642	75.94
375.868	75.94
376.094	85.94
376.319	82.94
376.545	82.94
376.771	83.94
376.997	89.94
377.222	93.94
377.448	69.94
377.674	78.94
377.899	79.94
378.125	104.94
378.35	99.94
378.576	81.94
378.802	89.94
379.027	82.94
379.253	86.94
379.478	79.94
379.704	83.94
379.929	90.94
380.155	83.94
380.38	111.94
380.606	84.94
380.831	89.94
381.057	97.94
381.282	76.94
381.507	81.94
381.733	88.94
381.958	89.94
382.184	97.94
382.409	84.94
382.634	98.94
382.86	84.94
383.085	90.94
383.31	96.94
383.535	106.94
383.761	84.94
383.986	90.94
384.211	93.94
384.436	96.94
384.662	84.94
384.887	100.94
385.112	106.94
385.337	88.94
385.562	90.94
385.787	99.94
386.013	100.94
386.238	114.94
386.463	99.94
386.688	107.94
386.913	98.94
387.138	98.94
387.363	87.94
387.588	88.94
387.813	83.94
388.038	77.94
388.263	101.94
388.488	90.94
388.713	84.94
388.938	92.94
389.163	82.94
389.387	72.94
389.612	79.94
389.837	102.94
390.062	100.94
390.287	82.94
390.512	82.94
390.736	92.94
390.961	99.94
391.186	82.94
391.411	83.94
391.636	90.94
391.86	95.94
392.085	85.94
392.31	76.94
392.534	74.94
392.759	94.94
392.984	85.94
393.208	84.94
393.433	90.94
393.658	89.94
393.882	70.94
394.107	80.94
394.331	82.94
394.556	87.94
394.78	82.94
395.005	83.94
395.229	82.94
395.454	84.94
395.678	86.94
395.903	82.94
396.127	98.94
396.352	98.94
396.576	89.94
396.801	83.94
397.025	77.94
397.249	69.94
397.474	85.94
397.698	74.94
397.922	82.94
398.147	89.94
398.371	76.94
398.595	83.94
398.82	85.94
399.044	77.94
399.268	98.94
399.492	74.94
399.717	89.94
399.941	68.94
400.165	74.94
400.389	83.94
400.613	98.94
400.837	91.94
401.062	80.94
401.286	90.94
401.51	94.94
401.734	103.94
401.958	88.94
402.182	112.94
402.406	129.94
402.63	92.94
402.854	75.94
403.078	84.94
403.302	89.94
403.526	90.94
403.75	87.94
403.974	88.94
404.198	83.94
404.422	90.94
404.645	88.94
404.869	85.94
405.093	74.94
405.317	94.94
405.541	106.94
405.765	95.94
405.988	96.94
406.212	119.94
406.436	177.94
406.66	99.94
406.883	83.94
407.107	94.94
407.331	88.94
407.555	86.94
407.778	77.94
408.002	77.94
408.226	80.94
408.449	90.94
408.673	82.94
408.896	75.94
409.12	95.94
409.344	83.94
409.567	87.94
409.791	78.94
410.014	80.94
410.238	80.94
410.461	82.94
410.685	89.94
410.908	93.94
411.132	95.94
411.355	85.94
411.578	81.94
411.802	77.94
412.025	77.94
412.249	81.94
412.472	70.94
412.695	96.94
412.919	91.94
413.142	69.94
413.365	88.94
413.589	93.94
413.812	88.94
414.035	91.94
414.258	84.94
414.482	91.94
414.705	80.94
414.928	81.94
415.151	87.94
415.374	93.94
415.597	91.94
415.821	83.94
416.044	67.94
416.267	70.94
416.49	84.94
416.713	77.94
416.936	98.94
417.159	85.94
417.382	84.94
417.605	93.94
417.828	83.94
418.051	81.94
418.274	95.94
418.497	81.94
418.72	82.94
418.943	80.94
419.166	89.94
419.389	76.94
419.611	93.94
419.834	80.94
420.057	92.94
420.28	82.94
420.503	83.94
420.726	67.94
420.948	87.94
421.171	91.94
421.394	93.94
421.617	96.94
421.839	76.94
422.062	85.94
422.285	87.94
422.507	77.94
422.73	96.94
422.953	88.94
423.175	89.94
423.398	80.94
423.621	91.94
423.843	74.94
424.066	86.94
424.288	81.94
424.511	83.94
424.733	87.94
424.956	81.94
425.178	85.94
425.401	89.94
425.623	102.94
425.846	96.94
426.068	79.94
426.291	80.94
426.513	76.94
426.735	91.94
426.958	88.94
427.18	92.94
427.402	115.94
427.625	140.94
427.847	131.94
428.069	112.94
428.292	93.94
428.514	85.94
428.736	81.94
428.958	84.94
429.181	85.94
429.403	84.94
429.625	82.94
429.847	100.94
430.069	85.94
430.292	97.94
430.514	87.94
430.736	90.94
430.958	88.94
431.18	80.94
431.402	85.94
431.624	70.94
431.846	80.94
432.068	82.94
432.29	84.94
432.512	84.94
432.734	70.94
432.956	77.94
433.178	91.94
433.4	86.94
433.622	96.94
433.844	84.94
434.066	89.94
434.287	82.94
434.509	96.94
434.731	80.94
434.953	89.94
435.175	84.94
435.397	80.94
435.618	75.94
435.84	98.94
436.062	92.94
436.284	96.94
436.505	105.94
436.727	77.94
436.949	74.94
437.17	92.94
437.392	89.94
437.614	77.94
437.835	90.94
438.057	103.94
438.278	87.94
438.5	104.94
438.721	104.94
438.943	83.94
439.165	95.94
439.386	76.94
439.608	77.94
439.829	91.94
440.05	103.94
440.272	102.94
440.493	93.94
440.715	80.94
440.936	63.94
441.158	82.94
441.379	90.94
441.6	73.94
441.822	95.94
442.043	92.94
442.264	80.94
442.486	100.94
442.707	94.94
442.928	107.94
443.149	116.94
443.371	122.94
443.592	96.94
443.813	99.94
444.034	106.94
444.255	87.94
444.476	79.94
444.698	98.94
444.919	77.94
445.14	130.94
445.361	106.94
445.582	107.94
445.803	117.94
446.024	100.94
446.245	113.94
446.466	89.94
446.687	82.94
446.908	82.94
447.129	86.94
447.35	89.94
447.571	81.94
447.792	81.94
448.013	93.94
448.234	98.94
448.455	100.94
448.675	88.94
448.896	95.94
449.117	85.94
449.338	76.94
449.559	106.94
449.779	114.94
450	87.94
450.221	81.94
450.442	92.94
450.662	88.94
450.883	97.94
451.104	107.94
451.324	100.94
451.545	94.94
451.766	62.94
451.986	87.94
452.207	93.94
452.428	77.94
452.648	89.94
452.869	94.94
453.089	109.94
453.31	101.94
453.53	91.94
453.751	94.94
453.971	96.94
454.192	111.94
454.412	88.94
454.633	94.94
454.853	89.94
455.073	83.94
455.294	94.94
455.514	98.94
455.734	77.94
455.955	75.94
456.175	81.94
456.395	86.94
456.616	94.94
456.836	77.94
457.056	79.94
457.276	77.94
457.497	77.94
457.717	95.94
457.937	82.94
458.157	82.94
458.377	85.94
458.598	92.94
458.818	119.94
459.038	127.94
459.258	95.94
459.478	87.94
459.698	84.94
459.918	74.94
460.138	85.94
460.358	95.94
460.578	88.94
460.798	85.94
461.018	96.94
461.238	90.94
461.458	94.94
461.678	96.94
461.898	73.94
462.118	68.94
462.338	88.94
462.558	88.94
462.777	90.94
462.997	88.94
463.217	85.94
463.437	74.94
463.657	84.94
463.876	70.94
464.096	78.94
464.316	75.94
464.536	92.94
464.755	77.94
464.975	85.94
465.195	127.94
465.414	117.94
465.634	89.94
465.854	77.94
466.073	85.94
466.293	79.94
466.512	88.94
466.732	84.94
466.951	79.94
467.171	81.94
467.391	77.94
467.61	88.94
467.829	84.94
468.049	114.94
468.268	154.94
468.488	98.94
468.707	81.94
468.927	87.94
469.146	77.94
469.365	93.94
469.585	74.94
469.804	80.94
470.023	85.94
470.243	88.94
470.462	97.94
470.681	97.94
470.901	100.94
471.12	86.94
471.339	77.94
471.558	73.94
471.777	87.94
471.997	109.94
472.216	189.94
472.435	324.94
472.654	143.94
472.873	99.94
473.092	80.94
473.311	81.94
473.53	81.94
473.749	80.94
473.968	92.94
474.187	90.94
474.406	82.94
474.625	75.94
474.844	86.94
475.063	87.94
475.282	92.94
475.501	81.94
475.72	84.94
475.939	94.94
476.158	80.94
476.377	77.94
476.596	83.94
476.814	75.94
477.033	82.94
477.252	90.94
477.471	104.94
477.69	85.94
477.908	95.94
478.127	82.94
478.346	93.94
478.564	98.94
478.783	95.94
479.002	91.94
479.22	95.94
479.439	98.94
479.658	106.94
479.876	76.94
480.095	98.94
480.313	87.94
480.532	92.94
480.751	122.94
480.969	175.94
481.188	517.94
481.406	348.94
481.624	116.94
481.843	101.94
482.061	100.94
482.28	75.94
482.498	78.94
482.717	73.94
482.935	95.94
483.153	94.94
483.372	97.94
483.59	92.94
483.808	84.94
484.027	84.94
484.245	89.94
484.463	74.94
484.681	80.94
484.9	83.94
485.118	94.94
485.336	81.94
485.554	88.94
485.772	88.94
485.99	90.94
486.209	103.94
486.427	99.94
486.645	91.94
486.863	103.94
487.081	107.94
487.299	98.94
487.517	96.94
487.735	83.94
487.953	89.94
488.171	87.94
488.389	98.94
488.607	81.94
488.825	86.94
489.043	98.94
489.261	87.94
489.479	89.94
489.696	93.94
489.914	105.94
490.132	89.94
490.35	86.94
490.568	99.94
490.786	89.94
491.003	89.94
491.221	91.94
491.439	104.94
491.657	85.94
491.874	84.94
492.092	76.94
492.31	80.94
492.527	85.94
492.745	75.94
492.963	87.94
493.18	82.94
493.398	88.94
493.615	86.94
493.833	82.94
494.05	91.94
494.268	89.94
494.485	96.94
494.703	76.94
494.92	80.94
495.138	70.94
495.355	90.94
495.573	81.94
495.79	88.94
496.008	92.94
496.225	72.94
496.442	88.94
496.66	93.94
496.877	83.94
497.094	91.94
497.312	87.94
497.529	98.94
497.746	89.94
497.963	84.94
498.181	84.94
498.398	90.94
498.615	94.94
498.832	100.94
499.049	84.94
499.267	81.94
499.484	71.94
499.701	94.94
499.918	72.94
500.135	81.94
500.352	82.94
500.569	80.94
500.786	90.94
501.003	84.94
501.22	82.94
501.437	93.94
501.654	75.94
501.871	86.94
502.088	86.94
502.305	82.94
502.522	93.94
502.739	92.94
502.956	79.94
503.172	88.94
503.389	93.94
503.606	98.94
503.823	90.94
504.04	85.94
504.256	83.94
504.473	71.94
504.69	84.94
504.907	75.94
505.123	87.94
505.34	92.94
505.557	88.94
505.773	84.94
505.99	88.94
506.207	80.94
506.423	85.94
506.64	93.94
506.856	89.94
507.073	81.94
507.289	84.94
507.506	96.94
507.722	88.94
507.939	117.94
508.155	96.94
508.372	91.94
508.588	88.94
508.805	88.94
509.021	89.94
509.238	77.94
509.454	90.94
509.67	72.94
509.887	107.94
510.103	101.94
510.319	157.94
510.536	544.94
510.752	1659.94
510.968	522.94
511.184	128.94
511.401	92.94
511.617	85.94
511.833	88.94
512.049	83.94
512.265	88.94
512.481	84.94
512.698	96.94
512.914	98.94
513.13	83.94
513.346	72.94
513.562	99.94
513.778	83.94
513.994	100.94
514.21	102.94
514.426	97.94
514.642	108.94
514.858	118.94
515.074	137.94
515.29	332.94
515.506	1000.94
515.721	413.94
515.937	132.94
516.153	114.94
516.369	103.94
516.585	76.94
516.801	97.94
517.016	91.94
517.232	83.94
517.448	96.94
517.664	61.94
