Data from Circ_2015_H10_HRD10591_00051.txt Node
Date: Wed Jan 03 10:00:33 EST 2024
User: Yrep
Spectrometer: HR+D1059
Trigger mode: 1
Integration Time (sec): 1.000000E-1
Scans to average: 1
Electric dark correction enabled: true
Nonlinearity correction enabled: false
Boxcar width: 0
XAxis mode: Wavelengths
Number of Pixels in Spectrum: 2048
>>>>>Begin Spectral Data<<<<<
223.165	-11.31
223.4	-11.31
223.635	-11.31
223.869	-8.31
224.104	-10.31
224.338	-28.31
224.573	-17.31
224.808	-2.31
225.042	-9.31
225.277	1.69
225.511	-4.31
225.746	2.69
225.98	13.69
226.215	12.69
226.449	3.69
226.683	20.69
226.918	8.69
227.152	27.69
227.387	47.69
227.621	66.69
227.856	49.69
228.09	53.69
228.324	47.69
228.559	61.69
228.793	58.69
229.027	70.69
229.262	70.69
229.496	72.69
229.73	80.69
229.964	83.69
230.199	79.69
230.433	67.69
230.667	81.69
230.901	79.69
231.136	83.69
231.37	84.69
231.604	71.69
231.838	77.69
232.072	76.69
232.306	92.69
232.541	85.69
232.775	91.69
233.009	88.69
233.243	86.69
233.477	84.69
233.711	77.69
233.945	67.69
234.179	79.69
234.413	77.69
234.647	90.69
234.881	79.69
235.115	80.69
235.349	87.69
235.583	77.69
235.817	91.69
236.051	85.69
236.285	68.69
236.519	80.69
236.753	87.69
236.987	84.69
237.221	86.69
237.455	79.69
237.689	81.69
237.922	77.69
238.156	63.69
238.39	81.69
238.624	70.69
238.858	71.69
239.091	89.69
239.325	90.69
239.559	81.69
239.793	75.69
240.027	81.69
240.26	66.69
240.494	73.69
240.728	77.69
240.961	75.69
241.195	79.69
241.429	87.69
241.662	74.69
241.896	75.69
242.13	77.69
242.363	78.69
242.597	68.69
242.83	62.69
243.064	82.69
243.298	66.69
243.531	74.69
243.765	89.69
243.998	63.69
244.232	93.69
244.465	78.69
244.699	89.69
244.932	91.69
245.166	65.69
245.399	68.69
245.633	61.69
245.866	76.69
246.099	86.69
246.333	78.69
246.566	77.69
246.8	66.69
247.033	86.69
247.266	71.69
247.5	68.69
247.733	83.69
247.966	76.69
248.2	76.69
248.433	81.69
248.666	77.69
248.899	61.69
249.133	81.69
249.366	98.69
249.599	89.69
249.832	79.69
250.066	93.69
250.299	84.69
250.532	76.69
250.765	85.69
250.998	75.69
251.231	76.69
251.465	92.69
251.698	73.69
251.931	77.69
252.164	79.69
252.397	75.69
252.63	90.69
252.863	61.69
253.096	88.69
253.329	73.69
253.562	84.69
253.795	87.69
254.028	84.69
254.261	86.69
254.494	85.69
254.727	72.69
254.96	75.69
255.193	75.69
255.426	74.69
255.659	86.69
255.892	88.69
256.124	78.69
256.357	76.69
256.59	61.69
256.823	66.69
257.056	82.69
257.289	86.69
257.521	88.69
257.754	78.69
257.987	76.69
258.22	76.69
258.452	85.69
258.685	67.69
258.918	89.69
259.151	90.69
259.383	87.69
259.616	75.69
259.849	85.69
260.081	86.69
260.314	82.69
260.547	67.69
260.779	79.69
261.012	94.69
261.244	72.69
261.477	82.69
261.71	80.69
261.942	104.69
262.175	93.69
262.407	89.69
262.64	81.69
262.872	69.69
263.105	77.69
263.337	78.69
263.57	89.69
263.802	70.69
264.035	79.69
264.267	75.69
264.499	68.69
264.732	79.69
264.964	87.69
265.197	84.69
265.429	76.69
265.661	76.69
265.894	90.69
266.126	81.69
266.358	78.69
266.591	84.69
266.823	95.69
267.055	80.69
267.287	90.69
267.52	91.69
267.752	81.69
267.984	75.69
268.216	90.69
268.448	88.69
268.681	84.69
268.913	89.69
269.145	91.69
269.377	77.69
269.609	77.69
269.841	78.69
270.073	93.69
270.306	103.69
270.538	87.69
270.77	73.69
271.002	79.69
271.234	81.69
271.466	79.69
271.698	101.69
271.93	84.69
272.162	83.69
272.394	86.69
272.626	82.69
272.858	93.69
273.09	68.69
273.322	91.69
273.553	79.69
273.785	76.69
274.017	64.69
274.249	90.69
274.481	83.69
274.713	88.69
274.945	88.69
275.176	93.69
275.408	97.69
275.64	83.69
275.872	78.69
276.104	73.69
276.335	81.69
276.567	105.69
276.799	96.69
277.031	110.69
277.262	90.69
277.494	97.69
277.726	86.69
277.957	82.69
278.189	93.69
278.421	80.69
278.652	81.69
278.884	77.69
279.115	94.69
279.347	93.69
279.579	81.69
279.81	92.69
280.042	101.69
280.273	100.69
280.505	95.69
280.736	75.69
280.968	86.69
281.199	86.69
281.431	88.69
281.662	90.69
281.894	88.69
282.125	90.69
282.356	96.69
282.588	130.69
282.819	113.69
283.051	93.69
283.282	87.69
283.513	97.69
283.745	90.69
283.976	84.69
284.207	75.69
284.439	85.69
284.67	84.69
284.901	85.69
285.132	85.69
285.364	85.69
285.595	77.69
285.826	83.69
286.057	100.69
286.288	98.69
286.52	80.69
286.751	81.69
286.982	71.69
287.213	79.69
287.444	78.69
287.675	95.69
287.906	100.69
288.138	98.69
288.369	85.69
288.6	88.69
288.831	87.69
289.062	105.69
289.293	80.69
289.524	92.69
289.755	80.69
289.986	89.69
290.217	83.69
290.448	96.69
290.679	87.69
290.91	99.69
291.141	86.69
291.371	92.69
291.602	88.69
291.833	74.69
292.064	92.69
292.295	62.69
292.526	89.69
292.757	79.69
292.987	83.69
293.218	77.69
293.449	85.69
293.68	89.69
293.91	79.69
294.141	88.69
294.372	80.69
294.603	83.69
294.833	87.69
295.064	79.69
295.295	85.69
295.525	88.69
295.756	102.69
295.987	107.69
296.217	123.69
296.448	134.69
296.679	82.69
296.909	87.69
297.14	77.69
297.37	102.69
297.601	86.69
297.831	75.69
298.062	94.69
298.292	90.69
298.523	97.69
298.753	85.69
298.984	86.69
299.214	94.69
299.445	79.69
299.675	86.69
299.905	88.69
300.136	96.69
300.366	110.69
300.597	99.69
300.827	78.69
301.057	87.69
301.288	89.69
301.518	96.69
301.748	95.69
301.979	92.69
302.209	78.69
302.439	93.69
302.669	94.69
302.9	90.69
303.13	88.69
303.36	95.69
303.59	102.69
303.82	97.69
304.051	102.69
304.281	91.69
304.511	92.69
304.741	92.69
304.971	85.69
305.201	102.69
305.431	77.69
305.661	94.69
305.891	88.69
306.121	99.69
306.352	102.69
306.582	110.69
306.812	102.69
307.042	93.69
307.272	88.69
307.502	100.69
307.731	109.69
307.961	81.69
308.191	96.69
308.421	89.69
308.651	93.69
308.881	87.69
309.111	94.69
309.341	96.69
309.571	86.69
309.8	99.69
310.03	95.69
310.26	100.69
310.49	91.69
310.72	102.69
310.949	119.69
311.179	109.69
311.409	106.69
311.639	94.69
311.868	83.69
312.098	74.69
312.328	83.69
312.557	101.69
312.787	106.69
313.017	94.69
313.246	108.69
313.476	78.69
313.706	94.69
313.935	88.69
314.165	92.69
314.394	90.69
314.624	111.69
314.853	91.69
315.083	106.69
315.312	90.69
315.542	100.69
315.771	86.69
316.001	94.69
316.23	87.69
316.46	93.69
316.689	99.69
316.919	96.69
317.148	103.69
317.377	79.69
317.607	93.69
317.836	84.69
318.065	102.69
318.295	100.69
318.524	84.69
318.753	82.69
318.983	90.69
319.212	96.69
319.441	107.69
319.67	100.69
319.9	81.69
320.129	86.69
320.358	79.69
320.587	96.69
320.816	94.69
321.046	104.69
321.275	112.69
321.504	98.69
321.733	113.69
321.962	103.69
322.191	113.69
322.42	103.69
322.649	106.69
322.878	109.69
323.108	107.69
323.337	120.69
323.566	117.69
323.795	156.69
324.024	196.69
324.253	385.69
324.482	801.69
324.71	1618.69
324.939	2179.69
325.168	819.69
325.397	245.69
325.626	153.69
325.855	118.69
326.084	129.69
326.313	121.69
326.542	164.69
326.77	254.69
326.999	427.69
327.228	888.69
327.457	1679.69
327.686	1323.69
327.914	371.69
328.143	214.69
328.372	189.69
328.6	141.69
328.829	119.69
329.058	121.69
329.287	114.69
329.515	110.69
329.744	97.69
329.972	137.69
330.201	172.69
330.43	223.69
330.658	143.69
330.887	122.69
331.115	122.69
331.344	94.69
331.572	100.69
331.801	100.69
332.03	94.69
332.258	101.69
332.486	101.69
332.715	100.69
332.943	103.69
333.172	103.69
333.4	87.69
333.629	114.69
333.857	116.69
334.085	144.69
334.314	178.69
334.542	250.69
334.771	243.69
334.999	140.69
335.227	97.69
335.455	97.69
335.684	105.69
335.912	111.69
336.14	107.69
336.369	117.69
336.597	108.69
336.825	94.69
337.053	86.69
337.281	92.69
337.51	92.69
337.738	95.69
337.966	94.69
338.194	93.69
338.422	94.69
338.65	95.69
338.878	103.69
339.106	86.69
339.334	100.69
339.562	88.69
339.79	89.69
340.018	89.69
340.246	86.69
340.474	92.69
340.702	90.69
340.93	100.69
341.158	98.69
341.386	99.69
341.614	101.69
341.842	87.69
342.07	100.69
342.298	99.69
342.526	83.69
342.754	94.69
342.981	91.69
343.209	84.69
343.437	110.69
343.665	85.69
343.893	86.69
344.12	110.69
344.348	92.69
344.576	91.69
344.804	87.69
345.031	99.69
345.259	80.69
345.487	100.69
345.714	70.69
345.942	89.69
346.17	86.69
346.397	94.69
346.625	95.69
346.853	98.69
347.08	94.69
347.308	92.69
347.535	82.69
347.763	89.69
347.99	88.69
348.218	91.69
348.445	96.69
348.673	95.69
348.9	82.69
349.128	91.69
349.355	87.69
349.583	92.69
349.81	97.69
350.037	94.69
350.265	89.69
350.492	81.69
350.72	108.69
350.947	108.69
351.174	96.69
351.402	108.69
351.629	102.69
351.856	106.69
352.083	93.69
352.311	90.69
352.538	103.69
352.765	120.69
352.992	113.69
353.22	127.69
353.447	100.69
353.674	104.69
353.901	94.69
354.128	118.69
354.355	86.69
354.583	97.69
354.81	102.69
355.037	113.69
355.264	102.69
355.491	92.69
355.718	85.69
355.945	94.69
356.172	103.69
356.399	93.69
356.626	97.69
356.853	96.69
357.08	77.69
357.307	87.69
357.534	92.69
357.761	103.69
357.988	89.69
358.215	104.69
358.441	92.69
358.668	94.69
358.895	82.69
359.122	90.69
359.349	99.69
359.576	103.69
359.802	89.69
360.029	91.69
360.256	96.69
360.483	100.69
360.709	101.69
360.936	90.69
361.163	112.69
361.39	94.69
361.616	86.69
361.843	84.69
362.07	82.69
362.296	91.69
362.523	88.69
362.749	84.69
362.976	80.69
363.203	72.69
363.429	79.69
363.656	90.69
363.882	103.69
364.109	89.69
364.335	85.69
364.562	92.69
364.788	88.69
365.015	91.69
365.241	90.69
365.468	105.69
365.694	93.69
365.92	83.69
366.147	90.69
366.373	79.69
366.599	89.69
366.826	83.69
367.052	85.69
367.278	90.69
367.505	98.69
367.731	93.69
367.957	85.69
368.184	93.69
368.41	102.69
368.636	96.69
368.862	119.69
369.089	108.69
369.315	83.69
369.541	97.69
369.767	93.69
369.993	78.69
370.219	85.69
370.445	72.69
370.672	67.69
370.898	97.69
371.124	89.69
371.35	89.69
371.576	82.69
371.802	96.69
372.028	85.69
372.254	101.69
372.48	74.69
372.706	93.69
372.932	84.69
373.158	94.69
373.384	100.69
373.61	101.69
373.835	93.69
374.061	88.69
374.287	96.69
374.513	75.69
374.739	88.69
374.965	92.69
375.191	91.69
375.416	80.69
375.642	93.69
375.868	97.69
376.094	93.69
376.319	87.69
376.545	79.69
376.771	83.69
376.997	91.69
377.222	91.69
377.448	87.69
377.674	87.69
377.899	89.69
378.125	95.69
378.35	92.69
378.576	89.69
378.802	71.69
379.027	91.69
379.253	99.69
379.478	91.69
379.704	98.69
379.929	91.69
380.155	98.69
380.38	80.69
380.606	85.69
380.831	99.69
381.057	101.69
381.282	90.69
381.507	106.69
381.733	100.69
381.958	104.69
382.184	98.69
382.409	98.69
382.634	108.69
382.86	95.69
383.085	99.69
383.31	94.69
383.535	97.69
383.761	92.69
383.986	106.69
384.211	100.69
384.436	89.69
384.662	107.69
384.887	116.69
385.112	94.69
385.337	106.69
385.562	99.69
385.787	110.69
386.013	106.69
386.238	113.69
386.463	112.69
386.688	109.69
386.913	116.69
387.138	114.69
387.363	115.69
387.588	103.69
387.813	116.69
388.038	110.69
388.263	105.69
388.488	107.69
388.713	93.69
388.938	87.69
389.163	92.69
389.387	113.69
389.612	99.69
389.837	97.69
390.062	87.69
390.287	89.69
390.512	85.69
390.736	91.69
390.961	96.69
391.186	95.69
391.411	95.69
391.636	94.69
391.86	81.69
392.085	91.69
392.31	87.69
392.534	88.69
392.759	85.69
392.984	99.69
393.208	92.69
393.433	109.69
393.658	89.69
393.882	91.69
394.107	86.69
394.331	90.69
394.556	90.69
394.78	89.69
395.005	80.69
395.229	100.69
395.454	83.69
395.678	89.69
395.903	83.69
396.127	101.69
396.352	85.69
396.576	93.69
396.801	93.69
397.025	91.69
397.249	105.69
397.474	83.69
397.698	95.69
397.922	90.69
398.147	78.69
398.371	77.69
398.595	88.69
398.82	102.69
399.044	91.69
399.268	79.69
399.492	79.69
399.717	79.69
399.941	73.69
400.165	98.69
400.389	87.69
400.613	87.69
400.837	89.69
401.062	86.69
401.286	97.69
401.51	100.69
401.734	93.69
401.958	91.69
402.182	105.69
402.406	163.69
402.63	117.69
402.854	85.69
403.078	91.69
403.302	88.69
403.526	89.69
403.75	98.69
403.974	101.69
404.198	88.69
404.422	93.69
404.645	95.69
404.869	92.69
405.093	93.69
405.317	100.69
405.541	103.69
405.765	88.69
405.988	108.69
406.212	173.69
406.436	224.69
406.66	142.69
406.883	98.69
407.107	101.69
407.331	102.69
407.555	100.69
407.778	99.69
408.002	91.69
408.226	90.69
408.449	68.69
408.673	89.69
408.896	90.69
409.12	85.69
409.344	99.69
409.567	92.69
409.791	91.69
410.014	91.69
410.238	85.69
410.461	94.69
410.685	100.69
410.908	101.69
411.132	102.69
411.355	100.69
411.578	84.69
411.802	88.69
412.025	89.69
412.249	101.69
412.472	104.69
412.695	114.69
412.919	94.69
413.142	82.69
413.365	88.69
413.589	82.69
413.812	80.69
414.035	80.69
414.258	93.69
414.482	97.69
414.705	78.69
414.928	79.69
415.151	84.69
415.374	95.69
415.597	94.69
415.821	82.69
416.044	83.69
416.267	94.69
416.49	77.69
416.713	80.69
416.936	98.69
417.159	77.69
417.382	101.69
417.605	111.69
417.828	92.69
418.051	89.69
418.274	77.69
418.497	89.69
418.72	90.69
418.943	82.69
419.166	105.69
419.389	108.69
419.611	96.69
419.834	77.69
420.057	80.69
420.28	73.69
420.503	88.69
420.726	83.69
420.948	95.69
421.171	95.69
421.394	89.69
421.617	106.69
421.839	82.69
422.062	84.69
422.285	95.69
422.507	84.69
422.73	102.69
422.953	89.69
423.175	75.69
423.398	90.69
423.621	100.69
423.843	96.69
424.066	94.69
424.288	94.69
424.511	102.69
424.733	96.69
424.956	102.69
425.178	97.69
425.401	108.69
425.623	100.69
425.846	83.69
426.068	92.69
426.291	97.69
426.513	84.69
426.735	83.69
426.958	88.69
427.18	93.69
427.402	117.69
427.625	163.69
427.847	136.69
428.069	139.69
428.292	115.69
428.514	83.69
428.736	101.69
428.958	77.69
429.181	81.69
429.403	87.69
429.625	82.69
429.847	94.69
430.069	97.69
430.292	75.69
430.514	81.69
430.736	89.69
430.958	82.69
431.18	92.69
431.402	96.69
431.624	83.69
431.846	63.69
432.068	82.69
432.29	74.69
432.512	85.69
432.734	81.69
432.956	83.69
433.178	96.69
433.4	89.69
433.622	102.69
433.844	85.69
434.066	85.69
434.287	86.69
434.509	85.69
434.731	95.69
434.953	98.69
435.175	93.69
435.397	94.69
435.618	92.69
435.84	92.69
436.062	89.69
436.284	115.69
436.505	103.69
436.727	93.69
436.949	78.69
437.17	90.69
437.392	86.69
437.614	87.69
437.835	102.69
438.057	105.69
438.278	98.69
438.5	114.69
438.721	129.69
438.943	103.69
439.165	93.69
439.386	81.69
439.608	82.69
439.829	91.69
440.05	117.69
440.272	122.69
440.493	91.69
440.715	81.69
440.936	81.69
441.158	84.69
441.379	92.69
441.6	90.69
441.822	94.69
442.043	82.69
442.264	107.69
442.486	100.69
442.707	95.69
442.928	91.69
443.149	139.69
443.371	114.69
443.592	107.69
443.813	117.69
444.034	106.69
444.255	101.69
444.476	86.69
444.698	101.69
444.919	94.69
445.14	130.69
445.361	135.69
445.582	115.69
445.803	125.69
446.024	122.69
446.245	125.69
446.466	103.69
446.687	91.69
446.908	80.69
447.129	86.69
447.35	90.69
447.571	86.69
447.792	70.69
448.013	90.69
448.234	107.69
448.455	98.69
448.675	97.69
448.896	111.69
449.117	103.69
449.338	99.69
449.559	117.69
449.779	99.69
450	94.69
450.221	76.69
450.442	91.69
450.662	110.69
450.883	114.69
451.104	117.69
451.324	98.69
451.545	89.69
451.766	99.69
451.986	78.69
452.207	86.69
452.428	95.69
452.648	92.69
452.869	122.69
453.089	106.69
453.31	108.69
453.53	113.69
453.751	83.69
453.971	115.69
454.192	110.69
454.412	103.69
454.633	94.69
454.853	75.69
455.073	91.69
455.294	102.69
455.514	103.69
455.734	92.69
455.955	88.69
456.175	86.69
456.395	80.69
456.616	83.69
456.836	99.69
457.056	103.69
457.276	79.69
457.497	83.69
457.717	91.69
457.937	90.69
458.157	95.69
458.377	92.69
458.598	117.69
458.818	131.69
459.038	148.69
459.258	115.69
459.478	93.69
459.698	86.69
459.918	78.69
460.138	83.69
460.358	76.69
460.578	87.69
460.798	77.69
461.018	89.69
461.238	91.69
461.458	95.69
461.678	88.69
461.898	87.69
462.118	83.69
462.338	98.69
462.558	93.69
462.777	76.69
462.997	88.69
463.217	89.69
463.437	90.69
463.657	90.69
463.876	83.69
464.096	86.69
464.316	82.69
464.536	103.69
464.755	101.69
464.975	99.69
465.195	155.69
465.414	149.69
465.634	87.69
465.854	79.69
466.073	86.69
466.293	88.69
466.512	92.69
466.732	73.69
466.951	89.69
467.171	87.69
467.391	98.69
467.61	90.69
467.829	108.69
468.049	122.69
468.268	143.69
468.488	100.69
468.707	83.69
468.927	79.69
469.146	89.69
469.365	92.69
469.585	95.69
469.804	79.69
470.023	99.69
470.243	94.69
470.462	117.69
470.681	129.69
470.901	97.69
471.12	98.69
471.339	92.69
471.558	102.69
471.777	96.69
471.997	117.69
472.216	199.69
472.435	330.69
472.654	127.69
472.873	88.69
473.092	94.69
473.311	91.69
473.53	91.69
473.749	70.69
473.968	98.69
474.187	96.69
474.406	98.69
474.625	96.69
474.844	85.69
475.063	91.69
475.282	83.69
475.501	95.69
475.72	91.69
475.939	78.69
476.158	92.69
476.377	94.69
476.596	85.69
476.814	88.69
477.033	92.69
477.252	95.69
477.471	97.69
477.69	80.69
477.908	78.69
478.127	97.69
478.346	90.69
478.564	97.69
478.783	96.69
479.002	103.69
479.22	97.69
479.439	91.69
479.658	105.69
479.876	85.69
480.095	85.69
480.313	76.69
480.532	96.69
480.751	104.69
480.969	195.69
481.188	531.69
481.406	346.69
481.624	120.69
481.843	91.69
482.061	98.69
482.28	98.69
482.498	76.69
482.717	87.69
482.935	96.69
483.153	101.69
483.372	93.69
483.59	90.69
483.808	71.69
484.027	82.69
484.245	91.69
484.463	89.69
484.681	98.69
484.9	105.69
485.118	87.69
485.336	81.69
485.554	88.69
485.772	106.69
485.99	110.69
486.209	96.69
486.427	94.69
486.645	109.69
486.863	108.69
487.081	95.69
487.299	93.69
487.517	111.69
487.735	95.69
487.953	86.69
488.171	95.69
488.389	87.69
488.607	102.69
488.825	102.69
489.043	97.69
489.261	94.69
489.479	89.69
489.696	78.69
489.914	84.69
490.132	100.69
490.35	90.69
490.568	92.69
490.786	82.69
491.003	101.69
491.221	86.69
491.439	90.69
491.657	87.69
491.874	90.69
492.092	87.69
492.31	78.69
492.527	89.69
492.745	81.69
492.963	85.69
493.18	95.69
493.398	87.69
493.615	94.69
493.833	102.69
494.05	78.69
494.268	79.69
494.485	89.69
494.703	92.69
494.92	102.69
495.138	99.69
495.355	85.69
495.573	91.69
495.79	96.69
496.008	91.69
496.225	89.69
496.442	93.69
496.66	94.69
496.877	87.69
497.094	93.69
497.312	94.69
497.529	87.69
497.746	98.69
497.963	91.69
498.181	91.69
498.398	90.69
498.615	105.69
498.832	98.69
499.049	89.69
499.267	88.69
499.484	94.69
499.701	85.69
499.918	82.69
500.135	91.69
500.352	98.69
500.569	92.69
500.786	86.69
501.003	98.69
501.22	82.69
501.437	107.69
501.654	92.69
501.871	110.69
502.088	92.69
502.305	86.69
502.522	86.69
502.739	82.69
502.956	89.69
503.172	98.69
503.389	98.69
503.606	102.69
503.823	95.69
504.04	81.69
504.256	83.69
504.473	92.69
504.69	82.69
504.907	102.69
505.123	96.69
505.34	86.69
505.557	83.69
505.773	78.69
505.99	100.69
506.207	103.69
506.423	94.69
506.64	85.69
506.856	91.69
507.073	88.69
507.289	85.69
507.506	91.69
507.722	117.69
507.939	101.69
508.155	99.69
508.372	94.69
508.588	87.69
508.805	89.69
509.021	92.69
509.238	97.69
509.454	102.69
509.67	109.69
509.887	104.69
510.103	129.69
510.319	211.69
510.536	716.69
510.752	2351.69
510.968	693.69
511.184	163.69
511.401	132.69
511.617	85.69
511.833	87.69
512.049	99.69
512.265	90.69
512.481	79.69
512.698	100.69
512.914	100.69
513.13	89.69
513.346	85.69
513.562	103.69
513.778	93.69
513.994	84.69
514.21	99.69
514.426	109.69
514.642	141.69
514.858	115.69
515.074	149.69
515.29	414.69
515.506	1369.69
