Data from Circ_2015_H10_HRD10591_00026.txt Node
Date: Wed Jan 03 10:00:28 EST 2024
User: Yrep
Spectrometer: HR+D1059
Trigger mode: 1
Integration Time (sec): 1.000000E-1
Scans to average: 1
Electric dark correction enabled: true
Nonlinearity correction enabled: false
Boxcar width: 0
XAxis mode: Wavelengths
Number of Pixels in Spectrum: 2048
>>>>>Begin Spectral Data<<<<<
223.165	-14
223.4	-14
223.635	-14
223.869	-26
224.104	-16
224.338	4
224.573	-22
224.808	-18
225.042	-9
225.277	-1
225.511	6
225.746	-11
225.98	14
226.215	21
226.449	13
226.683	9
226.918	20
227.152	30
227.387	43
227.621	34
227.856	44
228.09	46
228.324	47
228.559	61
228.793	61
229.027	69
229.262	54
229.496	71
229.73	71
229.964	72
230.199	70
230.433	60
230.667	80
230.901	92
231.136	82
231.37	89
231.604	67
231.838	77
232.072	77
232.306	85
232.541	78
232.775	89
233.009	92
233.243	85
233.477	71
233.711	82
233.945	79
234.179	78
234.413	78
234.647	84
234.881	95
235.115	76
235.349	87
235.583	79
235.817	78
236.051	76
236.285	83
236.519	65
236.753	86
236.987	77
237.221	83
237.455	93
237.689	79
237.922	88
238.156	83
238.39	89
238.624	94
238.858	82
239.091	86
239.325	84
239.559	75
239.793	66
240.027	73
240.26	71
240.494	74
240.728	60
240.961	73
241.195	75
241.429	79
241.662	89
241.896	84
242.13	69
242.363	73
242.597	78
242.83	70
243.064	76
243.298	73
243.531	75
243.765	69
243.998	73
244.232	82
244.465	92
244.699	86
244.932	70
245.166	71
245.399	74
245.633	101
245.866	77
246.099	76
246.333	78
246.566	72
246.8	82
247.033	77
247.266	62
247.5	74
247.733	74
247.966	81
248.2	94
248.433	87
248.666	85
248.899	67
249.133	81
249.366	100
249.599	83
249.832	86
250.066	81
250.299	80
250.532	87
250.765	83
250.998	88
251.231	84
251.465	79
251.698	72
251.931	75
252.164	78
252.397	68
252.63	79
252.863	91
253.096	72
253.329	77
253.562	70
253.795	82
254.028	87
254.261	78
254.494	69
254.727	73
254.96	83
255.193	87
255.426	73
255.659	77
255.892	79
256.124	75
256.357	88
256.59	73
256.823	76
257.056	78
257.289	80
257.521	78
257.754	75
257.987	73
258.22	78
258.452	76
258.685	87
258.918	71
259.151	74
259.383	94
259.616	76
259.849	100
260.081	88
260.314	87
260.547	96
260.779	89
261.012	88
261.244	85
261.477	73
261.71	93
261.942	98
262.175	105
262.407	89
262.64	94
262.872	78
263.105	87
263.337	73
263.57	79
263.802	86
264.035	95
264.267	87
264.499	79
264.732	89
264.964	95
265.197	87
265.429	78
265.661	86
265.894	95
266.126	87
266.358	84
266.591	82
266.823	92
267.055	76
267.287	74
267.52	83
267.752	89
267.984	74
268.216	72
268.448	84
268.681	85
268.913	81
269.145	72
269.377	93
269.609	87
269.841	81
270.073	82
270.306	98
270.538	89
270.77	97
271.002	80
271.234	90
271.466	81
271.698	77
271.93	86
272.162	89
272.394	101
272.626	88
272.858	76
273.09	74
273.322	83
273.553	87
273.785	84
274.017	92
274.249	95
274.481	77
274.713	82
274.945	76
275.176	82
275.408	86
275.64	89
275.872	85
276.104	84
276.335	88
276.567	94
276.799	107
277.031	103
277.262	99
277.494	91
277.726	75
277.957	89
278.189	91
278.421	85
278.652	99
278.884	96
279.115	94
279.347	89
279.579	87
279.81	94
280.042	94
280.273	110
280.505	98
280.736	89
280.968	85
281.199	96
281.431	95
281.662	106
281.894	91
282.125	94
282.356	100
282.588	135
282.819	116
283.051	88
283.282	83
283.513	85
283.745	104
283.976	101
284.207	85
284.439	92
284.67	89
284.901	82
285.132	103
285.364	86
285.595	95
285.826	81
286.057	86
286.288	89
286.52	98
286.751	87
286.982	78
287.213	90
287.444	93
287.675	94
287.906	88
288.138	94
288.369	94
288.6	97
288.831	92
289.062	90
289.293	79
289.524	93
289.755	88
289.986	87
290.217	79
290.448	99
290.679	100
290.91	100
291.141	91
291.371	86
291.602	89
291.833	95
292.064	94
292.295	88
292.526	88
292.757	81
292.987	88
293.218	88
293.449	90
293.68	86
293.91	86
294.141	90
294.372	72
294.603	73
294.833	83
295.064	105
295.295	93
295.525	86
295.756	96
295.987	106
296.217	143
296.448	126
296.679	101
296.909	86
297.14	85
297.37	82
297.601	78
297.831	94
298.062	97
298.292	94
298.523	69
298.753	83
298.984	96
299.214	94
299.445	98
299.675	85
299.905	79
300.136	101
300.366	80
300.597	87
300.827	91
301.057	93
301.288	105
301.518	91
301.748	82
301.979	106
302.209	84
302.439	85
302.669	86
302.9	99
303.13	105
303.36	97
303.59	90
303.82	105
304.051	86
304.281	89
304.511	85
304.741	93
304.971	87
305.201	93
305.431	89
305.661	75
305.891	110
306.121	98
306.352	99
306.582	91
306.812	113
307.042	103
307.272	95
307.502	97
307.731	97
307.961	115
308.191	85
308.421	78
308.651	83
308.881	92
309.111	97
309.341	96
309.571	111
309.8	111
310.03	97
310.26	91
310.49	106
310.72	118
310.949	109
311.179	88
311.409	94
311.639	97
311.868	104
312.098	85
312.328	99
312.557	92
312.787	94
313.017	92
313.246	90
313.476	83
313.706	85
313.935	88
314.165	93
314.394	106
314.624	98
314.853	79
315.083	100
315.312	87
315.542	86
315.771	102
316.001	93
316.23	86
316.46	95
316.689	101
316.919	80
317.148	106
317.377	102
317.607	98
317.836	96
318.065	109
318.295	93
318.524	85
318.753	90
318.983	93
319.212	90
319.441	109
319.67	113
319.9	101
320.129	104
320.358	98
320.587	103
320.816	103
321.046	111
321.275	87
321.504	79
321.733	104
321.962	84
322.191	99
322.42	88
322.649	107
322.878	108
323.108	103
323.337	117
323.566	117
323.795	151
324.024	214
324.253	411
324.482	802
324.71	1652
324.939	2181
325.168	795
325.397	228
325.626	139
325.855	118
326.084	140
326.313	141
326.542	167
326.77	229
326.999	463
327.228	898
327.457	1641
327.686	1347
327.914	375
328.143	191
328.372	172
328.6	134
328.829	117
329.058	133
329.287	123
329.515	114
329.744	104
329.972	129
330.201	154
330.43	201
330.658	153
330.887	146
331.115	138
331.344	113
331.572	95
331.801	116
332.03	99
332.258	88
332.486	94
332.715	103
332.943	101
333.172	92
333.4	95
333.629	110
333.857	119
334.085	115
334.314	159
334.542	211
334.771	214
334.999	114
335.227	95
335.455	102
335.684	103
335.912	101
336.14	102
336.369	95
336.597	103
336.825	98
337.053	99
337.281	101
337.51	95
337.738	97
337.966	88
338.194	91
338.422	94
338.65	92
338.878	83
339.106	89
339.334	109
339.562	98
339.79	107
340.018	96
340.246	83
340.474	85
340.702	100
340.93	76
341.158	79
341.386	91
341.614	92
341.842	99
342.07	86
342.298	73
342.526	83
342.754	78
342.981	79
343.209	78
343.437	95
343.665	108
343.893	93
344.12	99
344.348	92
344.576	89
344.804	97
345.031	106
345.259	100
345.487	80
345.714	86
345.942	92
346.17	93
346.397	79
346.625	95
346.853	84
347.08	83
347.308	104
347.535	85
347.763	96
347.99	93
348.218	99
348.445	102
348.673	81
348.9	97
349.128	79
349.355	94
349.583	95
349.81	89
350.037	92
350.265	111
350.492	74
350.72	101
350.947	106
351.174	103
351.402	102
351.629	111
351.856	94
352.083	113
352.311	107
352.538	102
352.765	100
352.992	98
353.22	121
353.447	95
353.674	106
353.901	98
354.128	99
354.355	99
354.583	99
354.81	92
355.037	92
355.264	106
355.491	100
355.718	76
355.945	95
356.172	92
356.399	86
356.626	92
356.853	100
357.08	97
357.307	91
357.534	84
357.761	85
357.988	91
358.215	100
358.441	93
358.668	91
358.895	96
359.122	92
359.349	81
359.576	78
359.802	119
360.029	112
360.256	109
360.483	93
360.709	97
360.936	100
361.163	100
361.39	114
361.616	93
361.843	91
362.07	90
362.296	99
362.523	92
362.749	94
362.976	87
363.203	84
363.429	93
363.656	89
363.882	96
364.109	91
364.335	100
364.562	79
364.788	92
365.015	99
365.241	113
365.468	100
365.694	94
365.92	89
366.147	85
366.373	91
366.599	92
366.826	82
367.052	87
367.278	84
367.505	83
367.731	92
367.957	94
368.184	101
368.41	98
368.636	118
368.862	108
369.089	92
369.315	85
369.541	104
369.767	90
369.993	85
370.219	90
370.445	99
370.672	95
370.898	75
371.124	80
371.35	83
371.576	83
371.802	94
372.028	87
372.254	71
372.48	94
372.706	95
372.932	100
373.158	90
373.384	92
373.61	81
373.835	98
374.061	97
374.287	97
374.513	86
374.739	85
374.965	86
375.191	96
375.416	85
375.642	107
375.868	93
376.094	88
376.319	98
376.545	87
376.771	96
376.997	90
377.222	92
377.448	98
377.674	98
377.899	93
378.125	89
378.35	103
378.576	90
378.802	80
379.027	100
379.253	94
379.478	83
379.704	94
379.929	101
380.155	129
380.38	115
380.606	104
380.831	111
381.057	98
381.282	99
381.507	107
381.733	103
381.958	85
382.184	100
382.409	84
382.634	97
382.86	104
383.085	84
383.31	94
383.535	105
383.761	100
383.986	115
384.211	91
384.436	116
384.662	105
384.887	103
385.112	110
385.337	104
385.562	106
385.787	104
386.013	124
386.238	125
386.463	109
386.688	118
386.913	99
387.138	113
387.363	122
387.588	94
387.813	113
388.038	114
388.263	121
388.488	111
388.713	98
388.938	105
389.163	102
389.387	97
389.612	93
389.837	86
390.062	94
390.287	83
390.512	91
390.736	78
390.961	80
391.186	102
391.411	88
391.636	88
391.86	92
392.085	88
392.31	106
392.534	81
392.759	96
392.984	106
393.208	99
393.433	103
393.658	102
393.882	69
394.107	98
394.331	92
394.556	99
394.78	90
395.005	93
395.229	79
395.454	82
395.678	102
395.903	88
396.127	88
396.352	85
396.576	73
396.801	94
397.025	102
397.249	81
397.474	98
397.698	90
397.922	88
398.147	92
398.371	93
398.595	81
398.82	73
399.044	86
399.268	89
399.492	95
399.717	89
399.941	87
400.165	83
400.389	78
400.613	83
400.837	77
401.062	92
401.286	91
401.51	96
401.734	90
401.958	110
402.182	120
402.406	155
402.63	119
402.854	93
403.078	71
403.302	91
403.526	77
403.75	95
403.974	88
404.198	88
404.422	93
404.645	92
404.869	86
405.093	98
405.317	111
405.541	90
405.765	102
405.988	107
406.212	169
406.436	209
406.66	148
406.883	100
407.107	91
407.331	96
407.555	95
407.778	102
408.002	89
408.226	83
408.449	90
408.673	86
408.896	91
409.12	92
409.344	90
409.567	89
409.791	85
410.014	90
410.238	88
410.461	89
410.685	87
410.908	93
411.132	102
411.355	102
411.578	98
411.802	89
412.025	90
412.249	104
412.472	90
412.695	92
412.919	93
413.142	77
413.365	90
413.589	86
413.812	101
414.035	89
414.258	89
414.482	91
414.705	108
414.928	99
415.151	87
415.374	108
415.597	86
415.821	98
416.044	87
416.267	89
416.49	76
416.713	86
416.936	91
417.159	89
417.382	87
417.605	98
417.828	79
418.051	84
418.274	95
418.497	80
418.72	93
418.943	70
419.166	97
419.389	84
419.611	90
419.834	73
420.057	89
420.28	97
420.503	83
420.726	89
420.948	96
421.171	82
421.394	86
421.617	83
421.839	76
422.062	86
422.285	101
422.507	99
422.73	98
422.953	83
423.175	99
423.398	87
423.621	79
423.843	87
424.066	90
424.288	92
424.511	99
424.733	92
424.956	106
425.178	107
425.401	98
425.623	97
425.846	87
426.068	96
426.291	89
426.513	99
426.735	100
426.958	100
427.18	105
427.402	143
427.625	162
427.847	149
428.069	112
428.292	89
428.514	94
428.736	79
428.958	86
429.181	93
429.403	94
429.625	79
429.847	95
430.069	98
430.292	94
430.514	99
430.736	83
430.958	89
431.18	86
431.402	90
431.624	82
431.846	83
432.068	94
432.29	101
432.512	83
432.734	82
432.956	98
433.178	97
433.4	101
433.622	85
433.844	88
434.066	92
434.287	90
434.509	99
434.731	90
434.953	90
435.175	92
435.397	95
435.618	93
435.84	107
436.062	122
436.284	113
436.505	102
436.727	98
436.949	98
437.17	92
437.392	89
437.614	86
437.835	91
438.057	109
438.278	107
438.5	108
438.721	115
438.943	109
439.165	106
439.386	94
439.608	98
439.829	96
440.05	114
440.272	142
440.493	93
440.715	94
440.936	82
441.158	84
441.379	95
441.6	94
441.822	93
442.043	102
442.264	100
442.486	96
442.707	98
442.928	108
443.149	133
443.371	117
443.592	110
443.813	111
444.034	107
444.255	109
444.476	76
444.698	92
444.919	98
445.14	115
445.361	110
445.582	108
445.803	133
446.024	132
446.245	150
446.466	122
446.687	90
446.908	89
447.129	85
447.35	89
447.571	92
447.792	80
448.013	83
448.234	98
448.455	94
448.675	104
448.896	114
449.117	92
449.338	105
449.559	130
449.779	123
450	113
450.221	86
450.442	98
450.662	91
450.883	105
451.104	104
451.324	101
451.545	81
451.766	79
451.986	79
452.207	83
452.428	93
452.648	92
452.869	111
453.089	118
453.31	116
453.53	86
453.751	85
453.971	94
454.192	107
454.412	87
454.633	88
454.853	93
455.073	95
455.294	76
455.514	97
455.734	82
455.955	91
456.175	69
456.395	86
456.616	80
456.836	85
457.056	94
457.276	83
457.497	81
457.717	86
457.937	78
458.157	86
458.377	86
458.598	98
458.818	141
459.038	155
459.258	109
459.478	78
459.698	82
459.918	75
460.138	80
460.358	92
460.578	86
460.798	93
461.018	88
461.238	87
461.458	83
461.678	87
461.898	76
462.118	92
462.338	83
462.558	85
462.777	82
462.997	83
463.217	88
463.437	91
463.657	80
463.876	83
464.096	91
464.316	103
464.536	84
464.755	85
464.975	100
465.195	156
465.414	154
465.634	86
465.854	90
466.073	75
466.293	100
466.512	87
466.732	79
466.951	90
467.171	89
467.391	90
467.61	98
467.829	98
468.049	106
468.268	134
468.488	95
468.707	88
468.927	95
469.146	78
469.365	91
469.585	73
469.804	94
470.023	85
470.243	96
470.462	110
470.681	106
470.901	100
471.12	88
471.339	80
471.558	82
471.777	78
471.997	105
472.216	152
472.435	247
472.654	129
472.873	83
473.092	85
473.311	78
473.53	90
473.749	95
473.968	107
474.187	113
474.406	104
474.625	97
474.844	84
475.063	99
475.282	83
475.501	81
475.72	89
475.939	102
476.158	91
476.377	88
476.596	90
476.814	83
477.033	87
477.252	82
477.471	95
477.69	100
477.908	104
478.127	85
478.346	84
478.564	99
478.783	96
479.002	96
479.22	98
479.439	94
479.658	96
479.876	99
480.095	95
480.313	80
480.532	107
480.751	95
480.969	150
481.188	395
481.406	257
481.624	113
481.843	87
482.061	90
482.28	97
482.498	99
482.717	81
482.935	78
483.153	90
483.372	91
483.59	90
483.808	80
484.027	92
484.245	85
484.463	88
484.681	117
484.9	87
485.118	90
485.336	113
485.554	93
485.772	81
485.99	99
486.209	107
486.427	88
486.645	115
486.863	113
487.081	100
487.299	98
487.517	95
487.735	89
487.953	88
488.171	83
488.389	101
488.607	95
488.825	97
489.043	102
489.261	96
489.479	91
489.696	98
489.914	85
490.132	99
490.35	78
490.568	89
490.786	98
491.003	103
491.221	102
491.439	84
491.657	101
491.874	95
492.092	85
492.31	100
492.527	82
492.745	100
492.963	87
493.18	78
493.398	88
493.615	86
493.833	101
494.05	87
494.268	80
494.485	94
494.703	98
494.92	97
495.138	104
495.355	95
495.573	85
495.79	83
496.008	104
496.225	86
496.442	93
496.66	90
496.877	87
497.094	86
497.312	96
497.529	86
497.746	80
497.963	92
498.181	91
498.398	97
498.615	104
498.832	94
499.049	91
499.267	104
499.484	94
499.701	86
499.918	92
500.135	92
500.352	94
500.569	80
500.786	76
501.003	89
501.22	102
501.437	104
501.654	96
501.871	102
502.088	93
502.305	92
502.522	90
502.739	91
502.956	85
503.172	105
503.389	106
503.606	95
503.823	97
504.04	108
504.256	95
504.473	79
504.69	85
504.907	86
505.123	88
505.34	88
505.557	76
505.773	109
505.99	86
506.207	87
506.423	89
506.64	93
506.856	91
507.073	83
507.289	98
507.506	102
507.722	92
507.939	105
508.155	94
508.372	87
508.588	99
508.805	94
509.021	95
509.238	87
509.454	87
509.67	91
509.887	106
510.103	121
510.319	195
510.536	697
510.752	2260
510.968	667
511.184	150
511.401	124
511.617	102
511.833	86
512.049	97
512.265	93
512.481	95
512.698	91
512.914	95
513.13	107
513.346	91
513.562	86
513.778	109
513.994	104
514.21	92
514.426	103
514.642	126
514.858	117
515.074	156
515.29	422
515.506	1359
515.721	531
515.937	152
516.153	114
516.369	107
516.585	89
516.801	91
517.016	79
517.232	100
517.448	91
517.664	93
517.879	98
518.095	97
518.311	92
518.527	99
518.742	107
518.958	103
519.173	79
519.389	87
519.605	107
519.82	84
520.036	100
520.251	122
520.467	110
520.682	87
520.898	104
521.113	108
521.329	130
521.544	189
521.76	504
521.975	2183
522.19	1366
522.406	300
522.621	127
522.836	117
523.052	98
523.267	94
523.482	105
523.698	106
523.913	123
524.128	103
524.343	87
524.559	90
524.774	93
524.989	100
525.204	92
525.419	86
525.634	100
525.849	83
526.064	94
526.28	84
526.495	88
526.71	77
526.925	86
527.14	98
527.355	83
527.57	84
527.785	85
527.999	85
528.214	98
528.429	98
528.644	93
528.859	89
529.074	98
529.289	106
529.503	166
529.718	124
529.933	101
530.148	73
530.363	78
530.577	82
530.792	90
531.007	89
531.221	84
531.436	98
531.651	109
531.865	85
532.08	112
532.295	82
532.509	81
532.724	86
532.938	100
533.153	92
533.367	91
533.582	95
533.796	94
534.011	91
534.225	91
534.44	94
534.654	91
534.868	101
535.083	86
535.297	89
535.511	108
535.726	100
535.94	106
536.154	95
536.369	92
536.583	92
536.797	90
537.011	90
537.225	94
537.44	97
537.654	82
537.868	87
538.082	87
538.296	94
538.51	94
538.724	87
538.938	86
539.153	106
539.367	122
539.581	83
539.795	92
540.009	84
540.222	98
540.436	98
540.65	102
540.864	113
541.078	98
541.292	91
541.506	83
541.72	99
541.934	88
542.147	89
542.361	80
542.575	92
542.789	91
543.002	97
543.216	95
543.43	97
543.644	104
543.857	97
544.071	97
544.285	92
544.498	95
544.712	95
544.925	102
545.139	92
545.352	93
545.566	99
545.779	83
545.993	86
546.206	82
546.42	91
546.633	87
546.847	98
547.06	90
547.274	87
547.487	88
547.7	91
547.914	90
548.127	82
548.34	97
548.554	103
548.767	106
548.98	88
549.193	83
549.407	102
549.62	96
549.833	86
550.046	83
550.259	77
550.473	94
550.686	96
550.899	91
551.112	105
551.325	81
551.538	76
551.751	98
551.964	95
552.177	87
552.39	89
552.603	92
552.816	110
553.029	94
553.242	79
553.455	82
553.667	85
553.88	102
554.093	88
554.306	91
554.519	100
554.732	89
554.944	103
555.157	106
555.37	90
555.583	86
555.795	101
556.008	96
556.221	90
556.433	82
556.646	93
556.859	100
557.071	95
557.284	92
557.496	89
557.709	84
557.921	78
558.134	83
558.346	83
558.559	89
558.771	90
558.984	91
559.196	90
559.409	82
559.621	86
559.833	92
560.046	90
560.258	90
560.47	86
560.683	86
560.895	79
561.107	101
561.32	84
561.532	84
561.744	97
561.956	90
562.168	98
562.381	83
562.593	73
562.805	97
563.017	90
563.229	74
563.441	81
563.653	72
563.865	98
564.077	91
564.289	86
564.501	99
564.713	90
564.925	88
565.137	98
565.349	87
565.561	100
565.773	93
565.985	94
566.197	94
566.408	90
566.62	105
566.832	81
567.044	77
567.255	87
567.467	76
567.679	104
567.891	91
568.102	90
568.314	94
568.526	85
568.737	99
568.949	90
569.161	84
569.372	86
569.584	89
569.795	88
570.007	104
570.218	230
570.43	142
570.641	105
570.853	89
571.064	100
571.276	93
571.487	97
571.698	95
571.91	80
572.121	101
572.333	74
572.544	79
572.755	82
572.966	95
573.178	78
573.389	79
573.6	84
573.811	98
574.023	109
574.234	96
574.445	80
574.656	100
574.867	91
575.078	101
575.289	79
575.501	88
575.712	89
575.923	94
576.134	76
576.345	85
576.556	90
576.767	92
576.978	87
577.188	101
577.399	94
577.61	85
577.821	101
578.032	94
578.243	246
578.454	690
578.665	213
578.875	80
579.086	95
579.297	76
579.508	94
579.718	95
579.929	103
580.14	94
580.35	86
580.561	79
580.772	94
580.982	97
581.193	73
581.403	91
581.614	81
581.825	83
582.035	98
582.246	110
582.456	93
582.667	87
582.877	79
583.087	86
583.298	79
583.508	98
583.719	86
