Data from Circ_2015_H10_HRD10591_00029.txt Node
Date: Wed Jan 03 10:00:28 EST 2024
User: Yrep
Spectrometer: HR+D1059
Trigger mode: 1
Integration Time (sec): 1.000000E-1
Scans to average: 1
Electric dark correction enabled: true
Nonlinearity correction enabled: false
Boxcar width: 0
XAxis mode: Wavelengths
Number of Pixels in Spectrum: 2048
>>>>>Begin Spectral Data<<<<<
223.165	-22.31
223.4	-22.31
223.635	-22.31
223.869	-10.31
224.104	-32.31
224.338	-11.31
224.573	-3.31
224.808	-20.31
225.042	-3.31
225.277	-11.31
225.511	0.69
225.746	-3.31
225.98	2.69
226.215	19.69
226.449	16.69
226.683	15.69
226.918	32.69
227.152	29.69
227.387	28.69
227.621	49.69
227.856	56.69
228.09	43.69
228.324	44.69
228.559	60.69
228.793	59.69
229.027	74.69
229.262	48.69
229.496	76.69
229.73	92.69
229.964	76.69
230.199	75.69
230.433	68.69
230.667	72.69
230.901	64.69
231.136	76.69
231.37	80.69
231.604	77.69
231.838	83.69
232.072	85.69
232.306	78.69
232.541	86.69
232.775	85.69
233.009	66.69
233.243	91.69
233.477	86.69
233.711	91.69
233.945	90.69
234.179	75.69
234.413	77.69
234.647	84.69
234.881	84.69
235.115	77.69
235.349	69.69
235.583	67.69
235.817	67.69
236.051	70.69
236.285	78.69
236.519	74.69
236.753	90.69
236.987	77.69
237.221	87.69
237.455	86.69
237.689	88.69
237.922	73.69
238.156	76.69
238.39	71.69
238.624	72.69
238.858	69.69
239.091	48.69
239.325	76.69
239.559	82.69
239.793	62.69
240.027	87.69
240.26	71.69
240.494	83.69
240.728	67.69
240.961	80.69
241.195	74.69
241.429	68.69
241.662	86.69
241.896	72.69
242.13	71.69
242.363	80.69
242.597	77.69
242.83	78.69
243.064	70.69
243.298	74.69
243.531	76.69
243.765	74.69
243.998	78.69
244.232	79.69
244.465	81.69
244.699	85.69
244.932	73.69
245.166	75.69
245.399	75.69
245.633	77.69
245.866	90.69
246.099	80.69
246.333	82.69
246.566	69.69
246.8	81.69
247.033	78.69
247.266	77.69
247.5	72.69
247.733	67.69
247.966	77.69
248.2	72.69
248.433	82.69
248.666	76.69
248.899	77.69
249.133	90.69
249.366	79.69
249.599	106.69
249.832	81.69
250.066	93.69
250.299	78.69
250.532	79.69
250.765	84.69
250.998	76.69
251.231	72.69
251.465	86.69
251.698	98.69
251.931	74.69
252.164	75.69
252.397	83.69
252.63	86.69
252.863	84.69
253.096	89.69
253.329	92.69
253.562	71.69
253.795	75.69
254.028	82.69
254.261	85.69
254.494	77.69
254.727	73.69
254.96	86.69
255.193	77.69
255.426	70.69
255.659	81.69
255.892	76.69
256.124	95.69
256.357	77.69
256.59	78.69
256.823	68.69
257.056	78.69
257.289	76.69
257.521	73.69
257.754	74.69
257.987	69.69
258.22	86.69
258.452	70.69
258.685	80.69
258.918	69.69
259.151	85.69
259.383	98.69
259.616	89.69
259.849	79.69
260.081	90.69
260.314	90.69
260.547	93.69
260.779	83.69
261.012	82.69
261.244	72.69
261.477	80.69
261.71	86.69
261.942	112.69
262.175	101.69
262.407	80.69
262.64	92.69
262.872	92.69
263.105	77.69
263.337	80.69
263.57	88.69
263.802	74.69
264.035	76.69
264.267	76.69
264.499	87.69
264.732	84.69
264.964	89.69
265.197	83.69
265.429	89.69
265.661	91.69
265.894	76.69
266.126	77.69
266.358	77.69
266.591	71.69
266.823	82.69
267.055	89.69
267.287	93.69
267.52	90.69
267.752	91.69
267.984	90.69
268.216	75.69
268.448	84.69
268.681	89.69
268.913	76.69
269.145	91.69
269.377	72.69
269.609	80.69
269.841	87.69
270.073	92.69
270.306	78.69
270.538	84.69
270.77	82.69
271.002	83.69
271.234	84.69
271.466	92.69
271.698	84.69
271.93	78.69
272.162	93.69
272.394	89.69
272.626	80.69
272.858	87.69
273.09	74.69
273.322	77.69
273.553	90.69
273.785	75.69
274.017	88.69
274.249	76.69
274.481	80.69
274.713	82.69
274.945	91.69
275.176	72.69
275.408	80.69
275.64	93.69
275.872	96.69
276.104	89.69
276.335	102.69
276.567	97.69
276.799	105.69
277.031	113.69
277.262	93.69
277.494	89.69
277.726	106.69
277.957	85.69
278.189	78.69
278.421	91.69
278.652	90.69
278.884	84.69
279.115	86.69
279.347	104.69
279.579	82.69
279.81	86.69
280.042	86.69
280.273	107.69
280.505	91.69
280.736	73.69
280.968	80.69
281.199	80.69
281.431	88.69
281.662	98.69
281.894	86.69
282.125	98.69
282.356	114.69
282.588	136.69
282.819	130.69
283.051	82.69
283.282	80.69
283.513	91.69
283.745	80.69
283.976	89.69
284.207	92.69
284.439	94.69
284.67	89.69
284.901	87.69
285.132	82.69
285.364	75.69
285.595	73.69
285.826	85.69
286.057	90.69
286.288	81.69
286.52	71.69
286.751	88.69
286.982	94.69
287.213	80.69
287.444	81.69
287.675	73.69
287.906	84.69
288.138	96.69
288.369	102.69
288.6	97.69
288.831	89.69
289.062	76.69
289.293	79.69
289.524	94.69
289.755	84.69
289.986	78.69
290.217	79.69
290.448	90.69
290.679	80.69
290.91	75.69
291.141	90.69
291.371	91.69
291.602	82.69
291.833	88.69
292.064	86.69
292.295	94.69
292.526	77.69
292.757	85.69
292.987	91.69
293.218	92.69
293.449	96.69
293.68	85.69
293.91	78.69
294.141	104.69
294.372	79.69
294.603	93.69
294.833	76.69
295.064	84.69
295.295	88.69
295.525	79.69
295.756	88.69
295.987	110.69
296.217	137.69
296.448	114.69
296.679	108.69
296.909	98.69
297.14	84.69
297.37	94.69
297.601	82.69
297.831	91.69
298.062	85.69
298.292	85.69
298.523	89.69
298.753	94.69
298.984	85.69
299.214	86.69
299.445	79.69
299.675	90.69
299.905	85.69
300.136	93.69
300.366	99.69
300.597	98.69
300.827	89.69
301.057	97.69
301.288	100.69
301.518	82.69
301.748	92.69
301.979	106.69
302.209	94.69
302.439	84.69
302.669	86.69
302.9	84.69
303.13	88.69
303.36	93.69
303.59	83.69
303.82	106.69
304.051	86.69
304.281	94.69
304.511	88.69
304.741	86.69
304.971	86.69
305.201	89.69
305.431	83.69
305.661	93.69
305.891	93.69
306.121	104.69
306.352	104.69
306.582	93.69
306.812	87.69
307.042	99.69
307.272	112.69
307.502	102.69
307.731	91.69
307.961	97.69
308.191	85.69
308.421	95.69
308.651	102.69
308.881	90.69
309.111	92.69
309.341	90.69
309.571	100.69
309.8	94.69
310.03	103.69
310.26	92.69
310.49	92.69
310.72	84.69
310.949	88.69
311.179	92.69
311.409	109.69
311.639	108.69
311.868	88.69
312.098	86.69
312.328	114.69
312.557	97.69
312.787	99.69
313.017	94.69
313.246	87.69
313.476	85.69
313.706	91.69
313.935	97.69
314.165	84.69
314.394	101.69
314.624	88.69
314.853	95.69
315.083	89.69
315.312	86.69
315.542	75.69
315.771	96.69
316.001	97.69
316.23	85.69
316.46	104.69
316.689	93.69
316.919	88.69
317.148	79.69
317.377	82.69
317.607	96.69
317.836	90.69
318.065	97.69
318.295	105.69
318.524	93.69
318.753	94.69
318.983	106.69
319.212	96.69
319.441	107.69
319.67	109.69
319.9	82.69
320.129	87.69
320.358	87.69
320.587	82.69
320.816	100.69
321.046	112.69
321.275	100.69
321.504	111.69
321.733	105.69
321.962	99.69
322.191	100.69
322.42	98.69
322.649	108.69
322.878	104.69
323.108	114.69
323.337	105.69
323.566	134.69
323.795	157.69
324.024	203.69
324.253	413.69
324.482	790.69
324.71	1685.69
324.939	2248.69
325.168	828.69
325.397	235.69
325.626	153.69
325.855	133.69
326.084	118.69
326.313	113.69
326.542	148.69
326.77	223.69
326.999	463.69
327.228	925.69
327.457	1706.69
327.686	1374.69
327.914	391.69
328.143	199.69
328.372	168.69
328.6	130.69
328.829	125.69
329.058	131.69
329.287	115.69
329.515	127.69
329.744	107.69
329.972	132.69
330.201	153.69
330.43	179.69
330.658	135.69
330.887	146.69
331.115	130.69
331.344	96.69
331.572	114.69
331.801	90.69
332.03	101.69
332.258	106.69
332.486	71.69
332.715	87.69
332.943	107.69
333.172	99.69
333.4	93.69
333.629	108.69
333.857	134.69
334.085	112.69
334.314	152.69
334.542	247.69
334.771	211.69
334.999	114.69
335.227	91.69
335.455	80.69
335.684	95.69
335.912	88.69
336.14	98.69
336.369	84.69
336.597	118.69
336.825	82.69
337.053	81.69
337.281	106.69
337.51	87.69
337.738	109.69
337.966	96.69
338.194	78.69
338.422	84.69
338.65	89.69
338.878	99.69
339.106	77.69
339.334	81.69
339.562	90.69
339.79	90.69
340.018	92.69
340.246	77.69
340.474	92.69
340.702	105.69
340.93	93.69
341.158	89.69
341.386	88.69
341.614	96.69
341.842	99.69
342.07	90.69
342.298	98.69
342.526	84.69
342.754	89.69
342.981	85.69
343.209	77.69
343.437	103.69
343.665	103.69
343.893	93.69
344.12	97.69
344.348	85.69
344.576	90.69
344.804	110.69
345.031	97.69
345.259	94.69
345.487	106.69
345.714	107.69
345.942	82.69
346.17	80.69
346.397	90.69
346.625	100.69
346.853	88.69
347.08	77.69
347.308	91.69
347.535	93.69
347.763	90.69
347.99	97.69
348.218	103.69
348.445	107.69
348.673	97.69
348.9	97.69
349.128	98.69
349.355	88.69
349.583	90.69
349.81	85.69
350.037	78.69
350.265	91.69
350.492	91.69
350.72	91.69
350.947	112.69
351.174	101.69
351.402	100.69
351.629	103.69
351.856	105.69
352.083	114.69
352.311	101.69
352.538	106.69
352.765	108.69
352.992	101.69
353.22	103.69
353.447	108.69
353.674	98.69
353.901	92.69
354.128	96.69
354.355	108.69
354.583	111.69
354.81	92.69
355.037	98.69
355.264	109.69
355.491	90.69
355.718	77.69
355.945	98.69
356.172	98.69
356.399	94.69
356.626	93.69
356.853	92.69
357.08	90.69
357.307	96.69
357.534	88.69
357.761	100.69
357.988	101.69
358.215	97.69
358.441	92.69
358.668	106.69
358.895	104.69
359.122	90.69
359.349	81.69
359.576	97.69
359.802	109.69
360.029	97.69
360.256	100.69
360.483	95.69
360.709	92.69
360.936	86.69
361.163	88.69
361.39	89.69
361.616	82.69
361.843	89.69
362.07	104.69
362.296	91.69
362.523	77.69
362.749	86.69
362.976	91.69
363.203	81.69
363.429	82.69
363.656	91.69
363.882	90.69
364.109	105.69
364.335	89.69
364.562	92.69
364.788	89.69
365.015	102.69
365.241	96.69
365.468	109.69
365.694	108.69
365.92	90.69
366.147	85.69
366.373	96.69
366.599	87.69
366.826	81.69
367.052	106.69
367.278	107.69
367.505	82.69
367.731	82.69
367.957	85.69
368.184	96.69
368.41	92.69
368.636	117.69
368.862	109.69
369.089	100.69
369.315	94.69
369.541	95.69
369.767	82.69
369.993	100.69
370.219	90.69
370.445	102.69
370.672	85.69
370.898	104.69
371.124	82.69
371.35	86.69
371.576	67.69
371.802	91.69
372.028	97.69
372.254	95.69
372.48	91.69
372.706	94.69
372.932	82.69
373.158	99.69
373.384	84.69
373.61	98.69
373.835	95.69
374.061	84.69
374.287	96.69
374.513	92.69
374.739	91.69
374.965	77.69
375.191	63.69
375.416	83.69
375.642	93.69
375.868	92.69
376.094	86.69
376.319	107.69
376.545	83.69
376.771	84.69
376.997	94.69
377.222	86.69
377.448	102.69
377.674	86.69
377.899	87.69
378.125	75.69
378.35	108.69
378.576	87.69
378.802	90.69
379.027	94.69
379.253	96.69
379.478	89.69
379.704	93.69
379.929	101.69
380.155	92.69
380.38	86.69
380.606	89.69
380.831	102.69
381.057	101.69
381.282	103.69
381.507	87.69
381.733	106.69
381.958	94.69
382.184	94.69
382.409	87.69
382.634	110.69
382.86	91.69
383.085	102.69
383.31	104.69
383.535	89.69
383.761	101.69
383.986	97.69
384.211	100.69
384.436	99.69
384.662	108.69
384.887	106.69
385.112	102.69
385.337	104.69
385.562	108.69
385.787	100.69
386.013	122.69
386.238	128.69
386.463	97.69
386.688	103.69
386.913	102.69
387.138	117.69
387.363	105.69
387.588	93.69
387.813	104.69
388.038	109.69
388.263	113.69
388.488	119.69
388.713	97.69
388.938	90.69
389.163	101.69
389.387	101.69
389.612	100.69
389.837	95.69
390.062	91.69
390.287	87.69
390.512	92.69
390.736	87.69
390.961	87.69
391.186	85.69
391.411	104.69
391.636	90.69
391.86	78.69
392.085	76.69
392.31	76.69
392.534	73.69
392.759	85.69
392.984	94.69
393.208	89.69
393.433	118.69
393.658	108.69
393.882	86.69
394.107	90.69
394.331	99.69
394.556	87.69
394.78	81.69
395.005	87.69
395.229	91.69
395.454	102.69
395.678	80.69
395.903	87.69
396.127	78.69
396.352	93.69
396.576	78.69
396.801	97.69
397.025	100.69
397.249	86.69
397.474	86.69
397.698	91.69
397.922	92.69
398.147	80.69
398.371	76.69
398.595	82.69
398.82	90.69
399.044	78.69
399.268	73.69
399.492	86.69
399.717	84.69
399.941	80.69
400.165	86.69
400.389	93.69
400.613	92.69
400.837	75.69
401.062	86.69
401.286	89.69
401.51	91.69
401.734	85.69
401.958	87.69
402.182	110.69
402.406	155.69
402.63	123.69
402.854	102.69
403.078	90.69
403.302	97.69
403.526	88.69
403.75	86.69
403.974	86.69
404.198	87.69
404.422	84.69
404.645	75.69
404.869	88.69
405.093	92.69
405.317	101.69
405.541	98.69
405.765	94.69
405.988	124.69
406.212	148.69
406.436	222.69
406.66	148.69
406.883	102.69
407.107	94.69
407.331	90.69
407.555	99.69
407.778	83.69
408.002	95.69
408.226	97.69
408.449	97.69
408.673	96.69
408.896	98.69
409.12	88.69
409.344	93.69
409.567	94.69
409.791	87.69
410.014	91.69
410.238	81.69
410.461	91.69
410.685	97.69
410.908	88.69
411.132	104.69
411.355	90.69
411.578	77.69
411.802	94.69
412.025	79.69
412.249	96.69
412.472	82.69
412.695	105.69
412.919	87.69
413.142	93.69
413.365	83.69
413.589	90.69
413.812	91.69
414.035	96.69
414.258	96.69
414.482	93.69
414.705	88.69
414.928	93.69
415.151	75.69
415.374	97.69
415.597	90.69
415.821	78.69
416.044	100.69
416.267	89.69
416.49	76.69
416.713	91.69
416.936	84.69
417.159	76.69
417.382	78.69
417.605	78.69
417.828	92.69
418.051	77.69
418.274	75.69
418.497	81.69
418.72	80.69
418.943	92.69
419.166	87.69
419.389	91.69
419.611	94.69
419.834	76.69
420.057	86.69
420.28	75.69
420.503	96.69
420.726	99.69
420.948	68.69
421.171	79.69
421.394	90.69
421.617	89.69
421.839	81.69
422.062	91.69
422.285	80.69
422.507	90.69
422.73	102.69
422.953	83.69
423.175	96.69
423.398	95.69
423.621	93.69
423.843	80.69
424.066	79.69
424.288	82.69
424.511	101.69
424.733	91.69
424.956	98.69
425.178	90.69
425.401	96.69
425.623	92.69
425.846	99.69
426.068	103.69
426.291	96.69
426.513	91.69
426.735	73.69
426.958	90.69
427.18	114.69
427.402	123.69
427.625	156.69
427.847	136.69
428.069	130.69
428.292	90.69
428.514	86.69
428.736	96.69
428.958	89.69
429.181	83.69
429.403	84.69
429.625	86.69
429.847	92.69
430.069	89.69
430.292	90.69
430.514	82.69
430.736	90.69
430.958	80.69
431.18	57.69
431.402	85.69
431.624	70.69
431.846	80.69
432.068	97.69
432.29	85.69
432.512	77.69
432.734	83.69
432.956	88.69
433.178	79.69
433.4	86.69
433.622	91.69
433.844	86.69
434.066	94.69
434.287	87.69
434.509	91.69
434.731	87.69
434.953	76.69
435.175	84.69
435.397	84.69
435.618	92.69
435.84	85.69
436.062	112.69
436.284	112.69
436.505	101.69
436.727	102.69
436.949	102.69
437.17	88.69
437.392	93.69
437.614	96.69
437.835	110.69
438.057	121.69
438.278	105.69
438.5	91.69
438.721	111.69
438.943	105.69
439.165	91.69
439.386	91.69
439.608	93.69
439.829	91.69
440.05	113.69
440.272	146.69
440.493	84.69
440.715	77.69
440.936	85.69
441.158	97.69
441.379	86.69
441.6	94.69
441.822	98.69
442.043	94.69
442.264	94.69
442.486	92.69
442.707	101.69
442.928	105.69
443.149	125.69
443.371	112.69
443.592	107.69
443.813	97.69
444.034	89.69
444.255	93.69
444.476	83.69
444.698	92.69
444.919	91.69
445.14	126.69
445.361	110.69
445.582	115.69
445.803	132.69
446.024	133.69
446.245	122.69
446.466	105.69
446.687	75.69
446.908	87.69
447.129	80.69
447.35	94.69
447.571	86.69
447.792	87.69
448.013	98.69
448.234	112.69
448.455	98.69
448.675	102.69
448.896	118.69
449.117	101.69
449.338	90.69
449.559	117.69
449.779	126.69
450	90.69
450.221	103.69
450.442	91.69
450.662	96.69
450.883	93.69
451.104	126.69
451.324	88.69
451.545	76.69
451.766	88.69
451.986	94.69
452.207	102.69
452.428	93.69
452.648	92.69
452.869	104.69
453.089	116.69
453.31	109.69
453.53	99.69
453.751	81.69
453.971	88.69
454.192	119.69
454.412	94.69
454.633	95.69
454.853	65.69
455.073	84.69
455.294	92.69
455.514	100.69
455.734	82.69
455.955	102.69
456.175	92.69
456.395	91.69
456.616	82.69
456.836	86.69
457.056	96.69
457.276	89.69
457.497	71.69
457.717	80.69
457.937	87.69
458.157	90.69
458.377	71.69
458.598	108.69
458.818	133.69
459.038	137.69
459.258	99.69
459.478	69.69
459.698	83.69
459.918	90.69
460.138	75.69
460.358	89.69
460.578	82.69
460.798	78.69
461.018	96.69
461.238	98.69
461.458	89.69
461.678	81.69
461.898	72.69
462.118	74.69
462.338	94.69
462.558	96.69
462.777	91.69
462.997	72.69
463.217	82.69
463.437	75.69
463.657	95.69
463.876	89.69
464.096	96.69
464.316	86.69
464.536	82.69
464.755	88.69
464.975	100.69
465.195	151.69
465.414	152.69
465.634	93.69
465.854	87.69
466.073	77.69
466.293	92.69
466.512	80.69
466.732	83.69
466.951	85.69
467.171	83.69
467.391	84.69
467.61	113.69
467.829	113.69
468.049	118.69
468.268	149.69
468.488	108.69
468.707	86.69
468.927	88.69
469.146	79.69
469.365	82.69
469.585	98.69
469.804	79.69
470.023	99.69
470.243	96.69
470.462	95.69
470.681	119.69
470.901	93.69
471.12	92.69
471.339	86.69
471.558	86.69
471.777	85.69
471.997	98.69
472.216	156.69
472.435	271.69
472.654	123.69
472.873	96.69
473.092	72.69
473.311	78.69
473.53	83.69
473.749	76.69
473.968	97.69
474.187	93.69
474.406	86.69
474.625	74.69
474.844	86.69
475.063	102.69
475.282	78.69
475.501	99.69
475.72	91.69
475.939	92.69
476.158	86.69
476.377	92.69
476.596	92.69
476.814	97.69
477.033	99.69
477.252	72.69
477.471	86.69
477.69	86.69
477.908	92.69
478.127	84.69
478.346	65.69
478.564	88.69
478.783	89.69
479.002	91.69
479.22	72.69
479.439	103.69
479.658	101.69
479.876	91.69
480.095	76.69
480.313	90.69
480.532	96.69
480.751	108.69
480.969	157.69
481.188	424.69
481.406	291.69
481.624	101.69
481.843	81.69
482.061	91.69
482.28	96.69
482.498	81.69
482.717	73.69
482.935	87.69
483.153	88.69
483.372	81.69
483.59	88.69
483.808	94.69
484.027	89.69
484.245	82.69
484.463	84.69
484.681	92.69
484.9	74.69
485.118	90.69
485.336	102.69
485.554	110.69
485.772	98.69
485.99	91.69
486.209	101.69
486.427	101.69
486.645	105.69
486.863	106.69
487.081	109.69
487.299	100.69
487.517	99.69
487.735	94.69
487.953	96.69
488.171	92.69
488.389	91.69
488.607	88.69
488.825	82.69
489.043	84.69
489.261	86.69
489.479	83.69
489.696	84.69
489.914	90.69
490.132	92.69
490.35	89.69
490.568	84.69
490.786	74.69
491.003	87.69
491.221	85.69
491.439	95.69
491.657	105.69
491.874	89.69
492.092	84.69
492.31	90.69
492.527	78.69
492.745	87.69
492.963	94.69
493.18	91.69
493.398	84.69
493.615	103.69
493.833	90.69
494.05	84.69
494.268	85.69
494.485	97.69
494.703	87.69
494.92	92.69
495.138	96.69
495.355	86.69
495.573	88.69
495.79	78.69
496.008	91.69
496.225	95.69
496.442	82.69
496.66	83.69
496.877	86.69
497.094	100.69
497.312	81.69
497.529	90.69
497.746	87.69
497.963	75.69
498.181	85.69
498.398	98.69
498.615	100.69
498.832	98.69
499.049	97.69
499.267	94.69
499.484	86.69
499.701	85.69
499.918	80.69
500.135	80.69
500.352	97.69
500.569	93.69
500.786	78.69
501.003	93.69
501.22	94.69
501.437	94.69
501.654	92.69
501.871	109.69
502.088	76.69
502.305	74.69
502.522	84.69
502.739	85.69
502.956	92.69
503.172	84.69
503.389	91.69
503.606	100.69
503.823	94.69
504.04	83.69
504.256	91.69
504.473	82.69
504.69	72.69
504.907	86.69
505.123	99.69
505.34	100.69
505.557	91.69
505.773	82.69
505.99	67.69
506.207	94.69
506.423	100.69
506.64	92.69
506.856	85.69
507.073	108.69
507.289	84.69
507.506	112.69
507.722	101.69
507.939	104.69
508.155	94.69
508.372	87.69
508.588	93.69
508.805	109.69
509.021	92.69
509.238	98.69
509.454	100.69
509.67	102.69
509.887	100.69
510.103	125.69
510.319	220.69
510.536	726.69
510.752	2443.69
510.968	698.69
511.184	159.69
511.401	105.69
511.617	100.69
511.833	98.69
512.049	87.69
512.265	86.69
512.481	91.69
512.698	83.69
512.914	101.69
513.13	82.69
513.346	87.69
513.562	86.69
513.778	99.69
513.994	94.69
514.21	91.69
514.426	114.69
514.642	120.69
514.858	127.69
515.074	160.69
515.29	404.69
515.506	1409.69
515.721	577.69
