Data from Circ_2015_H10_HRD10591_00015.txt Node
Date: Wed Jan 03 10:00:25 EST 2024
User: Yrep
Spectrometer: HR+D1059
Trigger mode: 1
Integration Time (sec): 1.000000E-1
Scans to average: 1
Electric dark correction enabled: true
Nonlinearity correction enabled: false
Boxcar width: 0
XAxis mode: Wavelengths
Number of Pixels in Spectrum: 2048
>>>>>Begin Spectral Data<<<<<
223.165	-20.69
223.4	-20.69
223.635	-20.69
223.869	-6.69
224.104	-17.69
224.338	-18.69
224.573	-11.69
224.808	-5.69
225.042	-4.69
225.277	-2.69
225.511	-13.69
225.746	7.31
225.98	12.31
226.215	9.31
226.449	4.31
226.683	25.31
226.918	11.31
227.152	32.31
227.387	33.31
227.621	48.31
227.856	37.31
228.09	47.31
228.324	59.31
228.559	60.31
228.793	45.31
229.027	51.31
229.262	63.31
229.496	77.31
229.73	93.31
229.964	76.31
230.199	74.31
230.433	90.31
230.667	76.31
230.901	83.31
231.136	67.31
231.37	74.31
231.604	76.31
231.838	88.31
232.072	80.31
232.306	92.31
232.541	88.31
232.775	91.31
233.009	73.31
233.243	71.31
233.477	69.31
233.711	85.31
233.945	88.31
234.179	76.31
234.413	82.31
234.647	75.31
234.881	74.31
235.115	79.31
235.349	73.31
235.583	96.31
235.817	71.31
236.051	91.31
236.285	87.31
236.519	80.31
236.753	86.31
236.987	72.31
237.221	76.31
237.455	76.31
237.689	92.31
237.922	69.31
238.156	83.31
238.39	75.31
238.624	77.31
238.858	83.31
239.091	77.31
239.325	69.31
239.559	90.31
239.793	71.31
240.027	92.31
240.26	88.31
240.494	73.31
240.728	66.31
240.961	69.31
241.195	86.31
241.429	71.31
241.662	82.31
241.896	78.31
242.13	79.31
242.363	78.31
242.597	76.31
242.83	80.31
243.064	81.31
243.298	85.31
243.531	73.31
243.765	74.31
243.998	77.31
244.232	80.31
244.465	91.31
244.699	75.31
244.932	86.31
245.166	71.31
245.399	80.31
245.633	103.31
245.866	89.31
246.099	91.31
246.333	70.31
246.566	65.31
246.8	86.31
247.033	76.31
247.266	76.31
247.5	82.31
247.733	81.31
247.966	81.31
248.2	66.31
248.433	74.31
248.666	75.31
248.899	83.31
249.133	77.31
249.366	91.31
249.599	92.31
249.832	72.31
250.066	80.31
250.299	73.31
250.532	75.31
250.765	81.31
250.998	81.31
251.231	79.31
251.465	77.31
251.698	70.31
251.931	83.31
252.164	76.31
252.397	67.31
252.63	75.31
252.863	78.31
253.096	85.31
253.329	83.31
253.562	87.31
253.795	73.31
254.028	80.31
254.261	78.31
254.494	76.31
254.727	88.31
254.96	101.31
255.193	69.31
255.426	80.31
255.659	74.31
255.892	92.31
256.124	87.31
256.357	81.31
256.59	69.31
256.823	87.31
257.056	84.31
257.289	96.31
257.521	80.31
257.754	87.31
257.987	92.31
258.22	82.31
258.452	80.31
258.685	91.31
258.918	89.31
259.151	85.31
259.383	85.31
259.616	86.31
259.849	95.31
260.081	85.31
260.314	78.31
260.547	90.31
260.779	88.31
261.012	92.31
261.244	88.31
261.477	96.31
261.71	93.31
261.942	117.31
262.175	103.31
262.407	88.31
262.64	72.31
262.872	72.31
263.105	90.31
263.337	89.31
263.57	72.31
263.802	73.31
264.035	98.31
264.267	85.31
264.499	82.31
264.732	82.31
264.964	92.31
265.197	89.31
265.429	99.31
265.661	101.31
265.894	76.31
266.126	73.31
266.358	79.31
266.591	91.31
266.823	88.31
267.055	70.31
267.287	89.31
267.52	82.31
267.752	83.31
267.984	92.31
268.216	74.31
268.448	79.31
268.681	90.31
268.913	76.31
269.145	76.31
269.377	94.31
269.609	93.31
269.841	86.31
270.073	106.31
270.306	96.31
270.538	79.31
270.77	78.31
271.002	81.31
271.234	90.31
271.466	87.31
271.698	82.31
271.93	75.31
272.162	75.31
272.394	81.31
272.626	86.31
272.858	87.31
273.09	94.31
273.322	93.31
273.553	79.31
273.785	68.31
274.017	94.31
274.249	85.31
274.481	92.31
274.713	86.31
274.945	88.31
275.176	88.31
275.408	91.31
275.64	86.31
275.872	96.31
276.104	87.31
276.335	92.31
276.567	71.31
276.799	112.31
277.031	88.31
277.262	88.31
277.494	103.31
277.726	69.31
277.957	81.31
278.189	79.31
278.421	96.31
278.652	83.31
278.884	95.31
279.115	86.31
279.347	91.31
279.579	90.31
279.81	78.31
280.042	93.31
280.273	86.31
280.505	92.31
280.736	94.31
280.968	75.31
281.199	91.31
281.431	74.31
281.662	89.31
281.894	90.31
282.125	92.31
282.356	89.31
282.588	135.31
282.819	99.31
283.051	104.31
283.282	76.31
283.513	97.31
283.745	78.31
283.976	87.31
284.207	87.31
284.439	86.31
284.67	84.31
284.901	84.31
285.132	92.31
285.364	97.31
285.595	84.31
285.826	73.31
286.057	85.31
286.288	89.31
286.52	90.31
286.751	84.31
286.982	89.31
287.213	89.31
287.444	76.31
287.675	83.31
287.906	101.31
288.138	105.31
288.369	103.31
288.6	91.31
288.831	86.31
289.062	81.31
289.293	98.31
289.524	87.31
289.755	91.31
289.986	83.31
290.217	98.31
290.448	87.31
290.679	75.31
290.91	87.31
291.141	83.31
291.371	91.31
291.602	73.31
291.833	85.31
292.064	90.31
292.295	72.31
292.526	80.31
292.757	87.31
292.987	91.31
293.218	95.31
293.449	93.31
293.68	85.31
293.91	96.31
294.141	96.31
294.372	85.31
294.603	102.31
294.833	88.31
295.064	93.31
295.295	96.31
295.525	81.31
295.756	100.31
295.987	100.31
296.217	134.31
296.448	117.31
296.679	100.31
296.909	90.31
297.14	84.31
297.37	95.31
297.601	94.31
297.831	89.31
298.062	90.31
298.292	96.31
298.523	98.31
298.753	90.31
298.984	96.31
299.214	81.31
299.445	86.31
299.675	89.31
299.905	90.31
300.136	81.31
300.366	87.31
300.597	103.31
300.827	108.31
301.057	93.31
301.288	106.31
301.518	99.31
301.748	88.31
301.979	95.31
302.209	99.31
302.439	86.31
302.669	97.31
302.9	94.31
303.13	87.31
303.36	88.31
303.59	116.31
303.82	106.31
304.051	84.31
304.281	96.31
304.511	92.31
304.741	96.31
304.971	93.31
305.201	99.31
305.431	95.31
305.661	87.31
305.891	92.31
306.121	84.31
306.352	90.31
306.582	96.31
306.812	99.31
307.042	88.31
307.272	93.31
307.502	98.31
307.731	95.31
307.961	99.31
308.191	88.31
308.421	87.31
308.651	93.31
308.881	101.31
309.111	94.31
309.341	88.31
309.571	96.31
309.8	99.31
310.03	101.31
310.26	100.31
310.49	90.31
310.72	77.31
310.949	115.31
311.179	100.31
311.409	102.31
311.639	100.31
311.868	103.31
312.098	96.31
312.328	91.31
312.557	107.31
312.787	106.31
313.017	97.31
313.246	99.31
313.476	98.31
313.706	100.31
313.935	88.31
314.165	94.31
314.394	108.31
314.624	94.31
314.853	92.31
315.083	91.31
315.312	102.31
315.542	96.31
315.771	102.31
316.001	93.31
316.23	89.31
316.46	86.31
316.689	89.31
316.919	89.31
317.148	92.31
317.377	103.31
317.607	91.31
317.836	90.31
318.065	92.31
318.295	94.31
318.524	99.31
318.753	93.31
318.983	90.31
319.212	101.31
319.441	103.31
319.67	111.31
319.9	104.31
320.129	89.31
320.358	106.31
320.587	95.31
320.816	95.31
321.046	100.31
321.275	93.31
321.504	83.31
321.733	96.31
321.962	86.31
322.191	95.31
322.42	95.31
322.649	102.31
322.878	106.31
323.108	103.31
323.337	119.31
323.566	126.31
323.795	151.31
324.024	184.31
324.253	353.31
324.482	734.31
324.71	1505.31
324.939	1951.31
325.168	746.31
325.397	234.31
325.626	143.31
325.855	123.31
326.084	125.31
326.313	124.31
326.542	154.31
326.77	224.31
326.999	422.31
327.228	850.31
327.457	1516.31
327.686	1211.31
327.914	333.31
328.143	189.31
328.372	142.31
328.6	127.31
328.829	116.31
329.058	117.31
329.287	118.31
329.515	109.31
329.744	93.31
329.972	100.31
330.201	133.31
330.43	151.31
330.658	135.31
330.887	134.31
331.115	109.31
331.344	89.31
331.572	103.31
331.801	90.31
332.03	88.31
332.258	105.31
332.486	81.31
332.715	92.31
332.943	107.31
333.172	101.31
333.4	117.31
333.629	108.31
333.857	118.31
334.085	94.31
334.314	133.31
334.542	156.31
334.771	145.31
334.999	110.31
335.227	99.31
335.455	91.31
335.684	103.31
335.912	96.31
336.14	104.31
336.369	110.31
336.597	90.31
336.825	104.31
337.053	89.31
337.281	88.31
337.51	92.31
337.738	89.31
337.966	88.31
338.194	99.31
338.422	103.31
338.65	93.31
338.878	88.31
339.106	91.31
339.334	98.31
339.562	101.31
339.79	97.31
340.018	97.31
340.246	91.31
340.474	75.31
340.702	96.31
340.93	97.31
341.158	91.31
341.386	98.31
341.614	86.31
341.842	83.31
342.07	85.31
342.298	88.31
342.526	91.31
342.754	89.31
342.981	91.31
343.209	99.31
343.437	108.31
343.665	93.31
343.893	100.31
344.12	94.31
344.348	92.31
344.576	100.31
344.804	104.31
345.031	102.31
345.259	88.31
345.487	92.31
345.714	95.31
345.942	96.31
346.17	97.31
346.397	87.31
346.625	84.31
346.853	94.31
347.08	100.31
347.308	92.31
347.535	94.31
347.763	107.31
347.99	93.31
348.218	107.31
348.445	101.31
348.673	101.31
348.9	97.31
349.128	115.31
349.355	94.31
349.583	93.31
349.81	84.31
350.037	97.31
350.265	98.31
350.492	108.31
350.72	104.31
350.947	120.31
351.174	118.31
351.402	101.31
351.629	96.31
351.856	103.31
352.083	100.31
352.311	104.31
352.538	115.31
352.765	112.31
352.992	108.31
353.22	108.31
353.447	105.31
353.674	110.31
353.901	94.31
354.128	108.31
354.355	112.31
354.583	101.31
354.81	79.31
355.037	102.31
355.264	97.31
355.491	109.31
355.718	98.31
355.945	100.31
356.172	107.31
356.399	91.31
356.626	86.31
356.853	73.31
357.08	83.31
357.307	94.31
357.534	95.31
357.761	104.31
357.988	105.31
358.215	109.31
358.441	90.31
358.668	97.31
358.895	97.31
359.122	92.31
359.349	87.31
359.576	103.31
359.802	116.31
360.029	115.31
360.256	119.31
360.483	94.31
360.709	82.31
360.936	99.31
361.163	96.31
361.39	89.31
361.616	88.31
361.843	87.31
362.07	109.31
362.296	109.31
362.523	108.31
362.749	92.31
362.976	92.31
363.203	86.31
363.429	95.31
363.656	96.31
363.882	76.31
364.109	88.31
364.335	108.31
364.562	102.31
364.788	94.31
365.015	103.31
365.241	96.31
365.468	106.31
365.694	106.31
365.92	105.31
366.147	91.31
366.373	80.31
366.599	92.31
366.826	81.31
367.052	92.31
367.278	96.31
367.505	84.31
367.731	85.31
367.957	99.31
368.184	88.31
368.41	100.31
368.636	111.31
368.862	118.31
369.089	96.31
369.315	92.31
369.541	88.31
369.767	87.31
369.993	109.31
370.219	89.31
370.445	100.31
370.672	78.31
370.898	79.31
371.124	79.31
371.35	81.31
371.576	77.31
371.802	91.31
372.028	95.31
372.254	96.31
372.48	97.31
372.706	94.31
372.932	102.31
373.158	102.31
373.384	77.31
373.61	77.31
373.835	76.31
374.061	104.31
374.287	79.31
374.513	92.31
374.739	95.31
374.965	85.31
375.191	81.31
375.416	106.31
375.642	88.31
375.868	96.31
376.094	95.31
376.319	95.31
376.545	95.31
376.771	96.31
376.997	82.31
377.222	115.31
377.448	90.31
377.674	94.31
377.899	97.31
378.125	93.31
378.35	96.31
378.576	100.31
378.802	95.31
379.027	104.31
379.253	97.31
379.478	100.31
379.704	101.31
379.929	98.31
380.155	101.31
380.38	98.31
380.606	108.31
380.831	97.31
381.057	98.31
381.282	119.31
381.507	96.31
381.733	105.31
381.958	92.31
382.184	109.31
382.409	103.31
382.634	110.31
382.86	105.31
383.085	107.31
383.31	105.31
383.535	86.31
383.761	93.31
383.986	111.31
384.211	115.31
384.436	122.31
384.662	121.31
384.887	121.31
385.112	124.31
385.337	124.31
385.562	132.31
385.787	132.31
386.013	129.31
386.238	121.31
386.463	110.31
386.688	106.31
386.913	130.31
387.138	123.31
387.363	109.31
387.588	113.31
387.813	101.31
388.038	125.31
388.263	146.31
388.488	125.31
388.713	84.31
388.938	88.31
389.163	93.31
389.387	90.31
389.612	100.31
389.837	82.31
390.062	82.31
390.287	102.31
390.512	94.31
390.736	96.31
390.961	89.31
391.186	94.31
391.411	101.31
391.636	100.31
391.86	98.31
392.085	92.31
392.31	89.31
392.534	83.31
392.759	78.31
392.984	104.31
393.208	93.31
393.433	120.31
393.658	106.31
393.882	74.31
394.107	100.31
394.331	98.31
394.556	90.31
394.78	96.31
395.005	90.31
395.229	88.31
395.454	95.31
395.678	100.31
395.903	76.31
396.127	102.31
396.352	101.31
396.576	98.31
396.801	97.31
397.025	110.31
397.249	86.31
397.474	84.31
397.698	93.31
397.922	97.31
398.147	87.31
398.371	94.31
398.595	85.31
398.82	100.31
399.044	95.31
399.268	96.31
399.492	73.31
399.717	82.31
399.941	95.31
400.165	101.31
400.389	89.31
400.613	101.31
400.837	92.31
401.062	98.31
401.286	100.31
401.51	97.31
401.734	101.31
401.958	103.31
402.182	135.31
402.406	141.31
402.63	117.31
402.854	90.31
403.078	96.31
403.302	88.31
403.526	85.31
403.75	86.31
403.974	98.31
404.198	90.31
404.422	87.31
404.645	82.31
404.869	90.31
405.093	101.31
405.317	88.31
405.541	109.31
405.765	97.31
405.988	104.31
406.212	156.31
406.436	212.31
406.66	142.31
406.883	107.31
407.107	103.31
407.331	103.31
407.555	102.31
407.778	94.31
408.002	96.31
408.226	93.31
408.449	90.31
408.673	88.31
408.896	98.31
409.12	95.31
409.344	97.31
409.567	84.31
409.791	87.31
410.014	92.31
410.238	87.31
410.461	95.31
410.685	101.31
410.908	97.31
411.132	84.31
411.355	108.31
411.578	99.31
411.802	100.31
412.025	93.31
412.249	93.31
412.472	105.31
412.695	106.31
412.919	75.31
413.142	98.31
413.365	100.31
413.589	95.31
413.812	87.31
414.035	103.31
414.258	97.31
414.482	90.31
414.705	101.31
414.928	94.31
415.151	97.31
415.374	109.31
415.597	66.31
415.821	100.31
416.044	79.31
416.267	84.31
416.49	85.31
416.713	102.31
416.936	90.31
417.159	95.31
417.382	89.31
417.605	96.31
417.828	100.31
418.051	91.31
418.274	109.31
418.497	88.31
418.72	98.31
418.943	95.31
419.166	93.31
419.389	103.31
419.611	99.31
419.834	89.31
420.057	79.31
420.28	95.31
420.503	81.31
420.726	91.31
420.948	87.31
421.171	90.31
421.394	89.31
421.617	93.31
421.839	94.31
422.062	81.31
422.285	100.31
422.507	109.31
422.73	119.31
422.953	111.31
423.175	96.31
423.398	94.31
423.621	90.31
423.843	92.31
424.066	87.31
424.288	76.31
424.511	96.31
424.733	87.31
424.956	111.31
425.178	100.31
425.401	97.31
425.623	106.31
425.846	94.31
426.068	93.31
426.291	99.31
426.513	91.31
426.735	96.31
426.958	88.31
427.18	94.31
427.402	125.31
427.625	150.31
427.847	110.31
428.069	127.31
428.292	101.31
428.514	88.31
428.736	86.31
428.958	95.31
429.181	92.31
429.403	92.31
429.625	83.31
429.847	99.31
430.069	106.31
430.292	83.31
430.514	77.31
430.736	80.31
430.958	87.31
431.18	87.31
431.402	82.31
431.624	79.31
431.846	92.31
432.068	95.31
432.29	99.31
432.512	91.31
432.734	96.31
432.956	94.31
433.178	99.31
433.4	103.31
433.622	103.31
433.844	93.31
434.066	106.31
434.287	96.31
434.509	89.31
434.731	98.31
434.953	87.31
435.175	83.31
435.397	89.31
435.618	95.31
435.84	89.31
436.062	99.31
436.284	102.31
436.505	103.31
436.727	110.31
436.949	96.31
437.17	95.31
437.392	81.31
437.614	108.31
437.835	94.31
438.057	92.31
438.278	103.31
438.5	111.31
438.721	116.31
438.943	111.31
439.165	83.31
439.386	95.31
439.608	100.31
439.829	75.31
440.05	123.31
440.272	119.31
440.493	97.31
440.715	88.31
440.936	87.31
441.158	88.31
441.379	85.31
441.6	87.31
441.822	90.31
442.043	99.31
442.264	94.31
442.486	92.31
442.707	104.31
442.928	92.31
443.149	132.31
443.371	121.31
443.592	102.31
443.813	113.31
444.034	98.31
444.255	91.31
444.476	90.31
444.698	89.31
444.919	82.31
445.14	119.31
445.361	111.31
445.582	111.31
445.803	106.31
446.024	107.31
446.245	133.31
446.466	117.31
446.687	83.31
446.908	99.31
447.129	78.31
447.35	81.31
447.571	89.31
447.792	81.31
448.013	98.31
448.234	100.31
448.455	108.31
448.675	124.31
448.896	107.31
449.117	105.31
449.338	99.31
449.559	104.31
449.779	116.31
450	101.31
450.221	97.31
450.442	101.31
450.662	90.31
450.883	105.31
451.104	107.31
451.324	95.31
451.545	80.31
451.766	86.31
451.986	89.31
452.207	88.31
452.428	97.31
452.648	96.31
452.869	114.31
453.089	108.31
453.31	115.31
453.53	95.31
453.751	101.31
453.971	91.31
454.192	111.31
454.412	97.31
454.633	91.31
454.853	83.31
455.073	86.31
455.294	81.31
455.514	100.31
455.734	92.31
455.955	98.31
456.175	95.31
456.395	78.31
456.616	87.31
456.836	106.31
457.056	86.31
457.276	81.31
457.497	80.31
457.717	91.31
457.937	92.31
458.157	91.31
458.377	89.31
458.598	109.31
458.818	138.31
459.038	153.31
459.258	111.31
459.478	86.31
459.698	89.31
459.918	82.31
460.138	84.31
460.358	81.31
460.578	92.31
460.798	77.31
461.018	92.31
461.238	84.31
461.458	93.31
461.678	95.31
461.898	81.31
462.118	94.31
462.338	77.31
462.558	86.31
462.777	98.31
462.997	96.31
463.217	87.31
463.437	94.31
463.657	86.31
463.876	104.31
464.096	86.31
464.316	85.31
464.536	81.31
464.755	89.31
464.975	103.31
465.195	144.31
465.414	129.31
465.634	96.31
465.854	83.31
466.073	82.31
466.293	89.31
466.512	86.31
466.732	76.31
466.951	85.31
467.171	80.31
467.391	93.31
467.61	101.31
467.829	90.31
468.049	103.31
468.268	105.31
468.488	81.31
468.707	94.31
468.927	91.31
469.146	88.31
469.365	81.31
469.585	86.31
469.804	88.31
470.023	97.31
470.243	94.31
470.462	89.31
470.681	104.31
470.901	103.31
471.12	89.31
471.339	92.31
471.558	97.31
471.777	78.31
471.997	97.31
472.216	127.31
472.435	184.31
472.654	108.31
472.873	89.31
473.092	88.31
473.311	84.31
473.53	85.31
473.749	71.31
473.968	103.31
474.187	92.31
474.406	102.31
474.625	88.31
474.844	81.31
475.063	96.31
475.282	85.31
475.501	73.31
475.72	89.31
475.939	87.31
476.158	81.31
476.377	85.31
476.596	91.31
476.814	89.31
477.033	80.31
477.252	83.31
477.471	88.31
477.69	78.31
477.908	90.31
478.127	89.31
478.346	87.31
478.564	106.31
478.783	93.31
479.002	91.31
479.22	93.31
479.439	91.31
479.658	106.31
479.876	111.31
480.095	108.31
480.313	90.31
480.532	91.31
480.751	88.31
480.969	135.31
481.188	237.31
481.406	180.31
481.624	102.31
481.843	103.31
482.061	84.31
482.28	91.31
482.498	98.31
482.717	84.31
482.935	86.31
483.153	88.31
483.372	84.31
483.59	100.31
483.808	93.31
484.027	104.31
484.245	101.31
484.463	87.31
484.681	89.31
484.9	106.31
485.118	109.31
485.336	105.31
485.554	103.31
485.772	94.31
485.99	108.31
486.209	110.31
486.427	115.31
486.645	116.31
486.863	111.31
487.081	98.31
487.299	96.31
487.517	91.31
487.735	96.31
487.953	85.31
488.171	106.31
488.389	100.31
488.607	109.31
488.825	95.31
489.043	79.31
489.261	85.31
489.479	89.31
489.696	91.31
489.914	78.31
490.132	96.31
490.35	89.31
490.568	93.31
490.786	93.31
491.003	91.31
491.221	95.31
491.439	96.31
491.657	100.31
491.874	102.31
492.092	91.31
492.31	91.31
492.527	91.31
492.745	86.31
492.963	84.31
493.18	100.31
493.398	97.31
493.615	102.31
493.833	104.31
494.05	76.31
494.268	106.31
494.485	97.31
494.703	97.31
494.92	88.31
495.138	103.31
495.355	92.31
495.573	99.31
495.79	90.31
496.008	78.31
496.225	102.31
496.442	96.31
496.66	91.31
496.877	96.31
497.094	85.31
497.312	95.31
497.529	86.31
497.746	117.31
497.963	80.31
498.181	88.31
498.398	95.31
498.615	100.31
498.832	116.31
499.049	92.31
499.267	97.31
499.484	100.31
499.701	87.31
499.918	87.31
500.135	84.31
500.352	100.31
500.569	101.31
500.786	104.31
501.003	85.31
501.22	83.31
501.437	87.31
501.654	91.31
501.871	110.31
502.088	93.31
502.305	92.31
502.522	96.31
502.739	88.31
502.956	84.31
503.172	89.31
503.389	110.31
503.606	96.31
503.823	89.31
504.04	99.31
504.256	85.31
504.473	93.31
504.69	85.31
504.907	86.31
505.123	93.31
505.34	84.31
505.557	78.31
505.773	91.31
505.99	82.31
506.207	114.31
506.423	81.31
506.64	95.31
506.856	80.31
507.073	96.31
507.289	86.31
507.506	87.31
507.722	102.31
507.939	98.31
508.155	97.31
508.372	88.31
508.588	90.31
508.805	97.31
509.021	101.31
509.238	94.31
509.454	90.31
509.67	101.31
509.887	93.31
510.103	111.31
510.319	190.31
510.536	654.31
510.752	2038.31
510.968	610.31
511.184	145.31
511.401	107.31
511.617	98.31
511.833	98.31
512.049	91.31
512.265	83.31
512.481	81.31
512.698	80.31
512.914	81.31
513.13	86.31
513.346	81.31
513.562	99.31
513.778	100.31
513.994	95.31
514.21	90.31
514.426	101.31
514.642	127.31
514.858	133.31
