Data from Circ_2015_H10_HRD10591_00008.txt Node
Date: Wed Jan 03 10:00:24 EST 2024
User: Yrep
Spectrometer: HR+D1059
Trigger mode: 1
Integration Time (sec): 1.000000E-1
Scans to average: 1
Electric dark correction enabled: true
Nonlinearity correction enabled: false
Boxcar width: 0
XAxis mode: Wavelengths
Number of Pixels in Spectrum: 2048
>>>>>Begin Spectral Data<<<<<
223.165	-17.69
223.4	-17.69
223.635	-17.69
223.869	-25.69
224.104	-17.69
224.338	-6.69
224.573	-7.69
224.808	-15.69
225.042	-16.69
225.277	-11.69
225.511	-20.69
225.746	5.31
225.98	-6.69
226.215	16.31
226.449	18.31
226.683	33.31
226.918	31.31
227.152	42.31
227.387	39.31
227.621	50.31
227.856	42.31
228.09	56.31
228.324	52.31
228.559	61.31
228.793	76.31
229.027	76.31
229.262	71.31
229.496	77.31
229.73	103.31
229.964	94.31
230.199	69.31
230.433	73.31
230.667	86.31
230.901	79.31
231.136	80.31
231.37	77.31
231.604	91.31
231.838	85.31
232.072	83.31
232.306	76.31
232.541	87.31
232.775	88.31
233.009	88.31
233.243	83.31
233.477	74.31
233.711	92.31
233.945	77.31
234.179	82.31
234.413	85.31
234.647	87.31
234.881	82.31
235.115	84.31
235.349	83.31
235.583	73.31
235.817	80.31
236.051	75.31
236.285	80.31
236.519	83.31
236.753	82.31
236.987	81.31
237.221	83.31
237.455	89.31
237.689	90.31
237.922	78.31
238.156	78.31
238.39	74.31
238.624	83.31
238.858	80.31
239.091	79.31
239.325	71.31
239.559	78.31
239.793	70.31
240.027	77.31
240.26	76.31
240.494	85.31
240.728	83.31
240.961	73.31
241.195	70.31
241.429	73.31
241.662	74.31
241.896	82.31
242.13	75.31
242.363	86.31
242.597	80.31
242.83	73.31
243.064	77.31
243.298	96.31
243.531	77.31
243.765	90.31
243.998	84.31
244.232	82.31
244.465	72.31
244.699	83.31
244.932	82.31
245.166	73.31
245.399	90.31
245.633	75.31
245.866	89.31
246.099	77.31
246.333	86.31
246.566	92.31
246.8	86.31
247.033	88.31
247.266	81.31
247.5	73.31
247.733	79.31
247.966	89.31
248.2	82.31
248.433	92.31
248.666	82.31
248.899	95.31
249.133	101.31
249.366	89.31
249.599	90.31
249.832	89.31
250.066	86.31
250.299	93.31
250.532	86.31
250.765	71.31
250.998	83.31
251.231	91.31
251.465	83.31
251.698	83.31
251.931	88.31
252.164	96.31
252.397	89.31
252.63	83.31
252.863	72.31
253.096	95.31
253.329	75.31
253.562	86.31
253.795	102.31
254.028	97.31
254.261	75.31
254.494	76.31
254.727	85.31
254.96	87.31
255.193	72.31
255.426	90.31
255.659	79.31
255.892	82.31
256.124	75.31
256.357	76.31
256.59	81.31
256.823	92.31
257.056	93.31
257.289	86.31
257.521	93.31
257.754	97.31
257.987	83.31
258.22	88.31
258.452	95.31
258.685	83.31
258.918	92.31
259.151	79.31
259.383	82.31
259.616	78.31
259.849	81.31
260.081	85.31
260.314	90.31
260.547	84.31
260.779	79.31
261.012	87.31
261.244	93.31
261.477	79.31
261.71	95.31
261.942	122.31
262.175	98.31
262.407	80.31
262.64	83.31
262.872	82.31
263.105	92.31
263.337	95.31
263.57	86.31
263.802	76.31
264.035	93.31
264.267	93.31
264.499	77.31
264.732	76.31
264.964	91.31
265.197	93.31
265.429	78.31
265.661	90.31
265.894	95.31
266.126	90.31
266.358	96.31
266.591	77.31
266.823	83.31
267.055	80.31
267.287	89.31
267.52	69.31
267.752	90.31
267.984	83.31
268.216	98.31
268.448	87.31
268.681	103.31
268.913	97.31
269.145	91.31
269.377	80.31
269.609	88.31
269.841	92.31
270.073	87.31
270.306	87.31
270.538	99.31
270.77	79.31
271.002	80.31
271.234	84.31
271.466	68.31
271.698	86.31
271.93	80.31
272.162	98.31
272.394	90.31
272.626	86.31
272.858	101.31
273.09	76.31
273.322	71.31
273.553	82.31
273.785	98.31
274.017	74.31
274.249	92.31
274.481	78.31
274.713	83.31
274.945	99.31
275.176	90.31
275.408	87.31
275.64	87.31
275.872	92.31
276.104	105.31
276.335	89.31
276.567	104.31
276.799	96.31
277.031	99.31
277.262	80.31
277.494	90.31
277.726	99.31
277.957	90.31
278.189	89.31
278.421	104.31
278.652	108.31
278.884	88.31
279.115	87.31
279.347	93.31
279.579	106.31
279.81	95.31
280.042	91.31
280.273	88.31
280.505	99.31
280.736	88.31
280.968	86.31
281.199	93.31
281.431	93.31
281.662	94.31
281.894	96.31
282.125	105.31
282.356	109.31
282.588	126.31
282.819	122.31
283.051	81.31
283.282	86.31
283.513	93.31
283.745	91.31
283.976	98.31
284.207	87.31
284.439	98.31
284.67	91.31
284.901	105.31
285.132	85.31
285.364	88.31
285.595	89.31
285.826	94.31
286.057	77.31
286.288	95.31
286.52	89.31
286.751	67.31
286.982	92.31
287.213	90.31
287.444	81.31
287.675	93.31
287.906	88.31
288.138	89.31
288.369	94.31
288.6	104.31
288.831	84.31
289.062	98.31
289.293	97.31
289.524	89.31
289.755	97.31
289.986	92.31
290.217	80.31
290.448	95.31
290.679	77.31
290.91	95.31
291.141	92.31
291.371	101.31
291.602	87.31
291.833	91.31
292.064	88.31
292.295	93.31
292.526	91.31
292.757	100.31
292.987	94.31
293.218	99.31
293.449	86.31
293.68	91.31
293.91	90.31
294.141	89.31
294.372	90.31
294.603	93.31
294.833	98.31
295.064	81.31
295.295	86.31
295.525	89.31
295.756	100.31
295.987	128.31
296.217	131.31
296.448	113.31
296.679	97.31
296.909	86.31
297.14	94.31
297.37	100.31
297.601	106.31
297.831	100.31
298.062	87.31
298.292	97.31
298.523	102.31
298.753	94.31
298.984	96.31
299.214	94.31
299.445	91.31
299.675	109.31
299.905	109.31
300.136	87.31
300.366	96.31
300.597	91.31
300.827	82.31
301.057	102.31
301.288	103.31
301.518	99.31
301.748	92.31
301.979	105.31
302.209	104.31
302.439	93.31
302.669	87.31
302.9	111.31
303.13	94.31
303.36	98.31
303.59	99.31
303.82	94.31
304.051	99.31
304.281	109.31
304.511	91.31
304.741	93.31
304.971	91.31
305.201	88.31
305.431	101.31
305.661	104.31
305.891	98.31
306.121	102.31
306.352	108.31
306.582	102.31
306.812	94.31
307.042	87.31
307.272	87.31
307.502	96.31
307.731	106.31
307.961	93.31
308.191	90.31
308.421	93.31
308.651	108.31
308.881	92.31
309.111	105.31
309.341	108.31
309.571	98.31
309.8	103.31
310.03	107.31
310.26	98.31
310.49	96.31
310.72	110.31
310.949	101.31
311.179	99.31
311.409	101.31
311.639	88.31
311.868	115.31
312.098	90.31
312.328	102.31
312.557	104.31
312.787	112.31
313.017	99.31
313.246	90.31
313.476	86.31
313.706	91.31
313.935	96.31
314.165	103.31
314.394	99.31
314.624	89.31
314.853	103.31
315.083	83.31
315.312	86.31
315.542	88.31
315.771	98.31
316.001	98.31
316.23	102.31
316.46	102.31
316.689	97.31
316.919	79.31
317.148	91.31
317.377	78.31
317.607	107.31
317.836	101.31
318.065	104.31
318.295	102.31
318.524	102.31
318.753	108.31
318.983	107.31
319.212	104.31
319.441	109.31
319.67	106.31
319.9	96.31
320.129	98.31
320.358	90.31
320.587	100.31
320.816	90.31
321.046	96.31
321.275	103.31
321.504	108.31
321.733	95.31
321.962	106.31
322.191	103.31
322.42	106.31
322.649	102.31
322.878	118.31
323.108	110.31
323.337	126.31
323.566	123.31
323.795	145.31
324.024	185.31
324.253	351.31
324.482	733.31
324.71	1451.31
324.939	1935.31
325.168	718.31
325.397	224.31
325.626	160.31
325.855	135.31
326.084	116.31
326.313	125.31
326.542	141.31
326.77	210.31
326.999	420.31
327.228	839.31
327.457	1505.31
327.686	1205.31
327.914	338.31
328.143	181.31
328.372	139.31
328.6	122.31
328.829	121.31
329.058	114.31
329.287	117.31
329.515	117.31
329.744	101.31
329.972	101.31
330.201	119.31
330.43	125.31
330.658	122.31
330.887	132.31
331.115	114.31
331.344	104.31
331.572	112.31
331.801	97.31
332.03	98.31
332.258	110.31
332.486	95.31
332.715	89.31
332.943	104.31
333.172	101.31
333.4	103.31
333.629	117.31
333.857	119.31
334.085	103.31
334.314	119.31
334.542	131.31
334.771	124.31
334.999	114.31
335.227	104.31
335.455	96.31
335.684	92.31
335.912	107.31
336.14	100.31
336.369	103.31
336.597	107.31
336.825	110.31
337.053	93.31
337.281	98.31
337.51	97.31
337.738	101.31
337.966	77.31
338.194	91.31
338.422	104.31
338.65	94.31
338.878	94.31
339.106	96.31
339.334	92.31
339.562	87.31
339.79	99.31
340.018	107.31
340.246	93.31
340.474	97.31
340.702	94.31
340.93	102.31
341.158	116.31
341.386	103.31
341.614	109.31
341.842	105.31
342.07	95.31
342.298	92.31
342.526	87.31
342.754	84.31
342.981	101.31
343.209	103.31
343.437	110.31
343.665	108.31
343.893	98.31
344.12	89.31
344.348	98.31
344.576	97.31
344.804	97.31
345.031	94.31
345.259	83.31
345.487	101.31
345.714	93.31
345.942	81.31
346.17	107.31
346.397	92.31
346.625	95.31
346.853	97.31
347.08	98.31
347.308	102.31
347.535	104.31
347.763	99.31
347.99	100.31
348.218	109.31
348.445	97.31
348.673	97.31
348.9	99.31
349.128	98.31
349.355	109.31
349.583	106.31
349.81	95.31
350.037	101.31
350.265	109.31
350.492	105.31
350.72	106.31
350.947	104.31
351.174	109.31
351.402	120.31
351.629	115.31
351.856	109.31
352.083	106.31
352.311	114.31
352.538	99.31
352.765	94.31
352.992	119.31
353.22	115.31
353.447	102.31
353.674	121.31
353.901	117.31
354.128	95.31
354.355	103.31
354.583	104.31
354.81	114.31
355.037	87.31
355.264	102.31
355.491	110.31
355.718	98.31
355.945	80.31
356.172	92.31
356.399	94.31
356.626	110.31
356.853	106.31
357.08	87.31
357.307	92.31
357.534	83.31
357.761	86.31
357.988	100.31
358.215	119.31
358.441	109.31
358.668	104.31
358.895	100.31
359.122	106.31
359.349	102.31
359.576	100.31
359.802	90.31
360.029	114.31
360.256	94.31
360.483	91.31
360.709	102.31
360.936	103.31
361.163	108.31
361.39	95.31
361.616	83.31
361.843	74.31
362.07	89.31
362.296	98.31
362.523	99.31
362.749	90.31
362.976	90.31
363.203	109.31
363.429	93.31
363.656	98.31
363.882	86.31
364.109	104.31
364.335	111.31
364.562	106.31
364.788	102.31
365.015	94.31
365.241	109.31
365.468	111.31
365.694	108.31
365.92	106.31
366.147	107.31
366.373	92.31
366.599	87.31
366.826	92.31
367.052	88.31
367.278	93.31
367.505	87.31
367.731	89.31
367.957	103.31
368.184	99.31
368.41	106.31
368.636	106.31
368.862	111.31
369.089	123.31
369.315	88.31
369.541	95.31
369.767	106.31
369.993	87.31
370.219	111.31
370.445	91.31
370.672	83.31
370.898	86.31
371.124	72.31
371.35	95.31
371.576	85.31
371.802	100.31
372.028	90.31
372.254	104.31
372.48	87.31
372.706	92.31
372.932	101.31
373.158	96.31
373.384	77.31
373.61	101.31
373.835	96.31
374.061	96.31
374.287	96.31
374.513	96.31
374.739	100.31
374.965	97.31
375.191	104.31
375.416	109.31
375.642	104.31
375.868	104.31
376.094	103.31
376.319	92.31
376.545	103.31
376.771	94.31
376.997	105.31
377.222	101.31
377.448	100.31
377.674	105.31
377.899	108.31
378.125	108.31
378.35	101.31
378.576	95.31
378.802	95.31
379.027	96.31
379.253	94.31
379.478	99.31
379.704	114.31
379.929	101.31
380.155	96.31
380.38	97.31
380.606	92.31
380.831	110.31
381.057	114.31
381.282	120.31
381.507	118.31
381.733	109.31
381.958	103.31
382.184	121.31
382.409	130.31
382.634	126.31
382.86	96.31
383.085	103.31
383.31	117.31
383.535	114.31
383.761	138.31
383.986	118.31
384.211	125.31
384.436	121.31
384.662	119.31
384.887	142.31
385.112	126.31
385.337	137.31
385.562	114.31
385.787	117.31
386.013	143.31
386.238	134.31
386.463	139.31
386.688	118.31
386.913	103.31
387.138	139.31
387.363	113.31
387.588	109.31
387.813	128.31
388.038	123.31
388.263	139.31
388.488	143.31
388.713	109.31
388.938	104.31
389.163	106.31
389.387	102.31
389.612	109.31
389.837	92.31
390.062	99.31
390.287	91.31
390.512	101.31
390.736	101.31
390.961	90.31
391.186	94.31
391.411	97.31
391.636	88.31
391.86	94.31
392.085	83.31
392.31	97.31
392.534	91.31
392.759	98.31
392.984	99.31
393.208	112.31
393.433	131.31
393.658	106.31
393.882	94.31
394.107	90.31
394.331	102.31
394.556	96.31
394.78	88.31
395.005	98.31
395.229	85.31
395.454	105.31
395.678	78.31
395.903	89.31
396.127	108.31
396.352	91.31
396.576	77.31
396.801	99.31
397.025	112.31
397.249	93.31
397.474	103.31
397.698	89.31
397.922	89.31
398.147	91.31
398.371	98.31
398.595	98.31
398.82	103.31
399.044	96.31
399.268	86.31
399.492	97.31
399.717	94.31
399.941	103.31
400.165	89.31
400.389	78.31
400.613	97.31
400.837	101.31
401.062	93.31
401.286	97.31
401.51	90.31
401.734	88.31
401.958	100.31
402.182	114.31
402.406	140.31
402.63	109.31
402.854	86.31
403.078	101.31
403.302	86.31
403.526	94.31
403.75	83.31
403.974	81.31
404.198	92.31
404.422	95.31
404.645	71.31
404.869	80.31
405.093	87.31
405.317	108.31
405.541	113.31
405.765	101.31
405.988	110.31
406.212	160.31
406.436	194.31
406.66	137.31
406.883	112.31
407.107	92.31
407.331	99.31
407.555	104.31
407.778	107.31
408.002	91.31
408.226	87.31
408.449	97.31
408.673	98.31
408.896	94.31
409.12	105.31
409.344	91.31
409.567	103.31
409.791	102.31
410.014	105.31
410.238	102.31
410.461	92.31
410.685	97.31
410.908	91.31
411.132	113.31
411.355	96.31
411.578	102.31
411.802	94.31
412.025	81.31
412.249	83.31
412.472	105.31
412.695	100.31
412.919	93.31
413.142	94.31
413.365	74.31
413.589	86.31
413.812	86.31
414.035	104.31
414.258	110.31
414.482	107.31
414.705	105.31
414.928	103.31
415.151	101.31
415.374	97.31
415.597	94.31
415.821	88.31
416.044	95.31
416.267	95.31
416.49	97.31
416.713	109.31
416.936	90.31
417.159	96.31
417.382	86.31
417.605	91.31
417.828	101.31
418.051	112.31
418.274	110.31
418.497	88.31
418.72	101.31
418.943	107.31
419.166	93.31
419.389	94.31
419.611	106.31
419.834	93.31
420.057	96.31
420.28	91.31
420.503	93.31
420.726	93.31
420.948	103.31
421.171	84.31
421.394	93.31
421.617	89.31
421.839	97.31
422.062	90.31
422.285	105.31
422.507	111.31
422.73	106.31
422.953	118.31
423.175	78.31
423.398	84.31
423.621	103.31
423.843	97.31
424.066	97.31
424.288	106.31
424.511	96.31
424.733	112.31
424.956	109.31
425.178	90.31
425.401	88.31
425.623	89.31
425.846	95.31
426.068	85.31
426.291	86.31
426.513	103.31
426.735	96.31
426.958	97.31
427.18	104.31
427.402	120.31
427.625	154.31
427.847	123.31
428.069	114.31
428.292	101.31
428.514	98.31
428.736	89.31
428.958	87.31
429.181	117.31
429.403	94.31
429.625	94.31
429.847	88.31
430.069	99.31
430.292	93.31
430.514	98.31
430.736	93.31
430.958	93.31
431.18	91.31
431.402	92.31
431.624	98.31
431.846	83.31
432.068	95.31
432.29	96.31
432.512	103.31
432.734	93.31
432.956	86.31
433.178	108.31
433.4	88.31
433.622	90.31
433.844	85.31
434.066	102.31
434.287	91.31
434.509	93.31
434.731	83.31
434.953	94.31
435.175	95.31
435.397	102.31
435.618	92.31
435.84	97.31
436.062	122.31
436.284	101.31
436.505	102.31
436.727	101.31
436.949	105.31
437.17	104.31
437.392	88.31
437.614	97.31
437.835	94.31
438.057	105.31
438.278	109.31
438.5	122.31
438.721	120.31
438.943	105.31
439.165	69.31
439.386	82.31
439.608	99.31
439.829	103.31
440.05	119.31
440.272	126.31
440.493	106.31
440.715	91.31
440.936	90.31
441.158	89.31
441.379	80.31
441.6	91.31
441.822	107.31
442.043	95.31
442.264	100.31
442.486	101.31
442.707	95.31
442.928	101.31
443.149	119.31
443.371	122.31
443.592	111.31
443.813	122.31
444.034	103.31
444.255	82.31
444.476	91.31
444.698	90.31
444.919	97.31
445.14	125.31
445.361	139.31
445.582	124.31
445.803	133.31
446.024	128.31
446.245	136.31
446.466	97.31
446.687	89.31
446.908	100.31
447.129	110.31
447.35	87.31
447.571	95.31
447.792	102.31
448.013	124.31
448.234	117.31
448.455	106.31
448.675	113.31
448.896	122.31
449.117	123.31
449.338	91.31
449.559	129.31
449.779	122.31
450	102.31
450.221	106.31
450.442	85.31
450.662	106.31
450.883	108.31
451.104	110.31
451.324	105.31
451.545	85.31
451.766	89.31
451.986	79.31
452.207	93.31
452.428	96.31
452.648	92.31
452.869	97.31
453.089	103.31
453.31	113.31
453.53	109.31
453.751	108.31
453.971	90.31
454.192	112.31
454.412	99.31
454.633	87.31
454.853	99.31
455.073	91.31
455.294	101.31
455.514	97.31
455.734	93.31
455.955	86.31
456.175	95.31
456.395	83.31
456.616	99.31
456.836	101.31
457.056	83.31
457.276	78.31
457.497	85.31
457.717	93.31
457.937	90.31
458.157	89.31
458.377	87.31
458.598	103.31
458.818	135.31
459.038	146.31
459.258	100.31
459.478	93.31
459.698	86.31
459.918	84.31
460.138	88.31
460.358	104.31
460.578	102.31
460.798	99.31
461.018	89.31
461.238	76.31
461.458	91.31
461.678	86.31
461.898	87.31
462.118	76.31
462.338	85.31
462.558	92.31
462.777	102.31
462.997	81.31
463.217	77.31
463.437	100.31
463.657	89.31
463.876	102.31
464.096	109.31
464.316	82.31
464.536	96.31
464.755	82.31
464.975	98.31
465.195	132.31
465.414	138.31
465.634	97.31
465.854	75.31
466.073	96.31
466.293	96.31
466.512	88.31
466.732	87.31
466.951	97.31
467.171	97.31
467.391	96.31
467.61	96.31
467.829	98.31
468.049	88.31
468.268	94.31
468.488	102.31
468.707	90.31
468.927	79.31
469.146	94.31
469.365	94.31
469.585	79.31
469.804	105.31
470.023	98.31
470.243	87.31
470.462	99.31
470.681	101.31
470.901	93.31
471.12	86.31
471.339	85.31
471.558	93.31
471.777	96.31
471.997	88.31
472.216	97.31
472.435	140.31
472.654	101.31
472.873	99.31
473.092	89.31
473.311	90.31
473.53	93.31
473.749	93.31
473.968	94.31
474.187	101.31
474.406	97.31
474.625	89.31
474.844	88.31
475.063	106.31
475.282	89.31
475.501	95.31
475.72	94.31
475.939	85.31
476.158	80.31
476.377	97.31
476.596	95.31
476.814	89.31
477.033	96.31
477.252	92.31
477.471	98.31
477.69	102.31
477.908	85.31
478.127	89.31
478.346	81.31
478.564	88.31
478.783	93.31
479.002	102.31
479.22	97.31
479.439	104.31
479.658	111.31
479.876	102.31
480.095	104.31
480.313	98.31
480.532	93.31
480.751	92.31
480.969	117.31
481.188	156.31
481.406	129.31
481.624	101.31
481.843	95.31
482.061	96.31
482.28	82.31
482.498	82.31
482.717	93.31
482.935	99.31
483.153	92.31
483.372	87.31
483.59	102.31
483.808	97.31
484.027	90.31
484.245	93.31
484.463	109.31
484.681	105.31
484.9	104.31
485.118	94.31
485.336	101.31
485.554	104.31
485.772	100.31
485.99	103.31
486.209	110.31
486.427	108.31
486.645	101.31
486.863	105.31
487.081	95.31
487.299	94.31
487.517	91.31
487.735	94.31
487.953	87.31
488.171	104.31
488.389	96.31
488.607	108.31
488.825	93.31
489.043	85.31
489.261	99.31
489.479	94.31
489.696	89.31
489.914	84.31
490.132	111.31
490.35	110.31
490.568	98.31
490.786	88.31
491.003	80.31
491.221	98.31
491.439	105.31
491.657	95.31
491.874	99.31
492.092	102.31
492.31	97.31
492.527	101.31
492.745	102.31
492.963	86.31
493.18	81.31
493.398	83.31
493.615	98.31
493.833	93.31
494.05	88.31
494.268	100.31
494.485	110.31
494.703	99.31
494.92	95.31
495.138	90.31
495.355	82.31
495.573	82.31
495.79	90.31
496.008	93.31
496.225	97.31
496.442	105.31
496.66	97.31
496.877	100.31
497.094	97.31
497.312	94.31
497.529	94.31
497.746	89.31
497.963	98.31
498.181	113.31
498.398	102.31
498.615	114.31
498.832	106.31
499.049	81.31
499.267	93.31
499.484	93.31
499.701	99.31
499.918	103.31
500.135	93.31
500.352	94.31
500.569	84.31
500.786	101.31
501.003	102.31
501.22	97.31
501.437	95.31
501.654	103.31
501.871	101.31
502.088	99.31
502.305	94.31
502.522	91.31
502.739	93.31
502.956	93.31
503.172	82.31
503.389	112.31
503.606	98.31
503.823	91.31
504.04	93.31
504.256	90.31
504.473	90.31
504.69	103.31
504.907	87.31
505.123	106.31
505.34	99.31
505.557	95.31
505.773	91.31
505.99	88.31
506.207	94.31
506.423	87.31
506.64	84.31
506.856	110.31
507.073	99.31
507.289	75.31
507.506	101.31
507.722	103.31
507.939	108.31
508.155	102.31
508.372	81.31
508.588	89.31
508.805	106.31
509.021	97.31
509.238	112.31
509.454	106.31
509.67	101.31
509.887	104.31
510.103	129.31
510.319	191.31
510.536	620.31
510.752	1921.31
510.968	589.31
511.184	157.31
511.401	112.31
511.617	112.31
511.833	83.31
512.049	111.31
512.265	99.31
512.481	98.31
512.698	99.31
512.914	96.31
513.13	107.31
513.346	83.31
