Data from Circ_2015_H10_HRD10591_00090.txt Node
Date: Wed Jan 03 10:00:40 EST 2024
User: Yrep
Spectrometer: HR+D1059
Trigger mode: 1
Integration Time (sec): 1.000000E-1
Scans to average: 1
Electric dark correction enabled: true
Nonlinearity correction enabled: false
Boxcar width: 0
XAxis mode: Wavelengths
Number of Pixels in Spectrum: 2048
>>>>>Begin Spectral Data<<<<<
223.165	-12.56
223.4	-12.56
223.635	-12.56
223.869	-31.56
224.104	-30.56
224.338	-14.56
224.573	-8.56
224.808	-4.56
225.042	-0.56
225.277	-3.56
225.511	-16.56
225.746	3.44
225.98	10.44
226.215	18.44
226.449	12.44
226.683	15.44
226.918	25.44
227.152	37.44
227.387	35.44
227.621	36.44
227.856	34.44
228.09	45.44
228.324	68.44
228.559	51.44
228.793	63.44
229.027	57.44
229.262	68.44
229.496	77.44
229.73	95.44
229.964	90.44
230.199	91.44
230.433	89.44
230.667	79.44
230.901	77.44
231.136	74.44
231.37	82.44
231.604	63.44
231.838	85.44
232.072	78.44
232.306	89.44
232.541	81.44
232.775	99.44
233.009	90.44
233.243	66.44
233.477	94.44
233.711	83.44
233.945	75.44
234.179	82.44
234.413	94.44
234.647	86.44
234.881	87.44
235.115	60.44
235.349	91.44
235.583	77.44
235.817	75.44
236.051	87.44
236.285	95.44
236.519	87.44
236.753	97.44
236.987	74.44
237.221	105.44
237.455	104.44
237.689	77.44
237.922	75.44
238.156	82.44
238.39	76.44
238.624	83.44
238.858	72.44
239.091	72.44
239.325	88.44
239.559	82.44
239.793	103.44
240.027	70.44
240.26	87.44
240.494	72.44
240.728	83.44
240.961	82.44
241.195	80.44
241.429	79.44
241.662	75.44
241.896	81.44
242.13	90.44
242.363	87.44
242.597	86.44
242.83	76.44
243.064	67.44
243.298	85.44
243.531	81.44
243.765	79.44
243.998	66.44
244.232	72.44
244.465	86.44
244.699	87.44
244.932	83.44
245.166	65.44
245.399	78.44
245.633	87.44
245.866	80.44
246.099	85.44
246.333	88.44
246.566	89.44
246.8	74.44
247.033	84.44
247.266	70.44
247.5	75.44
247.733	77.44
247.966	74.44
248.2	85.44
248.433	81.44
248.666	79.44
248.899	85.44
249.133	92.44
249.366	119.44
249.599	102.44
249.832	80.44
250.066	86.44
250.299	98.44
250.532	90.44
250.765	73.44
250.998	70.44
251.231	82.44
251.465	69.44
251.698	84.44
251.931	83.44
252.164	82.44
252.397	76.44
252.63	80.44
252.863	85.44
253.096	87.44
253.329	93.44
253.562	87.44
253.795	98.44
254.028	85.44
254.261	71.44
254.494	94.44
254.727	78.44
254.96	78.44
255.193	69.44
255.426	78.44
255.659	88.44
255.892	89.44
256.124	85.44
256.357	82.44
256.59	78.44
256.823	92.44
257.056	93.44
257.289	100.44
257.521	85.44
257.754	90.44
257.987	91.44
258.22	93.44
258.452	74.44
258.685	91.44
258.918	92.44
259.151	82.44
259.383	94.44
259.616	66.44
259.849	71.44
260.081	78.44
260.314	93.44
260.547	95.44
260.779	86.44
261.012	89.44
261.244	92.44
261.477	80.44
261.71	96.44
261.942	128.44
262.175	134.44
262.407	88.44
262.64	87.44
262.872	89.44
263.105	93.44
263.337	94.44
263.57	89.44
263.802	89.44
264.035	86.44
264.267	84.44
264.499	77.44
264.732	97.44
264.964	93.44
265.197	80.44
265.429	95.44
265.661	90.44
265.894	86.44
266.126	84.44
266.358	102.44
266.591	94.44
266.823	73.44
267.055	88.44
267.287	77.44
267.52	84.44
267.752	75.44
267.984	94.44
268.216	90.44
268.448	86.44
268.681	94.44
268.913	78.44
269.145	88.44
269.377	86.44
269.609	72.44
269.841	82.44
270.073	70.44
270.306	87.44
270.538	86.44
270.77	82.44
271.002	77.44
271.234	85.44
271.466	88.44
271.698	81.44
271.93	86.44
272.162	103.44
272.394	77.44
272.626	90.44
272.858	71.44
273.09	92.44
273.322	83.44
273.553	80.44
273.785	95.44
274.017	98.44
274.249	91.44
274.481	90.44
274.713	90.44
274.945	91.44
275.176	83.44
275.408	78.44
275.64	105.44
275.872	89.44
276.104	103.44
276.335	94.44
276.567	119.44
276.799	126.44
277.031	124.44
277.262	150.44
277.494	106.44
277.726	87.44
277.957	100.44
278.189	91.44
278.421	94.44
278.652	102.44
278.884	94.44
279.115	99.44
279.347	81.44
279.579	94.44
279.81	112.44
280.042	119.44
280.273	148.44
280.505	111.44
280.736	102.44
280.968	91.44
281.199	81.44
281.431	87.44
281.662	81.44
281.894	84.44
282.125	103.44
282.356	117.44
282.588	154.44
282.819	127.44
283.051	91.44
283.282	92.44
283.513	97.44
283.745	90.44
283.976	100.44
284.207	92.44
284.439	83.44
284.67	80.44
284.901	81.44
285.132	75.44
285.364	74.44
285.595	81.44
285.826	90.44
286.057	89.44
286.288	95.44
286.52	85.44
286.751	77.44
286.982	73.44
287.213	93.44
287.444	81.44
287.675	93.44
287.906	87.44
288.138	94.44
288.369	94.44
288.6	97.44
288.831	109.44
289.062	92.44
289.293	101.44
289.524	86.44
289.755	87.44
289.986	84.44
290.217	75.44
290.448	79.44
290.679	87.44
290.91	90.44
291.141	92.44
291.371	87.44
291.602	94.44
291.833	70.44
292.064	84.44
292.295	87.44
292.526	97.44
292.757	86.44
292.987	94.44
293.218	95.44
293.449	93.44
293.68	83.44
293.91	89.44
294.141	103.44
294.372	90.44
294.603	97.44
294.833	82.44
295.064	87.44
295.295	99.44
295.525	80.44
295.756	109.44
295.987	122.44
296.217	147.44
296.448	129.44
296.679	103.44
296.909	100.44
297.14	84.44
297.37	82.44
297.601	84.44
297.831	89.44
298.062	98.44
298.292	80.44
298.523	98.44
298.753	86.44
298.984	93.44
299.214	97.44
299.445	110.44
299.675	100.44
299.905	103.44
300.136	93.44
300.366	101.44
300.597	79.44
300.827	82.44
301.057	93.44
301.288	103.44
301.518	97.44
301.748	103.44
301.979	99.44
302.209	98.44
302.439	87.44
302.669	83.44
302.9	106.44
303.13	88.44
303.36	109.44
303.59	106.44
303.82	127.44
304.051	85.44
304.281	79.44
304.511	86.44
304.741	104.44
304.971	95.44
305.201	89.44
305.431	70.44
305.661	90.44
305.891	90.44
306.121	101.44
306.352	111.44
306.582	110.44
306.812	102.44
307.042	95.44
307.272	105.44
307.502	137.44
307.731	102.44
307.961	99.44
308.191	101.44
308.421	96.44
308.651	83.44
308.881	93.44
309.111	81.44
309.341	118.44
309.571	101.44
309.8	94.44
310.03	97.44
310.26	98.44
310.49	110.44
310.72	98.44
310.949	124.44
311.179	123.44
311.409	85.44
311.639	93.44
311.868	98.44
312.098	86.44
312.328	112.44
312.557	118.44
312.787	125.44
313.017	105.44
313.246	86.44
313.476	100.44
313.706	90.44
313.935	102.44
314.165	104.44
314.394	111.44
314.624	109.44
314.853	102.44
315.083	86.44
315.312	110.44
315.542	97.44
315.771	90.44
316.001	92.44
316.23	76.44
316.46	94.44
316.689	92.44
316.919	108.44
317.148	97.44
317.377	96.44
317.607	98.44
317.836	98.44
318.065	92.44
318.295	116.44
318.524	91.44
318.753	89.44
318.983	108.44
319.212	89.44
319.441	107.44
319.67	113.44
319.9	97.44
320.129	99.44
320.358	107.44
320.587	107.44
320.816	101.44
321.046	100.44
321.275	93.44
321.504	105.44
321.733	107.44
321.962	102.44
322.191	107.44
322.42	123.44
322.649	121.44
322.878	127.44
323.108	132.44
323.337	154.44
323.566	151.44
323.795	187.44
324.024	282.44
324.253	558.44
324.482	1252.44
324.71	2650.44
324.939	3472.44
325.168	1222.44
325.397	323.44
325.626	183.44
325.855	151.44
326.084	153.44
326.313	152.44
326.542	192.44
326.77	305.44
326.999	650.44
327.228	1435.44
327.457	2679.44
327.686	2069.44
327.914	548.44
328.143	362.44
328.372	391.44
328.6	254.44
328.829	177.44
329.058	172.44
329.287	168.44
329.515	153.44
329.744	201.44
329.972	301.44
330.201	519.44
330.43	687.44
330.658	327.44
330.887	227.44
331.115	171.44
331.344	108.44
331.572	112.44
331.801	108.44
332.03	102.44
332.258	104.44
332.486	92.44
332.715	108.44
332.943	109.44
333.172	116.44
333.4	118.44
333.629	134.44
333.857	167.44
334.085	274.44
334.314	507.44
334.542	925.44
334.771	800.44
334.999	253.44
335.227	123.44
335.455	105.44
335.684	109.44
335.912	98.44
336.14	94.44
336.369	108.44
336.597	108.44
336.825	97.44
337.053	91.44
337.281	101.44
337.51	92.44
337.738	105.44
337.966	104.44
338.194	102.44
338.422	77.44
338.65	93.44
338.878	100.44
339.106	96.44
339.334	106.44
339.562	88.44
339.79	76.44
340.018	101.44
340.246	99.44
340.474	86.44
340.702	84.44
340.93	97.44
341.158	103.44
341.386	98.44
341.614	103.44
341.842	96.44
342.07	114.44
342.298	89.44
342.526	89.44
342.754	84.44
342.981	92.44
343.209	92.44
343.437	83.44
343.665	99.44
343.893	105.44
344.12	95.44
344.348	97.44
344.576	98.44
344.804	84.44
345.031	97.44
345.259	104.44
345.487	110.44
345.714	108.44
345.942	99.44
346.17	109.44
346.397	87.44
346.625	94.44
346.853	95.44
347.08	77.44
347.308	94.44
347.535	104.44
347.763	106.44
347.99	107.44
348.218	130.44
348.445	113.44
348.673	100.44
348.9	79.44
349.128	109.44
349.355	90.44
349.583	90.44
349.81	113.44
350.037	95.44
350.265	99.44
350.492	101.44
350.72	106.44
350.947	100.44
351.174	107.44
351.402	124.44
351.629	118.44
351.856	102.44
352.083	108.44
352.311	115.44
352.538	111.44
352.765	125.44
352.992	117.44
353.22	114.44
353.447	105.44
353.674	96.44
353.901	106.44
354.128	97.44
354.355	90.44
354.583	98.44
354.81	90.44
355.037	98.44
355.264	79.44
355.491	92.44
355.718	90.44
355.945	91.44
356.172	93.44
356.399	88.44
356.626	89.44
356.853	102.44
357.08	106.44
357.307	85.44
357.534	77.44
357.761	98.44
357.988	92.44
358.215	98.44
358.441	93.44
358.668	80.44
358.895	101.44
359.122	99.44
359.349	93.44
359.576	105.44
359.802	122.44
360.029	137.44
360.256	145.44
360.483	125.44
360.709	101.44
360.936	92.44
361.163	108.44
361.39	100.44
361.616	92.44
361.843	96.44
362.07	93.44
362.296	106.44
362.523	93.44
362.749	107.44
362.976	102.44
363.203	95.44
363.429	82.44
363.656	90.44
363.882	72.44
364.109	85.44
364.335	97.44
364.562	90.44
364.788	89.44
365.015	101.44
365.241	97.44
365.468	110.44
365.694	109.44
365.92	95.44
366.147	92.44
366.373	97.44
366.599	95.44
366.826	103.44
367.052	96.44
367.278	101.44
367.505	106.44
367.731	97.44
367.957	92.44
368.184	89.44
368.41	115.44
368.636	127.44
368.862	126.44
369.089	111.44
369.315	100.44
369.541	101.44
369.767	82.44
369.993	94.44
370.219	94.44
370.445	89.44
370.672	93.44
370.898	85.44
371.124	85.44
371.35	92.44
371.576	90.44
371.802	85.44
372.028	92.44
372.254	93.44
372.48	79.44
372.706	89.44
372.932	81.44
373.158	74.44
373.384	92.44
373.61	97.44
373.835	93.44
374.061	84.44
374.287	91.44
374.513	90.44
374.739	93.44
374.965	88.44
375.191	91.44
375.416	92.44
375.642	101.44
375.868	95.44
376.094	98.44
376.319	103.44
376.545	82.44
376.771	91.44
376.997	86.44
377.222	103.44
377.448	80.44
377.674	85.44
377.899	92.44
378.125	80.44
378.35	94.44
378.576	92.44
378.802	91.44
379.027	83.44
379.253	94.44
379.478	88.44
379.704	94.44
379.929	100.44
380.155	101.44
380.38	100.44
380.606	93.44
380.831	106.44
381.057	83.44
381.282	100.44
381.507	95.44
381.733	104.44
381.958	103.44
382.184	107.44
382.409	92.44
382.634	96.44
382.86	102.44
383.085	102.44
383.31	99.44
383.535	89.44
383.761	91.44
383.986	102.44
384.211	109.44
384.436	107.44
384.662	114.44
384.887	90.44
385.112	97.44
385.337	100.44
385.562	99.44
385.787	99.44
386.013	104.44
386.238	116.44
386.463	105.44
386.688	103.44
386.913	98.44
387.138	107.44
387.363	105.44
387.588	111.44
387.813	91.44
388.038	113.44
388.263	117.44
388.488	110.44
388.713	103.44
388.938	91.44
389.163	79.44
389.387	90.44
389.612	83.44
389.837	94.44
390.062	98.44
390.287	98.44
390.512	90.44
390.736	79.44
390.961	99.44
391.186	88.44
391.411	94.44
391.636	89.44
391.86	81.44
392.085	99.44
392.31	80.44
392.534	89.44
392.759	93.44
392.984	86.44
393.208	92.44
393.433	86.44
393.658	90.44
393.882	82.44
394.107	80.44
394.331	74.44
394.556	84.44
394.78	92.44
395.005	85.44
395.229	78.44
395.454	91.44
395.678	90.44
395.903	87.44
396.127	75.44
396.352	98.44
396.576	79.44
396.801	77.44
397.025	78.44
397.249	91.44
397.474	83.44
397.698	90.44
397.922	98.44
398.147	95.44
398.371	89.44
398.595	92.44
398.82	86.44
399.044	97.44
399.268	98.44
399.492	96.44
399.717	96.44
399.941	105.44
400.165	90.44
400.389	92.44
400.613	91.44
400.837	98.44
401.062	91.44
401.286	93.44
401.51	85.44
401.734	86.44
401.958	104.44
402.182	147.44
402.406	176.44
402.63	139.44
402.854	90.44
403.078	105.44
403.302	98.44
403.526	107.44
403.75	87.44
403.974	85.44
404.198	89.44
404.422	94.44
404.645	86.44
404.869	110.44
405.093	129.44
405.317	141.44
405.541	142.44
405.765	131.44
405.988	126.44
406.212	214.44
406.436	246.44
406.66	177.44
406.883	119.44
407.107	109.44
407.331	110.44
407.555	114.44
407.778	125.44
408.002	90.44
408.226	84.44
408.449	86.44
408.673	89.44
408.896	101.44
409.12	97.44
409.344	81.44
409.567	92.44
409.791	85.44
410.014	82.44
410.238	93.44
410.461	90.44
410.685	101.44
410.908	105.44
411.132	108.44
411.355	107.44
411.578	100.44
411.802	92.44
412.025	97.44
412.249	101.44
412.472	107.44
412.695	144.44
412.919	96.44
413.142	98.44
413.365	107.44
413.589	82.44
413.812	89.44
414.035	92.44
414.258	83.44
414.482	91.44
414.705	95.44
414.928	101.44
415.151	81.44
415.374	103.44
415.597	97.44
415.821	97.44
416.044	100.44
416.267	106.44
416.49	85.44
416.713	91.44
416.936	86.44
417.159	86.44
417.382	84.44
417.605	101.44
417.828	98.44
418.051	97.44
418.274	102.44
418.497	74.44
418.72	98.44
418.943	85.44
419.166	91.44
419.389	103.44
419.611	97.44
419.834	90.44
420.057	81.44
420.28	75.44
420.503	90.44
420.726	89.44
420.948	94.44
421.171	101.44
421.394	104.44
421.617	79.44
421.839	78.44
422.062	76.44
422.285	109.44
422.507	116.44
422.73	119.44
422.953	91.44
423.175	84.44
423.398	102.44
423.621	73.44
423.843	74.44
424.066	93.44
424.288	108.44
424.511	101.44
424.733	110.44
424.956	134.44
425.178	100.44
425.401	119.44
425.623	115.44
425.846	91.44
426.068	94.44
426.291	96.44
426.513	87.44
426.735	88.44
426.958	110.44
427.18	120.44
427.402	189.44
427.625	250.44
427.847	215.44
428.069	200.44
428.292	121.44
428.514	98.44
428.736	91.44
428.958	82.44
429.181	90.44
429.403	82.44
429.625	76.44
429.847	87.44
430.069	99.44
430.292	113.44
430.514	88.44
430.736	86.44
430.958	94.44
431.18	79.44
431.402	85.44
431.624	88.44
431.846	82.44
432.068	83.44
432.29	95.44
432.512	97.44
432.734	80.44
432.956	97.44
433.178	118.44
433.4	117.44
433.622	98.44
433.844	79.44
434.066	90.44
434.287	84.44
434.509	94.44
434.731	87.44
434.953	99.44
435.175	80.44
435.397	93.44
435.618	93.44
435.84	123.44
436.062	154.44
436.284	147.44
436.505	114.44
436.727	111.44
436.949	97.44
437.17	95.44
437.392	102.44
437.614	113.44
437.835	133.44
438.057	154.44
438.278	140.44
438.5	131.44
438.721	145.44
438.943	117.44
439.165	105.44
439.386	103.44
439.608	100.44
439.829	108.44
440.05	166.44
440.272	186.44
440.493	117.44
440.715	104.44
440.936	99.44
441.158	97.44
441.379	85.44
441.6	95.44
441.822	113.44
442.043	100.44
442.264	101.44
442.486	98.44
442.707	90.44
442.928	116.44
443.149	158.44
443.371	144.44
443.592	145.44
443.813	125.44
444.034	142.44
444.255	111.44
444.476	106.44
444.698	100.44
444.919	104.44
445.14	137.44
445.361	140.44
445.582	153.44
445.803	195.44
446.024	201.44
446.245	201.44
446.466	146.44
446.687	93.44
446.908	97.44
447.129	98.44
447.35	86.44
447.571	100.44
447.792	99.44
448.013	97.44
448.234	120.44
448.455	113.44
448.675	130.44
448.896	143.44
449.117	107.44
449.338	114.44
449.559	158.44
449.779	169.44
450	107.44
450.221	87.44
450.442	87.44
450.662	92.44
450.883	105.44
451.104	141.44
451.324	116.44
451.545	92.44
451.766	69.44
451.986	78.44
452.207	92.44
452.428	106.44
452.648	105.44
452.869	134.44
453.089	131.44
453.31	125.44
453.53	106.44
453.751	89.44
453.971	116.44
454.192	133.44
454.412	110.44
454.633	78.44
454.853	90.44
455.073	84.44
455.294	99.44
455.514	118.44
455.734	110.44
455.955	87.44
456.175	67.44
456.395	89.44
456.616	93.44
456.836	99.44
457.056	105.44
457.276	80.44
457.497	104.44
457.717	81.44
457.937	88.44
458.157	92.44
458.377	90.44
458.598	123.44
458.818	186.44
459.038	200.44
459.258	157.44
459.478	102.44
459.698	103.44
459.918	101.44
460.138	92.44
460.358	87.44
460.578	99.44
460.798	93.44
461.018	90.44
461.238	88.44
461.458	91.44
461.678	78.44
461.898	90.44
462.118	107.44
462.338	82.44
462.558	92.44
462.777	90.44
462.997	99.44
463.217	97.44
463.437	94.44
463.657	75.44
463.876	94.44
464.096	90.44
464.316	96.44
464.536	94.44
464.755	94.44
464.975	129.44
465.195	226.44
465.414	200.44
465.634	104.44
465.854	105.44
466.073	87.44
466.293	92.44
466.512	101.44
466.732	71.44
466.951	75.44
467.171	93.44
467.391	111.44
467.61	123.44
467.829	151.44
468.049	267.44
468.268	376.44
468.488	135.44
468.707	89.44
468.927	90.44
469.146	91.44
469.365	99.44
469.585	105.44
469.804	108.44
470.023	85.44
470.243	95.44
470.462	110.44
470.681	132.44
470.901	105.44
471.12	97.44
471.339	95.44
471.558	107.44
471.777	116.44
471.997	190.44
472.216	544.44
472.435	1102.44
472.654	307.44
472.873	130.44
473.092	91.44
473.311	92.44
473.53	91.44
473.749	94.44
473.968	89.44
474.187	129.44
474.406	113.44
474.625	108.44
474.844	84.44
475.063	83.44
475.282	94.44
475.501	89.44
475.72	98.44
475.939	88.44
476.158	75.44
476.377	85.44
476.596	102.44
476.814	116.44
477.033	92.44
477.252	77.44
477.471	85.44
477.69	96.44
477.908	90.44
478.127	94.44
478.346	89.44
478.564	102.44
478.783	87.44
479.002	105.44
479.22	96.44
479.439	113.44
479.658	117.44
479.876	123.44
480.095	108.44
480.313	106.44
480.532	131.44
480.751	167.44
480.969	513.44
481.188	1909.44
481.406	1156.44
481.624	213.44
481.843	111.44
482.061	90.44
482.28	92.44
482.498	104.44
482.717	97.44
482.935	100.44
483.153	86.44
483.372	90.44
483.59	84.44
483.808	88.44
484.027	77.44
484.245	106.44
484.463	96.44
484.681	86.44
484.9	90.44
485.118	92.44
485.336	94.44
485.554	93.44
485.772	93.44
485.99	87.44
486.209	99.44
486.427	111.44
486.645	112.44
486.863	126.44
487.081	115.44
487.299	96.44
487.517	83.44
487.735	79.44
487.953	89.44
488.171	101.44
488.389	88.44
488.607	93.44
488.825	88.44
489.043	82.44
489.261	87.44
489.479	78.44
489.696	88.44
489.914	85.44
490.132	86.44
490.35	97.44
490.568	94.44
490.786	88.44
491.003	84.44
491.221	78.44
491.439	104.44
491.657	102.44
491.874	77.44
492.092	89.44
492.31	78.44
492.527	99.44
492.745	101.44
492.963	88.44
493.18	81.44
493.398	88.44
493.615	98.44
493.833	93.44
494.05	88.44
494.268	93.44
494.485	93.44
494.703	87.44
494.92	94.44
495.138	102.44
495.355	83.44
495.573	85.44
495.79	99.44
496.008	98.44
496.225	85.44
496.442	90.44
496.66	92.44
496.877	83.44
497.094	98.44
497.312	104.44
497.529	109.44
497.746	106.44
497.963	100.44
498.181	83.44
498.398	109.44
498.615	110.44
498.832	124.44
499.049	98.44
499.267	99.44
499.484	81.44
499.701	98.44
499.918	101.44
500.135	93.44
500.352	95.44
500.569	90.44
500.786	92.44
501.003	103.44
501.22	84.44
501.437	103.44
501.654	103.44
501.871	120.44
502.088	87.44
502.305	85.44
502.522	77.44
502.739	74.44
502.956	84.44
503.172	91.44
503.389	103.44
503.606	131.44
503.823	102.44
504.04	89.44
504.256	98.44
504.473	85.44
504.69	93.44
504.907	98.44
505.123	81.44
505.34	87.44
505.557	99.44
505.773	83.44
505.99	92.44
506.207	83.44
506.423	87.44
506.64	104.44
506.856	89.44
507.073	84.44
507.289	89.44
507.506	111.44
507.722	134.44
507.939	129.44
508.155	102.44
508.372	105.44
508.588	89.44
508.805	101.44
509.021	102.44
509.238	92.44
509.454	110.44
509.67	102.44
509.887	116.44
510.103	134.44
510.319	200.44
510.536	759.44
510.752	2533.44
510.968	730.44
511.184	170.44
511.401	125.44
511.617	112.44
511.833	107.44
512.049	99.44
512.265	95.44
512.481	90.44
512.698	77.44
512.914	92.44
513.13	92.44
513.346	85.44
