Data from Circ_2015_H10_HRD10591_00050.txt Node
Date: Wed Jan 03 10:00:32 EST 2024
User: Yrep
Spectrometer: HR+D1059
Trigger mode: 1
Integration Time (sec): 1.000000E-1
Scans to average: 1
Electric dark correction enabled: true
Nonlinearity correction enabled: false
Boxcar width: 0
XAxis mode: Wavelengths
Number of Pixels in Spectrum: 2048
>>>>>Begin Spectral Data<<<<<
223.165	-21.88
223.4	-21.88
223.635	-21.88
223.869	-4.88
224.104	-10.88
224.338	-26.88
224.573	-5.88
224.808	-17.88
225.042	0.12
225.277	-14.88
225.511	-9.88
225.746	18.12
225.98	1.12
226.215	13.12
226.449	28.12
226.683	18.12
226.918	8.12
227.152	26.12
227.387	37.12
227.621	42.12
227.856	45.12
228.09	40.12
228.324	49.12
228.559	55.12
228.793	54.12
229.027	69.12
229.262	63.12
229.496	69.12
229.73	54.12
229.964	74.12
230.199	77.12
230.433	77.12
230.667	72.12
230.901	71.12
231.136	67.12
231.37	69.12
231.604	79.12
231.838	77.12
232.072	81.12
232.306	81.12
232.541	79.12
232.775	73.12
233.009	70.12
233.243	61.12
233.477	68.12
233.711	80.12
233.945	55.12
234.179	67.12
234.413	85.12
234.647	79.12
234.881	78.12
235.115	70.12
235.349	79.12
235.583	55.12
235.817	64.12
236.051	73.12
236.285	77.12
236.519	87.12
236.753	68.12
236.987	93.12
237.221	67.12
237.455	72.12
237.689	63.12
237.922	71.12
238.156	88.12
238.39	73.12
238.624	85.12
238.858	72.12
239.091	73.12
239.325	56.12
239.559	75.12
239.793	75.12
240.027	89.12
240.26	78.12
240.494	72.12
240.728	78.12
240.961	86.12
241.195	75.12
241.429	71.12
241.662	77.12
241.896	66.12
242.13	62.12
242.363	71.12
242.597	83.12
242.83	57.12
243.064	78.12
243.298	81.12
243.531	68.12
243.765	69.12
243.998	92.12
244.232	77.12
244.465	69.12
244.699	80.12
244.932	73.12
245.166	74.12
245.399	61.12
245.633	63.12
245.866	63.12
246.099	80.12
246.333	59.12
246.566	72.12
246.8	79.12
247.033	77.12
247.266	65.12
247.5	60.12
247.733	57.12
247.966	68.12
248.2	63.12
248.433	71.12
248.666	77.12
248.899	63.12
249.133	73.12
249.366	94.12
249.599	82.12
249.832	80.12
250.066	72.12
250.299	76.12
250.532	68.12
250.765	79.12
250.998	72.12
251.231	78.12
251.465	69.12
251.698	80.12
251.931	81.12
252.164	73.12
252.397	67.12
252.63	79.12
252.863	93.12
253.096	69.12
253.329	89.12
253.562	73.12
253.795	80.12
254.028	65.12
254.261	66.12
254.494	75.12
254.727	74.12
254.96	91.12
255.193	84.12
255.426	61.12
255.659	59.12
255.892	68.12
256.124	72.12
256.357	81.12
256.59	80.12
256.823	76.12
257.056	75.12
257.289	69.12
257.521	72.12
257.754	84.12
257.987	87.12
258.22	72.12
258.452	75.12
258.685	72.12
258.918	70.12
259.151	75.12
259.383	79.12
259.616	94.12
259.849	81.12
260.081	75.12
260.314	75.12
260.547	95.12
260.779	85.12
261.012	77.12
261.244	94.12
261.477	73.12
261.71	92.12
261.942	78.12
262.175	99.12
262.407	81.12
262.64	75.12
262.872	83.12
263.105	75.12
263.337	72.12
263.57	77.12
263.802	90.12
264.035	91.12
264.267	72.12
264.499	65.12
264.732	71.12
264.964	78.12
265.197	83.12
265.429	65.12
265.661	72.12
265.894	63.12
266.126	85.12
266.358	87.12
266.591	79.12
266.823	72.12
267.055	75.12
267.287	79.12
267.52	87.12
267.752	68.12
267.984	94.12
268.216	73.12
268.448	80.12
268.681	72.12
268.913	95.12
269.145	77.12
269.377	68.12
269.609	79.12
269.841	80.12
270.073	73.12
270.306	63.12
270.538	84.12
270.77	76.12
271.002	89.12
271.234	88.12
271.466	63.12
271.698	81.12
271.93	81.12
272.162	69.12
272.394	86.12
272.626	87.12
272.858	78.12
273.09	76.12
273.322	80.12
273.553	81.12
273.785	77.12
274.017	68.12
274.249	86.12
274.481	79.12
274.713	71.12
274.945	77.12
275.176	87.12
275.408	86.12
275.64	87.12
275.872	80.12
276.104	81.12
276.335	75.12
276.567	86.12
276.799	95.12
277.031	72.12
277.262	87.12
277.494	76.12
277.726	82.12
277.957	83.12
278.189	73.12
278.421	87.12
278.652	88.12
278.884	72.12
279.115	88.12
279.347	69.12
279.579	75.12
279.81	76.12
280.042	80.12
280.273	93.12
280.505	79.12
280.736	84.12
280.968	71.12
281.199	77.12
281.431	77.12
281.662	93.12
281.894	84.12
282.125	92.12
282.356	109.12
282.588	116.12
282.819	99.12
283.051	82.12
283.282	84.12
283.513	76.12
283.745	62.12
283.976	96.12
284.207	86.12
284.439	79.12
284.67	88.12
284.901	76.12
285.132	72.12
285.364	83.12
285.595	90.12
285.826	101.12
286.057	75.12
286.288	69.12
286.52	88.12
286.751	86.12
286.982	68.12
287.213	67.12
287.444	85.12
287.675	76.12
287.906	87.12
288.138	88.12
288.369	82.12
288.6	88.12
288.831	87.12
289.062	86.12
289.293	67.12
289.524	81.12
289.755	93.12
289.986	75.12
290.217	87.12
290.448	82.12
290.679	73.12
290.91	84.12
291.141	77.12
291.371	84.12
291.602	90.12
291.833	80.12
292.064	82.12
292.295	72.12
292.526	86.12
292.757	72.12
292.987	95.12
293.218	82.12
293.449	72.12
293.68	91.12
293.91	78.12
294.141	83.12
294.372	91.12
294.603	81.12
294.833	88.12
295.064	95.12
295.295	92.12
295.525	86.12
295.756	82.12
295.987	85.12
296.217	127.12
296.448	97.12
296.679	81.12
296.909	82.12
297.14	90.12
297.37	88.12
297.601	73.12
297.831	73.12
298.062	67.12
298.292	87.12
298.523	78.12
298.753	97.12
298.984	78.12
299.214	68.12
299.445	83.12
299.675	79.12
299.905	72.12
300.136	95.12
300.366	73.12
300.597	86.12
300.827	94.12
301.057	86.12
301.288	68.12
301.518	85.12
301.748	73.12
301.979	84.12
302.209	98.12
302.439	82.12
302.669	91.12
302.9	91.12
303.13	96.12
303.36	85.12
303.59	97.12
303.82	78.12
304.051	99.12
304.281	83.12
304.511	91.12
304.741	71.12
304.971	76.12
305.201	84.12
305.431	72.12
305.661	96.12
305.891	82.12
306.121	84.12
306.352	89.12
306.582	105.12
306.812	97.12
307.042	86.12
307.272	96.12
307.502	92.12
307.731	88.12
307.961	83.12
308.191	99.12
308.421	89.12
308.651	81.12
308.881	89.12
309.111	102.12
309.341	80.12
309.571	97.12
309.8	84.12
310.03	93.12
310.26	93.12
310.49	91.12
310.72	87.12
310.949	76.12
311.179	71.12
311.409	84.12
311.639	73.12
311.868	87.12
312.098	86.12
312.328	89.12
312.557	87.12
312.787	94.12
313.017	100.12
313.246	91.12
313.476	83.12
313.706	82.12
313.935	83.12
314.165	76.12
314.394	83.12
314.624	96.12
314.853	79.12
315.083	89.12
315.312	75.12
315.542	82.12
315.771	92.12
316.001	77.12
316.23	97.12
316.46	81.12
316.689	82.12
316.919	83.12
317.148	82.12
317.377	87.12
317.607	76.12
317.836	75.12
318.065	82.12
318.295	86.12
318.524	92.12
318.753	89.12
318.983	79.12
319.212	98.12
319.441	97.12
319.67	103.12
319.9	78.12
320.129	97.12
320.358	85.12
320.587	94.12
320.816	95.12
321.046	94.12
321.275	85.12
321.504	81.12
321.733	83.12
321.962	100.12
322.191	95.12
322.42	96.12
322.649	84.12
322.878	102.12
323.108	114.12
323.337	117.12
323.566	108.12
323.795	140.12
324.024	195.12
324.253	352.12
324.482	755.12
324.71	1508.12
324.939	1982.12
325.168	735.12
325.397	204.12
325.626	134.12
325.855	115.12
326.084	120.12
326.313	137.12
326.542	148.12
326.77	199.12
326.999	436.12
327.228	835.12
327.457	1557.12
327.686	1227.12
327.914	335.12
328.143	186.12
328.372	163.12
328.6	125.12
328.829	107.12
329.058	101.12
329.287	112.12
329.515	97.12
329.744	103.12
329.972	120.12
330.201	166.12
330.43	194.12
330.658	140.12
330.887	121.12
331.115	102.12
331.344	86.12
331.572	79.12
331.801	108.12
332.03	92.12
332.258	94.12
332.486	67.12
332.715	95.12
332.943	95.12
333.172	80.12
333.4	91.12
333.629	84.12
333.857	113.12
334.085	123.12
334.314	173.12
334.542	223.12
334.771	233.12
334.999	110.12
335.227	88.12
335.455	88.12
335.684	102.12
335.912	86.12
336.14	90.12
336.369	81.12
336.597	95.12
336.825	99.12
337.053	83.12
337.281	80.12
337.51	96.12
337.738	105.12
337.966	89.12
338.194	102.12
338.422	98.12
338.65	83.12
338.878	88.12
339.106	82.12
339.334	84.12
339.562	87.12
339.79	91.12
340.018	79.12
340.246	94.12
340.474	78.12
340.702	81.12
340.93	79.12
341.158	79.12
341.386	84.12
341.614	82.12
341.842	84.12
342.07	104.12
342.298	92.12
342.526	71.12
342.754	80.12
342.981	93.12
343.209	96.12
343.437	97.12
343.665	82.12
343.893	88.12
344.12	84.12
344.348	79.12
344.576	86.12
344.804	82.12
345.031	85.12
345.259	93.12
345.487	98.12
345.714	95.12
345.942	96.12
346.17	85.12
346.397	79.12
346.625	86.12
346.853	94.12
347.08	96.12
347.308	103.12
347.535	86.12
347.763	87.12
347.99	95.12
348.218	88.12
348.445	92.12
348.673	86.12
348.9	98.12
349.128	83.12
349.355	77.12
349.583	78.12
349.81	96.12
350.037	83.12
350.265	93.12
350.492	82.12
350.72	92.12
350.947	93.12
351.174	95.12
351.402	97.12
351.629	103.12
351.856	86.12
352.083	107.12
352.311	87.12
352.538	91.12
352.765	90.12
352.992	95.12
353.22	85.12
353.447	111.12
353.674	100.12
353.901	87.12
354.128	85.12
354.355	92.12
354.583	107.12
354.81	77.12
355.037	95.12
355.264	92.12
355.491	96.12
355.718	98.12
355.945	90.12
356.172	81.12
356.399	91.12
356.626	85.12
356.853	88.12
357.08	92.12
357.307	88.12
357.534	88.12
357.761	91.12
357.988	82.12
358.215	81.12
358.441	80.12
358.668	73.12
358.895	93.12
359.122	73.12
359.349	87.12
359.576	97.12
359.802	97.12
360.029	102.12
360.256	99.12
360.483	79.12
360.709	77.12
360.936	89.12
361.163	100.12
361.39	102.12
361.616	92.12
361.843	85.12
362.07	98.12
362.296	88.12
362.523	85.12
362.749	84.12
362.976	83.12
363.203	78.12
363.429	81.12
363.656	89.12
363.882	91.12
364.109	88.12
364.335	100.12
364.562	86.12
364.788	96.12
365.015	83.12
365.241	83.12
365.468	91.12
365.694	78.12
365.92	93.12
366.147	84.12
366.373	73.12
366.599	75.12
366.826	86.12
367.052	97.12
367.278	86.12
367.505	87.12
367.731	83.12
367.957	76.12
368.184	83.12
368.41	98.12
368.636	90.12
368.862	119.12
369.089	100.12
369.315	86.12
369.541	77.12
369.767	67.12
369.993	83.12
370.219	91.12
370.445	86.12
370.672	86.12
370.898	82.12
371.124	78.12
371.35	73.12
371.576	86.12
371.802	83.12
372.028	83.12
372.254	66.12
372.48	91.12
372.706	79.12
372.932	81.12
373.158	85.12
373.384	94.12
373.61	87.12
373.835	87.12
374.061	86.12
374.287	76.12
374.513	85.12
374.739	93.12
374.965	76.12
375.191	70.12
375.416	85.12
375.642	83.12
375.868	76.12
376.094	79.12
376.319	77.12
376.545	91.12
376.771	94.12
376.997	76.12
377.222	84.12
377.448	95.12
377.674	72.12
377.899	81.12
378.125	85.12
378.35	101.12
378.576	89.12
378.802	94.12
379.027	78.12
379.253	87.12
379.478	78.12
379.704	76.12
379.929	80.12
380.155	92.12
380.38	84.12
380.606	92.12
380.831	93.12
381.057	97.12
381.282	76.12
381.507	94.12
381.733	73.12
381.958	88.12
382.184	91.12
382.409	93.12
382.634	94.12
382.86	79.12
383.085	88.12
383.31	94.12
383.535	95.12
383.761	88.12
383.986	86.12
384.211	92.12
384.436	96.12
384.662	113.12
384.887	108.12
385.112	93.12
385.337	96.12
385.562	97.12
385.787	103.12
386.013	92.12
386.238	126.12
386.463	109.12
386.688	98.12
386.913	103.12
387.138	103.12
387.363	99.12
387.588	101.12
387.813	111.12
388.038	100.12
388.263	105.12
388.488	101.12
388.713	97.12
388.938	85.12
389.163	86.12
389.387	90.12
389.612	84.12
389.837	89.12
390.062	80.12
390.287	72.12
390.512	92.12
390.736	89.12
390.961	80.12
391.186	91.12
391.411	87.12
391.636	72.12
391.86	79.12
392.085	87.12
392.31	73.12
392.534	93.12
392.759	85.12
392.984	74.12
393.208	81.12
393.433	89.12
393.658	77.12
393.882	72.12
394.107	95.12
394.331	87.12
394.556	93.12
394.78	78.12
395.005	91.12
395.229	81.12
395.454	82.12
395.678	80.12
395.903	81.12
396.127	86.12
396.352	80.12
396.576	74.12
396.801	88.12
397.025	89.12
397.249	86.12
397.474	84.12
397.698	92.12
397.922	80.12
398.147	85.12
398.371	70.12
398.595	79.12
398.82	73.12
399.044	84.12
399.268	65.12
399.492	81.12
399.717	80.12
399.941	84.12
400.165	96.12
400.389	85.12
400.613	85.12
400.837	86.12
401.062	83.12
401.286	91.12
401.51	92.12
401.734	92.12
401.958	95.12
402.182	112.12
402.406	118.12
402.63	103.12
402.854	87.12
403.078	75.12
403.302	79.12
403.526	79.12
403.75	85.12
403.974	74.12
404.198	81.12
404.422	92.12
404.645	83.12
404.869	76.12
405.093	71.12
405.317	106.12
405.541	98.12
405.765	112.12
405.988	130.12
406.212	143.12
406.436	181.12
406.66	113.12
406.883	108.12
407.107	90.12
407.331	89.12
407.555	102.12
407.778	87.12
408.002	93.12
408.226	76.12
408.449	84.12
408.673	92.12
408.896	101.12
409.12	83.12
409.344	94.12
409.567	75.12
409.791	91.12
410.014	92.12
410.238	73.12
410.461	78.12
410.685	84.12
410.908	96.12
411.132	102.12
411.355	92.12
411.578	78.12
411.802	79.12
412.025	89.12
412.249	82.12
412.472	86.12
412.695	92.12
412.919	79.12
413.142	76.12
413.365	66.12
413.589	82.12
413.812	82.12
414.035	76.12
414.258	81.12
414.482	80.12
414.705	85.12
414.928	95.12
415.151	77.12
415.374	86.12
415.597	86.12
415.821	73.12
416.044	71.12
416.267	72.12
416.49	83.12
416.713	91.12
416.936	73.12
417.159	85.12
417.382	90.12
417.605	89.12
417.828	83.12
418.051	83.12
418.274	74.12
418.497	77.12
418.72	72.12
418.943	79.12
419.166	89.12
419.389	87.12
419.611	72.12
419.834	78.12
420.057	83.12
420.28	81.12
420.503	94.12
420.726	72.12
420.948	76.12
421.171	76.12
421.394	82.12
421.617	76.12
421.839	92.12
422.062	89.12
422.285	93.12
422.507	99.12
422.73	100.12
422.953	100.12
423.175	83.12
423.398	85.12
423.621	88.12
423.843	72.12
424.066	88.12
424.288	78.12
424.511	86.12
424.733	93.12
424.956	87.12
425.178	103.12
425.401	84.12
425.623	85.12
425.846	84.12
426.068	72.12
426.291	89.12
426.513	100.12
426.735	92.12
426.958	91.12
427.18	99.12
427.402	119.12
427.625	146.12
427.847	119.12
428.069	104.12
428.292	94.12
428.514	89.12
428.736	83.12
428.958	81.12
429.181	84.12
429.403	72.12
429.625	89.12
429.847	84.12
430.069	80.12
430.292	81.12
430.514	78.12
430.736	81.12
430.958	95.12
431.18	89.12
431.402	74.12
431.624	80.12
431.846	76.12
432.068	77.12
432.29	54.12
432.512	91.12
432.734	75.12
432.956	87.12
433.178	99.12
433.4	95.12
433.622	93.12
433.844	107.12
434.066	93.12
434.287	80.12
434.509	83.12
434.731	87.12
434.953	88.12
435.175	91.12
435.397	86.12
435.618	100.12
435.84	93.12
436.062	100.12
436.284	99.12
436.505	88.12
436.727	96.12
436.949	100.12
437.17	88.12
437.392	87.12
437.614	85.12
437.835	95.12
438.057	96.12
438.278	93.12
438.5	84.12
438.721	103.12
438.943	86.12
439.165	84.12
439.386	75.12
439.608	91.12
439.829	83.12
440.05	99.12
440.272	119.12
440.493	91.12
440.715	77.12
440.936	79.12
441.158	86.12
441.379	93.12
441.6	78.12
441.822	84.12
442.043	94.12
442.264	97.12
442.486	93.12
442.707	92.12
442.928	89.12
443.149	103.12
443.371	117.12
443.592	112.12
443.813	108.12
444.034	85.12
444.255	88.12
444.476	68.12
444.698	88.12
444.919	88.12
445.14	114.12
445.361	112.12
445.582	103.12
445.803	126.12
446.024	119.12
446.245	120.12
446.466	108.12
446.687	83.12
446.908	73.12
447.129	85.12
447.35	90.12
447.571	89.12
447.792	76.12
448.013	91.12
448.234	87.12
448.455	87.12
448.675	95.12
448.896	113.12
449.117	88.12
449.338	92.12
449.559	123.12
449.779	115.12
450	91.12
450.221	79.12
450.442	78.12
450.662	73.12
450.883	91.12
451.104	116.12
451.324	87.12
451.545	83.12
451.766	84.12
451.986	82.12
452.207	81.12
452.428	73.12
452.648	81.12
452.869	101.12
453.089	98.12
453.31	105.12
453.53	96.12
453.751	94.12
453.971	86.12
454.192	100.12
454.412	83.12
454.633	83.12
454.853	90.12
455.073	91.12
455.294	65.12
455.514	94.12
455.734	92.12
455.955	81.12
456.175	90.12
456.395	67.12
456.616	96.12
456.836	85.12
457.056	76.12
457.276	88.12
457.497	83.12
457.717	79.12
457.937	83.12
458.157	77.12
458.377	84.12
458.598	104.12
458.818	123.12
459.038	124.12
459.258	102.12
459.478	99.12
459.698	80.12
459.918	70.12
460.138	83.12
460.358	78.12
460.578	101.12
460.798	77.12
461.018	87.12
461.238	67.12
461.458	77.12
461.678	83.12
461.898	84.12
462.118	78.12
462.338	76.12
462.558	88.12
462.777	74.12
462.997	83.12
463.217	64.12
463.437	78.12
463.657	79.12
463.876	83.12
464.096	74.12
464.316	71.12
464.536	77.12
464.755	100.12
464.975	97.12
465.195	115.12
465.414	133.12
465.634	91.12
465.854	75.12
466.073	74.12
466.293	82.12
466.512	92.12
466.732	79.12
466.951	73.12
467.171	95.12
467.391	92.12
467.61	94.12
467.829	96.12
468.049	133.12
468.268	153.12
468.488	85.12
468.707	81.12
468.927	77.12
469.146	66.12
469.365	80.12
469.585	88.12
469.804	92.12
470.023	99.12
470.243	76.12
470.462	101.12
470.681	90.12
470.901	78.12
471.12	79.12
471.339	78.12
471.558	69.12
471.777	85.12
471.997	102.12
472.216	182.12
472.435	301.12
472.654	133.12
472.873	96.12
473.092	80.12
473.311	84.12
473.53	78.12
473.749	93.12
473.968	81.12
474.187	104.12
474.406	107.12
474.625	76.12
474.844	83.12
475.063	64.12
475.282	78.12
475.501	76.12
475.72	88.12
475.939	78.12
476.158	82.12
476.377	78.12
476.596	78.12
476.814	75.12
477.033	84.12
477.252	99.12
477.471	86.12
477.69	82.12
477.908	88.12
478.127	75.12
478.346	84.12
478.564	84.12
478.783	79.12
479.002	85.12
479.22	90.12
479.439	92.12
479.658	92.12
479.876	96.12
480.095	96.12
480.313	91.12
480.532	93.12
480.751	98.12
480.969	174.12
481.188	477.12
481.406	313.12
481.624	113.12
481.843	86.12
482.061	84.12
482.28	83.12
482.498	81.12
482.717	77.12
482.935	83.12
483.153	81.12
483.372	74.12
483.59	81.12
483.808	69.12
484.027	94.12
484.245	79.12
484.463	91.12
484.681	91.12
484.9	86.12
485.118	79.12
485.336	79.12
485.554	99.12
485.772	86.12
485.99	100.12
486.209	97.12
486.427	91.12
486.645	119.12
486.863	92.12
487.081	96.12
487.299	86.12
487.517	82.12
487.735	91.12
487.953	80.12
488.171	79.12
488.389	83.12
488.607	79.12
488.825	90.12
489.043	75.12
489.261	91.12
489.479	85.12
489.696	85.12
489.914	85.12
490.132	90.12
490.35	91.12
490.568	93.12
490.786	71.12
491.003	96.12
491.221	84.12
491.439	84.12
491.657	80.12
491.874	85.12
492.092	84.12
492.31	89.12
492.527	87.12
492.745	102.12
492.963	77.12
493.18	84.12
493.398	91.12
493.615	95.12
493.833	83.12
494.05	85.12
494.268	95.12
494.485	70.12
494.703	80.12
494.92	80.12
495.138	84.12
495.355	93.12
495.573	85.12
495.79	80.12
496.008	71.12
496.225	87.12
496.442	78.12
496.66	91.12
496.877	80.12
497.094	100.12
497.312	85.12
497.529	87.12
497.746	98.12
497.963	81.12
498.181	85.12
498.398	112.12
498.615	119.12
498.832	96.12
499.049	89.12
499.267	99.12
499.484	96.12
499.701	97.12
499.918	72.12
500.135	79.12
500.352	93.12
500.569	85.12
500.786	86.12
501.003	77.12
501.22	73.12
501.437	85.12
501.654	80.12
501.871	112.12
502.088	86.12
502.305	88.12
502.522	87.12
502.739	93.12
502.956	83.12
503.172	81.12
503.389	90.12
503.606	88.12
503.823	85.12
504.04	85.12
504.256	78.12
504.473	67.12
504.69	82.12
504.907	96.12
505.123	73.12
505.34	68.12
505.557	83.12
505.773	93.12
505.99	83.12
506.207	82.12
506.423	63.12
506.64	86.12
506.856	85.12
507.073	91.12
507.289	97.12
507.506	87.12
507.722	99.12
507.939	97.12
508.155	87.12
508.372	87.12
508.588	77.12
508.805	96.12
509.021	81.12
509.238	82.12
509.454	89.12
509.67	88.12
509.887	97.12
510.103	117.12
510.319	174.12
510.536	639.12
510.752	2018.12
510.968	590.12
511.184	126.12
511.401	100.12
511.617	87.12
511.833	84.12
512.049	85.12
512.265	87.12
512.481	90.12
512.698	89.12
512.914	92.12
513.13	92.12
513.346	92.12
513.562	84.12
513.778	80.12
513.994	91.12
514.21	92.12
514.426	107.12
514.642	123.12
514.858	109.12
515.074	135.12
515.29	337.12
515.506	1179.12
515.721	484.12
515.937	135.12
516.153	102.12
516.369	94.12
516.585	96.12
516.801	93.12
517.016	79.12
517.232	81.12
517.448	83.12
517.664	77.12
