Data from Circ_2015_H10_HRD10591_00027.txt Node
Date: Wed Jan 03 10:00:28 EST 2024
User: Yrep
Spectrometer: HR+D1059
Trigger mode: 1
Integration Time (sec): 1.000000E-1
Scans to average: 1
Electric dark correction enabled: true
Nonlinearity correction enabled: false
Boxcar width: 0
XAxis mode: Wavelengths
Number of Pixels in Spectrum: 2048
>>>>>Begin Spectral Data<<<<<
223.165	-7.81
223.4	-7.81
223.635	-7.81
223.869	-23.81
224.104	-17.81
224.338	-21.81
224.573	-29.81
224.808	-20.81
225.042	2.19
225.277	0.19
225.511	6.19
225.746	-1.81
225.98	3.19
226.215	19.19
226.449	18.19
226.683	10.19
226.918	31.19
227.152	33.19
227.387	36.19
227.621	39.19
227.856	38.19
228.09	41.19
228.324	44.19
228.559	52.19
228.793	45.19
229.027	67.19
229.262	74.19
229.496	64.19
229.73	74.19
229.964	76.19
230.199	73.19
230.433	74.19
230.667	72.19
230.901	72.19
231.136	77.19
231.37	77.19
231.604	81.19
231.838	88.19
232.072	87.19
232.306	93.19
232.541	88.19
232.775	76.19
233.009	96.19
233.243	82.19
233.477	78.19
233.711	92.19
233.945	86.19
234.179	77.19
234.413	81.19
234.647	78.19
234.881	79.19
235.115	96.19
235.349	91.19
235.583	76.19
235.817	82.19
236.051	68.19
236.285	68.19
236.519	82.19
236.753	70.19
236.987	79.19
237.221	75.19
237.455	77.19
237.689	76.19
237.922	88.19
238.156	68.19
238.39	75.19
238.624	75.19
238.858	92.19
239.091	76.19
239.325	78.19
239.559	75.19
239.793	83.19
240.027	81.19
240.26	73.19
240.494	73.19
240.728	88.19
240.961	77.19
241.195	69.19
241.429	77.19
241.662	84.19
241.896	76.19
242.13	75.19
242.363	82.19
242.597	57.19
242.83	70.19
243.064	65.19
243.298	94.19
243.531	80.19
243.765	82.19
243.998	72.19
244.232	80.19
244.465	75.19
244.699	78.19
244.932	84.19
245.166	79.19
245.399	73.19
245.633	71.19
245.866	71.19
246.099	76.19
246.333	72.19
246.566	76.19
246.8	76.19
247.033	72.19
247.266	85.19
247.5	67.19
247.733	84.19
247.966	73.19
248.2	81.19
248.433	78.19
248.666	81.19
248.899	83.19
249.133	79.19
249.366	99.19
249.599	96.19
249.832	75.19
250.066	84.19
250.299	81.19
250.532	76.19
250.765	73.19
250.998	73.19
251.231	64.19
251.465	73.19
251.698	92.19
251.931	90.19
252.164	73.19
252.397	75.19
252.63	97.19
252.863	80.19
253.096	68.19
253.329	93.19
253.562	84.19
253.795	78.19
254.028	94.19
254.261	74.19
254.494	84.19
254.727	70.19
254.96	78.19
255.193	83.19
255.426	76.19
255.659	78.19
255.892	82.19
256.124	85.19
256.357	76.19
256.59	91.19
256.823	79.19
257.056	73.19
257.289	85.19
257.521	85.19
257.754	78.19
257.987	86.19
258.22	79.19
258.452	78.19
258.685	72.19
258.918	67.19
259.151	81.19
259.383	82.19
259.616	77.19
259.849	78.19
260.081	82.19
260.314	79.19
260.547	81.19
260.779	92.19
261.012	84.19
261.244	82.19
261.477	87.19
261.71	82.19
261.942	102.19
262.175	91.19
262.407	82.19
262.64	79.19
262.872	75.19
263.105	90.19
263.337	87.19
263.57	90.19
263.802	94.19
264.035	90.19
264.267	83.19
264.499	84.19
264.732	88.19
264.964	95.19
265.197	87.19
265.429	81.19
265.661	77.19
265.894	76.19
266.126	84.19
266.358	81.19
266.591	84.19
266.823	77.19
267.055	77.19
267.287	85.19
267.52	74.19
267.752	78.19
267.984	77.19
268.216	90.19
268.448	78.19
268.681	82.19
268.913	82.19
269.145	81.19
269.377	84.19
269.609	68.19
269.841	92.19
270.073	95.19
270.306	86.19
270.538	94.19
270.77	92.19
271.002	89.19
271.234	66.19
271.466	81.19
271.698	90.19
271.93	85.19
272.162	85.19
272.394	92.19
272.626	76.19
272.858	90.19
273.09	80.19
273.322	88.19
273.553	94.19
273.785	87.19
274.017	83.19
274.249	86.19
274.481	77.19
274.713	76.19
274.945	83.19
275.176	91.19
275.408	93.19
275.64	90.19
275.872	83.19
276.104	91.19
276.335	94.19
276.567	82.19
276.799	106.19
277.031	112.19
277.262	101.19
277.494	83.19
277.726	90.19
277.957	91.19
278.189	94.19
278.421	84.19
278.652	79.19
278.884	94.19
279.115	90.19
279.347	92.19
279.579	83.19
279.81	80.19
280.042	97.19
280.273	99.19
280.505	96.19
280.736	78.19
280.968	87.19
281.199	79.19
281.431	94.19
281.662	88.19
281.894	90.19
282.125	108.19
282.356	118.19
282.588	114.19
282.819	110.19
283.051	93.19
283.282	91.19
283.513	91.19
283.745	87.19
283.976	81.19
284.207	84.19
284.439	89.19
284.67	89.19
284.901	78.19
285.132	88.19
285.364	92.19
285.595	89.19
285.826	90.19
286.057	84.19
286.288	82.19
286.52	92.19
286.751	92.19
286.982	86.19
287.213	95.19
287.444	88.19
287.675	89.19
287.906	98.19
288.138	96.19
288.369	87.19
288.6	80.19
288.831	89.19
289.062	88.19
289.293	77.19
289.524	77.19
289.755	87.19
289.986	88.19
290.217	87.19
290.448	88.19
290.679	90.19
290.91	94.19
291.141	86.19
291.371	80.19
291.602	92.19
291.833	81.19
292.064	80.19
292.295	77.19
292.526	82.19
292.757	94.19
292.987	87.19
293.218	89.19
293.449	99.19
293.68	93.19
293.91	89.19
294.141	91.19
294.372	87.19
294.603	69.19
294.833	93.19
295.064	89.19
295.295	78.19
295.525	80.19
295.756	96.19
295.987	105.19
296.217	136.19
296.448	120.19
296.679	90.19
296.909	92.19
297.14	84.19
297.37	88.19
297.601	102.19
297.831	93.19
298.062	91.19
298.292	76.19
298.523	81.19
298.753	104.19
298.984	82.19
299.214	76.19
299.445	97.19
299.675	82.19
299.905	88.19
300.136	80.19
300.366	92.19
300.597	92.19
300.827	90.19
301.057	87.19
301.288	89.19
301.518	88.19
301.748	81.19
301.979	104.19
302.209	80.19
302.439	84.19
302.669	75.19
302.9	93.19
303.13	103.19
303.36	99.19
303.59	102.19
303.82	107.19
304.051	99.19
304.281	85.19
304.511	82.19
304.741	94.19
304.971	82.19
305.201	93.19
305.431	91.19
305.661	98.19
305.891	92.19
306.121	97.19
306.352	99.19
306.582	108.19
306.812	88.19
307.042	93.19
307.272	107.19
307.502	104.19
307.731	94.19
307.961	101.19
308.191	70.19
308.421	85.19
308.651	94.19
308.881	101.19
309.111	93.19
309.341	90.19
309.571	94.19
309.8	97.19
310.03	92.19
310.26	94.19
310.49	110.19
310.72	113.19
310.949	103.19
311.179	89.19
311.409	102.19
311.639	92.19
311.868	88.19
312.098	82.19
312.328	86.19
312.557	105.19
312.787	93.19
313.017	91.19
313.246	90.19
313.476	83.19
313.706	85.19
313.935	93.19
314.165	86.19
314.394	73.19
314.624	88.19
314.853	91.19
315.083	96.19
315.312	91.19
315.542	84.19
315.771	87.19
316.001	100.19
316.23	104.19
316.46	98.19
316.689	74.19
316.919	81.19
317.148	88.19
317.377	76.19
317.607	84.19
317.836	94.19
318.065	92.19
318.295	90.19
318.524	80.19
318.753	98.19
318.983	98.19
319.212	94.19
319.441	83.19
319.67	105.19
319.9	91.19
320.129	99.19
320.358	92.19
320.587	91.19
320.816	102.19
321.046	102.19
321.275	100.19
321.504	87.19
321.733	102.19
321.962	100.19
322.191	102.19
322.42	102.19
322.649	99.19
322.878	109.19
323.108	119.19
323.337	112.19
323.566	126.19
323.795	148.19
324.024	181.19
324.253	348.19
324.482	740.19
324.71	1520.19
324.939	1970.19
325.168	749.19
325.397	230.19
325.626	136.19
325.855	108.19
326.084	123.19
326.313	148.19
326.542	135.19
326.77	214.19
326.999	419.19
327.228	856.19
327.457	1577.19
327.686	1232.19
327.914	333.19
328.143	186.19
328.372	162.19
328.6	140.19
328.829	112.19
329.058	131.19
329.287	117.19
329.515	109.19
329.744	110.19
329.972	130.19
330.201	152.19
330.43	166.19
330.658	146.19
330.887	136.19
331.115	120.19
331.344	109.19
331.572	103.19
331.801	98.19
332.03	91.19
332.258	101.19
332.486	91.19
332.715	97.19
332.943	90.19
333.172	84.19
333.4	93.19
333.629	98.19
333.857	124.19
334.085	112.19
334.314	154.19
334.542	215.19
334.771	177.19
334.999	119.19
335.227	91.19
335.455	99.19
335.684	80.19
335.912	94.19
336.14	94.19
336.369	92.19
336.597	92.19
336.825	90.19
337.053	89.19
337.281	77.19
337.51	90.19
337.738	88.19
337.966	81.19
338.194	84.19
338.422	91.19
338.65	91.19
338.878	94.19
339.106	77.19
339.334	82.19
339.562	84.19
339.79	83.19
340.018	84.19
340.246	85.19
340.474	90.19
340.702	95.19
340.93	79.19
341.158	96.19
341.386	97.19
341.614	88.19
341.842	86.19
342.07	91.19
342.298	89.19
342.526	99.19
342.754	89.19
342.981	95.19
343.209	82.19
343.437	90.19
343.665	92.19
343.893	86.19
344.12	92.19
344.348	91.19
344.576	96.19
344.804	93.19
345.031	91.19
345.259	97.19
345.487	96.19
345.714	94.19
345.942	88.19
346.17	99.19
346.397	79.19
346.625	95.19
346.853	90.19
347.08	100.19
347.308	96.19
347.535	92.19
347.763	97.19
347.99	85.19
348.218	107.19
348.445	100.19
348.673	88.19
348.9	93.19
349.128	93.19
349.355	94.19
349.583	85.19
349.81	106.19
350.037	105.19
350.265	98.19
350.492	94.19
350.72	89.19
350.947	100.19
351.174	107.19
351.402	98.19
351.629	98.19
351.856	93.19
352.083	105.19
352.311	97.19
352.538	117.19
352.765	107.19
352.992	116.19
353.22	91.19
353.447	99.19
353.674	116.19
353.901	100.19
354.128	97.19
354.355	89.19
354.583	92.19
354.81	105.19
355.037	90.19
355.264	99.19
355.491	95.19
355.718	95.19
355.945	98.19
356.172	90.19
356.399	106.19
356.626	92.19
356.853	85.19
357.08	84.19
357.307	79.19
357.534	89.19
357.761	83.19
357.988	84.19
358.215	83.19
358.441	92.19
358.668	81.19
358.895	101.19
359.122	101.19
359.349	81.19
359.576	98.19
359.802	94.19
360.029	101.19
360.256	118.19
360.483	96.19
360.709	102.19
360.936	94.19
361.163	89.19
361.39	103.19
361.616	100.19
361.843	92.19
362.07	79.19
362.296	93.19
362.523	82.19
362.749	91.19
362.976	88.19
363.203	86.19
363.429	78.19
363.656	92.19
363.882	80.19
364.109	93.19
364.335	86.19
364.562	102.19
364.788	93.19
365.015	92.19
365.241	95.19
365.468	88.19
365.694	102.19
365.92	88.19
366.147	91.19
366.373	102.19
366.599	79.19
366.826	77.19
367.052	74.19
367.278	91.19
367.505	93.19
367.731	92.19
367.957	89.19
368.184	99.19
368.41	93.19
368.636	113.19
368.862	113.19
369.089	85.19
369.315	89.19
369.541	92.19
369.767	91.19
369.993	88.19
370.219	81.19
370.445	69.19
370.672	86.19
370.898	76.19
371.124	84.19
371.35	83.19
371.576	88.19
371.802	75.19
372.028	97.19
372.254	76.19
372.48	78.19
372.706	83.19
372.932	76.19
373.158	85.19
373.384	88.19
373.61	90.19
373.835	85.19
374.061	85.19
374.287	87.19
374.513	96.19
374.739	78.19
374.965	85.19
375.191	94.19
375.416	84.19
375.642	80.19
375.868	94.19
376.094	89.19
376.319	79.19
376.545	91.19
376.771	90.19
376.997	75.19
377.222	93.19
377.448	104.19
377.674	68.19
377.899	89.19
378.125	107.19
378.35	90.19
378.576	78.19
378.802	86.19
379.027	96.19
379.253	96.19
379.478	105.19
379.704	74.19
379.929	94.19
380.155	92.19
380.38	96.19
380.606	92.19
380.831	89.19
381.057	82.19
381.282	100.19
381.507	92.19
381.733	91.19
381.958	72.19
382.184	94.19
382.409	81.19
382.634	91.19
382.86	101.19
383.085	99.19
383.31	98.19
383.535	103.19
383.761	92.19
383.986	95.19
384.211	101.19
384.436	96.19
384.662	104.19
384.887	94.19
385.112	107.19
385.337	106.19
385.562	109.19
385.787	102.19
386.013	94.19
386.238	102.19
386.463	115.19
386.688	99.19
386.913	115.19
387.138	109.19
387.363	92.19
387.588	85.19
387.813	103.19
388.038	94.19
388.263	121.19
388.488	114.19
388.713	103.19
388.938	90.19
389.163	90.19
389.387	93.19
389.612	75.19
389.837	78.19
390.062	100.19
390.287	95.19
390.512	86.19
390.736	93.19
390.961	97.19
391.186	91.19
391.411	82.19
391.636	85.19
391.86	90.19
392.085	84.19
392.31	82.19
392.534	85.19
392.759	73.19
392.984	86.19
393.208	96.19
393.433	110.19
393.658	88.19
393.882	79.19
394.107	83.19
394.331	89.19
394.556	91.19
394.78	81.19
395.005	79.19
395.229	69.19
395.454	81.19
395.678	86.19
395.903	86.19
396.127	106.19
396.352	87.19
396.576	78.19
396.801	89.19
397.025	94.19
397.249	95.19
397.474	78.19
397.698	57.19
397.922	85.19
398.147	86.19
398.371	86.19
398.595	81.19
398.82	82.19
399.044	77.19
399.268	80.19
399.492	73.19
399.717	73.19
399.941	102.19
400.165	93.19
400.389	95.19
400.613	85.19
400.837	76.19
401.062	89.19
401.286	81.19
401.51	70.19
401.734	93.19
401.958	98.19
402.182	119.19
402.406	132.19
402.63	101.19
402.854	84.19
403.078	74.19
403.302	71.19
403.526	89.19
403.75	71.19
403.974	91.19
404.198	84.19
404.422	86.19
404.645	77.19
404.869	83.19
405.093	92.19
405.317	110.19
405.541	96.19
405.765	97.19
405.988	96.19
406.212	149.19
406.436	204.19
406.66	123.19
406.883	104.19
407.107	84.19
407.331	71.19
407.555	84.19
407.778	88.19
408.002	79.19
408.226	83.19
408.449	86.19
408.673	84.19
408.896	100.19
409.12	85.19
409.344	74.19
409.567	84.19
409.791	98.19
410.014	94.19
410.238	89.19
410.461	99.19
410.685	99.19
410.908	86.19
411.132	113.19
411.355	104.19
411.578	92.19
411.802	89.19
412.025	84.19
412.249	93.19
412.472	99.19
412.695	98.19
412.919	85.19
413.142	85.19
413.365	83.19
413.589	102.19
413.812	99.19
414.035	93.19
414.258	75.19
414.482	84.19
414.705	83.19
414.928	99.19
415.151	93.19
415.374	90.19
415.597	94.19
415.821	90.19
416.044	99.19
416.267	74.19
416.49	72.19
416.713	100.19
416.936	82.19
417.159	90.19
417.382	83.19
417.605	86.19
417.828	82.19
418.051	93.19
418.274	90.19
418.497	80.19
418.72	85.19
418.943	86.19
419.166	96.19
419.389	92.19
419.611	95.19
419.834	78.19
420.057	79.19
420.28	76.19
420.503	81.19
420.726	85.19
420.948	88.19
421.171	105.19
421.394	88.19
421.617	85.19
421.839	97.19
422.062	94.19
422.285	84.19
422.507	91.19
422.73	109.19
422.953	89.19
423.175	82.19
423.398	83.19
423.621	89.19
423.843	73.19
424.066	80.19
424.288	80.19
424.511	96.19
424.733	101.19
424.956	104.19
425.178	106.19
425.401	92.19
425.623	97.19
425.846	86.19
426.068	71.19
426.291	97.19
426.513	80.19
426.735	99.19
426.958	74.19
427.18	102.19
427.402	129.19
427.625	148.19
427.847	119.19
428.069	124.19
428.292	86.19
428.514	87.19
428.736	89.19
428.958	76.19
429.181	94.19
429.403	78.19
429.625	70.19
429.847	84.19
430.069	100.19
430.292	98.19
430.514	74.19
430.736	79.19
430.958	85.19
431.18	77.19
431.402	66.19
431.624	81.19
431.846	90.19
432.068	76.19
432.29	89.19
432.512	84.19
432.734	85.19
432.956	101.19
433.178	87.19
433.4	101.19
433.622	84.19
433.844	89.19
434.066	82.19
434.287	88.19
434.509	91.19
434.731	82.19
434.953	73.19
435.175	71.19
435.397	86.19
435.618	83.19
435.84	97.19
436.062	89.19
436.284	93.19
436.505	96.19
436.727	109.19
436.949	101.19
437.17	83.19
437.392	84.19
437.614	97.19
437.835	96.19
438.057	113.19
438.278	93.19
438.5	96.19
438.721	97.19
438.943	96.19
439.165	105.19
439.386	78.19
439.608	90.19
439.829	95.19
440.05	105.19
440.272	131.19
440.493	96.19
440.715	80.19
440.936	85.19
441.158	97.19
441.379	81.19
441.6	69.19
441.822	76.19
442.043	83.19
442.264	93.19
442.486	93.19
442.707	98.19
442.928	82.19
443.149	119.19
443.371	127.19
443.592	79.19
443.813	91.19
444.034	98.19
444.255	86.19
444.476	89.19
444.698	96.19
444.919	90.19
445.14	148.19
445.361	124.19
445.582	85.19
445.803	127.19
446.024	113.19
446.245	125.19
446.466	113.19
446.687	89.19
446.908	98.19
447.129	85.19
447.35	72.19
447.571	86.19
447.792	93.19
448.013	95.19
448.234	102.19
448.455	74.19
448.675	97.19
448.896	120.19
449.117	94.19
449.338	98.19
449.559	121.19
449.779	120.19
450	82.19
450.221	81.19
450.442	76.19
450.662	84.19
450.883	94.19
451.104	71.19
451.324	71.19
451.545	78.19
451.766	81.19
451.986	83.19
452.207	91.19
452.428	102.19
452.648	109.19
452.869	112.19
453.089	104.19
453.31	121.19
453.53	108.19
453.751	100.19
453.971	101.19
454.192	91.19
454.412	78.19
454.633	66.19
454.853	88.19
455.073	84.19
455.294	104.19
455.514	92.19
455.734	104.19
455.955	85.19
456.175	91.19
456.395	77.19
456.616	88.19
456.836	93.19
457.056	92.19
457.276	98.19
457.497	77.19
457.717	80.19
457.937	85.19
458.157	78.19
458.377	88.19
458.598	91.19
458.818	130.19
459.038	128.19
459.258	112.19
459.478	77.19
459.698	82.19
459.918	71.19
460.138	90.19
460.358	83.19
460.578	78.19
460.798	88.19
461.018	85.19
461.238	85.19
461.458	82.19
461.678	81.19
461.898	78.19
462.118	96.19
462.338	86.19
462.558	89.19
462.777	76.19
462.997	84.19
463.217	96.19
463.437	78.19
463.657	92.19
463.876	93.19
464.096	90.19
464.316	91.19
464.536	81.19
464.755	86.19
464.975	106.19
465.195	140.19
465.414	137.19
465.634	92.19
465.854	72.19
466.073	79.19
466.293	89.19
466.512	89.19
466.732	81.19
466.951	89.19
467.171	90.19
467.391	102.19
467.61	93.19
467.829	84.19
468.049	102.19
468.268	131.19
468.488	82.19
468.707	97.19
468.927	71.19
469.146	85.19
469.365	86.19
469.585	81.19
469.804	92.19
470.023	92.19
470.243	76.19
470.462	79.19
470.681	106.19
470.901	94.19
471.12	97.19
471.339	80.19
471.558	84.19
471.777	96.19
471.997	92.19
472.216	153.19
472.435	232.19
472.654	96.19
472.873	92.19
473.092	77.19
473.311	86.19
473.53	91.19
473.749	89.19
473.968	94.19
474.187	97.19
474.406	100.19
474.625	91.19
474.844	92.19
475.063	98.19
475.282	87.19
475.501	66.19
475.72	95.19
475.939	91.19
476.158	75.19
476.377	94.19
476.596	72.19
476.814	89.19
477.033	88.19
477.252	82.19
477.471	86.19
477.69	78.19
477.908	90.19
478.127	82.19
478.346	96.19
478.564	91.19
478.783	86.19
479.002	101.19
479.22	92.19
479.439	101.19
479.658	112.19
479.876	89.19
480.095	78.19
480.313	85.19
480.532	96.19
480.751	98.19
480.969	143.19
481.188	336.19
481.406	237.19
481.624	108.19
481.843	75.19
482.061	92.19
482.28	91.19
482.498	83.19
482.717	93.19
482.935	94.19
483.153	97.19
483.372	84.19
483.59	86.19
483.808	88.19
484.027	82.19
484.245	94.19
484.463	100.19
484.681	96.19
484.9	94.19
485.118	98.19
485.336	85.19
485.554	88.19
485.772	99.19
485.99	109.19
486.209	93.19
486.427	90.19
486.645	111.19
486.863	96.19
487.081	99.19
487.299	89.19
487.517	89.19
487.735	88.19
487.953	92.19
488.171	89.19
488.389	91.19
488.607	95.19
488.825	78.19
489.043	84.19
489.261	78.19
489.479	89.19
489.696	80.19
489.914	84.19
490.132	81.19
490.35	81.19
490.568	82.19
490.786	91.19
491.003	83.19
491.221	89.19
491.439	95.19
491.657	96.19
491.874	91.19
492.092	92.19
492.31	80.19
492.527	83.19
492.745	90.19
492.963	98.19
493.18	102.19
493.398	96.19
493.615	99.19
493.833	108.19
494.05	77.19
494.268	71.19
494.485	75.19
494.703	77.19
494.92	78.19
495.138	83.19
495.355	104.19
495.573	91.19
495.79	91.19
496.008	89.19
496.225	92.19
496.442	91.19
496.66	85.19
496.877	78.19
497.094	90.19
497.312	90.19
497.529	86.19
497.746	89.19
497.963	91.19
498.181	83.19
498.398	82.19
498.615	109.19
498.832	93.19
499.049	97.19
499.267	101.19
499.484	84.19
499.701	87.19
499.918	89.19
500.135	81.19
500.352	93.19
500.569	93.19
500.786	85.19
501.003	97.19
501.22	88.19
501.437	93.19
501.654	94.19
501.871	86.19
502.088	79.19
502.305	99.19
502.522	70.19
502.739	86.19
502.956	76.19
503.172	84.19
503.389	84.19
503.606	90.19
503.823	93.19
504.04	82.19
504.256	78.19
504.473	98.19
504.69	96.19
504.907	97.19
505.123	88.19
505.34	79.19
505.557	97.19
505.773	96.19
505.99	89.19
506.207	92.19
506.423	97.19
506.64	93.19
506.856	89.19
507.073	88.19
507.289	86.19
507.506	95.19
507.722	112.19
507.939	100.19
508.155	89.19
508.372	88.19
508.588	94.19
508.805	93.19
509.021	88.19
509.238	96.19
509.454	102.19
509.67	104.19
509.887	97.19
510.103	132.19
510.319	194.19
510.536	643.19
510.752	2098.19
510.968	594.19
511.184	157.19
511.401	104.19
511.617	100.19
511.833	92.19
512.049	84.19
512.265	98.19
512.481	82.19
512.698	86.19
512.914	90.19
513.13	92.19
513.346	89.19
513.562	75.19
513.778	91.19
513.994	94.19
514.21	106.19
514.426	96.19
514.642	109.19
514.858	113.19
515.074	146.19
515.29	358.19
515.506	1176.19
515.721	473.19
515.937	145.19
516.153	98.19
516.369	98.19
516.585	95.19
516.801	103.19
