Data from Circ_2015_H10_HRD10591_00003.txt Node
Date: Wed Jan 03 10:00:23 EST 2024
User: Yrep
Spectrometer: HR+D1059
Trigger mode: 1
Integration Time (sec): 1.000000E-1
Scans to average: 1
Electric dark correction enabled: true
Nonlinearity correction enabled: false
Boxcar width: 0
XAxis mode: Wavelengths
Number of Pixels in Spectrum: 2048
>>>>>Begin Spectral Data<<<<<
223.165	-14.88
223.4	-14.88
223.635	-14.88
223.869	-7.88
224.104	-19.88
224.338	-14.88
224.573	-11.88
224.808	-6.88
225.042	0.12
225.277	-5.88
225.511	-3.88
225.746	3.12
225.98	6.12
226.215	-6.88
226.449	15.12
226.683	10.12
226.918	23.12
227.152	35.12
227.387	27.12
227.621	38.12
227.856	47.12
228.09	59.12
228.324	47.12
228.559	55.12
228.793	51.12
229.027	55.12
229.262	58.12
229.496	60.12
229.73	80.12
229.964	88.12
230.199	89.12
230.433	62.12
230.667	73.12
230.901	83.12
231.136	74.12
231.37	77.12
231.604	83.12
231.838	65.12
232.072	71.12
232.306	74.12
232.541	76.12
232.775	77.12
233.009	80.12
233.243	80.12
233.477	77.12
233.711	70.12
233.945	69.12
234.179	74.12
234.413	77.12
234.647	63.12
234.881	61.12
235.115	70.12
235.349	71.12
235.583	98.12
235.817	81.12
236.051	77.12
236.285	65.12
236.519	75.12
236.753	69.12
236.987	76.12
237.221	88.12
237.455	93.12
237.689	69.12
237.922	87.12
238.156	76.12
238.39	70.12
238.624	79.12
238.858	79.12
239.091	60.12
239.325	85.12
239.559	67.12
239.793	82.12
240.027	81.12
240.26	75.12
240.494	78.12
240.728	78.12
240.961	68.12
241.195	89.12
241.429	71.12
241.662	63.12
241.896	73.12
242.13	60.12
242.363	66.12
242.597	72.12
242.83	75.12
243.064	82.12
243.298	76.12
243.531	86.12
243.765	86.12
243.998	86.12
244.232	84.12
244.465	89.12
244.699	93.12
244.932	87.12
245.166	79.12
245.399	83.12
245.633	71.12
245.866	67.12
246.099	68.12
246.333	72.12
246.566	81.12
246.8	62.12
247.033	79.12
247.266	68.12
247.5	88.12
247.733	74.12
247.966	81.12
248.2	83.12
248.433	64.12
248.666	74.12
248.899	81.12
249.133	89.12
249.366	76.12
249.599	100.12
249.832	76.12
250.066	87.12
250.299	86.12
250.532	71.12
250.765	80.12
250.998	89.12
251.231	57.12
251.465	80.12
251.698	82.12
251.931	83.12
252.164	70.12
252.397	66.12
252.63	62.12
252.863	64.12
253.096	97.12
253.329	73.12
253.562	90.12
253.795	82.12
254.028	74.12
254.261	87.12
254.494	79.12
254.727	91.12
254.96	80.12
255.193	89.12
255.426	72.12
255.659	82.12
255.892	81.12
256.124	78.12
256.357	75.12
256.59	80.12
256.823	65.12
257.056	90.12
257.289	83.12
257.521	97.12
257.754	68.12
257.987	79.12
258.22	79.12
258.452	77.12
258.685	97.12
258.918	73.12
259.151	73.12
259.383	78.12
259.616	83.12
259.849	91.12
260.081	76.12
260.314	76.12
260.547	76.12
260.779	98.12
261.012	73.12
261.244	82.12
261.477	88.12
261.71	92.12
261.942	87.12
262.175	101.12
262.407	79.12
262.64	83.12
262.872	78.12
263.105	83.12
263.337	93.12
263.57	96.12
263.802	69.12
264.035	80.12
264.267	76.12
264.499	73.12
264.732	70.12
264.964	77.12
265.197	68.12
265.429	73.12
265.661	86.12
265.894	85.12
266.126	80.12
266.358	85.12
266.591	68.12
266.823	89.12
267.055	87.12
267.287	81.12
267.52	81.12
267.752	84.12
267.984	88.12
268.216	86.12
268.448	92.12
268.681	82.12
268.913	79.12
269.145	88.12
269.377	82.12
269.609	63.12
269.841	83.12
270.073	72.12
270.306	83.12
270.538	84.12
270.77	88.12
271.002	78.12
271.234	88.12
271.466	81.12
271.698	87.12
271.93	82.12
272.162	91.12
272.394	81.12
272.626	77.12
272.858	91.12
273.09	76.12
273.322	92.12
273.553	67.12
273.785	77.12
274.017	74.12
274.249	100.12
274.481	75.12
274.713	87.12
274.945	85.12
275.176	86.12
275.408	87.12
275.64	102.12
275.872	77.12
276.104	86.12
276.335	89.12
276.567	90.12
276.799	97.12
277.031	88.12
277.262	99.12
277.494	84.12
277.726	81.12
277.957	79.12
278.189	90.12
278.421	82.12
278.652	68.12
278.884	95.12
279.115	88.12
279.347	79.12
279.579	91.12
279.81	92.12
280.042	74.12
280.273	93.12
280.505	80.12
280.736	72.12
280.968	84.12
281.199	108.12
281.431	89.12
281.662	82.12
281.894	77.12
282.125	89.12
282.356	105.12
282.588	142.12
282.819	111.12
283.051	93.12
283.282	85.12
283.513	73.12
283.745	79.12
283.976	92.12
284.207	77.12
284.439	83.12
284.67	89.12
284.901	88.12
285.132	76.12
285.364	96.12
285.595	102.12
285.826	77.12
286.057	80.12
286.288	98.12
286.52	71.12
286.751	89.12
286.982	96.12
287.213	79.12
287.444	96.12
287.675	70.12
287.906	80.12
288.138	87.12
288.369	73.12
288.6	90.12
288.831	98.12
289.062	89.12
289.293	75.12
289.524	92.12
289.755	74.12
289.986	100.12
290.217	95.12
290.448	96.12
290.679	93.12
290.91	82.12
291.141	77.12
291.371	88.12
291.602	73.12
291.833	76.12
292.064	85.12
292.295	77.12
292.526	71.12
292.757	85.12
292.987	93.12
293.218	83.12
293.449	87.12
293.68	77.12
293.91	89.12
294.141	89.12
294.372	94.12
294.603	97.12
294.833	85.12
295.064	88.12
295.295	107.12
295.525	95.12
295.756	87.12
295.987	112.12
296.217	131.12
296.448	119.12
296.679	92.12
296.909	88.12
297.14	75.12
297.37	100.12
297.601	81.12
297.831	79.12
298.062	81.12
298.292	81.12
298.523	85.12
298.753	87.12
298.984	75.12
299.214	73.12
299.445	83.12
299.675	98.12
299.905	90.12
300.136	92.12
300.366	81.12
300.597	84.12
300.827	92.12
301.057	86.12
301.288	90.12
301.518	95.12
301.748	81.12
301.979	88.12
302.209	91.12
302.439	87.12
302.669	87.12
302.9	89.12
303.13	82.12
303.36	75.12
303.59	85.12
303.82	99.12
304.051	94.12
304.281	89.12
304.511	97.12
304.741	79.12
304.971	81.12
305.201	92.12
305.431	90.12
305.661	98.12
305.891	99.12
306.121	95.12
306.352	92.12
306.582	107.12
306.812	102.12
307.042	88.12
307.272	90.12
307.502	92.12
307.731	90.12
307.961	94.12
308.191	82.12
308.421	95.12
308.651	89.12
308.881	95.12
309.111	87.12
309.341	88.12
309.571	84.12
309.8	97.12
310.03	94.12
310.26	111.12
310.49	78.12
310.72	97.12
310.949	98.12
311.179	86.12
311.409	92.12
311.639	102.12
311.868	96.12
312.098	93.12
312.328	85.12
312.557	86.12
312.787	104.12
313.017	95.12
313.246	90.12
313.476	79.12
313.706	86.12
313.935	88.12
314.165	99.12
314.394	92.12
314.624	89.12
314.853	90.12
315.083	80.12
315.312	83.12
315.542	90.12
315.771	87.12
316.001	91.12
316.23	93.12
316.46	98.12
316.689	90.12
316.919	95.12
317.148	99.12
317.377	87.12
317.607	80.12
317.836	89.12
318.065	90.12
318.295	92.12
318.524	75.12
318.753	86.12
318.983	94.12
319.212	103.12
319.441	103.12
319.67	97.12
319.9	102.12
320.129	80.12
320.358	91.12
320.587	90.12
320.816	91.12
321.046	109.12
321.275	105.12
321.504	102.12
321.733	107.12
321.962	77.12
322.191	102.12
322.42	117.12
322.649	92.12
322.878	112.12
323.108	93.12
323.337	115.12
323.566	125.12
323.795	116.12
324.024	178.12
324.253	379.12
324.482	737.12
324.71	1490.12
324.939	2051.12
325.168	755.12
325.397	239.12
325.626	136.12
325.855	120.12
326.084	106.12
326.313	131.12
326.542	140.12
326.77	234.12
326.999	427.12
327.228	853.12
327.457	1530.12
327.686	1255.12
327.914	345.12
328.143	185.12
328.372	136.12
328.6	105.12
328.829	109.12
329.058	121.12
329.287	115.12
329.515	112.12
329.744	89.12
329.972	92.12
330.201	100.12
330.43	118.12
330.658	117.12
330.887	145.12
331.115	117.12
331.344	101.12
331.572	99.12
331.801	97.12
332.03	85.12
332.258	89.12
332.486	96.12
332.715	93.12
332.943	88.12
333.172	105.12
333.4	85.12
333.629	97.12
333.857	110.12
334.085	101.12
334.314	101.12
334.542	112.12
334.771	93.12
334.999	86.12
335.227	95.12
335.455	104.12
335.684	108.12
335.912	106.12
336.14	107.12
336.369	96.12
336.597	89.12
336.825	99.12
337.053	89.12
337.281	85.12
337.51	94.12
337.738	90.12
337.966	74.12
338.194	85.12
338.422	90.12
338.65	84.12
338.878	78.12
339.106	82.12
339.334	92.12
339.562	97.12
339.79	84.12
340.018	95.12
340.246	91.12
340.474	88.12
340.702	103.12
340.93	82.12
341.158	84.12
341.386	94.12
341.614	107.12
341.842	97.12
342.07	81.12
342.298	82.12
342.526	99.12
342.754	95.12
342.981	98.12
343.209	93.12
343.437	98.12
343.665	84.12
343.893	94.12
344.12	85.12
344.348	101.12
344.576	87.12
344.804	89.12
345.031	102.12
345.259	101.12
345.487	87.12
345.714	80.12
345.942	83.12
346.17	87.12
346.397	80.12
346.625	85.12
346.853	101.12
347.08	96.12
347.308	83.12
347.535	104.12
347.763	93.12
347.99	91.12
348.218	91.12
348.445	84.12
348.673	95.12
348.9	82.12
349.128	91.12
349.355	88.12
349.583	89.12
349.81	93.12
350.037	101.12
350.265	80.12
350.492	91.12
350.72	82.12
350.947	94.12
351.174	97.12
351.402	97.12
351.629	97.12
351.856	104.12
352.083	108.12
352.311	99.12
352.538	97.12
352.765	100.12
352.992	110.12
353.22	113.12
353.447	87.12
353.674	87.12
353.901	80.12
354.128	94.12
354.355	101.12
354.583	91.12
354.81	97.12
355.037	104.12
355.264	83.12
355.491	101.12
355.718	86.12
355.945	88.12
356.172	88.12
356.399	97.12
356.626	101.12
356.853	84.12
357.08	104.12
357.307	103.12
357.534	93.12
357.761	91.12
357.988	92.12
358.215	101.12
358.441	100.12
358.668	81.12
358.895	104.12
359.122	83.12
359.349	83.12
359.576	97.12
359.802	75.12
360.029	104.12
360.256	101.12
360.483	70.12
360.709	81.12
360.936	88.12
361.163	84.12
361.39	105.12
361.616	90.12
361.843	95.12
362.07	106.12
362.296	85.12
362.523	84.12
362.749	93.12
362.976	82.12
363.203	80.12
363.429	85.12
363.656	85.12
363.882	100.12
364.109	96.12
364.335	95.12
364.562	95.12
364.788	97.12
365.015	86.12
365.241	73.12
365.468	89.12
365.694	100.12
365.92	97.12
366.147	81.12
366.373	69.12
366.599	77.12
366.826	84.12
367.052	85.12
367.278	92.12
367.505	83.12
367.731	81.12
367.957	69.12
368.184	83.12
368.41	92.12
368.636	119.12
368.862	119.12
369.089	114.12
369.315	80.12
369.541	91.12
369.767	92.12
369.993	86.12
370.219	98.12
370.445	79.12
370.672	83.12
370.898	87.12
371.124	89.12
371.35	80.12
371.576	96.12
371.802	95.12
372.028	79.12
372.254	83.12
372.48	87.12
372.706	67.12
372.932	80.12
373.158	89.12
373.384	102.12
373.61	89.12
373.835	99.12
374.061	77.12
374.287	83.12
374.513	85.12
374.739	91.12
374.965	87.12
375.191	90.12
375.416	90.12
375.642	86.12
375.868	91.12
376.094	83.12
376.319	81.12
376.545	88.12
376.771	92.12
376.997	82.12
377.222	109.12
377.448	108.12
377.674	102.12
377.899	95.12
378.125	75.12
378.35	99.12
378.576	75.12
378.802	97.12
379.027	92.12
379.253	88.12
379.478	101.12
379.704	92.12
379.929	92.12
380.155	99.12
380.38	98.12
380.606	99.12
380.831	114.12
381.057	107.12
381.282	107.12
381.507	95.12
381.733	87.12
381.958	83.12
382.184	94.12
382.409	107.12
382.634	111.12
382.86	105.12
383.085	118.12
383.31	115.12
383.535	108.12
383.761	109.12
383.986	118.12
384.211	108.12
384.436	104.12
384.662	104.12
384.887	112.12
385.112	133.12
385.337	122.12
385.562	127.12
385.787	141.12
386.013	116.12
386.238	126.12
386.463	114.12
386.688	144.12
386.913	123.12
387.138	138.12
387.363	122.12
387.588	109.12
387.813	127.12
388.038	123.12
388.263	132.12
388.488	137.12
388.713	105.12
388.938	90.12
389.163	94.12
389.387	102.12
389.612	91.12
389.837	98.12
390.062	87.12
390.287	91.12
390.512	98.12
390.736	94.12
390.961	103.12
391.186	99.12
391.411	92.12
391.636	86.12
391.86	74.12
392.085	89.12
392.31	86.12
392.534	93.12
392.759	76.12
392.984	75.12
393.208	116.12
393.433	124.12
393.658	98.12
393.882	81.12
394.107	88.12
394.331	71.12
394.556	74.12
394.78	86.12
395.005	98.12
395.229	99.12
395.454	88.12
395.678	84.12
395.903	91.12
396.127	104.12
396.352	81.12
396.576	90.12
396.801	92.12
397.025	118.12
397.249	103.12
397.474	89.12
397.698	96.12
397.922	88.12
398.147	92.12
398.371	84.12
398.595	89.12
398.82	92.12
399.044	85.12
399.268	81.12
399.492	81.12
399.717	80.12
399.941	80.12
400.165	84.12
400.389	86.12
400.613	81.12
400.837	77.12
401.062	94.12
401.286	85.12
401.51	79.12
401.734	91.12
401.958	99.12
402.182	119.12
402.406	140.12
402.63	110.12
402.854	94.12
403.078	91.12
403.302	76.12
403.526	82.12
403.75	95.12
403.974	76.12
404.198	80.12
404.422	87.12
404.645	105.12
404.869	99.12
405.093	88.12
405.317	97.12
405.541	84.12
405.765	99.12
405.988	108.12
406.212	131.12
406.436	197.12
406.66	123.12
406.883	92.12
407.107	100.12
407.331	88.12
407.555	89.12
407.778	97.12
408.002	93.12
408.226	87.12
408.449	98.12
408.673	81.12
408.896	96.12
409.12	104.12
409.344	100.12
409.567	89.12
409.791	100.12
410.014	76.12
410.238	84.12
410.461	98.12
410.685	91.12
410.908	98.12
411.132	106.12
411.355	106.12
411.578	82.12
411.802	88.12
412.025	92.12
412.249	72.12
412.472	92.12
412.695	94.12
412.919	86.12
413.142	93.12
413.365	87.12
413.589	84.12
413.812	98.12
414.035	89.12
414.258	83.12
414.482	85.12
414.705	94.12
414.928	79.12
415.151	93.12
415.374	112.12
415.597	87.12
415.821	88.12
416.044	104.12
416.267	89.12
416.49	79.12
416.713	83.12
416.936	98.12
417.159	73.12
417.382	89.12
417.605	84.12
417.828	81.12
418.051	92.12
418.274	83.12
418.497	92.12
418.72	81.12
418.943	111.12
419.166	92.12
419.389	87.12
419.611	84.12
419.834	101.12
420.057	93.12
420.28	76.12
420.503	87.12
420.726	83.12
420.948	77.12
421.171	85.12
421.394	90.12
421.617	108.12
421.839	87.12
422.062	88.12
422.285	90.12
422.507	93.12
422.73	99.12
422.953	103.12
423.175	82.12
423.398	87.12
423.621	100.12
423.843	72.12
424.066	90.12
424.288	82.12
424.511	111.12
424.733	104.12
424.956	109.12
425.178	103.12
425.401	98.12
425.623	100.12
425.846	99.12
426.068	79.12
426.291	82.12
426.513	88.12
426.735	85.12
426.958	83.12
427.18	87.12
427.402	124.12
427.625	149.12
427.847	119.12
428.069	103.12
428.292	82.12
428.514	73.12
428.736	69.12
428.958	77.12
429.181	77.12
429.403	84.12
429.625	96.12
429.847	88.12
430.069	87.12
430.292	82.12
430.514	97.12
430.736	90.12
430.958	89.12
431.18	90.12
431.402	91.12
431.624	86.12
431.846	82.12
432.068	89.12
432.29	83.12
432.512	98.12
432.734	98.12
432.956	87.12
433.178	97.12
433.4	85.12
433.622	84.12
433.844	87.12
434.066	79.12
434.287	92.12
434.509	94.12
434.731	99.12
434.953	99.12
435.175	91.12
435.397	93.12
435.618	74.12
435.84	103.12
436.062	125.12
436.284	121.12
436.505	92.12
436.727	111.12
436.949	90.12
437.17	80.12
437.392	83.12
437.614	91.12
437.835	102.12
438.057	129.12
438.278	117.12
438.5	99.12
438.721	113.12
438.943	92.12
439.165	95.12
439.386	94.12
439.608	86.12
439.829	91.12
440.05	120.12
440.272	135.12
440.493	89.12
440.715	91.12
440.936	95.12
441.158	84.12
441.379	102.12
441.6	86.12
441.822	80.12
442.043	90.12
442.264	112.12
442.486	97.12
442.707	97.12
442.928	102.12
443.149	115.12
443.371	120.12
443.592	97.12
443.813	109.12
444.034	94.12
444.255	99.12
444.476	104.12
444.698	72.12
444.919	80.12
445.14	132.12
445.361	102.12
445.582	92.12
445.803	127.12
446.024	111.12
446.245	134.12
446.466	96.12
446.687	97.12
446.908	86.12
447.129	79.12
447.35	86.12
447.571	80.12
447.792	100.12
448.013	91.12
448.234	98.12
448.455	91.12
448.675	105.12
448.896	108.12
449.117	91.12
449.338	96.12
449.559	121.12
449.779	126.12
450	97.12
450.221	88.12
450.442	98.12
450.662	83.12
450.883	96.12
451.104	107.12
451.324	92.12
451.545	102.12
451.766	84.12
451.986	71.12
452.207	85.12
452.428	90.12
452.648	90.12
452.869	95.12
453.089	86.12
453.31	106.12
453.53	100.12
453.751	88.12
453.971	99.12
454.192	95.12
454.412	97.12
454.633	88.12
454.853	100.12
455.073	87.12
455.294	83.12
455.514	93.12
455.734	93.12
455.955	80.12
456.175	73.12
456.395	99.12
456.616	85.12
456.836	74.12
457.056	87.12
457.276	98.12
457.497	87.12
457.717	79.12
457.937	70.12
458.157	99.12
458.377	92.12
458.598	104.12
458.818	135.12
459.038	135.12
459.258	119.12
459.478	90.12
459.698	76.12
459.918	84.12
460.138	77.12
460.358	74.12
460.578	91.12
460.798	84.12
461.018	93.12
461.238	75.12
461.458	75.12
461.678	93.12
461.898	74.12
462.118	73.12
462.338	92.12
462.558	74.12
462.777	78.12
462.997	91.12
463.217	90.12
463.437	79.12
463.657	88.12
463.876	77.12
464.096	83.12
464.316	85.12
464.536	75.12
464.755	86.12
464.975	98.12
465.195	149.12
465.414	131.12
465.634	84.12
465.854	75.12
466.073	69.12
466.293	80.12
466.512	87.12
466.732	88.12
466.951	80.12
467.171	83.12
467.391	82.12
467.61	95.12
467.829	83.12
468.049	90.12
468.268	100.12
468.488	80.12
468.707	94.12
468.927	76.12
469.146	85.12
469.365	75.12
469.585	82.12
469.804	89.12
470.023	87.12
470.243	83.12
470.462	98.12
470.681	105.12
470.901	82.12
471.12	83.12
471.339	99.12
471.558	84.12
471.777	84.12
471.997	95.12
472.216	91.12
472.435	104.12
472.654	87.12
472.873	88.12
473.092	83.12
473.311	97.12
473.53	86.12
473.749	83.12
473.968	105.12
474.187	96.12
474.406	91.12
474.625	84.12
474.844	84.12
475.063	77.12
475.282	76.12
475.501	74.12
475.72	81.12
475.939	76.12
476.158	88.12
476.377	85.12
476.596	83.12
476.814	81.12
477.033	84.12
477.252	85.12
477.471	89.12
477.69	99.12
477.908	77.12
478.127	97.12
478.346	87.12
478.564	83.12
478.783	90.12
479.002	92.12
479.22	82.12
479.439	84.12
479.658	93.12
479.876	77.12
480.095	95.12
480.313	81.12
480.532	83.12
480.751	82.12
480.969	91.12
481.188	137.12
481.406	113.12
481.624	96.12
481.843	85.12
482.061	85.12
482.28	94.12
482.498	92.12
482.717	82.12
482.935	89.12
483.153	78.12
483.372	72.12
483.59	90.12
483.808	83.12
484.027	93.12
484.245	92.12
484.463	84.12
484.681	87.12
484.9	77.12
485.118	83.12
485.336	84.12
485.554	104.12
485.772	88.12
485.99	101.12
486.209	88.12
486.427	101.12
486.645	106.12
486.863	106.12
487.081	107.12
487.299	93.12
487.517	113.12
487.735	111.12
487.953	90.12
488.171	76.12
488.389	91.12
488.607	90.12
488.825	104.12
489.043	91.12
489.261	79.12
489.479	91.12
489.696	81.12
489.914	74.12
490.132	76.12
490.35	97.12
490.568	98.12
490.786	85.12
491.003	85.12
491.221	79.12
491.439	96.12
491.657	94.12
491.874	95.12
492.092	96.12
492.31	95.12
492.527	84.12
492.745	103.12
492.963	106.12
493.18	98.12
493.398	102.12
493.615	98.12
493.833	83.12
494.05	99.12
494.268	83.12
494.485	91.12
494.703	66.12
494.92	83.12
495.138	91.12
495.355	88.12
495.573	94.12
495.79	93.12
496.008	85.12
496.225	84.12
496.442	74.12
496.66	88.12
496.877	90.12
497.094	91.12
497.312	82.12
497.529	81.12
497.746	81.12
497.963	92.12
498.181	97.12
498.398	96.12
498.615	107.12
498.832	112.12
499.049	76.12
499.267	88.12
499.484	90.12
499.701	89.12
499.918	87.12
500.135	85.12
500.352	94.12
500.569	91.12
500.786	87.12
501.003	89.12
501.22	98.12
501.437	77.12
501.654	97.12
501.871	91.12
502.088	92.12
502.305	82.12
502.522	83.12
502.739	96.12
502.956	85.12
503.172	97.12
503.389	81.12
503.606	100.12
503.823	100.12
504.04	87.12
504.256	99.12
504.473	88.12
504.69	84.12
504.907	88.12
505.123	86.12
505.34	92.12
505.557	71.12
505.773	87.12
505.99	98.12
506.207	90.12
506.423	104.12
506.64	84.12
506.856	79.12
507.073	74.12
507.289	85.12
507.506	88.12
507.722	89.12
507.939	104.12
508.155	91.12
508.372	99.12
508.588	85.12
508.805	83.12
509.021	80.12
509.238	85.12
509.454	82.12
509.67	84.12
509.887	100.12
510.103	135.12
510.319	192.12
510.536	607.12
510.752	1906.12
510.968	572.12
511.184	143.12
511.401	102.12
511.617	86.12
511.833	81.12
512.049	108.12
512.265	91.12
512.481	78.12
512.698	87.12
512.914	92.12
513.13	87.12
513.346	91.12
513.562	96.12
513.778	97.12
513.994	92.12
514.21	90.12
514.426	105.12
514.642	114.12
514.858	119.12
515.074	138.12
515.29	343.12
515.506	1117.12
515.721	464.12
515.937	143.12
516.153	107.12
516.369	95.12
