Data from Circ_2015_H10_HRD10591_00097.txt Node
Date: Wed Jan 03 10:00:42 EST 2024
User: Yrep
Spectrometer: HR+D1059
Trigger mode: 1
Integration Time (sec): 1.000000E-1
Scans to average: 1
Electric dark correction enabled: true
Nonlinearity correction enabled: false
Boxcar width: 0
XAxis mode: Wavelengths
Number of Pixels in Spectrum: 2048
>>>>>Begin Spectral Data<<<<<
223.165	-26.06
223.4	-26.06
223.635	-26.06
223.869	-14.06
224.104	-4.06
224.338	-12.06
224.573	-28.06
224.808	-15.06
225.042	-12.06
225.277	-16.06
225.511	5.94
225.746	8.94
225.98	4.94
226.215	4.94
226.449	12.94
226.683	23.94
226.918	33.94
227.152	31.94
227.387	35.94
227.621	39.94
227.856	44.94
228.09	45.94
228.324	50.94
228.559	42.94
228.793	54.94
229.027	60.94
229.262	61.94
229.496	78.94
229.73	90.94
229.964	87.94
230.199	75.94
230.433	77.94
230.667	84.94
230.901	86.94
231.136	76.94
231.37	87.94
231.604	83.94
231.838	83.94
232.072	74.94
232.306	77.94
232.541	85.94
232.775	84.94
233.009	82.94
233.243	85.94
233.477	82.94
233.711	64.94
233.945	74.94
234.179	78.94
234.413	85.94
234.647	57.94
234.881	70.94
235.115	86.94
235.349	87.94
235.583	83.94
235.817	71.94
236.051	83.94
236.285	76.94
236.519	75.94
236.753	90.94
236.987	85.94
237.221	78.94
237.455	90.94
237.689	84.94
237.922	73.94
238.156	77.94
238.39	65.94
238.624	82.94
238.858	73.94
239.091	70.94
239.325	72.94
239.559	79.94
239.793	89.94
240.027	86.94
240.26	82.94
240.494	69.94
240.728	70.94
240.961	86.94
241.195	83.94
241.429	76.94
241.662	81.94
241.896	78.94
242.13	71.94
242.363	77.94
242.597	72.94
242.83	80.94
243.064	75.94
243.298	74.94
243.531	62.94
243.765	65.94
243.998	83.94
244.232	66.94
244.465	72.94
244.699	84.94
244.932	72.94
245.166	71.94
245.399	66.94
245.633	84.94
245.866	65.94
246.099	73.94
246.333	76.94
246.566	91.94
246.8	71.94
247.033	74.94
247.266	84.94
247.5	87.94
247.733	88.94
247.966	89.94
248.2	87.94
248.433	94.94
248.666	87.94
248.899	82.94
249.133	83.94
249.366	105.94
249.599	100.94
249.832	89.94
250.066	83.94
250.299	94.94
250.532	71.94
250.765	72.94
250.998	84.94
251.231	79.94
251.465	86.94
251.698	85.94
251.931	86.94
252.164	72.94
252.397	81.94
252.63	70.94
252.863	75.94
253.096	93.94
253.329	73.94
253.562	69.94
253.795	82.94
254.028	82.94
254.261	88.94
254.494	71.94
254.727	83.94
254.96	79.94
255.193	82.94
255.426	87.94
255.659	83.94
255.892	79.94
256.124	98.94
256.357	71.94
256.59	81.94
256.823	74.94
257.056	79.94
257.289	89.94
257.521	93.94
257.754	81.94
257.987	93.94
258.22	85.94
258.452	78.94
258.685	90.94
258.918	84.94
259.151	72.94
259.383	83.94
259.616	87.94
259.849	83.94
260.081	90.94
260.314	82.94
260.547	72.94
260.779	83.94
261.012	79.94
261.244	90.94
261.477	85.94
261.71	86.94
261.942	105.94
262.175	90.94
262.407	82.94
262.64	95.94
262.872	78.94
263.105	81.94
263.337	88.94
263.57	86.94
263.802	72.94
264.035	79.94
264.267	82.94
264.499	74.94
264.732	86.94
264.964	84.94
265.197	89.94
265.429	83.94
265.661	86.94
265.894	74.94
266.126	88.94
266.358	74.94
266.591	84.94
266.823	89.94
267.055	77.94
267.287	75.94
267.52	84.94
267.752	89.94
267.984	82.94
268.216	96.94
268.448	83.94
268.681	88.94
268.913	89.94
269.145	80.94
269.377	76.94
269.609	90.94
269.841	93.94
270.073	77.94
270.306	85.94
270.538	87.94
270.77	89.94
271.002	86.94
271.234	85.94
271.466	89.94
271.698	84.94
271.93	84.94
272.162	75.94
272.394	81.94
272.626	92.94
272.858	98.94
273.09	81.94
273.322	88.94
273.553	82.94
273.785	75.94
274.017	78.94
274.249	84.94
274.481	87.94
274.713	94.94
274.945	79.94
275.176	76.94
275.408	88.94
275.64	83.94
275.872	83.94
276.104	82.94
276.335	94.94
276.567	91.94
276.799	103.94
277.031	97.94
277.262	93.94
277.494	102.94
277.726	99.94
277.957	93.94
278.189	100.94
278.421	89.94
278.652	83.94
278.884	87.94
279.115	76.94
279.347	83.94
279.579	86.94
279.81	102.94
280.042	110.94
280.273	117.94
280.505	102.94
280.736	90.94
280.968	99.94
281.199	98.94
281.431	100.94
281.662	92.94
281.894	87.94
282.125	105.94
282.356	121.94
282.588	126.94
282.819	121.94
283.051	100.94
283.282	85.94
283.513	73.94
283.745	88.94
283.976	84.94
284.207	86.94
284.439	82.94
284.67	90.94
284.901	92.94
285.132	100.94
285.364	87.94
285.595	96.94
285.826	88.94
286.057	86.94
286.288	77.94
286.52	84.94
286.751	82.94
286.982	86.94
287.213	84.94
287.444	92.94
287.675	77.94
287.906	83.94
288.138	81.94
288.369	86.94
288.6	79.94
288.831	83.94
289.062	82.94
289.293	80.94
289.524	81.94
289.755	81.94
289.986	104.94
290.217	87.94
290.448	74.94
290.679	76.94
290.91	79.94
291.141	81.94
291.371	91.94
291.602	79.94
291.833	93.94
292.064	89.94
292.295	92.94
292.526	99.94
292.757	93.94
292.987	79.94
293.218	87.94
293.449	81.94
293.68	86.94
293.91	84.94
294.141	90.94
294.372	95.94
294.603	89.94
294.833	83.94
295.064	91.94
295.295	80.94
295.525	82.94
295.756	95.94
295.987	114.94
296.217	128.94
296.448	122.94
296.679	90.94
296.909	82.94
297.14	91.94
297.37	92.94
297.601	79.94
297.831	89.94
298.062	98.94
298.292	87.94
298.523	92.94
298.753	86.94
298.984	90.94
299.214	76.94
299.445	75.94
299.675	92.94
299.905	103.94
300.136	77.94
300.366	81.94
300.597	94.94
300.827	100.94
301.057	82.94
301.288	109.94
301.518	95.94
301.748	86.94
301.979	97.94
302.209	98.94
302.439	96.94
302.669	82.94
302.9	92.94
303.13	105.94
303.36	76.94
303.59	97.94
303.82	114.94
304.051	91.94
304.281	91.94
304.511	92.94
304.741	70.94
304.971	91.94
305.201	94.94
305.431	86.94
305.661	87.94
305.891	90.94
306.121	81.94
306.352	106.94
306.582	97.94
306.812	79.94
307.042	94.94
307.272	102.94
307.502	108.94
307.731	129.94
307.961	96.94
308.191	96.94
308.421	89.94
308.651	87.94
308.881	80.94
309.111	102.94
309.341	101.94
309.571	111.94
309.8	92.94
310.03	108.94
310.26	84.94
310.49	97.94
310.72	86.94
310.949	95.94
311.179	102.94
311.409	94.94
311.639	94.94
311.868	101.94
312.098	97.94
312.328	93.94
312.557	95.94
312.787	102.94
313.017	102.94
313.246	88.94
313.476	71.94
313.706	100.94
313.935	95.94
314.165	109.94
314.394	108.94
314.624	90.94
314.853	95.94
315.083	85.94
315.312	74.94
315.542	93.94
315.771	82.94
316.001	83.94
316.23	94.94
316.46	104.94
316.689	86.94
316.919	94.94
317.148	87.94
317.377	98.94
317.607	92.94
317.836	97.94
318.065	100.94
318.295	94.94
318.524	102.94
318.753	79.94
318.983	93.94
319.212	93.94
319.441	112.94
319.67	106.94
319.9	94.94
320.129	78.94
320.358	95.94
320.587	98.94
320.816	99.94
321.046	101.94
321.275	97.94
321.504	95.94
321.733	97.94
321.962	91.94
322.191	94.94
322.42	109.94
322.649	114.94
322.878	109.94
323.108	127.94
323.337	119.94
323.566	126.94
323.795	143.94
324.024	197.94
324.253	377.94
324.482	773.94
324.71	1617.94
324.939	2166.94
325.168	789.94
325.397	229.94
325.626	139.94
325.855	118.94
326.084	123.94
326.313	109.94
326.542	151.94
326.77	222.94
326.999	451.94
327.228	925.94
327.457	1693.94
327.686	1345.94
327.914	371.94
328.143	228.94
328.372	223.94
328.6	165.94
328.829	125.94
329.058	115.94
329.287	129.94
329.515	109.94
329.744	124.94
329.972	171.94
330.201	271.94
330.43	355.94
330.658	212.94
330.887	147.94
331.115	118.94
331.344	99.94
331.572	107.94
331.801	93.94
332.03	104.94
332.258	86.94
332.486	100.94
332.715	109.94
332.943	93.94
333.172	98.94
333.4	90.94
333.629	115.94
333.857	146.94
334.085	178.94
334.314	266.94
334.542	424.94
334.771	416.94
334.999	156.94
335.227	117.94
335.455	93.94
335.684	92.94
335.912	91.94
336.14	84.94
336.369	91.94
336.597	92.94
336.825	98.94
337.053	81.94
337.281	89.94
337.51	91.94
337.738	96.94
337.966	89.94
338.194	97.94
338.422	85.94
338.65	91.94
338.878	104.94
339.106	92.94
339.334	87.94
339.562	93.94
339.79	75.94
340.018	103.94
340.246	94.94
340.474	79.94
340.702	82.94
340.93	93.94
341.158	93.94
341.386	102.94
341.614	86.94
341.842	87.94
342.07	108.94
342.298	98.94
342.526	79.94
342.754	90.94
342.981	83.94
343.209	82.94
343.437	92.94
343.665	87.94
343.893	83.94
344.12	93.94
344.348	90.94
344.576	87.94
344.804	110.94
345.031	93.94
345.259	79.94
345.487	82.94
345.714	83.94
345.942	95.94
346.17	99.94
346.397	86.94
346.625	85.94
346.853	101.94
347.08	97.94
347.308	104.94
347.535	90.94
347.763	83.94
347.99	93.94
348.218	102.94
348.445	99.94
348.673	83.94
348.9	99.94
349.128	97.94
349.355	100.94
349.583	94.94
349.81	94.94
350.037	94.94
350.265	87.94
350.492	103.94
350.72	97.94
350.947	112.94
351.174	88.94
351.402	96.94
351.629	100.94
351.856	97.94
352.083	94.94
352.311	97.94
352.538	93.94
352.765	112.94
352.992	103.94
353.22	110.94
353.447	95.94
353.674	97.94
353.901	89.94
354.128	91.94
354.355	96.94
354.583	104.94
354.81	101.94
355.037	101.94
355.264	102.94
355.491	98.94
355.718	103.94
355.945	87.94
356.172	87.94
356.399	93.94
356.626	92.94
356.853	94.94
357.08	94.94
357.307	87.94
357.534	77.94
357.761	100.94
357.988	92.94
358.215	88.94
358.441	83.94
358.668	83.94
358.895	90.94
359.122	73.94
359.349	95.94
359.576	87.94
359.802	99.94
360.029	108.94
360.256	99.94
360.483	94.94
360.709	85.94
360.936	83.94
361.163	99.94
361.39	82.94
361.616	84.94
361.843	85.94
362.07	84.94
362.296	95.94
362.523	84.94
362.749	80.94
362.976	83.94
363.203	88.94
363.429	83.94
363.656	85.94
363.882	82.94
364.109	95.94
364.335	99.94
364.562	95.94
364.788	77.94
365.015	107.94
365.241	100.94
365.468	106.94
365.694	92.94
365.92	103.94
366.147	82.94
366.373	95.94
366.599	89.94
366.826	89.94
367.052	84.94
367.278	87.94
367.505	85.94
367.731	87.94
367.957	81.94
368.184	102.94
368.41	114.94
368.636	108.94
368.862	90.94
369.089	90.94
369.315	76.94
369.541	80.94
369.767	82.94
369.993	107.94
370.219	100.94
370.445	103.94
370.672	88.94
370.898	77.94
371.124	84.94
371.35	91.94
371.576	101.94
371.802	100.94
372.028	101.94
372.254	87.94
372.48	93.94
372.706	85.94
372.932	94.94
373.158	104.94
373.384	94.94
373.61	81.94
373.835	90.94
374.061	93.94
374.287	88.94
374.513	94.94
374.739	89.94
374.965	91.94
375.191	97.94
375.416	97.94
375.642	87.94
375.868	104.94
376.094	97.94
376.319	86.94
376.545	89.94
376.771	85.94
376.997	97.94
377.222	78.94
377.448	95.94
377.674	79.94
377.899	94.94
378.125	99.94
378.35	80.94
378.576	98.94
378.802	97.94
379.027	86.94
379.253	88.94
379.478	90.94
379.704	86.94
379.929	86.94
380.155	94.94
380.38	88.94
380.606	84.94
380.831	89.94
381.057	107.94
381.282	91.94
381.507	102.94
381.733	96.94
381.958	95.94
382.184	98.94
382.409	110.94
382.634	101.94
382.86	86.94
383.085	97.94
383.31	94.94
383.535	90.94
383.761	105.94
383.986	106.94
384.211	90.94
384.436	93.94
384.662	97.94
384.887	97.94
385.112	101.94
385.337	109.94
385.562	99.94
385.787	99.94
386.013	95.94
386.238	104.94
386.463	96.94
386.688	102.94
386.913	97.94
387.138	100.94
387.363	99.94
387.588	93.94
387.813	98.94
388.038	107.94
388.263	98.94
388.488	105.94
388.713	104.94
388.938	91.94
389.163	90.94
389.387	97.94
389.612	100.94
389.837	95.94
390.062	91.94
390.287	86.94
390.512	88.94
390.736	76.94
390.961	90.94
391.186	86.94
391.411	99.94
391.636	87.94
391.86	88.94
392.085	93.94
392.31	94.94
392.534	99.94
392.759	96.94
392.984	92.94
393.208	89.94
393.433	88.94
393.658	94.94
393.882	79.94
394.107	86.94
394.331	90.94
394.556	102.94
394.78	85.94
395.005	88.94
395.229	87.94
395.454	97.94
395.678	88.94
395.903	89.94
396.127	82.94
396.352	94.94
396.576	94.94
396.801	72.94
397.025	86.94
397.249	89.94
397.474	98.94
397.698	97.94
397.922	88.94
398.147	91.94
398.371	86.94
398.595	84.94
398.82	66.94
399.044	93.94
399.268	72.94
399.492	86.94
399.717	94.94
399.941	103.94
400.165	88.94
400.389	81.94
400.613	90.94
400.837	89.94
401.062	86.94
401.286	100.94
401.51	85.94
401.734	70.94
401.958	95.94
402.182	123.94
402.406	142.94
402.63	119.94
402.854	84.94
403.078	87.94
403.302	77.94
403.526	107.94
403.75	94.94
403.974	77.94
404.198	85.94
404.422	83.94
404.645	74.94
404.869	114.94
405.093	108.94
405.317	94.94
405.541	94.94
405.765	92.94
405.988	110.94
406.212	150.94
406.436	194.94
406.66	137.94
406.883	106.94
407.107	98.94
407.331	97.94
407.555	92.94
407.778	89.94
408.002	85.94
408.226	100.94
408.449	71.94
408.673	86.94
408.896	83.94
409.12	102.94
409.344	86.94
409.567	95.94
409.791	84.94
410.014	75.94
410.238	99.94
410.461	81.94
410.685	91.94
410.908	83.94
411.132	83.94
411.355	97.94
411.578	106.94
411.802	80.94
412.025	91.94
412.249	97.94
412.472	100.94
412.695	95.94
412.919	106.94
413.142	92.94
413.365	91.94
413.589	90.94
413.812	94.94
414.035	94.94
414.258	80.94
414.482	87.94
414.705	100.94
414.928	99.94
415.151	93.94
415.374	86.94
415.597	92.94
415.821	94.94
416.044	83.94
416.267	88.94
416.49	72.94
416.713	98.94
416.936	78.94
417.159	86.94
417.382	78.94
417.605	82.94
417.828	85.94
418.051	108.94
418.274	97.94
418.497	101.94
418.72	97.94
418.943	94.94
419.166	87.94
419.389	90.94
419.611	98.94
419.834	91.94
420.057	94.94
420.28	93.94
420.503	82.94
420.726	97.94
420.948	86.94
421.171	83.94
421.394	97.94
421.617	87.94
421.839	91.94
422.062	86.94
422.285	89.94
422.507	94.94
422.73	74.94
422.953	91.94
423.175	87.94
423.398	95.94
423.621	93.94
423.843	102.94
424.066	84.94
424.288	95.94
424.511	91.94
424.733	108.94
424.956	104.94
425.178	104.94
425.401	103.94
425.623	94.94
425.846	87.94
426.068	93.94
426.291	102.94
426.513	96.94
426.735	86.94
426.958	89.94
427.18	110.94
427.402	120.94
427.625	161.94
427.847	137.94
428.069	134.94
428.292	83.94
428.514	86.94
428.736	78.94
428.958	75.94
429.181	78.94
429.403	80.94
429.625	76.94
429.847	99.94
430.069	97.94
430.292	96.94
430.514	87.94
430.736	95.94
430.958	77.94
431.18	84.94
431.402	70.94
431.624	84.94
431.846	84.94
432.068	76.94
432.29	97.94
432.512	93.94
432.734	79.94
432.956	92.94
433.178	91.94
433.4	115.94
433.622	89.94
433.844	103.94
434.066	86.94
434.287	84.94
434.509	95.94
434.731	92.94
434.953	94.94
435.175	86.94
435.397	105.94
435.618	102.94
435.84	95.94
436.062	99.94
436.284	117.94
436.505	99.94
436.727	103.94
436.949	101.94
437.17	80.94
437.392	87.94
437.614	101.94
437.835	109.94
438.057	107.94
438.278	83.94
438.5	94.94
438.721	106.94
438.943	102.94
439.165	92.94
439.386	86.94
439.608	83.94
439.829	92.94
440.05	102.94
440.272	134.94
440.493	101.94
440.715	85.94
440.936	72.94
441.158	86.94
441.379	99.94
441.6	79.94
441.822	90.94
442.043	98.94
442.264	99.94
442.486	84.94
442.707	102.94
442.928	93.94
443.149	116.94
443.371	105.94
443.592	87.94
443.813	105.94
444.034	93.94
444.255	77.94
444.476	89.94
444.698	96.94
444.919	91.94
445.14	117.94
445.361	121.94
445.582	102.94
445.803	139.94
446.024	137.94
446.245	137.94
446.466	103.94
446.687	85.94
446.908	89.94
447.129	88.94
447.35	92.94
447.571	98.94
447.792	104.94
448.013	92.94
448.234	97.94
448.455	115.94
448.675	104.94
448.896	108.94
449.117	96.94
449.338	90.94
449.559	127.94
449.779	124.94
450	102.94
450.221	92.94
450.442	92.94
450.662	110.94
450.883	110.94
451.104	95.94
451.324	99.94
451.545	85.94
451.766	81.94
451.986	87.94
452.207	97.94
452.428	100.94
452.648	91.94
452.869	117.94
453.089	108.94
453.31	94.94
453.53	82.94
453.751	93.94
453.971	78.94
454.192	91.94
454.412	81.94
454.633	70.94
454.853	88.94
455.073	68.94
455.294	86.94
455.514	95.94
455.734	85.94
455.955	79.94
456.175	82.94
456.395	91.94
456.616	90.94
456.836	85.94
457.056	85.94
457.276	78.94
457.497	91.94
457.717	87.94
457.937	74.94
458.157	89.94
458.377	75.94
458.598	94.94
458.818	132.94
459.038	136.94
459.258	108.94
459.478	92.94
459.698	88.94
459.918	95.94
460.138	71.94
460.358	83.94
460.578	86.94
460.798	99.94
461.018	96.94
461.238	95.94
461.458	95.94
461.678	94.94
461.898	104.94
462.118	97.94
462.338	84.94
462.558	76.94
462.777	87.94
462.997	78.94
463.217	87.94
463.437	86.94
463.657	87.94
463.876	99.94
464.096	86.94
464.316	85.94
464.536	92.94
464.755	86.94
464.975	97.94
465.195	139.94
465.414	134.94
465.634	90.94
465.854	82.94
466.073	87.94
466.293	79.94
466.512	99.94
466.732	101.94
466.951	93.94
467.171	87.94
467.391	99.94
467.61	112.94
467.829	108.94
468.049	170.94
468.268	237.94
468.488	114.94
468.707	74.94
468.927	87.94
469.146	84.94
469.365	76.94
469.585	92.94
469.804	100.94
470.023	87.94
470.243	101.94
470.462	108.94
470.681	96.94
470.901	107.94
471.12	87.94
471.339	92.94
471.558	100.94
471.777	98.94
471.997	134.94
472.216	305.94
472.435	582.94
472.654	194.94
472.873	106.94
473.092	88.94
473.311	83.94
473.53	82.94
473.749	95.94
473.968	93.94
474.187	95.94
474.406	101.94
474.625	98.94
474.844	92.94
475.063	83.94
475.282	108.94
475.501	82.94
475.72	91.94
475.939	99.94
476.158	93.94
476.377	81.94
476.596	88.94
476.814	85.94
477.033	104.94
477.252	94.94
477.471	90.94
477.69	102.94
477.908	78.94
478.127	84.94
478.346	87.94
478.564	94.94
478.783	87.94
479.002	99.94
479.22	99.94
479.439	107.94
479.658	101.94
479.876	108.94
480.095	89.94
480.313	94.94
480.532	113.94
480.751	143.94
480.969	299.94
481.188	989.94
481.406	604.94
481.624	143.94
481.843	105.94
482.061	86.94
482.28	91.94
482.498	97.94
482.717	76.94
482.935	99.94
483.153	102.94
483.372	77.94
483.59	94.94
483.808	98.94
484.027	96.94
484.245	93.94
484.463	82.94
484.681	90.94
484.9	94.94
485.118	102.94
485.336	95.94
485.554	95.94
485.772	98.94
485.99	101.94
486.209	105.94
486.427	108.94
486.645	116.94
486.863	97.94
487.081	80.94
487.299	96.94
487.517	89.94
487.735	88.94
487.953	91.94
488.171	103.94
488.389	88.94
488.607	107.94
488.825	97.94
489.043	100.94
489.261	84.94
489.479	88.94
489.696	86.94
489.914	86.94
490.132	97.94
490.35	85.94
490.568	76.94
490.786	81.94
491.003	82.94
491.221	89.94
491.439	85.94
491.657	99.94
491.874	96.94
492.092	102.94
492.31	84.94
492.527	87.94
492.745	97.94
492.963	77.94
493.18	97.94
493.398	98.94
493.615	94.94
493.833	94.94
494.05	111.94
494.268	79.94
494.485	98.94
494.703	83.94
494.92	90.94
495.138	74.94
495.355	99.94
495.573	99.94
495.79	99.94
496.008	86.94
496.225	108.94
496.442	88.94
496.66	85.94
496.877	79.94
497.094	87.94
497.312	100.94
497.529	99.94
497.746	85.94
497.963	95.94
498.181	85.94
498.398	100.94
498.615	102.94
498.832	94.94
499.049	80.94
499.267	88.94
499.484	95.94
499.701	89.94
499.918	90.94
500.135	101.94
500.352	91.94
500.569	92.94
500.786	97.94
501.003	102.94
501.22	81.94
501.437	91.94
501.654	101.94
501.871	96.94
502.088	91.94
502.305	103.94
502.522	89.94
502.739	74.94
502.956	87.94
503.172	98.94
503.389	93.94
503.606	100.94
503.823	85.94
504.04	83.94
504.256	87.94
504.473	91.94
504.69	101.94
504.907	93.94
505.123	83.94
505.34	85.94
505.557	98.94
505.773	73.94
505.99	78.94
506.207	89.94
506.423	89.94
506.64	98.94
506.856	78.94
507.073	82.94
507.289	99.94
507.506	99.94
507.722	97.94
507.939	104.94
508.155	94.94
508.372	79.94
508.588	100.94
508.805	96.94
509.021	91.94
509.238	109.94
509.454	101.94
509.67	95.94
509.887	100.94
510.103	126.94
510.319	186.94
510.536	658.94
510.752	1951.94
510.968	599.94
511.184	147.94
511.401	101.94
511.617	89.94
511.833	86.94
512.049	90.94
512.265	88.94
512.481	88.94
512.698	75.94
512.914	86.94
513.13	100.94
513.346	95.94
513.562	92.94
513.778	98.94
513.994	90.94
514.21	99.94
514.426	115.94
514.642	117.94
514.858	121.94
515.074	137.94
515.29	381.94
515.506	1222.94
515.721	473.94
515.937	139.94
