Data from Circ_2015_H10_HRD10591_00044.txt Node
Date: Wed Jan 03 10:00:31 EST 2024
User: Yrep
Spectrometer: HR+D1059
Trigger mode: 1
Integration Time (sec): 1.000000E-1
Scans to average: 1
Electric dark correction enabled: true
Nonlinearity correction enabled: false
Boxcar width: 0
XAxis mode: Wavelengths
Number of Pixels in Spectrum: 2048
>>>>>Begin Spectral Data<<<<<
223.165	-20.75
223.4	-20.75
223.635	-20.75
223.869	-5.75
224.104	-18.75
224.338	-7.75
224.573	-20.75
224.808	-11.75
225.042	-4.75
225.277	4.25
225.511	-7.75
225.746	4.25
225.98	0.25
226.215	6.25
226.449	33.25
226.683	-1.75
226.918	24.25
227.152	27.25
227.387	41.25
227.621	39.25
227.856	37.25
228.09	42.25
228.324	47.25
228.559	57.25
228.793	153.25
229.027	440.25
229.262	500.25
229.496	576.25
229.73	736.25
229.964	768.25
230.199	536.25
230.433	475.25
230.667	469.25
230.901	439.25
231.136	438.25
231.37	443.25
231.604	432.25
231.838	443.25
232.072	446.25
232.306	476.25
232.541	461.25
232.775	449.25
233.009	447.25
233.243	471.25
233.477	494.25
233.711	483.25
233.945	501.25
234.179	516.25
234.413	490.25
234.647	518.25
234.881	486.25
235.115	522.25
235.349	532.25
235.583	566.25
235.817	604.25
236.051	609.25
236.285	590.25
236.519	595.25
236.753	675.25
236.987	871.25
237.221	1334.25
237.455	1453.25
237.689	875.25
237.922	717.25
238.156	702.25
238.39	689.25
238.624	624.25
238.858	621.25
239.091	638.25
239.325	630.25
239.559	684.25
239.793	708.25
240.027	759.25
240.26	876.25
240.494	945.25
240.728	911.25
240.961	871.25
241.195	799.25
241.429	773.25
241.662	749.25
241.896	776.25
242.13	780.25
242.363	757.25
242.597	810.25
242.83	811.25
243.064	819.25
243.298	827.25
243.531	821.25
243.765	828.25
243.998	844.25
244.232	855.25
244.465	874.25
244.699	899.25
244.932	912.25
245.166	883.25
245.399	888.25
245.633	868.25
245.866	898.25
246.099	940.25
246.333	933.25
246.566	927.25
246.8	966.25
247.033	1018.25
247.266	1023.25
247.5	1134.25
247.733	1143.25
247.966	1115.25
248.2	1078.25
248.433	1125.25
248.666	1220.25
248.899	1340.25
249.133	1399.25
249.366	1412.25
249.599	1303.25
249.832	1274.25
250.066	1342.25
250.299	1493.25
250.532	1767.25
250.765	1834.25
250.998	1851.25
251.231	1709.25
251.465	1515.25
251.698	1453.25
251.931	1418.25
252.164	1370.25
252.397	1410.25
252.63	1446.25
252.863	1544.25
253.096	1637.25
253.329	1668.25
253.562	1602.25
253.795	1527.25
254.028	1554.25
254.261	1627.25
254.494	1806.25
254.727	2159.25
254.96	2202.25
255.193	1970.25
255.426	1852.25
255.659	1907.25
255.892	2277.25
256.124	2651.25
256.357	2395.25
256.59	1960.25
256.823	1746.25
257.056	1652.25
257.289	1618.25
257.521	1614.25
257.754	1593.25
257.987	1573.25
258.22	1554.25
258.452	1566.25
258.685	1602.25
258.918	1573.25
259.151	1670.25
259.383	1657.25
259.616	1680.25
259.849	1753.25
260.081	1888.25
260.314	2074.25
260.547	1922.25
260.779	1819.25
261.012	1729.25
261.244	1689.25
261.477	1698.25
261.71	1686.25
261.942	1744.25
262.175	1758.25
262.407	1693.25
262.64	1607.25
262.872	1627.25
263.105	1652.25
263.337	1615.25
263.57	1659.25
263.802	1694.25
264.035	1648.25
264.267	1665.25
264.499	1700.25
264.732	1695.25
264.964	1662.25
265.197	1685.25
265.429	1755.25
265.661	1736.25
265.894	1733.25
266.126	1733.25
266.358	1729.25
266.591	1805.25
266.823	1840.25
267.055	1861.25
267.287	1873.25
267.52	1837.25
267.752	1830.25
267.984	1813.25
268.216	1885.25
268.448	1940.25
268.681	1975.25
268.913	2082.25
269.145	2288.25
269.377	2334.25
269.609	2275.25
269.841	2247.25
270.073	2287.25
270.306	2563.25
270.538	2725.25
270.77	2585.25
271.002	2358.25
271.234	2360.25
271.466	2556.25
271.698	2635.25
271.93	2654.25
272.162	2646.25
272.394	2559.25
272.626	2409.25
272.858	2354.25
273.09	2264.25
273.322	2234.25
273.553	2202.25
273.785	2250.25
274.017	2236.25
274.249	2236.25
274.481	2265.25
274.713	2285.25
274.945	2304.25
275.176	2293.25
275.408	2241.25
275.64	2266.25
275.872	2267.25
276.104	2309.25
276.335	2316.25
276.567	2400.25
276.799	2587.25
277.031	2772.25
277.262	2919.25
277.494	2800.25
277.726	2631.25
277.957	2530.25
278.189	2425.25
278.421	2440.25
278.652	2359.25
278.884	2398.25
279.115	2359.25
279.347	2422.25
279.579	2361.25
279.81	2470.25
280.042	2468.25
280.273	2540.25
280.505	2506.25
280.736	2500.25
280.968	2496.25
281.199	2465.25
281.431	2502.25
281.662	2508.25
281.894	2493.25
282.125	2532.25
282.356	2698.25
282.588	2785.25
282.819	2657.25
283.051	2586.25
283.282	2522.25
283.513	2510.25
283.745	2568.25
283.976	2655.25
284.207	2620.25
284.439	2605.25
284.67	2612.25
284.901	2594.25
285.132	2616.25
285.364	2628.25
285.595	2648.25
285.826	2635.25
286.057	2725.25
286.288	2648.25
286.52	2654.25
286.751	2700.25
286.982	2708.25
287.213	2727.25
287.444	2715.25
287.675	2782.25
287.906	2894.25
288.138	2902.25
288.369	2947.25
288.6	2902.25
288.831	2847.25
289.062	2780.25
289.293	2790.25
289.524	2817.25
289.755	2775.25
289.986	2748.25
290.217	2797.25
290.448	2816.25
290.679	2818.25
290.91	2765.25
291.141	2804.25
291.371	2769.25
291.602	2763.25
291.833	2746.25
292.064	2756.25
292.295	2865.25
292.526	2811.25
292.757	2787.25
292.987	2842.25
293.218	2782.25
293.449	2864.25
293.68	2830.25
293.91	2813.25
294.141	2812.25
294.372	2807.25
294.603	2810.25
294.833	2841.25
295.064	2834.25
295.295	2864.25
295.525	2877.25
295.756	2903.25
295.987	3013.25
296.217	3159.25
296.448	3082.25
296.679	2973.25
296.909	2938.25
297.14	2934.25
297.37	2974.25
297.601	3038.25
297.831	3013.25
298.062	3047.25
298.292	3025.25
298.523	3065.25
298.753	3062.25
298.984	3067.25
299.214	3115.25
299.445	3067.25
299.675	3091.25
299.905	3144.25
300.136	3040.25
300.366	3193.25
300.597	3154.25
300.827	3235.25
301.057	3278.25
301.288	3387.25
301.518	3314.25
301.748	3303.25
301.979	3382.25
302.209	3334.25
302.439	3314.25
302.669	3314.25
302.9	3274.25
303.13	3246.25
303.36	3348.25
303.59	3369.25
303.82	3365.25
304.051	3382.25
304.281	3288.25
304.511	3181.25
304.741	3245.25
304.971	3293.25
305.201	3277.25
305.431	3273.25
305.661	3270.25
305.891	3201.25
306.121	3253.25
306.352	3337.25
306.582	3293.25
306.812	3274.25
307.042	3257.25
307.272	3308.25
307.502	3347.25
307.731	3288.25
307.961	3344.25
308.191	3291.25
308.421	3222.25
308.651	3287.25
308.881	3313.25
309.111	3350.25
309.341	3387.25
309.571	3440.25
309.8	3488.25
310.03	3549.25
310.26	3599.25
310.49	3594.25
310.72	3675.25
310.949	3728.25
311.179	3658.25
311.409	3626.25
311.639	3563.25
311.868	3662.25
312.098	3711.25
312.328	3729.25
312.557	3896.25
312.787	3908.25
313.017	3838.25
313.246	3752.25
313.476	3713.25
313.706	3746.25
313.935	3849.25
314.165	3879.25
314.394	3922.25
314.624	3921.25
314.853	3809.25
315.083	3736.25
315.312	3736.25
315.542	3714.25
315.771	3645.25
316.001	3717.25
316.23	3614.25
316.46	3640.25
316.689	3713.25
316.919	3708.25
317.148	3784.25
317.377	3774.25
317.607	3789.25
317.836	3712.25
318.065	3665.25
318.295	3688.25
318.524	3701.25
318.753	3628.25
318.983	3686.25
319.212	3688.25
319.441	3786.25
319.67	3786.25
319.9	3668.25
320.129	3673.25
320.358	3735.25
320.587	3757.25
320.816	3835.25
321.046	3896.25
321.275	3813.25
321.504	3868.25
321.733	3911.25
321.962	3962.25
322.191	4026.25
322.42	4091.25
322.649	4230.25
322.878	4234.25
323.108	4357.25
323.337	4594.25
323.566	4767.25
323.795	5081.25
324.024	5587.25
324.253	7430.25
324.482	11069.25
324.71	15330.25
324.939	15598.25
325.168	13011.25
325.397	6566.25
325.626	5385.25
325.855	4950.25
326.084	4880.25
326.313	4924.25
326.542	5044.25
326.77	5715.25
326.999	7165.25
327.228	10580.25
327.457	14524.25
327.686	13737.25
327.914	7733.25
328.143	6577.25
328.372	6291.25
328.6	5794.25
328.829	5609.25
329.058	5722.25
329.287	5753.25
329.515	5493.25
329.744	5493.25
329.972	6130.25
330.201	6964.25
330.43	7461.25
330.658	6736.25
330.887	6352.25
331.115	5695.25
331.344	5241.25
331.572	5140.25
331.801	5223.25
332.03	5221.25
332.258	5164.25
332.486	5225.25
332.715	5305.25
332.943	5447.25
333.172	5675.25
333.4	5891.25
333.629	6106.25
333.857	6557.25
334.085	7094.25
334.314	8114.25
334.542	9152.25
334.771	8516.25
334.999	6632.25
335.227	5907.25
335.455	5508.25
335.684	5357.25
335.912	5198.25
336.14	5079.25
336.369	4989.25
336.597	5100.25
336.825	5066.25
337.053	4875.25
337.281	4820.25
337.51	4740.25
337.738	4829.25
337.966	4724.25
338.194	4766.25
338.422	4644.25
338.65	4590.25
338.878	4566.25
339.106	4459.25
339.334	4523.25
339.562	4450.25
339.79	4370.25
340.018	4420.25
340.246	4396.25
340.474	4449.25
340.702	4391.25
340.93	4377.25
341.158	4360.25
341.386	4365.25
341.614	4452.25
341.842	4334.25
342.07	4294.25
342.298	4264.25
342.526	4284.25
342.754	4268.25
342.981	4316.25
343.209	4418.25
343.437	4635.25
343.665	4847.25
343.893	5114.25
344.12	5148.25
344.348	4909.25
344.576	4725.25
344.804	4658.25
345.031	4605.25
345.259	4552.25
345.487	4422.25
345.714	4350.25
345.942	4254.25
346.17	4216.25
346.397	4251.25
346.625	4149.25
346.853	4250.25
347.08	4199.25
347.308	4231.25
347.535	4243.25
347.763	4320.25
347.99	4237.25
348.218	4244.25
348.445	4315.25
348.673	4258.25
348.9	4188.25
349.128	4100.25
349.355	4029.25
349.583	3989.25
349.81	4000.25
350.037	4008.25
350.265	4068.25
350.492	3974.25
350.72	4057.25
350.947	4032.25
351.174	4123.25
351.402	4195.25
351.629	4128.25
351.856	4181.25
352.083	4178.25
352.311	4253.25
352.538	4264.25
352.765	4209.25
352.992	4154.25
353.22	4111.25
353.447	4088.25
353.674	3993.25
353.901	4002.25
354.128	3917.25
354.355	3936.25
354.583	3986.25
354.81	4003.25
355.037	3908.25
355.264	3947.25
355.491	3909.25
355.718	3896.25
355.945	3919.25
356.172	3898.25
356.399	3917.25
356.626	3903.25
356.853	3938.25
357.08	3863.25
357.307	3917.25
357.534	4009.25
357.761	3954.25
357.988	3935.25
358.215	3978.25
358.441	3970.25
358.668	4010.25
358.895	4059.25
359.122	4076.25
359.349	4126.25
359.576	4257.25
359.802	4360.25
360.029	4564.25
360.256	4570.25
360.483	4383.25
360.709	4166.25
360.936	4188.25
361.163	4152.25
361.39	4252.25
361.616	4196.25
361.843	4151.25
362.07	4195.25
362.296	4183.25
362.523	4107.25
362.749	4174.25
362.976	4126.25
363.203	4001.25
363.429	4035.25
363.656	4055.25
363.882	4059.25
364.109	4028.25
364.335	4031.25
364.562	4071.25
364.788	3985.25
365.015	4033.25
365.241	4091.25
365.468	4089.25
365.694	4081.25
365.92	4062.25
366.147	4018.25
366.373	3977.25
366.599	4030.25
366.826	3997.25
367.052	3997.25
367.278	4020.25
367.505	4037.25
367.731	4064.25
367.957	4073.25
368.184	4109.25
368.41	4182.25
368.636	4259.25
368.862	4242.25
369.089	4169.25
369.315	4088.25
369.541	4081.25
369.767	4151.25
369.993	4192.25
370.219	4189.25
370.445	4183.25
370.672	4181.25
370.898	4129.25
371.124	4293.25
371.35	4272.25
371.576	4246.25
371.802	4285.25
372.028	4257.25
372.254	4338.25
372.48	4310.25
372.706	4392.25
372.932	4499.25
373.158	4484.25
373.384	4354.25
373.61	4330.25
373.835	4336.25
374.061	4267.25
374.287	4413.25
374.513	4485.25
374.739	4589.25
374.965	4709.25
375.191	4671.25
375.416	4592.25
375.642	4473.25
375.868	4416.25
376.094	4349.25
376.319	4326.25
376.545	4337.25
376.771	4339.25
376.997	4283.25
377.222	4298.25
377.448	4272.25
377.674	4234.25
377.899	4192.25
378.125	4199.25
378.35	4244.25
378.576	4240.25
378.802	4211.25
379.027	4235.25
379.253	4203.25
379.478	4210.25
379.704	4212.25
379.929	4299.25
380.155	4259.25
380.38	4232.25
380.606	4345.25
380.831	4267.25
381.057	4325.25
381.282	4236.25
381.507	4302.25
381.733	4384.25
381.958	4369.25
382.184	4464.25
382.409	4518.25
382.634	4516.25
382.86	4467.25
383.085	4594.25
383.31	4667.25
383.535	4753.25
383.761	4805.25
383.986	4835.25
384.211	4939.25
384.436	4967.25
384.662	5058.25
384.887	5145.25
385.112	5053.25
385.337	5160.25
385.562	5205.25
385.787	5085.25
386.013	5288.25
386.238	5261.25
386.463	5232.25
386.688	5154.25
386.913	5094.25
387.138	5131.25
387.363	5154.25
387.588	5058.25
387.813	5122.25
388.038	5111.25
388.263	5159.25
388.488	5176.25
388.713	5115.25
388.938	5057.25
389.163	5100.25
389.387	5095.25
389.612	4996.25
389.837	5013.25
390.062	4989.25
390.287	4979.25
390.512	5030.25
390.736	5139.25
390.961	5170.25
391.186	5328.25
391.411	5462.25
391.636	5534.25
391.86	5704.25
392.085	5759.25
392.31	5691.25
392.534	5540.25
392.759	5417.25
392.984	5275.25
393.208	5276.25
393.433	5287.25
393.658	5329.25
393.882	5285.25
394.107	5301.25
394.331	5430.25
394.556	5318.25
394.78	5435.25
395.005	5490.25
395.229	5477.25
395.454	5600.25
395.678	5803.25
395.903	5760.25
396.127	5870.25
396.352	5620.25
396.576	5391.25
396.801	5378.25
397.025	5492.25
397.249	5602.25
397.474	5673.25
397.698	5716.25
397.922	5984.25
398.147	6040.25
398.371	6074.25
398.595	6185.25
398.82	6507.25
399.044	7066.25
399.268	7741.25
399.492	8811.25
399.717	9470.25
399.941	9248.25
400.165	8575.25
400.389	7915.25
400.613	7187.25
400.837	6800.25
401.062	6632.25
401.286	6500.25
401.51	6498.25
401.734	6415.25
401.958	6595.25
402.182	6657.25
402.406	6749.25
402.63	6804.25
402.854	6939.25
403.078	7000.25
403.302	7165.25
403.526	7325.25
403.75	7320.25
403.974	7344.25
404.198	7430.25
404.422	7535.25
404.645	7497.25
404.869	7610.25
405.093	8072.25
405.317	8425.25
405.541	8304.25
405.765	7646.25
405.988	7369.25
406.212	7455.25
406.436	7528.25
406.66	7673.25
406.883	7651.25
407.107	8274.25
407.331	8763.25
407.555	9194.25
407.778	8899.25
408.002	8170.25
408.226	7754.25
408.449	7681.25
408.673	7559.25
408.896	7688.25
409.12	7840.25
409.344	7381.25
409.567	7192.25
409.791	7103.25
410.014	6989.25
410.238	6968.25
410.461	7007.25
410.685	7057.25
410.908	7089.25
411.132	7348.25
411.355	7310.25
411.578	6952.25
411.802	6754.25
412.025	6864.25
412.249	7228.25
412.472	7594.25
412.695	8004.25
412.919	7361.25
413.142	7057.25
413.365	6798.25
413.589	6720.25
413.812	6489.25
414.035	6387.25
414.258	6370.25
414.482	6499.25
414.705	6408.25
414.928	6469.25
415.151	6378.25
415.374	6382.25
415.597	6308.25
415.821	6289.25
416.044	6275.25
416.267	6299.25
416.49	6193.25
416.713	6211.25
416.936	6238.25
417.159	6251.25
417.382	6384.25
417.605	6428.25
417.828	6530.25
418.051	6700.25
418.274	6457.25
418.497	6322.25
418.72	6457.25
418.943	6515.25
419.166	6880.25
419.389	7267.25
419.611	7172.25
419.834	7065.25
420.057	7121.25
420.28	7093.25
420.503	6965.25
420.726	6750.25
420.948	6907.25
421.171	7189.25
421.394	7051.25
421.617	6581.25
421.839	6575.25
422.062	6686.25
422.285	6720.25
422.507	7371.25
422.73	7916.25
422.953	7218.25
423.175	6903.25
423.398	6940.25
423.621	6943.25
423.843	7189.25
424.066	7173.25
424.288	7025.25
424.511	7260.25
424.733	7730.25
424.956	8187.25
425.178	7616.25
425.401	7772.25
425.623	7601.25
425.846	6804.25
426.068	6587.25
426.291	6535.25
426.513	6475.25
426.735	6577.25
426.958	7037.25
427.18	7904.25
427.402	9037.25
427.625	9306.25
427.847	8137.25
428.069	7634.25
428.292	6671.25
428.514	6186.25
428.736	5984.25
428.958	5982.25
429.181	5776.25
429.403	5801.25
429.625	5938.25
429.847	6233.25
430.069	6768.25
430.292	6347.25
430.514	5781.25
430.736	5809.25
430.958	5674.25
431.18	5616.25
431.402	5647.25
431.624	5565.25
431.846	5710.25
432.068	5679.25
432.29	5753.25
432.512	5676.25
432.734	5798.25
432.956	5698.25
433.178	5794.25
433.4	5721.25
433.622	5660.25
433.844	5739.25
434.066	5749.25
434.287	5764.25
434.509	6161.25
434.731	6298.25
434.953	6414.25
435.175	6528.25
435.397	6552.25
435.618	6564.25
435.84	6908.25
436.062	7806.25
436.284	7717.25
436.505	6454.25
436.727	6181.25
436.949	5888.25
437.17	5692.25
437.392	5696.25
437.614	5853.25
437.835	6363.25
438.057	7282.25
438.278	7947.25
438.5	7801.25
438.721	8627.25
438.943	7562.25
439.165	6368.25
439.386	6137.25
439.608	6141.25
439.829	6267.25
440.05	6548.25
440.272	6986.25
440.493	6490.25
440.715	6155.25
440.936	6091.25
441.158	6034.25
441.379	6295.25
441.6	6473.25
441.822	6786.25
442.043	7194.25
442.264	7917.25
442.486	7637.25
442.707	6757.25
442.928	6654.25
443.149	6788.25
443.371	7115.25
443.592	7596.25
443.813	8640.25
444.034	8507.25
444.255	7405.25
444.476	7268.25
444.698	7404.25
444.919	7543.25
445.14	7288.25
445.361	7125.25
445.582	7318.25
445.803	7998.25
446.024	8542.25
446.245	8260.25
446.466	7350.25
446.687	6308.25
446.908	6138.25
447.129	5675.25
447.35	5565.25
447.571	5576.25
447.792	5458.25
448.013	5582.25
448.234	5857.25
448.455	6469.25
448.675	7674.25
448.896	8074.25
449.117	6619.25
449.338	6846.25
449.559	8195.25
449.779	8310.25
450	6395.25
450.221	5616.25
450.442	5384.25
450.662	5436.25
450.883	5504.25
451.104	5576.25
451.324	5351.25
451.545	5265.25
451.766	5194.25
451.986	5059.25
452.207	5049.25
452.428	4948.25
452.648	5037.25
452.869	5073.25
453.089	5092.25
453.31	5226.25
453.53	5034.25
453.751	4983.25
453.971	5026.25
454.192	5142.25
454.412	4930.25
454.633	4892.25
454.853	4847.25
455.073	4912.25
455.294	5219.25
455.514	5684.25
455.734	5335.25
455.955	4704.25
456.175	4658.25
456.395	4656.25
456.616	4557.25
456.836	4656.25
457.056	4588.25
457.276	4605.25
457.497	4750.25
457.717	4671.25
457.937	4711.25
458.157	4838.25
458.377	4882.25
458.598	5277.25
458.818	5964.25
459.038	6656.25
459.258	6544.25
459.478	5892.25
459.698	5773.25
459.918	5794.25
460.138	6002.25
460.358	6261.25
460.578	6211.25
460.798	6357.25
461.018	6302.25
461.238	6178.25
461.458	6201.25
461.678	6180.25
461.898	6342.25
462.118	6350.25
462.338	6688.25
462.558	6763.25
462.777	7116.25
462.997	7669.25
463.217	7970.25
463.437	7912.25
463.657	7213.25
463.876	7064.25
464.096	7135.25
464.316	7077.25
464.536	7135.25
464.755	6937.25
464.975	6840.25
465.195	6918.25
465.414	7048.25
465.634	6178.25
465.854	5906.25
466.073	5656.25
466.293	5447.25
466.512	5304.25
466.732	5173.25
466.951	5238.25
467.171	5226.25
467.391	5264.25
467.61	5397.25
467.829	5349.25
468.049	5472.25
468.268	5664.25
468.488	5229.25
468.707	5150.25
468.927	5084.25
469.146	5028.25
469.365	5075.25
469.585	5114.25
469.804	5310.25
470.023	5466.25
470.243	5438.25
470.462	5409.25
470.681	5591.25
470.901	5552.25
471.12	5364.25
471.339	5309.25
471.558	5363.25
471.777	5304.25
471.997	5314.25
472.216	5908.25
472.435	7031.25
472.654	6200.25
472.873	5536.25
473.092	5321.25
473.311	5206.25
473.53	5134.25
473.749	5282.25
473.968	5772.25
474.187	6684.25
474.406	6281.25
474.625	5292.25
474.844	5053.25
475.063	5031.25
475.282	5040.25
475.501	5129.25
475.72	5154.25
475.939	5195.25
476.158	5292.25
476.377	5234.25
476.596	5248.25
476.814	5416.25
477.033	5361.25
477.252	5497.25
477.471	5555.25
477.69	5661.25
477.908	5800.25
478.127	5869.25
478.346	5945.25
478.564	6074.25
478.783	6204.25
479.002	6246.25
479.22	6325.25
479.439	6439.25
479.658	6507.25
479.876	6673.25
480.095	6880.25
480.313	7248.25
480.532	7245.25
480.751	7313.25
480.969	7803.25
481.188	9890.25
481.406	10024.25
481.624	7821.25
481.843	7087.25
482.061	6696.25
482.28	6442.25
482.498	6182.25
482.717	6135.25
482.935	6131.25
483.153	6063.25
483.372	6040.25
483.59	6004.25
483.808	5987.25
484.027	5957.25
484.245	6037.25
484.463	6067.25
484.681	6119.25
484.9	6200.25
485.118	6218.25
485.336	6286.25
485.554	6305.25
485.772	6406.25
485.99	6343.25
486.209	6328.25
486.427	6417.25
486.645	6442.25
486.863	6572.25
487.081	6502.25
487.299	6427.25
487.517	6423.25
487.735	6372.25
487.953	6410.25
