Data from Circ_2015_H10_HRD10591_00018.txt Node
Date: Wed Jan 03 10:00:26 EST 2024
User: Yrep
Spectrometer: HR+D1059
Trigger mode: 1
Integration Time (sec): 1.000000E-1
Scans to average: 1
Electric dark correction enabled: true
Nonlinearity correction enabled: false
Boxcar width: 0
XAxis mode: Wavelengths
Number of Pixels in Spectrum: 2048
>>>>>Begin Spectral Data<<<<<
223.165	-13.62
223.4	-13.62
223.635	-13.62
223.869	-22.62
224.104	-5.62
224.338	-18.62
224.573	-1.62
224.808	-22.62
225.042	-6.62
225.277	1.38
225.511	-5.62
225.746	2.38
225.98	1.38
226.215	14.38
226.449	8.38
226.683	30.38
226.918	18.38
227.152	20.38
227.387	37.38
227.621	40.38
227.856	24.38
228.09	42.38
228.324	42.38
228.559	55.38
228.793	69.38
229.027	43.38
229.262	69.38
229.496	78.38
229.73	86.38
229.964	79.38
230.199	76.38
230.433	72.38
230.667	66.38
230.901	86.38
231.136	88.38
231.37	92.38
231.604	81.38
231.838	85.38
232.072	72.38
232.306	87.38
232.541	70.38
232.775	80.38
233.009	77.38
233.243	92.38
233.477	81.38
233.711	79.38
233.945	91.38
234.179	67.38
234.413	80.38
234.647	90.38
234.881	78.38
235.115	82.38
235.349	78.38
235.583	81.38
235.817	76.38
236.051	89.38
236.285	87.38
236.519	92.38
236.753	77.38
236.987	84.38
237.221	75.38
237.455	96.38
237.689	69.38
237.922	77.38
238.156	82.38
238.39	68.38
238.624	67.38
238.858	68.38
239.091	84.38
239.325	71.38
239.559	76.38
239.793	94.38
240.027	75.38
240.26	79.38
240.494	75.38
240.728	77.38
240.961	84.38
241.195	77.38
241.429	78.38
241.662	70.38
241.896	72.38
242.13	72.38
242.363	83.38
242.597	76.38
242.83	75.38
243.064	71.38
243.298	81.38
243.531	78.38
243.765	73.38
243.998	74.38
244.232	68.38
244.465	82.38
244.699	68.38
244.932	86.38
245.166	77.38
245.399	89.38
245.633	78.38
245.866	82.38
246.099	75.38
246.333	88.38
246.566	78.38
246.8	80.38
247.033	65.38
247.266	81.38
247.5	71.38
247.733	83.38
247.966	70.38
248.2	79.38
248.433	73.38
248.666	78.38
248.899	95.38
249.133	90.38
249.366	85.38
249.599	102.38
249.832	71.38
250.066	81.38
250.299	82.38
250.532	77.38
250.765	61.38
250.998	85.38
251.231	79.38
251.465	87.38
251.698	76.38
251.931	85.38
252.164	77.38
252.397	89.38
252.63	82.38
252.863	77.38
253.096	89.38
253.329	84.38
253.562	81.38
253.795	77.38
254.028	85.38
254.261	89.38
254.494	85.38
254.727	84.38
254.96	84.38
255.193	78.38
255.426	85.38
255.659	82.38
255.892	79.38
256.124	82.38
256.357	67.38
256.59	82.38
256.823	80.38
257.056	75.38
257.289	93.38
257.521	82.38
257.754	80.38
257.987	85.38
258.22	92.38
258.452	87.38
258.685	83.38
258.918	80.38
259.151	78.38
259.383	83.38
259.616	85.38
259.849	97.38
260.081	79.38
260.314	85.38
260.547	97.38
260.779	72.38
261.012	88.38
261.244	84.38
261.477	81.38
261.71	90.38
261.942	106.38
262.175	114.38
262.407	89.38
262.64	90.38
262.872	84.38
263.105	77.38
263.337	91.38
263.57	90.38
263.802	83.38
264.035	88.38
264.267	84.38
264.499	81.38
264.732	80.38
264.964	76.38
265.197	80.38
265.429	97.38
265.661	88.38
265.894	82.38
266.126	83.38
266.358	68.38
266.591	73.38
266.823	71.38
267.055	78.38
267.287	85.38
267.52	98.38
267.752	73.38
267.984	67.38
268.216	81.38
268.448	81.38
268.681	77.38
268.913	77.38
269.145	74.38
269.377	64.38
269.609	103.38
269.841	88.38
270.073	83.38
270.306	89.38
270.538	94.38
270.77	77.38
271.002	81.38
271.234	81.38
271.466	94.38
271.698	94.38
271.93	96.38
272.162	89.38
272.394	82.38
272.626	75.38
272.858	77.38
273.09	76.38
273.322	68.38
273.553	70.38
273.785	86.38
274.017	93.38
274.249	83.38
274.481	82.38
274.713	90.38
274.945	83.38
275.176	84.38
275.408	83.38
275.64	86.38
275.872	90.38
276.104	84.38
276.335	93.38
276.567	108.38
276.799	88.38
277.031	105.38
277.262	94.38
277.494	87.38
277.726	74.38
277.957	84.38
278.189	81.38
278.421	83.38
278.652	74.38
278.884	73.38
279.115	89.38
279.347	90.38
279.579	89.38
279.81	87.38
280.042	101.38
280.273	97.38
280.505	106.38
280.736	73.38
280.968	78.38
281.199	86.38
281.431	96.38
281.662	74.38
281.894	98.38
282.125	95.38
282.356	109.38
282.588	132.38
282.819	99.38
283.051	93.38
283.282	84.38
283.513	95.38
283.745	93.38
283.976	80.38
284.207	93.38
284.439	85.38
284.67	73.38
284.901	101.38
285.132	97.38
285.364	92.38
285.595	82.38
285.826	76.38
286.057	87.38
286.288	85.38
286.52	92.38
286.751	97.38
286.982	87.38
287.213	85.38
287.444	100.38
287.675	89.38
287.906	85.38
288.138	84.38
288.369	80.38
288.6	76.38
288.831	88.38
289.062	96.38
289.293	90.38
289.524	88.38
289.755	82.38
289.986	86.38
290.217	72.38
290.448	75.38
290.679	96.38
290.91	100.38
291.141	84.38
291.371	85.38
291.602	81.38
291.833	92.38
292.064	80.38
292.295	79.38
292.526	92.38
292.757	85.38
292.987	90.38
293.218	98.38
293.449	94.38
293.68	88.38
293.91	92.38
294.141	86.38
294.372	88.38
294.603	98.38
294.833	89.38
295.064	94.38
295.295	88.38
295.525	81.38
295.756	96.38
295.987	117.38
296.217	130.38
296.448	106.38
296.679	91.38
296.909	82.38
297.14	94.38
297.37	84.38
297.601	85.38
297.831	94.38
298.062	99.38
298.292	89.38
298.523	81.38
298.753	84.38
298.984	81.38
299.214	94.38
299.445	89.38
299.675	80.38
299.905	94.38
300.136	89.38
300.366	81.38
300.597	85.38
300.827	85.38
301.057	74.38
301.288	85.38
301.518	102.38
301.748	90.38
301.979	106.38
302.209	88.38
302.439	88.38
302.669	85.38
302.9	86.38
303.13	69.38
303.36	93.38
303.59	88.38
303.82	110.38
304.051	90.38
304.281	86.38
304.511	86.38
304.741	95.38
304.971	90.38
305.201	103.38
305.431	90.38
305.661	100.38
305.891	93.38
306.121	94.38
306.352	100.38
306.582	108.38
306.812	102.38
307.042	94.38
307.272	104.38
307.502	94.38
307.731	91.38
307.961	100.38
308.191	91.38
308.421	89.38
308.651	85.38
308.881	86.38
309.111	85.38
309.341	96.38
309.571	99.38
309.8	87.38
310.03	106.38
310.26	92.38
310.49	79.38
310.72	100.38
310.949	98.38
311.179	101.38
311.409	103.38
311.639	108.38
311.868	97.38
312.098	97.38
312.328	93.38
312.557	100.38
312.787	102.38
313.017	84.38
313.246	90.38
313.476	100.38
313.706	88.38
313.935	90.38
314.165	108.38
314.394	107.38
314.624	91.38
314.853	86.38
315.083	94.38
315.312	81.38
315.542	87.38
315.771	97.38
316.001	97.38
316.23	77.38
316.46	77.38
316.689	80.38
316.919	99.38
317.148	110.38
317.377	86.38
317.607	80.38
317.836	94.38
318.065	103.38
318.295	81.38
318.524	84.38
318.753	100.38
318.983	79.38
319.212	111.38
319.441	108.38
319.67	102.38
319.9	89.38
320.129	86.38
320.358	91.38
320.587	91.38
320.816	100.38
321.046	91.38
321.275	97.38
321.504	89.38
321.733	97.38
321.962	95.38
322.191	108.38
322.42	96.38
322.649	101.38
322.878	106.38
323.108	110.38
323.337	124.38
323.566	120.38
323.795	151.38
324.024	192.38
324.253	381.38
324.482	750.38
324.71	1527.38
324.939	2000.38
325.168	749.38
325.397	227.38
325.626	135.38
325.855	128.38
326.084	120.38
326.313	130.38
326.542	132.38
326.77	206.38
326.999	435.38
327.228	896.38
327.457	1561.38
327.686	1286.38
327.914	364.38
328.143	193.38
328.372	136.38
328.6	118.38
328.829	109.38
329.058	106.38
329.287	122.38
329.515	99.38
329.744	101.38
329.972	141.38
330.201	133.38
330.43	156.38
330.658	124.38
330.887	115.38
331.115	112.38
331.344	96.38
331.572	86.38
331.801	88.38
332.03	93.38
332.258	87.38
332.486	80.38
332.715	86.38
332.943	93.38
333.172	95.38
333.4	93.38
333.629	110.38
333.857	120.38
334.085	115.38
334.314	130.38
334.542	152.38
334.771	152.38
334.999	114.38
335.227	80.38
335.455	86.38
335.684	98.38
335.912	100.38
336.14	104.38
336.369	90.38
336.597	99.38
336.825	103.38
337.053	105.38
337.281	82.38
337.51	80.38
337.738	84.38
337.966	68.38
338.194	95.38
338.422	106.38
338.65	99.38
338.878	92.38
339.106	87.38
339.334	99.38
339.562	72.38
339.79	72.38
340.018	93.38
340.246	114.38
340.474	112.38
340.702	91.38
340.93	101.38
341.158	89.38
341.386	99.38
341.614	89.38
341.842	95.38
342.07	91.38
342.298	103.38
342.526	89.38
342.754	98.38
342.981	86.38
343.209	85.38
343.437	105.38
343.665	85.38
343.893	98.38
344.12	90.38
344.348	94.38
344.576	83.38
344.804	86.38
345.031	95.38
345.259	102.38
345.487	102.38
345.714	106.38
345.942	86.38
346.17	86.38
346.397	89.38
346.625	96.38
346.853	77.38
347.08	99.38
347.308	86.38
347.535	93.38
347.763	92.38
347.99	77.38
348.218	95.38
348.445	99.38
348.673	95.38
348.9	92.38
349.128	101.38
349.355	96.38
349.583	85.38
349.81	106.38
350.037	88.38
350.265	105.38
350.492	90.38
350.72	96.38
350.947	96.38
351.174	118.38
351.402	110.38
351.629	96.38
351.856	105.38
352.083	101.38
352.311	93.38
352.538	101.38
352.765	95.38
352.992	104.38
353.22	103.38
353.447	98.38
353.674	107.38
353.901	77.38
354.128	101.38
354.355	86.38
354.583	106.38
354.81	110.38
355.037	107.38
355.264	105.38
355.491	104.38
355.718	84.38
355.945	96.38
356.172	94.38
356.399	86.38
356.626	104.38
356.853	92.38
357.08	90.38
357.307	91.38
357.534	90.38
357.761	100.38
357.988	93.38
358.215	96.38
358.441	90.38
358.668	88.38
358.895	101.38
359.122	96.38
359.349	87.38
359.576	75.38
359.802	103.38
360.029	100.38
360.256	108.38
360.483	94.38
360.709	94.38
360.936	88.38
361.163	82.38
361.39	83.38
361.616	101.38
361.843	92.38
362.07	94.38
362.296	86.38
362.523	85.38
362.749	81.38
362.976	88.38
363.203	91.38
363.429	86.38
363.656	88.38
363.882	78.38
364.109	106.38
364.335	100.38
364.562	89.38
364.788	82.38
365.015	93.38
365.241	98.38
365.468	109.38
365.694	103.38
365.92	96.38
366.147	93.38
366.373	73.38
366.599	107.38
366.826	101.38
367.052	78.38
367.278	92.38
367.505	85.38
367.731	98.38
367.957	89.38
368.184	98.38
368.41	103.38
368.636	102.38
368.862	99.38
369.089	105.38
369.315	101.38
369.541	94.38
369.767	90.38
369.993	82.38
370.219	96.38
370.445	99.38
370.672	88.38
370.898	85.38
371.124	76.38
371.35	81.38
371.576	78.38
371.802	89.38
372.028	77.38
372.254	91.38
372.48	83.38
372.706	88.38
372.932	90.38
373.158	88.38
373.384	86.38
373.61	91.38
373.835	85.38
374.061	77.38
374.287	94.38
374.513	88.38
374.739	74.38
374.965	90.38
375.191	76.38
375.416	94.38
375.642	104.38
375.868	101.38
376.094	100.38
376.319	83.38
376.545	81.38
376.771	94.38
376.997	89.38
377.222	104.38
377.448	100.38
377.674	101.38
377.899	90.38
378.125	97.38
378.35	94.38
378.576	99.38
378.802	89.38
379.027	95.38
379.253	92.38
379.478	82.38
379.704	105.38
379.929	104.38
380.155	96.38
380.38	87.38
380.606	85.38
380.831	86.38
381.057	105.38
381.282	101.38
381.507	85.38
381.733	93.38
381.958	97.38
382.184	104.38
382.409	96.38
382.634	92.38
382.86	105.38
383.085	103.38
383.31	93.38
383.535	114.38
383.761	113.38
383.986	95.38
384.211	97.38
384.436	101.38
384.662	111.38
384.887	122.38
385.112	137.38
385.337	112.38
385.562	115.38
385.787	110.38
386.013	133.38
386.238	123.38
386.463	113.38
386.688	112.38
386.913	116.38
387.138	118.38
387.363	123.38
387.588	99.38
387.813	116.38
388.038	110.38
388.263	130.38
388.488	127.38
388.713	109.38
388.938	93.38
389.163	78.38
389.387	102.38
389.612	91.38
389.837	97.38
390.062	81.38
390.287	98.38
390.512	83.38
390.736	105.38
390.961	97.38
391.186	96.38
391.411	83.38
391.636	85.38
391.86	90.38
392.085	76.38
392.31	86.38
392.534	88.38
392.759	86.38
392.984	74.38
393.208	86.38
393.433	102.38
393.658	102.38
393.882	84.38
394.107	83.38
394.331	72.38
394.556	74.38
394.78	84.38
395.005	100.38
395.229	77.38
395.454	86.38
395.678	92.38
395.903	64.38
396.127	92.38
396.352	98.38
396.576	96.38
396.801	89.38
397.025	97.38
397.249	83.38
397.474	89.38
397.698	87.38
397.922	72.38
398.147	90.38
398.371	81.38
398.595	85.38
398.82	87.38
399.044	93.38
399.268	79.38
399.492	78.38
399.717	97.38
399.941	88.38
400.165	96.38
400.389	87.38
400.613	83.38
400.837	80.38
401.062	80.38
401.286	87.38
401.51	95.38
401.734	90.38
401.958	85.38
402.182	127.38
402.406	147.38
402.63	107.38
402.854	82.38
403.078	74.38
403.302	94.38
403.526	85.38
403.75	85.38
403.974	86.38
404.198	91.38
404.422	75.38
404.645	81.38
404.869	95.38
405.093	98.38
405.317	99.38
405.541	77.38
405.765	94.38
405.988	113.38
406.212	165.38
406.436	223.38
406.66	137.38
406.883	96.38
407.107	103.38
407.331	89.38
407.555	93.38
407.778	98.38
408.002	97.38
408.226	92.38
408.449	98.38
408.673	85.38
408.896	97.38
409.12	102.38
409.344	87.38
409.567	81.38
409.791	99.38
410.014	84.38
410.238	83.38
410.461	91.38
410.685	94.38
410.908	84.38
411.132	94.38
411.355	94.38
411.578	96.38
411.802	105.38
412.025	86.38
412.249	96.38
412.472	100.38
412.695	92.38
412.919	79.38
413.142	76.38
413.365	89.38
413.589	84.38
413.812	92.38
414.035	99.38
414.258	98.38
414.482	93.38
414.705	90.38
414.928	92.38
415.151	93.38
415.374	100.38
415.597	89.38
415.821	86.38
416.044	91.38
416.267	93.38
416.49	87.38
416.713	100.38
416.936	96.38
417.159	87.38
417.382	102.38
417.605	90.38
417.828	84.38
418.051	86.38
418.274	83.38
418.497	76.38
418.72	91.38
418.943	90.38
419.166	78.38
419.389	98.38
419.611	85.38
419.834	98.38
420.057	88.38
420.28	101.38
420.503	78.38
420.726	94.38
420.948	82.38
421.171	83.38
421.394	89.38
421.617	93.38
421.839	102.38
422.062	107.38
422.285	114.38
422.507	96.38
422.73	94.38
422.953	89.38
423.175	96.38
423.398	92.38
423.621	89.38
423.843	90.38
424.066	96.38
424.288	85.38
424.511	80.38
424.733	89.38
424.956	76.38
425.178	78.38
425.401	102.38
425.623	108.38
425.846	85.38
426.068	79.38
426.291	81.38
426.513	79.38
426.735	90.38
426.958	85.38
427.18	101.38
427.402	133.38
427.625	137.38
427.847	119.38
428.069	109.38
428.292	94.38
428.514	80.38
428.736	97.38
428.958	86.38
429.181	91.38
429.403	87.38
429.625	78.38
429.847	92.38
430.069	101.38
430.292	74.38
430.514	98.38
430.736	95.38
430.958	81.38
431.18	76.38
431.402	86.38
431.624	76.38
431.846	83.38
432.068	77.38
432.29	82.38
432.512	89.38
432.734	82.38
432.956	91.38
433.178	87.38
433.4	91.38
433.622	91.38
433.844	87.38
434.066	91.38
434.287	90.38
434.509	86.38
434.731	75.38
434.953	79.38
435.175	91.38
435.397	93.38
435.618	87.38
435.84	89.38
436.062	118.38
436.284	103.38
436.505	104.38
436.727	107.38
436.949	91.38
437.17	92.38
437.392	92.38
437.614	96.38
437.835	97.38
438.057	133.38
438.278	97.38
438.5	96.38
438.721	122.38
438.943	93.38
439.165	85.38
439.386	91.38
439.608	97.38
439.829	82.38
440.05	120.38
440.272	124.38
440.493	101.38
440.715	88.38
440.936	75.38
441.158	95.38
441.379	85.38
441.6	81.38
441.822	93.38
442.043	83.38
442.264	98.38
442.486	105.38
442.707	89.38
442.928	103.38
443.149	117.38
443.371	127.38
443.592	100.38
443.813	108.38
444.034	94.38
444.255	93.38
444.476	96.38
444.698	102.38
444.919	95.38
445.14	119.38
445.361	113.38
445.582	118.38
445.803	117.38
446.024	128.38
446.245	140.38
446.466	114.38
446.687	96.38
446.908	84.38
447.129	87.38
447.35	87.38
447.571	98.38
447.792	93.38
448.013	92.38
448.234	118.38
448.455	101.38
448.675	105.38
448.896	101.38
449.117	97.38
449.338	87.38
449.559	117.38
449.779	124.38
450	97.38
450.221	95.38
450.442	82.38
450.662	85.38
450.883	99.38
451.104	98.38
451.324	97.38
451.545	89.38
451.766	81.38
451.986	96.38
452.207	89.38
452.428	86.38
452.648	85.38
452.869	99.38
453.089	113.38
453.31	103.38
453.53	99.38
453.751	75.38
453.971	88.38
454.192	93.38
454.412	84.38
454.633	86.38
454.853	86.38
455.073	84.38
455.294	93.38
455.514	92.38
455.734	98.38
455.955	87.38
456.175	84.38
456.395	87.38
456.616	84.38
456.836	84.38
457.056	82.38
457.276	83.38
457.497	88.38
457.717	79.38
457.937	87.38
458.157	87.38
458.377	95.38
458.598	95.38
458.818	125.38
459.038	132.38
459.258	115.38
459.478	100.38
459.698	78.38
459.918	88.38
460.138	88.38
460.358	89.38
460.578	78.38
460.798	78.38
461.018	86.38
461.238	88.38
461.458	85.38
461.678	85.38
461.898	96.38
462.118	78.38
462.338	71.38
462.558	86.38
462.777	90.38
462.997	104.38
463.217	89.38
463.437	83.38
463.657	82.38
463.876	88.38
464.096	97.38
464.316	109.38
464.536	101.38
464.755	90.38
464.975	95.38
465.195	126.38
465.414	140.38
465.634	92.38
465.854	96.38
466.073	88.38
466.293	78.38
466.512	86.38
466.732	71.38
466.951	78.38
467.171	90.38
467.391	90.38
467.61	98.38
467.829	79.38
468.049	87.38
468.268	122.38
468.488	86.38
468.707	88.38
468.927	84.38
469.146	89.38
469.365	80.38
469.585	93.38
469.804	86.38
470.023	90.38
470.243	84.38
470.462	99.38
470.681	99.38
470.901	94.38
471.12	80.38
471.339	93.38
471.558	94.38
471.777	83.38
471.997	98.38
472.216	136.38
472.435	175.38
472.654	107.38
472.873	98.38
473.092	76.38
473.311	80.38
473.53	95.38
473.749	92.38
473.968	78.38
474.187	104.38
474.406	87.38
474.625	105.38
474.844	93.38
475.063	91.38
475.282	93.38
475.501	92.38
475.72	91.38
475.939	91.38
476.158	98.38
476.377	86.38
476.596	74.38
476.814	103.38
477.033	83.38
477.252	86.38
477.471	70.38
477.69	89.38
477.908	86.38
478.127	88.38
478.346	78.38
478.564	91.38
478.783	91.38
479.002	91.38
479.22	90.38
479.439	96.38
479.658	107.38
479.876	99.38
480.095	96.38
480.313	92.38
480.532	89.38
480.751	107.38
480.969	133.38
481.188	250.38
481.406	206.38
481.624	114.38
481.843	92.38
482.061	82.38
482.28	92.38
482.498	93.38
482.717	89.38
482.935	102.38
483.153	71.38
483.372	84.38
483.59	91.38
483.808	80.38
484.027	86.38
484.245	83.38
484.463	91.38
484.681	84.38
484.9	97.38
485.118	98.38
485.336	93.38
485.554	88.38
485.772	91.38
485.99	99.38
486.209	106.38
486.427	110.38
486.645	106.38
486.863	114.38
487.081	92.38
487.299	99.38
487.517	90.38
487.735	92.38
487.953	100.38
488.171	93.38
488.389	90.38
488.607	98.38
488.825	92.38
489.043	73.38
489.261	91.38
489.479	93.38
489.696	96.38
489.914	101.38
490.132	79.38
490.35	85.38
490.568	77.38
490.786	86.38
491.003	88.38
491.221	93.38
491.439	84.38
491.657	102.38
491.874	81.38
492.092	85.38
492.31	91.38
492.527	81.38
492.745	94.38
492.963	95.38
493.18	96.38
493.398	101.38
493.615	102.38
493.833	89.38
494.05	85.38
494.268	97.38
494.485	97.38
494.703	95.38
494.92	85.38
495.138	83.38
495.355	86.38
495.573	92.38
495.79	90.38
496.008	99.38
496.225	88.38
496.442	84.38
496.66	86.38
496.877	88.38
497.094	87.38
497.312	90.38
497.529	96.38
497.746	88.38
497.963	80.38
498.181	89.38
498.398	78.38
498.615	92.38
498.832	88.38
499.049	96.38
499.267	90.38
499.484	93.38
499.701	82.38
499.918	73.38
500.135	66.38
500.352	95.38
500.569	90.38
500.786	95.38
501.003	110.38
501.22	101.38
501.437	92.38
501.654	98.38
501.871	93.38
502.088	89.38
502.305	89.38
502.522	102.38
502.739	95.38
502.956	96.38
503.172	82.38
503.389	88.38
503.606	102.38
503.823	92.38
504.04	86.38
504.256	89.38
504.473	84.38
504.69	88.38
504.907	101.38
505.123	81.38
505.34	88.38
505.557	95.38
505.773	95.38
505.99	93.38
506.207	98.38
506.423	83.38
506.64	82.38
506.856	91.38
507.073	94.38
507.289	77.38
507.506	97.38
507.722	104.38
507.939	114.38
508.155	96.38
508.372	92.38
508.588	105.38
508.805	95.38
509.021	85.38
509.238	96.38
509.454	114.38
509.67	119.38
509.887	103.38
510.103	102.38
510.319	193.38
510.536	653.38
510.752	2112.38
510.968	666.38
511.184	156.38
511.401	102.38
511.617	98.38
511.833	95.38
512.049	93.38
512.265	116.38
512.481	85.38
512.698	93.38
512.914	86.38
513.13	85.38
513.346	98.38
513.562	92.38
513.778	85.38
513.994	91.38
514.21	100.38
514.426	102.38
514.642	107.38
514.858	114.38
515.074	134.38
515.29	371.38
515.506	1242.38
515.721	483.38
515.937	148.38
