Data from 237_1_HRD10591_00004.txt Node
Date: Mon Jan 19 14:10:31 EST 2026
User: Yrep
Spectrometer: HR+D1059
Trigger mode: 1
Integration Time (sec): 1.000000E-1
Scans to average: 1
Electric dark correction enabled: true
Nonlinearity correction enabled: false
Boxcar width: 0
XAxis mode: Wavelengths
Number of Pixels in Spectrum: 2048
>>>>>Begin Spectral Data<<<<<
223.165	-24.75
223.4	-24.75
223.635	-24.75
223.869	-18.75
224.104	-18.75
224.338	-17.75
224.573	-21.75
224.808	-6.75
225.042	-14.75
225.277	-8.75
225.511	9.25
225.746	1.25
225.98	15.25
226.215	2.25
226.449	20.25
226.683	24.25
226.918	28.25
227.152	31.25
227.387	42.25
227.621	26.25
227.856	33.25
228.09	43.25
228.324	43.25
228.559	54.25
228.793	65.25
229.027	56.25
229.262	51.25
229.496	58.25
229.73	64.25
229.964	77.25
230.199	93.25
230.433	83.25
230.667	66.25
230.901	70.25
231.136	84.25
231.37	84.25
231.604	86.25
231.838	63.25
232.072	73.25
232.306	79.25
232.541	83.25
232.775	77.25
233.009	82.25
233.243	95.25
233.477	72.25
233.711	75.25
233.945	57.25
234.179	60.25
234.413	71.25
234.647	70.25
234.881	78.25
235.115	85.25
235.349	80.25
235.583	80.25
235.817	71.25
236.051	61.25
236.285	59.25
236.519	72.25
236.753	63.25
236.987	86.25
237.221	78.25
237.455	81.25
237.689	80.25
237.922	82.25
238.156	72.25
238.39	71.25
238.624	87.25
238.858	65.25
239.091	75.25
239.325	61.25
239.559	67.25
239.793	84.25
240.027	87.25
240.26	64.25
240.494	74.25
240.728	67.25
240.961	74.25
241.195	79.25
241.429	61.25
241.662	73.25
241.896	74.25
242.13	69.25
242.363	75.25
242.597	86.25
242.83	83.25
243.064	64.25
243.298	59.25
243.531	67.25
243.765	80.25
243.998	73.25
244.232	81.25
244.465	73.25
244.699	61.25
244.932	79.25
245.166	81.25
245.399	76.25
245.633	73.25
245.866	69.25
246.099	63.25
246.333	70.25
246.566	60.25
246.8	77.25
247.033	81.25
247.266	61.25
247.5	80.25
247.733	75.25
247.966	64.25
248.2	61.25
248.433	76.25
248.666	74.25
248.899	82.25
249.133	72.25
249.366	79.25
249.599	80.25
249.832	78.25
250.066	84.25
250.299	79.25
250.532	68.25
250.765	69.25
250.998	78.25
251.231	57.25
251.465	83.25
251.698	86.25
251.931	79.25
252.164	77.25
252.397	85.25
252.63	87.25
252.863	75.25
253.096	67.25
253.329	66.25
253.562	69.25
253.795	79.25
254.028	86.25
254.261	76.25
254.494	79.25
254.727	73.25
254.96	82.25
255.193	71.25
255.426	65.25
255.659	63.25
255.892	69.25
256.124	76.25
256.357	92.25
256.59	84.25
256.823	73.25
257.056	83.25
257.289	71.25
257.521	94.25
257.754	79.25
257.987	81.25
258.22	78.25
258.452	83.25
258.685	64.25
258.918	75.25
259.151	86.25
259.383	83.25
259.616	78.25
259.849	92.25
260.081	83.25
260.314	84.25
260.547	79.25
260.779	79.25
261.012	74.25
261.244	80.25
261.477	78.25
261.71	77.25
261.942	79.25
262.175	87.25
262.407	81.25
262.64	76.25
262.872	92.25
263.105	80.25
263.337	84.25
263.57	79.25
263.802	78.25
264.035	79.25
264.267	72.25
264.499	69.25
264.732	91.25
264.964	71.25
265.197	71.25
265.429	79.25
265.661	79.25
265.894	79.25
266.126	81.25
266.358	75.25
266.591	64.25
266.823	66.25
267.055	82.25
267.287	81.25
267.52	80.25
267.752	83.25
267.984	79.25
268.216	73.25
268.448	74.25
268.681	81.25
268.913	76.25
269.145	91.25
269.377	72.25
269.609	84.25
269.841	83.25
270.073	84.25
270.306	71.25
270.538	72.25
270.77	68.25
271.002	64.25
271.234	83.25
271.466	77.25
271.698	85.25
271.93	68.25
272.162	71.25
272.394	77.25
272.626	88.25
272.858	89.25
273.09	81.25
273.322	88.25
273.553	74.25
273.785	89.25
274.017	71.25
274.249	77.25
274.481	84.25
274.713	61.25
274.945	75.25
275.176	87.25
275.408	84.25
275.64	63.25
275.872	77.25
276.104	75.25
276.335	78.25
276.567	74.25
276.799	71.25
277.031	81.25
277.262	82.25
277.494	84.25
277.726	70.25
277.957	73.25
278.189	67.25
278.421	78.25
278.652	69.25
278.884	71.25
279.115	72.25
279.347	80.25
279.579	72.25
279.81	94.25
280.042	95.25
280.273	82.25
280.505	67.25
280.736	77.25
280.968	79.25
281.199	75.25
281.431	63.25
281.662	81.25
281.894	86.25
282.125	90.25
282.356	74.25
282.588	81.25
282.819	85.25
283.051	86.25
283.282	83.25
283.513	79.25
283.745	87.25
283.976	86.25
284.207	64.25
284.439	85.25
284.67	87.25
284.901	83.25
285.132	72.25
285.364	79.25
285.595	79.25
285.826	89.25
286.057	81.25
286.288	73.25
286.52	76.25
286.751	79.25
286.982	77.25
287.213	86.25
287.444	74.25
287.675	90.25
287.906	85.25
288.138	84.25
288.369	73.25
288.6	95.25
288.831	87.25
289.062	69.25
289.293	81.25
289.524	71.25
289.755	87.25
289.986	91.25
290.217	83.25
290.448	73.25
290.679	88.25
290.91	79.25
291.141	91.25
291.371	80.25
291.602	79.25
291.833	87.25
292.064	75.25
292.295	77.25
292.526	75.25
292.757	72.25
292.987	75.25
293.218	82.25
293.449	78.25
293.68	87.25
293.91	95.25
294.141	71.25
294.372	81.25
294.603	86.25
294.833	81.25
295.064	89.25
295.295	88.25
295.525	75.25
295.756	79.25
295.987	69.25
296.217	81.25
296.448	72.25
296.679	83.25
296.909	100.25
297.14	84.25
297.37	64.25
297.601	86.25
297.831	72.25
298.062	77.25
298.292	77.25
298.523	87.25
298.753	85.25
298.984	80.25
299.214	85.25
299.445	79.25
299.675	80.25
299.905	81.25
300.136	74.25
300.366	87.25
300.597	81.25
300.827	97.25
301.057	83.25
301.288	86.25
301.518	90.25
301.748	96.25
301.979	91.25
302.209	82.25
302.439	85.25
302.669	73.25
302.9	75.25
303.13	79.25
303.36	95.25
303.59	68.25
303.82	81.25
304.051	73.25
304.281	90.25
304.511	87.25
304.741	85.25
304.971	79.25
305.201	72.25
305.431	91.25
305.661	88.25
305.891	90.25
306.121	83.25
306.352	93.25
306.582	79.25
306.812	63.25
307.042	69.25
307.272	79.25
307.502	79.25
307.731	82.25
307.961	95.25
308.191	86.25
308.421	82.25
308.651	80.25
308.881	87.25
309.111	88.25
309.341	85.25
309.571	85.25
309.8	82.25
310.03	101.25
310.26	82.25
310.49	78.25
310.72	62.25
310.949	69.25
311.179	81.25
311.409	77.25
311.639	70.25
311.868	81.25
312.098	81.25
312.328	74.25
312.557	75.25
312.787	95.25
313.017	72.25
313.246	95.25
313.476	83.25
313.706	87.25
313.935	81.25
314.165	73.25
314.394	85.25
314.624	95.25
314.853	83.25
315.083	90.25
315.312	96.25
315.542	91.25
315.771	79.25
316.001	86.25
316.23	88.25
316.46	79.25
316.689	84.25
316.919	84.25
317.148	63.25
317.377	95.25
317.607	82.25
317.836	95.25
318.065	76.25
318.295	95.25
318.524	85.25
318.753	82.25
318.983	77.25
319.212	85.25
319.441	84.25
319.67	78.25
319.9	90.25
320.129	74.25
320.358	81.25
320.587	80.25
320.816	79.25
321.046	86.25
321.275	76.25
321.504	82.25
321.733	80.25
321.962	91.25
322.191	80.25
322.42	84.25
322.649	97.25
322.878	94.25
323.108	73.25
323.337	66.25
323.566	91.25
323.795	95.25
324.024	80.25
324.253	87.25
324.482	86.25
324.71	81.25
324.939	98.25
325.168	76.25
325.397	82.25
325.626	80.25
325.855	78.25
326.084	90.25
326.313	81.25
326.542	82.25
326.77	85.25
326.999	84.25
327.228	72.25
327.457	88.25
327.686	81.25
327.914	92.25
328.143	93.25
328.372	95.25
328.6	70.25
328.829	74.25
329.058	86.25
329.287	85.25
329.515	71.25
329.744	72.25
329.972	88.25
330.201	100.25
330.43	87.25
330.658	95.25
330.887	82.25
331.115	79.25
331.344	76.25
331.572	84.25
331.801	85.25
332.03	89.25
332.258	94.25
332.486	84.25
332.715	63.25
332.943	78.25
333.172	95.25
333.4	77.25
333.629	87.25
333.857	77.25
334.085	90.25
334.314	91.25
334.542	88.25
334.771	93.25
334.999	94.25
335.227	94.25
335.455	109.25
335.684	88.25
335.912	85.25
336.14	98.25
336.369	101.25
336.597	91.25
336.825	81.25
337.053	85.25
337.281	93.25
337.51	68.25
337.738	81.25
337.966	80.25
338.194	70.25
338.422	74.25
338.65	89.25
338.878	78.25
339.106	71.25
339.334	83.25
339.562	74.25
339.79	84.25
340.018	91.25
340.246	93.25
340.474	82.25
340.702	81.25
340.93	88.25
341.158	78.25
341.386	79.25
341.614	76.25
341.842	83.25
342.07	79.25
342.298	75.25
342.526	71.25
342.754	69.25
342.981	79.25
343.209	75.25
343.437	89.25
343.665	81.25
343.893	81.25
344.12	80.25
344.348	89.25
344.576	88.25
344.804	89.25
345.031	92.25
345.259	88.25
345.487	84.25
345.714	81.25
345.942	97.25
346.17	87.25
346.397	75.25
346.625	73.25
346.853	91.25
347.08	86.25
347.308	101.25
347.535	84.25
347.763	85.25
347.99	75.25
348.218	72.25
348.445	81.25
348.673	87.25
348.9	86.25
349.128	88.25
349.355	100.25
349.583	80.25
349.81	86.25
350.037	80.25
350.265	83.25
350.492	88.25
350.72	95.25
350.947	88.25
351.174	82.25
351.402	86.25
351.629	91.25
351.856	88.25
352.083	77.25
352.311	82.25
352.538	97.25
352.765	78.25
352.992	77.25
353.22	94.25
353.447	81.25
353.674	80.25
353.901	72.25
354.128	70.25
354.355	92.25
354.583	94.25
354.81	77.25
355.037	87.25
355.264	92.25
355.491	87.25
355.718	71.25
355.945	87.25
356.172	87.25
356.399	79.25
356.626	96.25
356.853	92.25
357.08	96.25
357.307	87.25
357.534	75.25
357.761	99.25
357.988	88.25
358.215	87.25
358.441	89.25
358.668	81.25
358.895	82.25
359.122	78.25
359.349	96.25
359.576	89.25
359.802	77.25
360.029	87.25
360.256	77.25
360.483	73.25
360.709	78.25
360.936	90.25
361.163	89.25
361.39	84.25
361.616	99.25
361.843	82.25
362.07	94.25
362.296	102.25
362.523	99.25
362.749	118.25
362.976	119.25
363.203	126.25
363.429	96.25
363.656	87.25
363.882	100.25
364.109	102.25
364.335	125.25
364.562	158.25
364.788	117.25
365.015	83.25
365.241	75.25
365.468	75.25
365.694	82.25
365.92	97.25
366.147	65.25
366.373	84.25
366.599	83.25
366.826	99.25
367.052	81.25
367.278	96.25
367.505	82.25
367.731	95.25
367.957	94.25
368.184	81.25
368.41	91.25
368.636	77.25
368.862	81.25
369.089	81.25
369.315	82.25
369.541	87.25
369.767	85.25
369.993	78.25
370.219	96.25
370.445	83.25
370.672	71.25
370.898	80.25
371.124	87.25
371.35	83.25
371.576	77.25
371.802	81.25
372.028	89.25
372.254	91.25
372.48	94.25
372.706	93.25
372.932	91.25
373.158	80.25
373.384	99.25
373.61	97.25
373.835	95.25
374.061	100.25
374.287	93.25
374.513	87.25
374.739	111.25
374.965	95.25
375.191	94.25
375.416	84.25
375.642	87.25
375.868	101.25
376.094	83.25
376.319	89.25
376.545	104.25
376.771	81.25
376.997	89.25
377.222	66.25
377.448	86.25
377.674	87.25
377.899	86.25
378.125	77.25
378.35	66.25
378.576	94.25
378.802	86.25
379.027	93.25
379.253	80.25
379.478	94.25
379.704	93.25
379.929	84.25
380.155	81.25
380.38	95.25
380.606	79.25
380.831	94.25
381.057	99.25
381.282	81.25
381.507	85.25
381.733	80.25
381.958	93.25
382.184	97.25
382.409	92.25
382.634	96.25
382.86	97.25
383.085	97.25
383.31	88.25
383.535	83.25
383.761	88.25
383.986	80.25
384.211	91.25
384.436	94.25
384.662	97.25
384.887	85.25
385.112	104.25
385.337	99.25
385.562	96.25
385.787	87.25
386.013	93.25
386.238	81.25
386.463	93.25
386.688	82.25
386.913	89.25
387.138	81.25
387.363	84.25
387.588	103.25
387.813	87.25
388.038	99.25
388.263	99.25
388.488	86.25
388.713	96.25
388.938	100.25
389.163	85.25
389.387	89.25
389.612	86.25
389.837	88.25
390.062	88.25
390.287	100.25
390.512	77.25
390.736	96.25
390.961	69.25
391.186	93.25
391.411	86.25
391.636	107.25
391.86	82.25
392.085	86.25
392.31	102.25
392.534	118.25
392.759	111.25
392.984	146.25
393.208	211.25
393.433	295.25
393.658	235.25
393.882	111.25
394.107	116.25
394.331	117.25
394.556	108.25
394.78	113.25
395.005	91.25
395.229	71.25
395.454	75.25
395.678	109.25
395.903	124.25
396.127	125.25
396.352	145.25
396.576	159.25
396.801	219.25
397.025	252.25
397.249	146.25
397.474	115.25
397.698	107.25
397.922	97.25
398.147	103.25
398.371	111.25
398.595	82.25
398.82	91.25
399.044	92.25
399.268	90.25
399.492	87.25
399.717	93.25
399.941	84.25
400.165	87.25
400.389	67.25
400.613	87.25
400.837	85.25
401.062	88.25
401.286	83.25
401.51	77.25
401.734	80.25
401.958	71.25
402.182	101.25
402.406	90.25
402.63	79.25
402.854	79.25
403.078	90.25
403.302	89.25
403.526	95.25
403.75	85.25
403.974	102.25
404.198	110.25
404.422	127.25
404.645	140.25
404.869	132.25
405.093	109.25
405.317	98.25
405.541	97.25
405.765	87.25
405.988	91.25
406.212	79.25
406.436	77.25
406.66	99.25
406.883	93.25
407.107	76.25
407.331	94.25
407.555	93.25
407.778	103.25
408.002	94.25
408.226	94.25
408.449	92.25
408.673	83.25
408.896	104.25
409.12	113.25
409.344	89.25
409.567	104.25
409.791	88.25
410.014	91.25
410.238	93.25
410.461	87.25
410.685	97.25
410.908	92.25
411.132	87.25
411.355	84.25
411.578	97.25
411.802	85.25
412.025	89.25
412.249	74.25
412.472	96.25
412.695	96.25
412.919	83.25
413.142	78.25
413.365	81.25
413.589	93.25
413.812	99.25
414.035	92.25
414.258	103.25
414.482	94.25
414.705	84.25
414.928	86.25
415.151	88.25
415.374	97.25
415.597	86.25
415.821	82.25
416.044	69.25
416.267	85.25
416.49	84.25
416.713	95.25
416.936	89.25
417.159	87.25
417.382	74.25
417.605	79.25
417.828	89.25
418.051	88.25
418.274	86.25
418.497	89.25
418.72	89.25
418.943	97.25
419.166	74.25
419.389	92.25
419.611	94.25
419.834	89.25
420.057	80.25
420.28	86.25
420.503	85.25
420.726	94.25
420.948	105.25
421.171	99.25
421.394	99.25
421.617	133.25
421.839	122.25
422.062	149.25
422.285	203.25
422.507	321.25
422.73	441.25
422.953	394.25
423.175	253.25
423.398	164.25
423.621	141.25
423.843	103.25
424.066	114.25
424.288	104.25
424.511	99.25
424.733	96.25
424.956	94.25
425.178	89.25
425.401	97.25
425.623	87.25
425.846	83.25
426.068	83.25
426.291	91.25
426.513	86.25
426.735	88.25
426.958	78.25
427.18	86.25
427.402	107.25
427.625	91.25
427.847	88.25
428.069	104.25
428.292	151.25
428.514	144.25
428.736	120.25
428.958	145.25
429.181	139.25
429.403	94.25
429.625	94.25
429.847	129.25
430.069	181.25
430.292	205.25
430.514	182.25
430.736	161.25
430.958	149.25
431.18	102.25
431.402	97.25
431.624	103.25
431.846	134.25
432.068	140.25
432.29	104.25
432.512	86.25
432.734	84.25
432.956	79.25
433.178	96.25
433.4	72.25
433.622	87.25
433.844	87.25
434.066	81.25
434.287	91.25
434.509	80.25
434.731	86.25
434.953	88.25
435.175	87.25
435.397	91.25
435.618	88.25
435.84	97.25
436.062	82.25
436.284	77.25
436.505	95.25
436.727	81.25
436.949	85.25
437.17	86.25
437.392	73.25
437.614	93.25
437.835	87.25
438.057	84.25
438.278	97.25
438.5	109.25
438.721	95.25
438.943	88.25
439.165	73.25
439.386	96.25
439.608	86.25
439.829	77.25
440.05	85.25
440.272	82.25
440.493	87.25
440.715	89.25
440.936	79.25
441.158	77.25
441.379	88.25
441.6	77.25
441.822	82.25
442.043	95.25
442.264	107.25
442.486	125.25
442.707	200.25
442.928	131.25
443.149	123.25
443.371	165.25
443.592	279.25
443.813	261.25
444.034	115.25
444.255	102.25
444.476	94.25
444.698	96.25
444.919	101.25
445.14	179.25
445.361	231.25
445.582	340.25
445.803	287.25
446.024	133.25
446.245	88.25
446.466	75.25
446.687	75.25
446.908	94.25
447.129	91.25
447.35	93.25
447.571	77.25
447.792	97.25
448.013	85.25
448.234	74.25
448.455	81.25
448.675	94.25
448.896	80.25
449.117	68.25
449.338	93.25
449.559	84.25
449.779	83.25
450	100.25
450.221	85.25
450.442	89.25
450.662	80.25
450.883	80.25
451.104	95.25
451.324	85.25
451.545	80.25
451.766	86.25
451.986	76.25
452.207	87.25
452.428	93.25
452.648	79.25
452.869	112.25
453.089	95.25
453.31	95.25
453.53	85.25
453.751	93.25
453.971	81.25
454.192	86.25
454.412	68.25
454.633	83.25
454.853	81.25
455.073	94.25
455.294	90.25
455.514	95.25
455.734	87.25
455.955	84.25
456.175	79.25
456.395	81.25
456.616	77.25
456.836	76.25
457.056	97.25
457.276	74.25
457.497	71.25
457.717	86.25
457.937	129.25
458.157	127.25
458.377	151.25
458.598	130.25
458.818	150.25
459.038	93.25
459.258	73.25
459.478	77.25
459.698	85.25
459.918	83.25
460.138	103.25
460.358	107.25
460.578	93.25
460.798	122.25
461.018	116.25
461.238	88.25
461.458	85.25
461.678	86.25
461.898	80.25
462.118	85.25
462.338	100.25
462.558	96.25
462.777	72.25
462.997	87.25
463.217	88.25
463.437	86.25
463.657	91.25
463.876	91.25
464.096	87.25
464.316	88.25
464.536	84.25
464.755	94.25
464.975	79.25
465.195	91.25
465.414	79.25
465.634	91.25
465.854	73.25
466.073	90.25
466.293	87.25
466.512	67.25
466.732	77.25
466.951	95.25
467.171	86.25
467.391	80.25
467.61	83.25
467.829	93.25
468.049	79.25
468.268	84.25
468.488	86.25
468.707	85.25
468.927	87.25
469.146	83.25
469.365	79.25
469.585	81.25
469.804	93.25
470.023	69.25
470.243	101.25
470.462	100.25
470.681	75.25
470.901	92.25
471.12	88.25
471.339	90.25
471.558	79.25
471.777	80.25
471.997	83.25
472.216	85.25
472.435	78.25
472.654	88.25
472.873	65.25
473.092	78.25
473.311	85.25
473.53	95.25
473.749	92.25
473.968	88.25
474.187	86.25
474.406	83.25
474.625	78.25
474.844	93.25
475.063	72.25
475.282	90.25
475.501	77.25
475.72	102.25
475.939	89.25
476.158	94.25
476.377	77.25
476.596	75.25
476.814	82.25
477.033	79.25
477.252	87.25
477.471	79.25
477.69	89.25
477.908	81.25
478.127	101.25
478.346	81.25
478.564	93.25
478.783	83.25
479.002	83.25
479.22	85.25
479.439	88.25
479.658	80.25
479.876	91.25
480.095	90.25
480.313	79.25
480.532	91.25
480.751	86.25
480.969	83.25
481.188	83.25
481.406	92.25
481.624	93.25
481.843	84.25
482.061	94.25
482.28	86.25
482.498	91.25
482.717	100.25
482.935	83.25
483.153	75.25
483.372	100.25
483.59	84.25
483.808	79.25
484.027	95.25
484.245	93.25
484.463	83.25
484.681	88.25
484.9	104.25
485.118	89.25
485.336	96.25
485.554	80.25
485.772	88.25
485.99	82.25
486.209	86.25
486.427	91.25
486.645	81.25
486.863	107.25
487.081	75.25
487.299	94.25
487.517	98.25
487.735	113.25
487.953	189.25
488.171	168.25
488.389	108.25
488.607	77.25
488.825	84.25
489.043	89.25
489.261	78.25
489.479	77.25
489.696	99.25
489.914	83.25
490.132	92.25
490.35	87.25
490.568	83.25
490.786	78.25
491.003	77.25
491.221	72.25
491.439	102.25
491.657	79.25
491.874	98.25
492.092	88.25
492.31	101.25
492.527	81.25
492.745	88.25
492.963	94.25
493.18	91.25
493.398	96.25
493.615	113.25
493.833	85.25
494.05	90.25
494.268	83.25
494.485	87.25
494.703	97.25
494.92	78.25
495.138	103.25
495.355	88.25
495.573	92.25
495.79	81.25
496.008	91.25
496.225	105.25
496.442	94.25
496.66	96.25
496.877	101.25
497.094	96.25
497.312	87.25
497.529	97.25
497.746	84.25
497.963	93.25
498.181	88.25
498.398	99.25
498.615	98.25
498.832	81.25
499.049	89.25
499.267	95.25
499.484	94.25
499.701	83.25
499.918	81.25
500.135	100.25
500.352	89.25
500.569	109.25
500.786	99.25
501.003	100.25
501.22	85.25
501.437	97.25
501.654	110.25
501.871	86.25
502.088	83.25
502.305	86.25
502.522	72.25
502.739	107.25
502.956	101.25
503.172	89.25
503.389	88.25
503.606	92.25
503.823	95.25
504.04	112.25
504.256	149.25
504.473	144.25
504.69	99.25
504.907	93.25
505.123	100.25
505.34	85.25
505.557	96.25
505.773	95.25
505.99	94.25
506.207	75.25
506.423	83.25
506.64	84.25
506.856	92.25
507.073	96.25
507.289	84.25
507.506	86.25
507.722	102.25
507.939	98.25
508.155	95.25
508.372	83.25
508.588	94.25
508.805	92.25
509.021	85.25
509.238	86.25
509.454	89.25
509.67	101.25
509.887	87.25
510.103	93.25
510.319	94.25
510.536	83.25
510.752	81.25
510.968	82.25
511.184	75.25
511.401	105.25
511.617	98.25
511.833	89.25
512.049	84.25
512.265	84.25
512.481	89.25
512.698	79.25
512.914	85.25
513.13	98.25
513.346	85.25
513.562	82.25
513.778	92.25
513.994	77.25
514.21	72.25
514.426	83.25
514.642	83.25
514.858	94.25
515.074	95.25
515.29	98.25
515.506	89.25
515.721	100.25
515.937	107.25
516.153	89.25
516.369	89.25
516.585	100.25
516.801	81.25
517.016	94.25
517.232	99.25
517.448	111.25
517.664	96.25
517.879	100.25
518.095	80.25
