Data from 237_1_HRD10591_00039.txt Node
Date: Mon Jan 19 14:10:49 EST 2026
User: Yrep
Spectrometer: HR+D1059
Trigger mode: 1
Integration Time (sec): 1.000000E-1
Scans to average: 1
Electric dark correction enabled: true
Nonlinearity correction enabled: false
Boxcar width: 0
XAxis mode: Wavelengths
Number of Pixels in Spectrum: 2048
>>>>>Begin Spectral Data<<<<<
223.165	-19.94
223.4	-19.94
223.635	-19.94
223.869	-19.94
224.104	-19.94
224.338	-24.94
224.573	-15.94
224.808	-22.94
225.042	-1.94
225.277	-15.94
225.511	4.06
225.746	13.06
225.98	3.06
226.215	24.06
226.449	30.06
226.683	18.06
226.918	20.06
227.152	29.06
227.387	39.06
227.621	38.06
227.856	34.06
228.09	60.06
228.324	56.06
228.559	52.06
228.793	63.06
229.027	63.06
229.262	62.06
229.496	59.06
229.73	76.06
229.964	65.06
230.199	60.06
230.433	69.06
230.667	71.06
230.901	68.06
231.136	69.06
231.37	67.06
231.604	73.06
231.838	84.06
232.072	82.06
232.306	85.06
232.541	84.06
232.775	74.06
233.009	86.06
233.243	78.06
233.477	86.06
233.711	61.06
233.945	72.06
234.179	80.06
234.413	85.06
234.647	80.06
234.881	71.06
235.115	69.06
235.349	80.06
235.583	73.06
235.817	70.06
236.051	68.06
236.285	69.06
236.519	72.06
236.753	81.06
236.987	65.06
237.221	73.06
237.455	73.06
237.689	67.06
237.922	68.06
238.156	78.06
238.39	70.06
238.624	55.06
238.858	67.06
239.091	73.06
239.325	74.06
239.559	71.06
239.793	80.06
240.027	71.06
240.26	73.06
240.494	68.06
240.728	69.06
240.961	76.06
241.195	80.06
241.429	72.06
241.662	68.06
241.896	60.06
242.13	70.06
242.363	63.06
242.597	67.06
242.83	68.06
243.064	62.06
243.298	77.06
243.531	62.06
243.765	81.06
243.998	67.06
244.232	75.06
244.465	74.06
244.699	72.06
244.932	75.06
245.166	74.06
245.399	92.06
245.633	85.06
245.866	73.06
246.099	81.06
246.333	69.06
246.566	78.06
246.8	80.06
247.033	81.06
247.266	74.06
247.5	65.06
247.733	72.06
247.966	92.06
248.2	84.06
248.433	64.06
248.666	70.06
248.899	80.06
249.133	81.06
249.366	78.06
249.599	68.06
249.832	69.06
250.066	78.06
250.299	85.06
250.532	83.06
250.765	83.06
250.998	75.06
251.231	87.06
251.465	64.06
251.698	83.06
251.931	84.06
252.164	69.06
252.397	67.06
252.63	80.06
252.863	74.06
253.096	68.06
253.329	77.06
253.562	79.06
253.795	69.06
254.028	74.06
254.261	86.06
254.494	81.06
254.727	68.06
254.96	78.06
255.193	86.06
255.426	82.06
255.659	69.06
255.892	68.06
256.124	67.06
256.357	68.06
256.59	64.06
256.823	65.06
257.056	71.06
257.289	66.06
257.521	80.06
257.754	67.06
257.987	84.06
258.22	69.06
258.452	83.06
258.685	81.06
258.918	76.06
259.151	98.06
259.383	81.06
259.616	78.06
259.849	83.06
260.081	68.06
260.314	69.06
260.547	74.06
260.779	82.06
261.012	74.06
261.244	69.06
261.477	79.06
261.71	87.06
261.942	88.06
262.175	75.06
262.407	79.06
262.64	74.06
262.872	80.06
263.105	84.06
263.337	76.06
263.57	83.06
263.802	83.06
264.035	82.06
264.267	80.06
264.499	77.06
264.732	81.06
264.964	72.06
265.197	84.06
265.429	92.06
265.661	83.06
265.894	96.06
266.126	89.06
266.358	79.06
266.591	80.06
266.823	71.06
267.055	80.06
267.287	80.06
267.52	88.06
267.752	93.06
267.984	72.06
268.216	69.06
268.448	74.06
268.681	97.06
268.913	81.06
269.145	74.06
269.377	80.06
269.609	69.06
269.841	81.06
270.073	76.06
270.306	86.06
270.538	80.06
270.77	93.06
271.002	73.06
271.234	78.06
271.466	86.06
271.698	83.06
271.93	88.06
272.162	80.06
272.394	88.06
272.626	78.06
272.858	81.06
273.09	72.06
273.322	72.06
273.553	78.06
273.785	76.06
274.017	89.06
274.249	93.06
274.481	88.06
274.713	84.06
274.945	83.06
275.176	74.06
275.408	73.06
275.64	63.06
275.872	73.06
276.104	87.06
276.335	89.06
276.567	84.06
276.799	92.06
277.031	75.06
277.262	78.06
277.494	84.06
277.726	70.06
277.957	72.06
278.189	68.06
278.421	72.06
278.652	76.06
278.884	88.06
279.115	70.06
279.347	87.06
279.579	100.06
279.81	69.06
280.042	86.06
280.273	78.06
280.505	91.06
280.736	84.06
280.968	82.06
281.199	94.06
281.431	84.06
281.662	87.06
281.894	78.06
282.125	74.06
282.356	80.06
282.588	85.06
282.819	78.06
283.051	81.06
283.282	68.06
283.513	96.06
283.745	78.06
283.976	90.06
284.207	92.06
284.439	74.06
284.67	74.06
284.901	64.06
285.132	84.06
285.364	93.06
285.595	80.06
285.826	89.06
286.057	92.06
286.288	89.06
286.52	82.06
286.751	79.06
286.982	88.06
287.213	80.06
287.444	92.06
287.675	92.06
287.906	79.06
288.138	81.06
288.369	85.06
288.6	81.06
288.831	83.06
289.062	70.06
289.293	93.06
289.524	65.06
289.755	75.06
289.986	86.06
290.217	87.06
290.448	98.06
290.679	85.06
290.91	80.06
291.141	69.06
291.371	93.06
291.602	82.06
291.833	85.06
292.064	64.06
292.295	67.06
292.526	79.06
292.757	83.06
292.987	68.06
293.218	80.06
293.449	70.06
293.68	86.06
293.91	77.06
294.141	84.06
294.372	83.06
294.603	77.06
294.833	84.06
295.064	76.06
295.295	82.06
295.525	88.06
295.756	80.06
295.987	73.06
296.217	80.06
296.448	76.06
296.679	79.06
296.909	78.06
297.14	86.06
297.37	68.06
297.601	85.06
297.831	80.06
298.062	78.06
298.292	76.06
298.523	85.06
298.753	80.06
298.984	80.06
299.214	69.06
299.445	87.06
299.675	82.06
299.905	77.06
300.136	85.06
300.366	78.06
300.597	79.06
300.827	84.06
301.057	96.06
301.288	76.06
301.518	80.06
301.748	73.06
301.979	94.06
302.209	84.06
302.439	74.06
302.669	75.06
302.9	88.06
303.13	81.06
303.36	79.06
303.59	100.06
303.82	87.06
304.051	84.06
304.281	85.06
304.511	82.06
304.741	92.06
304.971	76.06
305.201	79.06
305.431	73.06
305.661	90.06
305.891	75.06
306.121	70.06
306.352	87.06
306.582	79.06
306.812	84.06
307.042	79.06
307.272	83.06
307.502	78.06
307.731	74.06
307.961	84.06
308.191	74.06
308.421	81.06
308.651	97.06
308.881	83.06
309.111	87.06
309.341	94.06
309.571	79.06
309.8	95.06
310.03	91.06
310.26	88.06
310.49	80.06
310.72	80.06
310.949	89.06
311.179	76.06
311.409	79.06
311.639	74.06
311.868	97.06
312.098	80.06
312.328	74.06
312.557	83.06
312.787	80.06
313.017	80.06
313.246	73.06
313.476	90.06
313.706	66.06
313.935	95.06
314.165	96.06
314.394	82.06
314.624	88.06
314.853	79.06
315.083	85.06
315.312	76.06
315.542	84.06
315.771	69.06
316.001	80.06
316.23	96.06
316.46	79.06
316.689	85.06
316.919	88.06
317.148	85.06
317.377	71.06
317.607	88.06
317.836	78.06
318.065	100.06
318.295	84.06
318.524	74.06
318.753	83.06
318.983	88.06
319.212	88.06
319.441	82.06
319.67	85.06
319.9	86.06
320.129	70.06
320.358	95.06
320.587	83.06
320.816	78.06
321.046	90.06
321.275	76.06
321.504	82.06
321.733	62.06
321.962	81.06
322.191	94.06
322.42	80.06
322.649	86.06
322.878	78.06
323.108	81.06
323.337	85.06
323.566	78.06
323.795	69.06
324.024	94.06
324.253	87.06
324.482	78.06
324.71	75.06
324.939	89.06
325.168	75.06
325.397	92.06
325.626	65.06
325.855	82.06
326.084	94.06
326.313	83.06
326.542	82.06
326.77	85.06
326.999	73.06
327.228	70.06
327.457	85.06
327.686	85.06
327.914	84.06
328.143	69.06
328.372	78.06
328.6	82.06
328.829	92.06
329.058	92.06
329.287	90.06
329.515	76.06
329.744	90.06
329.972	76.06
330.201	74.06
330.43	77.06
330.658	89.06
330.887	82.06
331.115	97.06
331.344	74.06
331.572	80.06
331.801	80.06
332.03	69.06
332.258	77.06
332.486	67.06
332.715	82.06
332.943	84.06
333.172	85.06
333.4	80.06
333.629	73.06
333.857	80.06
334.085	80.06
334.314	84.06
334.542	92.06
334.771	94.06
334.999	86.06
335.227	73.06
335.455	80.06
335.684	81.06
335.912	66.06
336.14	79.06
336.369	93.06
336.597	82.06
336.825	63.06
337.053	79.06
337.281	77.06
337.51	70.06
337.738	84.06
337.966	90.06
338.194	77.06
338.422	71.06
338.65	84.06
338.878	86.06
339.106	78.06
339.334	85.06
339.562	60.06
339.79	85.06
340.018	81.06
340.246	86.06
340.474	81.06
340.702	89.06
340.93	76.06
341.158	80.06
341.386	83.06
341.614	80.06
341.842	82.06
342.07	70.06
342.298	62.06
342.526	66.06
342.754	83.06
342.981	88.06
343.209	82.06
343.437	90.06
343.665	79.06
343.893	82.06
344.12	82.06
344.348	81.06
344.576	91.06
344.804	81.06
345.031	80.06
345.259	83.06
345.487	90.06
345.714	61.06
345.942	70.06
346.17	74.06
346.397	87.06
346.625	74.06
346.853	91.06
347.08	82.06
347.308	86.06
347.535	94.06
347.763	84.06
347.99	90.06
348.218	73.06
348.445	82.06
348.673	80.06
348.9	90.06
349.128	78.06
349.355	88.06
349.583	88.06
349.81	84.06
350.037	97.06
350.265	84.06
350.492	81.06
350.72	84.06
350.947	80.06
351.174	85.06
351.402	80.06
351.629	84.06
351.856	84.06
352.083	87.06
352.311	75.06
352.538	87.06
352.765	94.06
352.992	88.06
353.22	86.06
353.447	76.06
353.674	73.06
353.901	87.06
354.128	104.06
354.355	72.06
354.583	62.06
354.81	84.06
355.037	80.06
355.264	84.06
355.491	84.06
355.718	72.06
355.945	65.06
356.172	84.06
356.399	74.06
356.626	67.06
356.853	86.06
357.08	72.06
357.307	82.06
357.534	87.06
357.761	76.06
357.988	95.06
358.215	80.06
358.441	92.06
358.668	81.06
358.895	76.06
359.122	78.06
359.349	77.06
359.576	79.06
359.802	80.06
360.029	82.06
360.256	80.06
360.483	81.06
360.709	65.06
360.936	79.06
361.163	84.06
361.39	94.06
361.616	96.06
361.843	79.06
362.07	97.06
362.296	100.06
362.523	93.06
362.749	73.06
362.976	102.06
363.203	90.06
363.429	89.06
363.656	79.06
363.882	90.06
364.109	108.06
364.335	92.06
364.562	75.06
364.788	78.06
365.015	75.06
365.241	83.06
365.468	71.06
365.694	62.06
365.92	81.06
366.147	82.06
366.373	77.06
366.599	74.06
366.826	81.06
367.052	74.06
367.278	81.06
367.505	71.06
367.731	95.06
367.957	86.06
368.184	76.06
368.41	80.06
368.636	94.06
368.862	88.06
369.089	74.06
369.315	69.06
369.541	80.06
369.767	80.06
369.993	68.06
370.219	97.06
370.445	85.06
370.672	83.06
370.898	80.06
371.124	77.06
371.35	74.06
371.576	74.06
371.802	95.06
372.028	75.06
372.254	93.06
372.48	80.06
372.706	66.06
372.932	87.06
373.158	78.06
373.384	72.06
373.61	86.06
373.835	91.06
374.061	80.06
374.287	93.06
374.513	81.06
374.739	82.06
374.965	84.06
375.191	84.06
375.416	88.06
375.642	79.06
375.868	80.06
376.094	83.06
376.319	82.06
376.545	70.06
376.771	77.06
376.997	84.06
377.222	80.06
377.448	82.06
377.674	91.06
377.899	80.06
378.125	86.06
378.35	75.06
378.576	93.06
378.802	90.06
379.027	87.06
379.253	79.06
379.478	64.06
379.704	84.06
379.929	83.06
380.155	101.06
380.38	82.06
380.606	77.06
380.831	89.06
381.057	94.06
381.282	90.06
381.507	80.06
381.733	88.06
381.958	85.06
382.184	79.06
382.409	89.06
382.634	94.06
382.86	104.06
383.085	90.06
383.31	73.06
383.535	82.06
383.761	84.06
383.986	87.06
384.211	72.06
384.436	84.06
384.662	74.06
384.887	67.06
385.112	79.06
385.337	74.06
385.562	72.06
385.787	79.06
386.013	87.06
386.238	77.06
386.463	74.06
386.688	74.06
386.913	94.06
387.138	90.06
387.363	73.06
387.588	81.06
387.813	76.06
388.038	83.06
388.263	80.06
388.488	89.06
388.713	89.06
388.938	88.06
389.163	78.06
389.387	80.06
389.612	70.06
389.837	96.06
390.062	64.06
390.287	90.06
390.512	83.06
390.736	91.06
390.961	77.06
391.186	89.06
391.411	86.06
391.636	83.06
391.86	87.06
392.085	67.06
392.31	74.06
392.534	98.06
392.759	91.06
392.984	108.06
393.208	121.06
393.433	162.06
393.658	124.06
393.882	92.06
394.107	89.06
394.331	88.06
394.556	80.06
394.78	89.06
395.005	87.06
395.229	85.06
395.454	72.06
395.678	83.06
395.903	79.06
396.127	102.06
396.352	92.06
396.576	88.06
396.801	118.06
397.025	137.06
397.249	100.06
397.474	86.06
397.698	87.06
397.922	65.06
398.147	96.06
398.371	88.06
398.595	80.06
398.82	67.06
399.044	64.06
399.268	78.06
399.492	85.06
399.717	79.06
399.941	88.06
400.165	64.06
400.389	78.06
400.613	76.06
400.837	81.06
401.062	78.06
401.286	79.06
401.51	80.06
401.734	71.06
401.958	96.06
402.182	90.06
402.406	83.06
402.63	72.06
402.854	88.06
403.078	81.06
403.302	88.06
403.526	64.06
403.75	93.06
403.974	85.06
404.198	78.06
404.422	98.06
404.645	86.06
404.869	88.06
405.093	84.06
405.317	79.06
405.541	82.06
405.765	67.06
405.988	88.06
406.212	80.06
406.436	78.06
406.66	87.06
406.883	83.06
407.107	87.06
407.331	80.06
407.555	92.06
407.778	85.06
408.002	84.06
408.226	76.06
408.449	77.06
408.673	66.06
408.896	86.06
409.12	72.06
409.344	84.06
409.567	86.06
409.791	75.06
410.014	87.06
410.238	90.06
410.461	83.06
410.685	91.06
410.908	73.06
411.132	86.06
411.355	86.06
411.578	84.06
411.802	84.06
412.025	78.06
412.249	82.06
412.472	69.06
412.695	84.06
412.919	85.06
413.142	90.06
413.365	84.06
413.589	69.06
413.812	77.06
414.035	80.06
414.258	80.06
414.482	85.06
414.705	83.06
414.928	72.06
415.151	87.06
415.374	80.06
415.597	80.06
415.821	79.06
416.044	84.06
416.267	72.06
416.49	75.06
416.713	70.06
416.936	78.06
417.159	74.06
417.382	92.06
417.605	84.06
417.828	60.06
418.051	72.06
418.274	81.06
418.497	89.06
418.72	94.06
418.943	76.06
419.166	71.06
419.389	80.06
419.611	78.06
419.834	87.06
420.057	88.06
420.28	84.06
420.503	84.06
420.726	97.06
420.948	93.06
421.171	80.06
421.394	82.06
421.617	86.06
421.839	89.06
422.062	89.06
422.285	112.06
422.507	132.06
422.73	164.06
422.953	172.06
423.175	121.06
423.398	90.06
423.621	84.06
423.843	79.06
424.066	73.06
424.288	72.06
424.511	85.06
424.733	82.06
424.956	81.06
425.178	84.06
425.401	70.06
425.623	77.06
425.846	84.06
426.068	97.06
426.291	80.06
426.513	80.06
426.735	80.06
426.958	88.06
427.18	82.06
427.402	79.06
427.625	74.06
427.847	88.06
428.069	74.06
428.292	99.06
428.514	110.06
428.736	92.06
428.958	88.06
429.181	88.06
429.403	88.06
429.625	78.06
429.847	94.06
430.069	103.06
430.292	112.06
430.514	118.06
430.736	90.06
430.958	90.06
431.18	72.06
431.402	80.06
431.624	85.06
431.846	89.06
432.068	96.06
432.29	88.06
432.512	69.06
432.734	86.06
432.956	84.06
433.178	72.06
433.4	73.06
433.622	78.06
433.844	81.06
434.066	85.06
434.287	89.06
434.509	85.06
434.731	77.06
434.953	78.06
435.175	79.06
435.397	75.06
435.618	84.06
435.84	75.06
436.062	85.06
436.284	77.06
436.505	81.06
436.727	77.06
436.949	74.06
437.17	89.06
437.392	94.06
437.614	82.06
437.835	91.06
438.057	90.06
438.278	79.06
438.5	73.06
438.721	82.06
438.943	87.06
439.165	64.06
439.386	93.06
439.608	80.06
439.829	78.06
440.05	86.06
440.272	75.06
440.493	81.06
440.715	72.06
440.936	76.06
441.158	84.06
441.379	84.06
441.6	76.06
441.822	78.06
442.043	66.06
442.264	81.06
442.486	88.06
442.707	96.06
442.928	101.06
443.149	80.06
443.371	92.06
443.592	130.06
443.813	118.06
444.034	86.06
444.255	85.06
444.476	92.06
444.698	74.06
444.919	83.06
445.14	153.06
445.361	126.06
445.582	160.06
445.803	133.06
446.024	90.06
446.245	82.06
446.466	80.06
446.687	88.06
446.908	85.06
447.129	85.06
447.35	84.06
447.571	84.06
447.792	89.06
448.013	73.06
448.234	90.06
448.455	91.06
448.675	78.06
448.896	77.06
449.117	89.06
449.338	77.06
449.559	88.06
449.779	80.06
450	72.06
450.221	72.06
450.442	70.06
450.662	79.06
450.883	92.06
451.104	86.06
451.324	76.06
451.545	93.06
451.766	70.06
451.986	85.06
452.207	85.06
452.428	74.06
452.648	88.06
452.869	78.06
453.089	80.06
453.31	87.06
453.53	78.06
453.751	81.06
453.971	79.06
454.192	85.06
454.412	79.06
454.633	80.06
454.853	74.06
455.073	71.06
455.294	81.06
455.514	84.06
455.734	81.06
455.955	74.06
456.175	85.06
456.395	83.06
456.616	85.06
456.836	72.06
457.056	66.06
457.276	83.06
457.497	88.06
457.717	86.06
457.937	84.06
458.157	93.06
458.377	83.06
458.598	79.06
458.818	80.06
459.038	89.06
459.258	88.06
459.478	80.06
459.698	91.06
459.918	70.06
460.138	80.06
460.358	73.06
460.578	82.06
460.798	100.06
461.018	85.06
461.238	83.06
461.458	77.06
461.678	82.06
461.898	71.06
462.118	62.06
462.338	69.06
462.558	81.06
462.777	86.06
462.997	80.06
463.217	81.06
463.437	80.06
463.657	78.06
463.876	85.06
464.096	78.06
464.316	97.06
464.536	74.06
464.755	68.06
464.975	68.06
465.195	79.06
465.414	70.06
465.634	71.06
465.854	80.06
466.073	78.06
466.293	78.06
466.512	58.06
466.732	78.06
466.951	62.06
467.171	69.06
467.391	78.06
467.61	64.06
467.829	76.06
468.049	80.06
468.268	90.06
468.488	70.06
468.707	93.06
468.927	82.06
469.146	72.06
469.365	82.06
469.585	76.06
469.804	90.06
470.023	85.06
470.243	78.06
470.462	70.06
470.681	73.06
470.901	80.06
471.12	90.06
471.339	86.06
471.558	85.06
471.777	87.06
471.997	88.06
472.216	75.06
472.435	80.06
472.654	82.06
472.873	95.06
473.092	81.06
473.311	82.06
473.53	86.06
473.749	81.06
473.968	81.06
474.187	78.06
474.406	73.06
474.625	97.06
474.844	84.06
475.063	87.06
475.282	77.06
475.501	79.06
475.72	88.06
475.939	72.06
476.158	71.06
476.377	77.06
476.596	85.06
476.814	81.06
477.033	81.06
477.252	77.06
477.471	84.06
477.69	73.06
477.908	73.06
478.127	92.06
478.346	78.06
478.564	75.06
478.783	94.06
479.002	77.06
479.22	77.06
479.439	87.06
479.658	73.06
479.876	82.06
480.095	77.06
480.313	79.06
480.532	75.06
480.751	83.06
480.969	82.06
481.188	82.06
481.406	82.06
481.624	78.06
481.843	82.06
482.061	85.06
482.28	84.06
482.498	84.06
482.717	63.06
482.935	80.06
483.153	70.06
483.372	78.06
483.59	70.06
483.808	72.06
484.027	78.06
484.245	72.06
484.463	86.06
484.681	79.06
484.9	90.06
485.118	80.06
485.336	76.06
485.554	94.06
485.772	93.06
485.99	82.06
486.209	77.06
486.427	89.06
486.645	92.06
486.863	74.06
487.081	78.06
487.299	80.06
487.517	80.06
487.735	88.06
487.953	95.06
488.171	76.06
488.389	81.06
488.607	89.06
488.825	81.06
489.043	77.06
489.261	92.06
489.479	84.06
489.696	82.06
489.914	76.06
490.132	85.06
490.35	64.06
490.568	80.06
490.786	74.06
491.003	88.06
491.221	75.06
491.439	66.06
491.657	86.06
491.874	86.06
492.092	77.06
492.31	86.06
492.527	81.06
492.745	94.06
492.963	94.06
493.18	74.06
493.398	96.06
493.615	80.06
493.833	79.06
494.05	76.06
494.268	92.06
494.485	87.06
494.703	94.06
494.92	77.06
495.138	80.06
495.355	75.06
495.573	77.06
495.79	73.06
496.008	64.06
496.225	80.06
496.442	93.06
496.66	94.06
496.877	64.06
497.094	98.06
497.312	84.06
497.529	82.06
497.746	81.06
497.963	82.06
498.181	87.06
498.398	81.06
498.615	76.06
498.832	80.06
499.049	79.06
499.267	91.06
499.484	88.06
499.701	81.06
499.918	89.06
500.135	68.06
500.352	91.06
500.569	84.06
500.786	85.06
501.003	92.06
501.22	78.06
501.437	89.06
501.654	88.06
501.871	94.06
502.088	84.06
502.305	96.06
502.522	78.06
502.739	74.06
502.956	80.06
503.172	82.06
503.389	84.06
503.606	78.06
503.823	65.06
504.04	87.06
504.256	98.06
504.473	84.06
504.69	86.06
504.907	88.06
505.123	78.06
505.34	73.06
505.557	105.06
505.773	72.06
505.99	67.06
506.207	83.06
506.423	79.06
506.64	79.06
506.856	90.06
507.073	77.06
507.289	80.06
507.506	78.06
507.722	87.06
507.939	90.06
508.155	83.06
508.372	94.06
508.588	93.06
508.805	95.06
509.021	93.06
509.238	83.06
509.454	76.06
509.67	72.06
509.887	83.06
510.103	76.06
510.319	84.06
510.536	89.06
510.752	85.06
510.968	82.06
511.184	88.06
511.401	84.06
511.617	89.06
511.833	76.06
512.049	88.06
512.265	96.06
512.481	72.06
512.698	74.06
512.914	75.06
513.13	86.06
513.346	87.06
513.562	82.06
513.778	74.06
513.994	85.06
514.21	75.06
514.426	88.06
514.642	78.06
514.858	74.06
515.074	72.06
515.29	82.06
515.506	80.06
515.721	72.06
515.937	72.06
516.153	78.06
516.369	85.06
516.585	75.06
516.801	88.06
517.016	85.06
517.232	74.06
517.448	84.06
517.664	96.06
517.879	80.06
518.095	81.06
518.311	86.06
518.527	82.06
518.742	77.06
518.958	100.06
519.173	89.06
519.389	82.06
519.605	94.06
519.82	89.06
