Data from 237_1_HRD10591_00021.txt Node
Date: Mon Jan 19 14:10:40 EST 2026
User: Yrep
Spectrometer: HR+D1059
Trigger mode: 1
Integration Time (sec): 1.000000E-1
Scans to average: 1
Electric dark correction enabled: true
Nonlinearity correction enabled: false
Boxcar width: 0
XAxis mode: Wavelengths
Number of Pixels in Spectrum: 2048
>>>>>Begin Spectral Data<<<<<
223.165	-17.19
223.4	-17.19
223.635	-17.19
223.869	-16.19
224.104	-15.19
224.338	-11.19
224.573	-21.19
224.808	-23.19
225.042	-7.19
225.277	-14.19
225.511	-5.19
225.746	4.81
225.98	2.81
226.215	22.81
226.449	15.81
226.683	30.81
226.918	28.81
227.152	24.81
227.387	40.81
227.621	39.81
227.856	37.81
228.09	52.81
228.324	39.81
228.559	54.81
228.793	58.81
229.027	69.81
229.262	61.81
229.496	69.81
229.73	57.81
229.964	70.81
230.199	72.81
230.433	84.81
230.667	96.81
230.901	84.81
231.136	97.81
231.37	82.81
231.604	73.81
231.838	90.81
232.072	81.81
232.306	73.81
232.541	78.81
232.775	78.81
233.009	84.81
233.243	90.81
233.477	94.81
233.711	88.81
233.945	88.81
234.179	87.81
234.413	75.81
234.647	67.81
234.881	81.81
235.115	87.81
235.349	73.81
235.583	80.81
235.817	76.81
236.051	83.81
236.285	87.81
236.519	60.81
236.753	67.81
236.987	72.81
237.221	95.81
237.455	80.81
237.689	87.81
237.922	78.81
238.156	76.81
238.39	72.81
238.624	78.81
238.858	91.81
239.091	78.81
239.325	81.81
239.559	80.81
239.793	89.81
240.027	83.81
240.26	80.81
240.494	87.81
240.728	72.81
240.961	65.81
241.195	66.81
241.429	80.81
241.662	74.81
241.896	81.81
242.13	76.81
242.363	79.81
242.597	70.81
242.83	86.81
243.064	84.81
243.298	80.81
243.531	94.81
243.765	80.81
243.998	74.81
244.232	100.81
244.465	83.81
244.699	90.81
244.932	74.81
245.166	75.81
245.399	86.81
245.633	88.81
245.866	84.81
246.099	66.81
246.333	61.81
246.566	72.81
246.8	56.81
247.033	71.81
247.266	85.81
247.5	75.81
247.733	79.81
247.966	90.81
248.2	71.81
248.433	80.81
248.666	75.81
248.899	85.81
249.133	82.81
249.366	76.81
249.599	67.81
249.832	88.81
250.066	86.81
250.299	81.81
250.532	69.81
250.765	94.81
250.998	77.81
251.231	74.81
251.465	77.81
251.698	91.81
251.931	76.81
252.164	78.81
252.397	87.81
252.63	82.81
252.863	84.81
253.096	77.81
253.329	86.81
253.562	79.81
253.795	76.81
254.028	83.81
254.261	86.81
254.494	84.81
254.727	71.81
254.96	77.81
255.193	76.81
255.426	92.81
255.659	74.81
255.892	94.81
256.124	81.81
256.357	64.81
256.59	74.81
256.823	83.81
257.056	83.81
257.289	84.81
257.521	85.81
257.754	81.81
257.987	76.81
258.22	86.81
258.452	83.81
258.685	77.81
258.918	77.81
259.151	81.81
259.383	87.81
259.616	84.81
259.849	72.81
260.081	84.81
260.314	82.81
260.547	74.81
260.779	60.81
261.012	67.81
261.244	90.81
261.477	87.81
261.71	81.81
261.942	85.81
262.175	72.81
262.407	82.81
262.64	77.81
262.872	80.81
263.105	70.81
263.337	73.81
263.57	78.81
263.802	83.81
264.035	88.81
264.267	91.81
264.499	90.81
264.732	81.81
264.964	91.81
265.197	76.81
265.429	85.81
265.661	76.81
265.894	88.81
266.126	75.81
266.358	87.81
266.591	99.81
266.823	92.81
267.055	84.81
267.287	72.81
267.52	88.81
267.752	92.81
267.984	88.81
268.216	80.81
268.448	93.81
268.681	80.81
268.913	75.81
269.145	77.81
269.377	85.81
269.609	96.81
269.841	90.81
270.073	83.81
270.306	84.81
270.538	75.81
270.77	80.81
271.002	80.81
271.234	77.81
271.466	83.81
271.698	83.81
271.93	71.81
272.162	69.81
272.394	82.81
272.626	76.81
272.858	85.81
273.09	86.81
273.322	90.81
273.553	86.81
273.785	88.81
274.017	79.81
274.249	96.81
274.481	93.81
274.713	78.81
274.945	89.81
275.176	87.81
275.408	83.81
275.64	84.81
275.872	80.81
276.104	90.81
276.335	78.81
276.567	97.81
276.799	89.81
277.031	85.81
277.262	88.81
277.494	87.81
277.726	87.81
277.957	81.81
278.189	86.81
278.421	96.81
278.652	82.81
278.884	84.81
279.115	85.81
279.347	91.81
279.579	96.81
279.81	100.81
280.042	74.81
280.273	88.81
280.505	103.81
280.736	89.81
280.968	86.81
281.199	87.81
281.431	86.81
281.662	77.81
281.894	79.81
282.125	81.81
282.356	74.81
282.588	73.81
282.819	72.81
283.051	77.81
283.282	87.81
283.513	92.81
283.745	92.81
283.976	80.81
284.207	89.81
284.439	90.81
284.67	84.81
284.901	75.81
285.132	74.81
285.364	72.81
285.595	91.81
285.826	85.81
286.057	90.81
286.288	91.81
286.52	103.81
286.751	84.81
286.982	90.81
287.213	87.81
287.444	104.81
287.675	94.81
287.906	91.81
288.138	92.81
288.369	85.81
288.6	84.81
288.831	76.81
289.062	79.81
289.293	80.81
289.524	70.81
289.755	88.81
289.986	83.81
290.217	91.81
290.448	91.81
290.679	105.81
290.91	100.81
291.141	80.81
291.371	90.81
291.602	82.81
291.833	79.81
292.064	74.81
292.295	78.81
292.526	87.81
292.757	99.81
292.987	86.81
293.218	90.81
293.449	91.81
293.68	91.81
293.91	87.81
294.141	86.81
294.372	80.81
294.603	74.81
294.833	73.81
295.064	79.81
295.295	84.81
295.525	98.81
295.756	86.81
295.987	88.81
296.217	80.81
296.448	85.81
296.679	80.81
296.909	90.81
297.14	88.81
297.37	91.81
297.601	78.81
297.831	87.81
298.062	84.81
298.292	94.81
298.523	75.81
298.753	89.81
298.984	84.81
299.214	95.81
299.445	86.81
299.675	89.81
299.905	86.81
300.136	86.81
300.366	101.81
300.597	76.81
300.827	93.81
301.057	87.81
301.288	83.81
301.518	88.81
301.748	95.81
301.979	109.81
302.209	90.81
302.439	61.81
302.669	94.81
302.9	86.81
303.13	78.81
303.36	86.81
303.59	88.81
303.82	94.81
304.051	85.81
304.281	97.81
304.511	89.81
304.741	86.81
304.971	84.81
305.201	89.81
305.431	74.81
305.661	92.81
305.891	94.81
306.121	86.81
306.352	85.81
306.582	82.81
306.812	79.81
307.042	92.81
307.272	78.81
307.502	75.81
307.731	102.81
307.961	83.81
308.191	92.81
308.421	99.81
308.651	99.81
308.881	99.81
309.111	91.81
309.341	78.81
309.571	87.81
309.8	84.81
310.03	90.81
310.26	94.81
310.49	98.81
310.72	94.81
310.949	81.81
311.179	90.81
311.409	82.81
311.639	79.81
311.868	86.81
312.098	86.81
312.328	103.81
312.557	83.81
312.787	86.81
313.017	104.81
313.246	99.81
313.476	85.81
313.706	77.81
313.935	93.81
314.165	83.81
314.394	108.81
314.624	86.81
314.853	80.81
315.083	79.81
315.312	94.81
315.542	78.81
315.771	88.81
316.001	93.81
316.23	80.81
316.46	79.81
316.689	92.81
316.919	96.81
317.148	79.81
317.377	91.81
317.607	97.81
317.836	77.81
318.065	69.81
318.295	93.81
318.524	99.81
318.753	85.81
318.983	83.81
319.212	78.81
319.441	88.81
319.67	96.81
319.9	83.81
320.129	88.81
320.358	87.81
320.587	95.81
320.816	89.81
321.046	86.81
321.275	73.81
321.504	74.81
321.733	91.81
321.962	88.81
322.191	81.81
322.42	98.81
322.649	99.81
322.878	94.81
323.108	88.81
323.337	92.81
323.566	77.81
323.795	80.81
324.024	84.81
324.253	88.81
324.482	88.81
324.71	88.81
324.939	101.81
325.168	96.81
325.397	82.81
325.626	85.81
325.855	75.81
326.084	82.81
326.313	94.81
326.542	96.81
326.77	91.81
326.999	81.81
327.228	78.81
327.457	96.81
327.686	96.81
327.914	79.81
328.143	78.81
328.372	94.81
328.6	80.81
328.829	95.81
329.058	78.81
329.287	84.81
329.515	87.81
329.744	96.81
329.972	96.81
330.201	92.81
330.43	87.81
330.658	82.81
330.887	78.81
331.115	91.81
331.344	82.81
331.572	96.81
331.801	91.81
332.03	94.81
332.258	84.81
332.486	95.81
332.715	81.81
332.943	96.81
333.172	92.81
333.4	86.81
333.629	87.81
333.857	85.81
334.085	88.81
334.314	99.81
334.542	84.81
334.771	82.81
334.999	76.81
335.227	90.81
335.455	90.81
335.684	77.81
335.912	97.81
336.14	92.81
336.369	98.81
336.597	84.81
336.825	91.81
337.053	91.81
337.281	97.81
337.51	81.81
337.738	105.81
337.966	88.81
338.194	93.81
338.422	86.81
338.65	93.81
338.878	60.81
339.106	85.81
339.334	86.81
339.562	92.81
339.79	95.81
340.018	91.81
340.246	92.81
340.474	85.81
340.702	76.81
340.93	88.81
341.158	97.81
341.386	80.81
341.614	72.81
341.842	98.81
342.07	87.81
342.298	82.81
342.526	94.81
342.754	88.81
342.981	70.81
343.209	87.81
343.437	97.81
343.665	91.81
343.893	86.81
344.12	83.81
344.348	106.81
344.576	86.81
344.804	86.81
345.031	77.81
345.259	104.81
345.487	84.81
345.714	85.81
345.942	96.81
346.17	91.81
346.397	99.81
346.625	73.81
346.853	89.81
347.08	72.81
347.308	86.81
347.535	79.81
347.763	72.81
347.99	96.81
348.218	98.81
348.445	96.81
348.673	99.81
348.9	90.81
349.128	100.81
349.355	96.81
349.583	85.81
349.81	80.81
350.037	81.81
350.265	80.81
350.492	94.81
350.72	105.81
350.947	98.81
351.174	106.81
351.402	76.81
351.629	86.81
351.856	85.81
352.083	78.81
352.311	96.81
352.538	86.81
352.765	88.81
352.992	96.81
353.22	86.81
353.447	82.81
353.674	67.81
353.901	82.81
354.128	95.81
354.355	86.81
354.583	86.81
354.81	103.81
355.037	83.81
355.264	83.81
355.491	92.81
355.718	87.81
355.945	90.81
356.172	104.81
356.399	80.81
356.626	84.81
356.853	86.81
357.08	87.81
357.307	83.81
357.534	74.81
357.761	78.81
357.988	101.81
358.215	74.81
358.441	93.81
358.668	106.81
358.895	101.81
359.122	94.81
359.349	84.81
359.576	95.81
359.802	84.81
360.029	94.81
360.256	90.81
360.483	82.81
360.709	90.81
360.936	91.81
361.163	93.81
361.39	82.81
361.616	72.81
361.843	89.81
362.07	86.81
362.296	94.81
362.523	103.81
362.749	101.81
362.976	90.81
363.203	102.81
363.429	98.81
363.656	94.81
363.882	100.81
364.109	87.81
364.335	86.81
364.562	99.81
364.788	86.81
365.015	91.81
365.241	87.81
365.468	76.81
365.694	97.81
365.92	72.81
366.147	88.81
366.373	78.81
366.599	81.81
366.826	87.81
367.052	92.81
367.278	91.81
367.505	80.81
367.731	94.81
367.957	85.81
368.184	72.81
368.41	75.81
368.636	93.81
368.862	94.81
369.089	77.81
369.315	93.81
369.541	93.81
369.767	100.81
369.993	78.81
370.219	96.81
370.445	90.81
370.672	94.81
370.898	89.81
371.124	94.81
371.35	88.81
371.576	94.81
371.802	87.81
372.028	86.81
372.254	93.81
372.48	89.81
372.706	95.81
372.932	83.81
373.158	86.81
373.384	92.81
373.61	87.81
373.835	91.81
374.061	71.81
374.287	89.81
374.513	83.81
374.739	103.81
374.965	79.81
375.191	83.81
375.416	79.81
375.642	82.81
375.868	88.81
376.094	83.81
376.319	87.81
376.545	79.81
376.771	90.81
376.997	83.81
377.222	95.81
377.448	75.81
377.674	85.81
377.899	76.81
378.125	89.81
378.35	84.81
378.576	79.81
378.802	97.81
379.027	92.81
379.253	72.81
379.478	84.81
379.704	95.81
379.929	91.81
380.155	90.81
380.38	79.81
380.606	90.81
380.831	81.81
381.057	89.81
381.282	90.81
381.507	92.81
381.733	87.81
381.958	99.81
382.184	102.81
382.409	84.81
382.634	100.81
382.86	84.81
383.085	86.81
383.31	90.81
383.535	81.81
383.761	83.81
383.986	96.81
384.211	72.81
384.436	86.81
384.662	84.81
384.887	85.81
385.112	79.81
385.337	83.81
385.562	85.81
385.787	87.81
386.013	89.81
386.238	97.81
386.463	99.81
386.688	99.81
386.913	74.81
387.138	90.81
387.363	86.81
387.588	92.81
387.813	90.81
388.038	86.81
388.263	92.81
388.488	85.81
388.713	88.81
388.938	82.81
389.163	73.81
389.387	79.81
389.612	85.81
389.837	96.81
390.062	97.81
390.287	88.81
390.512	91.81
390.736	102.81
390.961	91.81
391.186	78.81
391.411	90.81
391.636	93.81
391.86	92.81
392.085	99.81
392.31	86.81
392.534	95.81
392.759	90.81
392.984	93.81
393.208	106.81
393.433	122.81
393.658	102.81
393.882	104.81
394.107	94.81
394.331	95.81
394.556	90.81
394.78	83.81
395.005	91.81
395.229	88.81
395.454	94.81
395.678	84.81
395.903	96.81
396.127	87.81
396.352	100.81
396.576	88.81
396.801	116.81
397.025	104.81
397.249	92.81
397.474	81.81
397.698	88.81
397.922	100.81
398.147	84.81
398.371	104.81
398.595	80.81
398.82	98.81
399.044	95.81
399.268	91.81
399.492	90.81
399.717	88.81
399.941	81.81
400.165	78.81
400.389	80.81
400.613	91.81
400.837	74.81
401.062	86.81
401.286	80.81
401.51	92.81
401.734	94.81
401.958	87.81
402.182	86.81
402.406	79.81
402.63	72.81
402.854	87.81
403.078	86.81
403.302	86.81
403.526	84.81
403.75	95.81
403.974	96.81
404.198	90.81
404.422	100.81
404.645	96.81
404.869	81.81
405.093	94.81
405.317	84.81
405.541	87.81
405.765	84.81
405.988	80.81
406.212	80.81
406.436	93.81
406.66	80.81
406.883	98.81
407.107	74.81
407.331	86.81
407.555	93.81
407.778	83.81
408.002	88.81
408.226	85.81
408.449	94.81
408.673	95.81
408.896	84.81
409.12	86.81
409.344	86.81
409.567	84.81
409.791	84.81
410.014	86.81
410.238	88.81
410.461	76.81
410.685	75.81
410.908	83.81
411.132	90.81
411.355	81.81
411.578	77.81
411.802	93.81
412.025	93.81
412.249	88.81
412.472	76.81
412.695	85.81
412.919	82.81
413.142	73.81
413.365	80.81
413.589	88.81
413.812	78.81
414.035	75.81
414.258	87.81
414.482	92.81
414.705	80.81
414.928	86.81
415.151	90.81
415.374	89.81
415.597	88.81
415.821	83.81
416.044	89.81
416.267	81.81
416.49	86.81
416.713	76.81
416.936	76.81
417.159	73.81
417.382	80.81
417.605	85.81
417.828	93.81
418.051	79.81
418.274	90.81
418.497	84.81
418.72	79.81
418.943	72.81
419.166	79.81
419.389	81.81
419.611	76.81
419.834	92.81
420.057	89.81
420.28	77.81
420.503	84.81
420.726	83.81
420.948	90.81
421.171	71.81
421.394	101.81
421.617	88.81
421.839	82.81
422.062	85.81
422.285	92.81
422.507	139.81
422.73	179.81
422.953	164.81
423.175	102.81
423.398	94.81
423.621	89.81
423.843	80.81
424.066	77.81
424.288	93.81
424.511	74.81
424.733	100.81
424.956	91.81
425.178	90.81
425.401	83.81
425.623	82.81
425.846	86.81
426.068	73.81
426.291	75.81
426.513	82.81
426.735	92.81
426.958	90.81
427.18	94.81
427.402	91.81
427.625	81.81
427.847	80.81
428.069	97.81
428.292	87.81
428.514	109.81
428.736	91.81
428.958	90.81
429.181	100.81
429.403	84.81
429.625	95.81
429.847	95.81
430.069	98.81
430.292	95.81
430.514	86.81
430.736	78.81
430.958	102.81
431.18	81.81
431.402	74.81
431.624	76.81
431.846	90.81
432.068	98.81
432.29	84.81
432.512	76.81
432.734	76.81
432.956	87.81
433.178	89.81
433.4	75.81
433.622	92.81
433.844	86.81
434.066	92.81
434.287	83.81
434.509	80.81
434.731	81.81
434.953	80.81
435.175	59.81
435.397	67.81
435.618	85.81
435.84	98.81
436.062	89.81
436.284	85.81
436.505	82.81
436.727	94.81
436.949	76.81
437.17	87.81
437.392	82.81
437.614	72.81
437.835	77.81
438.057	89.81
438.278	66.81
438.5	87.81
438.721	80.81
438.943	94.81
439.165	88.81
439.386	86.81
439.608	84.81
439.829	78.81
440.05	94.81
440.272	83.81
440.493	96.81
440.715	79.81
440.936	84.81
441.158	84.81
441.379	86.81
441.6	88.81
441.822	81.81
442.043	94.81
442.264	93.81
442.486	90.81
442.707	98.81
442.928	102.81
443.149	99.81
443.371	96.81
443.592	109.81
443.813	112.81
444.034	90.81
444.255	95.81
444.476	74.81
444.698	87.81
444.919	72.81
445.14	157.81
445.361	108.81
445.582	138.81
445.803	126.81
446.024	98.81
446.245	92.81
446.466	81.81
446.687	88.81
446.908	88.81
447.129	92.81
447.35	89.81
447.571	89.81
447.792	75.81
448.013	83.81
448.234	87.81
448.455	83.81
448.675	81.81
448.896	81.81
449.117	94.81
449.338	73.81
449.559	94.81
449.779	79.81
450	81.81
450.221	86.81
450.442	81.81
450.662	74.81
450.883	86.81
451.104	90.81
451.324	87.81
451.545	77.81
451.766	90.81
451.986	75.81
452.207	82.81
452.428	85.81
452.648	83.81
452.869	95.81
453.089	88.81
453.31	100.81
453.53	90.81
453.751	80.81
453.971	107.81
454.192	71.81
454.412	86.81
454.633	78.81
454.853	73.81
455.073	75.81
455.294	75.81
455.514	79.81
455.734	90.81
455.955	73.81
456.175	76.81
456.395	98.81
456.616	78.81
456.836	86.81
457.056	84.81
457.276	85.81
457.497	87.81
457.717	72.81
457.937	86.81
458.157	91.81
458.377	81.81
458.598	80.81
458.818	97.81
459.038	82.81
459.258	86.81
459.478	85.81
459.698	86.81
459.918	83.81
460.138	84.81
460.358	76.81
460.578	98.81
460.798	95.81
461.018	101.81
461.238	75.81
461.458	94.81
461.678	70.81
461.898	74.81
462.118	89.81
462.338	86.81
462.558	89.81
462.777	80.81
462.997	82.81
463.217	74.81
463.437	89.81
463.657	86.81
463.876	74.81
464.096	79.81
464.316	90.81
464.536	104.81
464.755	98.81
464.975	82.81
465.195	91.81
465.414	94.81
465.634	105.81
465.854	84.81
466.073	75.81
466.293	81.81
466.512	87.81
466.732	90.81
466.951	84.81
467.171	89.81
467.391	98.81
467.61	100.81
467.829	69.81
468.049	93.81
468.268	94.81
468.488	86.81
468.707	80.81
468.927	98.81
469.146	87.81
469.365	75.81
469.585	70.81
469.804	84.81
470.023	74.81
470.243	86.81
470.462	79.81
470.681	84.81
470.901	80.81
471.12	108.81
471.339	83.81
471.558	87.81
471.777	81.81
471.997	89.81
472.216	68.81
472.435	84.81
472.654	92.81
472.873	83.81
473.092	80.81
473.311	83.81
473.53	81.81
473.749	72.81
473.968	90.81
474.187	80.81
474.406	74.81
474.625	77.81
474.844	84.81
475.063	84.81
475.282	88.81
475.501	86.81
475.72	96.81
475.939	88.81
476.158	90.81
476.377	89.81
476.596	83.81
476.814	84.81
477.033	90.81
477.252	80.81
477.471	76.81
477.69	84.81
477.908	82.81
478.127	91.81
478.346	84.81
478.564	90.81
478.783	82.81
479.002	88.81
479.22	80.81
479.439	85.81
479.658	100.81
479.876	91.81
480.095	76.81
480.313	104.81
480.532	85.81
480.751	88.81
480.969	81.81
481.188	84.81
481.406	72.81
481.624	90.81
481.843	89.81
482.061	108.81
482.28	68.81
482.498	80.81
482.717	104.81
482.935	90.81
483.153	80.81
483.372	85.81
483.59	91.81
483.808	88.81
484.027	77.81
484.245	100.81
484.463	94.81
484.681	86.81
484.9	91.81
485.118	76.81
485.336	84.81
485.554	72.81
485.772	79.81
485.99	89.81
486.209	90.81
486.427	101.81
486.645	89.81
486.863	94.81
487.081	91.81
487.299	91.81
487.517	85.81
487.735	97.81
487.953	96.81
488.171	86.81
488.389	92.81
488.607	87.81
488.825	75.81
489.043	82.81
489.261	85.81
489.479	84.81
489.696	73.81
489.914	87.81
490.132	97.81
490.35	86.81
490.568	86.81
490.786	83.81
491.003	88.81
491.221	86.81
491.439	88.81
491.657	87.81
491.874	92.81
492.092	89.81
492.31	77.81
492.527	90.81
492.745	96.81
492.963	76.81
493.18	92.81
493.398	86.81
493.615	88.81
493.833	97.81
494.05	100.81
494.268	87.81
494.485	80.81
494.703	86.81
494.92	100.81
495.138	75.81
495.355	89.81
495.573	83.81
495.79	85.81
496.008	89.81
496.225	88.81
496.442	96.81
496.66	76.81
496.877	88.81
497.094	86.81
497.312	86.81
497.529	98.81
497.746	77.81
497.963	85.81
498.181	84.81
498.398	93.81
498.615	84.81
498.832	79.81
499.049	92.81
499.267	94.81
499.484	86.81
499.701	92.81
499.918	93.81
500.135	81.81
500.352	94.81
500.569	68.81
500.786	80.81
501.003	87.81
501.22	95.81
501.437	80.81
501.654	75.81
501.871	70.81
502.088	80.81
502.305	94.81
502.522	95.81
502.739	93.81
502.956	96.81
503.172	95.81
503.389	79.81
503.606	89.81
503.823	88.81
504.04	100.81
504.256	100.81
504.473	109.81
504.69	95.81
504.907	81.81
505.123	87.81
505.34	76.81
505.557	95.81
505.773	90.81
505.99	91.81
506.207	94.81
506.423	81.81
506.64	91.81
506.856	101.81
507.073	77.81
507.289	86.81
507.506	92.81
507.722	84.81
507.939	92.81
508.155	81.81
508.372	94.81
508.588	79.81
508.805	80.81
509.021	96.81
509.238	91.81
509.454	82.81
509.67	77.81
509.887	84.81
510.103	90.81
510.319	76.81
510.536	86.81
510.752	96.81
510.968	98.81
511.184	84.81
511.401	84.81
511.617	84.81
511.833	90.81
512.049	96.81
512.265	84.81
512.481	86.81
512.698	96.81
512.914	84.81
513.13	76.81
513.346	76.81
513.562	87.81
513.778	100.81
513.994	80.81
514.21	92.81
514.426	86.81
514.642	68.81
514.858	72.81
515.074	95.81
515.29	95.81
515.506	93.81
515.721	92.81
515.937	87.81
516.153	79.81
516.369	72.81
516.585	92.81
516.801	78.81
517.016	98.81
517.232	88.81
517.448	82.81
517.664	99.81
517.879	78.81
518.095	80.81
518.311	87.81
518.527	101.81
518.742	77.81
518.958	87.81
519.173	101.81
