Data from 237_1_HRD10591_00043.txt Node
Date: Mon Jan 19 14:10:51 EST 2026
User: Yrep
Spectrometer: HR+D1059
Trigger mode: 1
Integration Time (sec): 1.000000E-1
Scans to average: 1
Electric dark correction enabled: true
Nonlinearity correction enabled: false
Boxcar width: 0
XAxis mode: Wavelengths
Number of Pixels in Spectrum: 2048
>>>>>Begin Spectral Data<<<<<
223.165	-16.12
223.4	-16.12
223.635	-16.12
223.869	-33.12
224.104	-19.12
224.338	-1.12
224.573	-13.12
224.808	-19.12
225.042	-20.12
225.277	0.88
225.511	-0.12
225.746	4.88
225.98	11.88
226.215	6.88
226.449	8.88
226.683	19.88
226.918	24.88
227.152	43.88
227.387	47.88
227.621	30.88
227.856	42.88
228.09	37.88
228.324	62.88
228.559	61.88
228.793	67.88
229.027	58.88
229.262	70.88
229.496	65.88
229.73	72.88
229.964	68.88
230.199	63.88
230.433	77.88
230.667	72.88
230.901	83.88
231.136	82.88
231.37	77.88
231.604	82.88
231.838	75.88
232.072	79.88
232.306	87.88
232.541	84.88
232.775	83.88
233.009	75.88
233.243	96.88
233.477	81.88
233.711	85.88
233.945	84.88
234.179	81.88
234.413	76.88
234.647	74.88
234.881	87.88
235.115	89.88
235.349	73.88
235.583	83.88
235.817	81.88
236.051	87.88
236.285	84.88
236.519	81.88
236.753	81.88
236.987	82.88
237.221	90.88
237.455	87.88
237.689	66.88
237.922	67.88
238.156	60.88
238.39	72.88
238.624	68.88
238.858	73.88
239.091	71.88
239.325	69.88
239.559	79.88
239.793	83.88
240.027	76.88
240.26	73.88
240.494	60.88
240.728	69.88
240.961	72.88
241.195	85.88
241.429	85.88
241.662	82.88
241.896	88.88
242.13	75.88
242.363	87.88
242.597	78.88
242.83	80.88
243.064	71.88
243.298	76.88
243.531	82.88
243.765	96.88
243.998	71.88
244.232	79.88
244.465	89.88
244.699	71.88
244.932	75.88
245.166	62.88
245.399	92.88
245.633	72.88
245.866	89.88
246.099	76.88
246.333	79.88
246.566	87.88
246.8	67.88
247.033	90.88
247.266	70.88
247.5	87.88
247.733	72.88
247.966	76.88
248.2	83.88
248.433	83.88
248.666	86.88
248.899	67.88
249.133	79.88
249.366	87.88
249.599	73.88
249.832	72.88
250.066	77.88
250.299	73.88
250.532	71.88
250.765	67.88
250.998	79.88
251.231	79.88
251.465	54.88
251.698	70.88
251.931	77.88
252.164	71.88
252.397	71.88
252.63	84.88
252.863	77.88
253.096	63.88
253.329	90.88
253.562	87.88
253.795	70.88
254.028	83.88
254.261	71.88
254.494	84.88
254.727	72.88
254.96	69.88
255.193	63.88
255.426	77.88
255.659	86.88
255.892	79.88
256.124	76.88
256.357	96.88
256.59	92.88
256.823	88.88
257.056	82.88
257.289	69.88
257.521	89.88
257.754	86.88
257.987	83.88
258.22	93.88
258.452	73.88
258.685	87.88
258.918	80.88
259.151	72.88
259.383	80.88
259.616	79.88
259.849	90.88
260.081	79.88
260.314	83.88
260.547	83.88
260.779	90.88
261.012	94.88
261.244	84.88
261.477	85.88
261.71	80.88
261.942	80.88
262.175	77.88
262.407	78.88
262.64	72.88
262.872	86.88
263.105	69.88
263.337	65.88
263.57	67.88
263.802	71.88
264.035	80.88
264.267	79.88
264.499	73.88
264.732	83.88
264.964	79.88
265.197	90.88
265.429	89.88
265.661	87.88
265.894	82.88
266.126	79.88
266.358	74.88
266.591	91.88
266.823	75.88
267.055	82.88
267.287	88.88
267.52	75.88
267.752	93.88
267.984	89.88
268.216	87.88
268.448	71.88
268.681	81.88
268.913	85.88
269.145	82.88
269.377	76.88
269.609	79.88
269.841	90.88
270.073	80.88
270.306	89.88
270.538	85.88
270.77	78.88
271.002	88.88
271.234	81.88
271.466	81.88
271.698	95.88
271.93	77.88
272.162	91.88
272.394	67.88
272.626	83.88
272.858	79.88
273.09	99.88
273.322	89.88
273.553	88.88
273.785	81.88
274.017	86.88
274.249	86.88
274.481	65.88
274.713	88.88
274.945	82.88
275.176	89.88
275.408	73.88
275.64	83.88
275.872	82.88
276.104	83.88
276.335	75.88
276.567	66.88
276.799	84.88
277.031	90.88
277.262	82.88
277.494	85.88
277.726	84.88
277.957	78.88
278.189	96.88
278.421	82.88
278.652	98.88
278.884	85.88
279.115	95.88
279.347	77.88
279.579	83.88
279.81	84.88
280.042	91.88
280.273	92.88
280.505	83.88
280.736	88.88
280.968	83.88
281.199	87.88
281.431	95.88
281.662	80.88
281.894	80.88
282.125	82.88
282.356	80.88
282.588	92.88
282.819	80.88
283.051	89.88
283.282	80.88
283.513	80.88
283.745	92.88
283.976	73.88
284.207	85.88
284.439	92.88
284.67	95.88
284.901	75.88
285.132	85.88
285.364	89.88
285.595	93.88
285.826	85.88
286.057	82.88
286.288	70.88
286.52	75.88
286.751	83.88
286.982	99.88
287.213	105.88
287.444	87.88
287.675	84.88
287.906	99.88
288.138	86.88
288.369	88.88
288.6	78.88
288.831	95.88
289.062	92.88
289.293	84.88
289.524	80.88
289.755	76.88
289.986	88.88
290.217	79.88
290.448	82.88
290.679	90.88
290.91	83.88
291.141	90.88
291.371	92.88
291.602	98.88
291.833	84.88
292.064	79.88
292.295	81.88
292.526	75.88
292.757	93.88
292.987	87.88
293.218	85.88
293.449	91.88
293.68	75.88
293.91	87.88
294.141	83.88
294.372	83.88
294.603	88.88
294.833	82.88
295.064	87.88
295.295	71.88
295.525	88.88
295.756	78.88
295.987	96.88
296.217	86.88
296.448	79.88
296.679	89.88
296.909	93.88
297.14	80.88
297.37	85.88
297.601	87.88
297.831	93.88
298.062	88.88
298.292	85.88
298.523	111.88
298.753	91.88
298.984	93.88
299.214	86.88
299.445	88.88
299.675	78.88
299.905	91.88
300.136	83.88
300.366	87.88
300.597	84.88
300.827	87.88
301.057	91.88
301.288	88.88
301.518	99.88
301.748	83.88
301.979	102.88
302.209	93.88
302.439	83.88
302.669	79.88
302.9	93.88
303.13	85.88
303.36	93.88
303.59	75.88
303.82	81.88
304.051	79.88
304.281	84.88
304.511	91.88
304.741	89.88
304.971	78.88
305.201	78.88
305.431	86.88
305.661	92.88
305.891	93.88
306.121	102.88
306.352	81.88
306.582	79.88
306.812	95.88
307.042	97.88
307.272	95.88
307.502	87.88
307.731	93.88
307.961	98.88
308.191	79.88
308.421	87.88
308.651	74.88
308.881	84.88
309.111	88.88
309.341	95.88
309.571	88.88
309.8	79.88
310.03	92.88
310.26	75.88
310.49	93.88
310.72	80.88
310.949	80.88
311.179	82.88
311.409	93.88
311.639	100.88
311.868	98.88
312.098	84.88
312.328	75.88
312.557	87.88
312.787	89.88
313.017	95.88
313.246	75.88
313.476	85.88
313.706	87.88
313.935	82.88
314.165	95.88
314.394	96.88
314.624	96.88
314.853	91.88
315.083	77.88
315.312	98.88
315.542	81.88
315.771	92.88
316.001	98.88
316.23	83.88
316.46	86.88
316.689	85.88
316.919	90.88
317.148	82.88
317.377	78.88
317.607	85.88
317.836	85.88
318.065	103.88
318.295	98.88
318.524	87.88
318.753	87.88
318.983	85.88
319.212	74.88
319.441	83.88
319.67	89.88
319.9	83.88
320.129	96.88
320.358	77.88
320.587	95.88
320.816	77.88
321.046	101.88
321.275	87.88
321.504	85.88
321.733	81.88
321.962	96.88
322.191	100.88
322.42	93.88
322.649	88.88
322.878	83.88
323.108	87.88
323.337	91.88
323.566	75.88
323.795	93.88
324.024	87.88
324.253	92.88
324.482	88.88
324.71	80.88
324.939	80.88
325.168	90.88
325.397	75.88
325.626	77.88
325.855	80.88
326.084	75.88
326.313	91.88
326.542	88.88
326.77	108.88
326.999	99.88
327.228	77.88
327.457	103.88
327.686	91.88
327.914	87.88
328.143	91.88
328.372	91.88
328.6	98.88
328.829	75.88
329.058	99.88
329.287	76.88
329.515	86.88
329.744	91.88
329.972	93.88
330.201	91.88
330.43	88.88
330.658	80.88
330.887	97.88
331.115	87.88
331.344	78.88
331.572	81.88
331.801	77.88
332.03	88.88
332.258	90.88
332.486	87.88
332.715	83.88
332.943	81.88
333.172	88.88
333.4	73.88
333.629	89.88
333.857	88.88
334.085	95.88
334.314	83.88
334.542	73.88
334.771	87.88
334.999	89.88
335.227	86.88
335.455	87.88
335.684	97.88
335.912	102.88
336.14	83.88
336.369	86.88
336.597	84.88
336.825	77.88
337.053	85.88
337.281	94.88
337.51	86.88
337.738	80.88
337.966	82.88
338.194	75.88
338.422	86.88
338.65	83.88
338.878	95.88
339.106	78.88
339.334	103.88
339.562	72.88
339.79	77.88
340.018	81.88
340.246	82.88
340.474	78.88
340.702	93.88
340.93	96.88
341.158	77.88
341.386	77.88
341.614	82.88
341.842	85.88
342.07	91.88
342.298	77.88
342.526	85.88
342.754	87.88
342.981	90.88
343.209	96.88
343.437	95.88
343.665	88.88
343.893	85.88
344.12	83.88
344.348	88.88
344.576	97.88
344.804	90.88
345.031	83.88
345.259	73.88
345.487	83.88
345.714	76.88
345.942	92.88
346.17	97.88
346.397	81.88
346.625	87.88
346.853	86.88
347.08	82.88
347.308	94.88
347.535	87.88
347.763	76.88
347.99	85.88
348.218	86.88
348.445	90.88
348.673	81.88
348.9	74.88
349.128	83.88
349.355	83.88
349.583	78.88
349.81	82.88
350.037	86.88
350.265	99.88
350.492	81.88
350.72	91.88
350.947	85.88
351.174	83.88
351.402	78.88
351.629	83.88
351.856	93.88
352.083	81.88
352.311	93.88
352.538	91.88
352.765	82.88
352.992	105.88
353.22	81.88
353.447	83.88
353.674	92.88
353.901	99.88
354.128	76.88
354.355	87.88
354.583	94.88
354.81	92.88
355.037	77.88
355.264	94.88
355.491	91.88
355.718	77.88
355.945	90.88
356.172	79.88
356.399	91.88
356.626	89.88
356.853	83.88
357.08	93.88
357.307	97.88
357.534	79.88
357.761	87.88
357.988	86.88
358.215	90.88
358.441	83.88
358.668	87.88
358.895	84.88
359.122	88.88
359.349	91.88
359.576	94.88
359.802	77.88
360.029	83.88
360.256	80.88
360.483	91.88
360.709	94.88
360.936	99.88
361.163	83.88
361.39	77.88
361.616	89.88
361.843	86.88
362.07	80.88
362.296	94.88
362.523	81.88
362.749	99.88
362.976	76.88
363.203	95.88
363.429	76.88
363.656	99.88
363.882	85.88
364.109	83.88
364.335	85.88
364.562	86.88
364.788	95.88
365.015	92.88
365.241	71.88
365.468	90.88
365.694	92.88
365.92	95.88
366.147	82.88
366.373	79.88
366.599	73.88
366.826	86.88
367.052	77.88
367.278	93.88
367.505	98.88
367.731	99.88
367.957	84.88
368.184	84.88
368.41	85.88
368.636	92.88
368.862	86.88
369.089	85.88
369.315	75.88
369.541	81.88
369.767	97.88
369.993	98.88
370.219	96.88
370.445	89.88
370.672	77.88
370.898	72.88
371.124	96.88
371.35	76.88
371.576	101.88
371.802	89.88
372.028	72.88
372.254	104.88
372.48	88.88
372.706	85.88
372.932	87.88
373.158	80.88
373.384	91.88
373.61	99.88
373.835	99.88
374.061	77.88
374.287	83.88
374.513	89.88
374.739	75.88
374.965	65.88
375.191	80.88
375.416	86.88
375.642	82.88
375.868	108.88
376.094	73.88
376.319	83.88
376.545	85.88
376.771	79.88
376.997	69.88
377.222	100.88
377.448	89.88
377.674	93.88
377.899	97.88
378.125	84.88
378.35	84.88
378.576	87.88
378.802	75.88
379.027	78.88
379.253	76.88
379.478	89.88
379.704	95.88
379.929	87.88
380.155	74.88
380.38	79.88
380.606	72.88
380.831	91.88
381.057	84.88
381.282	77.88
381.507	97.88
381.733	91.88
381.958	98.88
382.184	90.88
382.409	83.88
382.634	84.88
382.86	75.88
383.085	64.88
383.31	87.88
383.535	91.88
383.761	84.88
383.986	95.88
384.211	75.88
384.436	85.88
384.662	76.88
384.887	76.88
385.112	77.88
385.337	83.88
385.562	69.88
385.787	96.88
386.013	83.88
386.238	83.88
386.463	82.88
386.688	88.88
386.913	88.88
387.138	83.88
387.363	94.88
387.588	101.88
387.813	87.88
388.038	84.88
388.263	111.88
388.488	101.88
388.713	89.88
388.938	88.88
389.163	90.88
389.387	91.88
389.612	85.88
389.837	96.88
390.062	93.88
390.287	116.88
390.512	85.88
390.736	82.88
390.961	79.88
391.186	91.88
391.411	75.88
391.636	83.88
391.86	105.88
392.085	96.88
392.31	91.88
392.534	93.88
392.759	103.88
392.984	105.88
393.208	141.88
393.433	187.88
393.658	145.88
393.882	94.88
394.107	95.88
394.331	103.88
394.556	95.88
394.78	90.88
395.005	94.88
395.229	85.88
395.454	89.88
395.678	94.88
395.903	101.88
396.127	107.88
396.352	116.88
396.576	129.88
396.801	142.88
397.025	150.88
397.249	108.88
397.474	77.88
397.698	83.88
397.922	84.88
398.147	85.88
398.371	93.88
398.595	84.88
398.82	80.88
399.044	98.88
399.268	84.88
399.492	87.88
399.717	86.88
399.941	90.88
400.165	82.88
400.389	77.88
400.613	82.88
400.837	82.88
401.062	76.88
401.286	85.88
401.51	67.88
401.734	72.88
401.958	96.88
402.182	74.88
402.406	82.88
402.63	89.88
402.854	87.88
403.078	91.88
403.302	94.88
403.526	83.88
403.75	81.88
403.974	72.88
404.198	95.88
404.422	93.88
404.645	107.88
404.869	101.88
405.093	92.88
405.317	72.88
405.541	85.88
405.765	92.88
405.988	77.88
406.212	89.88
406.436	81.88
406.66	92.88
406.883	74.88
407.107	84.88
407.331	78.88
407.555	78.88
407.778	90.88
408.002	101.88
408.226	97.88
408.449	87.88
408.673	71.88
408.896	80.88
409.12	81.88
409.344	93.88
409.567	82.88
409.791	89.88
410.014	92.88
410.238	90.88
410.461	90.88
410.685	94.88
410.908	69.88
411.132	87.88
411.355	81.88
411.578	97.88
411.802	81.88
412.025	81.88
412.249	82.88
412.472	86.88
412.695	77.88
412.919	86.88
413.142	78.88
413.365	95.88
413.589	77.88
413.812	83.88
414.035	84.88
414.258	73.88
414.482	84.88
414.705	88.88
414.928	85.88
415.151	85.88
415.374	76.88
415.597	88.88
415.821	86.88
416.044	76.88
416.267	95.88
416.49	95.88
416.713	99.88
416.936	79.88
417.159	80.88
417.382	76.88
417.605	86.88
417.828	87.88
418.051	83.88
418.274	81.88
418.497	89.88
418.72	96.88
418.943	89.88
419.166	85.88
419.389	80.88
419.611	91.88
419.834	74.88
420.057	83.88
420.28	73.88
420.503	75.88
420.726	90.88
420.948	80.88
421.171	90.88
421.394	81.88
421.617	88.88
421.839	88.88
422.062	92.88
422.285	105.88
422.507	154.88
422.73	216.88
422.953	191.88
423.175	106.88
423.398	90.88
423.621	93.88
423.843	86.88
424.066	75.88
424.288	70.88
424.511	93.88
424.733	92.88
424.956	103.88
425.178	77.88
425.401	86.88
425.623	73.88
425.846	97.88
426.068	90.88
426.291	88.88
426.513	90.88
426.735	86.88
426.958	77.88
427.18	98.88
427.402	83.88
427.625	91.88
427.847	83.88
428.069	96.88
428.292	102.88
428.514	113.88
428.736	87.88
428.958	89.88
429.181	109.88
429.403	93.88
429.625	100.88
429.847	95.88
430.069	97.88
430.292	102.88
430.514	115.88
430.736	81.88
430.958	100.88
431.18	75.88
431.402	99.88
431.624	81.88
431.846	95.88
432.068	93.88
432.29	80.88
432.512	76.88
432.734	86.88
432.956	107.88
433.178	89.88
433.4	81.88
433.622	82.88
433.844	80.88
434.066	96.88
434.287	97.88
434.509	83.88
434.731	79.88
434.953	90.88
435.175	75.88
435.397	76.88
435.618	92.88
435.84	97.88
436.062	91.88
436.284	81.88
436.505	81.88
436.727	86.88
436.949	77.88
437.17	79.88
437.392	82.88
437.614	73.88
437.835	84.88
438.057	82.88
438.278	74.88
438.5	99.88
438.721	87.88
438.943	99.88
439.165	87.88
439.386	71.88
439.608	102.88
439.829	89.88
440.05	77.88
440.272	87.88
440.493	65.88
440.715	83.88
440.936	87.88
441.158	87.88
441.379	80.88
441.6	77.88
441.822	84.88
442.043	76.88
442.264	87.88
442.486	99.88
442.707	115.88
442.928	97.88
443.149	95.88
443.371	99.88
443.592	115.88
443.813	115.88
444.034	91.88
444.255	79.88
444.476	93.88
444.698	86.88
444.919	93.88
445.14	159.88
445.361	127.88
445.582	147.88
445.803	122.88
446.024	99.88
446.245	88.88
446.466	81.88
446.687	80.88
446.908	62.88
447.129	85.88
447.35	78.88
447.571	79.88
447.792	98.88
448.013	88.88
448.234	86.88
448.455	73.88
448.675	85.88
448.896	75.88
449.117	91.88
449.338	78.88
449.559	85.88
449.779	98.88
450	103.88
450.221	85.88
450.442	83.88
450.662	77.88
450.883	75.88
451.104	99.88
451.324	84.88
451.545	79.88
451.766	84.88
451.986	82.88
452.207	91.88
452.428	72.88
452.648	95.88
452.869	64.88
453.089	90.88
453.31	86.88
453.53	71.88
453.751	73.88
453.971	81.88
454.192	83.88
454.412	76.88
454.633	75.88
454.853	94.88
455.073	91.88
455.294	81.88
455.514	100.88
455.734	85.88
455.955	87.88
456.175	74.88
456.395	92.88
456.616	98.88
456.836	85.88
457.056	72.88
457.276	88.88
457.497	77.88
457.717	87.88
457.937	82.88
458.157	87.88
458.377	90.88
458.598	97.88
458.818	92.88
459.038	87.88
459.258	81.88
459.478	76.88
459.698	85.88
459.918	83.88
460.138	82.88
460.358	81.88
460.578	83.88
460.798	90.88
461.018	104.88
461.238	77.88
461.458	87.88
461.678	83.88
461.898	84.88
462.118	87.88
462.338	69.88
462.558	83.88
462.777	50.88
462.997	78.88
463.217	88.88
463.437	83.88
463.657	71.88
463.876	84.88
464.096	89.88
464.316	71.88
464.536	87.88
464.755	95.88
464.975	78.88
465.195	80.88
465.414	94.88
465.634	87.88
465.854	77.88
466.073	94.88
466.293	73.88
466.512	84.88
466.732	81.88
466.951	79.88
467.171	90.88
467.391	83.88
467.61	69.88
467.829	78.88
468.049	87.88
468.268	90.88
468.488	83.88
468.707	69.88
468.927	92.88
469.146	86.88
469.365	85.88
469.585	83.88
469.804	90.88
470.023	74.88
470.243	64.88
470.462	81.88
470.681	83.88
470.901	87.88
471.12	98.88
471.339	68.88
471.558	79.88
471.777	87.88
471.997	83.88
472.216	86.88
472.435	83.88
472.654	87.88
472.873	84.88
473.092	101.88
473.311	89.88
473.53	89.88
473.749	108.88
473.968	95.88
474.187	68.88
474.406	83.88
474.625	84.88
474.844	93.88
475.063	87.88
475.282	72.88
475.501	79.88
475.72	95.88
475.939	81.88
476.158	82.88
476.377	88.88
476.596	75.88
476.814	81.88
477.033	86.88
477.252	75.88
477.471	91.88
477.69	94.88
477.908	91.88
478.127	92.88
478.346	95.88
478.564	92.88
478.783	93.88
479.002	78.88
479.22	83.88
479.439	88.88
479.658	83.88
479.876	83.88
480.095	78.88
480.313	93.88
480.532	95.88
480.751	91.88
480.969	87.88
481.188	91.88
481.406	81.88
481.624	95.88
481.843	86.88
482.061	92.88
482.28	76.88
482.498	78.88
482.717	92.88
482.935	75.88
483.153	82.88
483.372	79.88
483.59	88.88
483.808	84.88
484.027	87.88
484.245	95.88
484.463	71.88
484.681	97.88
484.9	90.88
485.118	72.88
485.336	91.88
485.554	95.88
485.772	73.88
485.99	71.88
486.209	92.88
486.427	68.88
486.645	83.88
486.863	81.88
487.081	78.88
487.299	83.88
487.517	86.88
487.735	81.88
487.953	106.88
488.171	106.88
488.389	95.88
488.607	77.88
488.825	96.88
489.043	101.88
489.261	89.88
489.479	79.88
489.696	86.88
489.914	81.88
490.132	83.88
490.35	86.88
490.568	83.88
490.786	91.88
491.003	76.88
491.221	73.88
491.439	74.88
491.657	86.88
491.874	75.88
492.092	75.88
492.31	75.88
492.527	87.88
492.745	76.88
492.963	86.88
493.18	88.88
493.398	91.88
493.615	92.88
493.833	90.88
494.05	89.88
494.268	75.88
494.485	99.88
494.703	93.88
494.92	87.88
495.138	83.88
495.355	93.88
495.573	103.88
495.79	79.88
496.008	84.88
496.225	76.88
496.442	93.88
496.66	97.88
496.877	79.88
497.094	95.88
497.312	68.88
497.529	73.88
497.746	84.88
497.963	99.88
498.181	88.88
498.398	105.88
498.615	79.88
498.832	84.88
499.049	81.88
499.267	90.88
499.484	80.88
499.701	91.88
499.918	86.88
500.135	69.88
500.352	96.88
500.569	87.88
500.786	85.88
501.003	84.88
501.22	82.88
501.437	92.88
501.654	89.88
501.871	91.88
502.088	79.88
502.305	83.88
502.522	90.88
502.739	83.88
502.956	99.88
503.172	93.88
503.389	81.88
503.606	91.88
503.823	74.88
504.04	75.88
504.256	92.88
504.473	92.88
504.69	85.88
504.907	92.88
505.123	75.88
505.34	79.88
505.557	88.88
505.773	77.88
505.99	79.88
506.207	77.88
506.423	88.88
506.64	96.88
506.856	78.88
507.073	85.88
507.289	72.88
507.506	80.88
507.722	95.88
507.939	92.88
508.155	89.88
508.372	92.88
508.588	74.88
508.805	78.88
509.021	91.88
509.238	80.88
509.454	91.88
509.67	77.88
509.887	90.88
510.103	81.88
510.319	83.88
510.536	95.88
510.752	79.88
510.968	99.88
511.184	87.88
511.401	85.88
511.617	81.88
511.833	87.88
512.049	88.88
512.265	79.88
512.481	77.88
512.698	87.88
512.914	89.88
513.13	81.88
513.346	77.88
513.562	80.88
513.778	100.88
513.994	92.88
514.21	82.88
514.426	83.88
514.642	83.88
514.858	84.88
515.074	87.88
515.29	92.88
515.506	84.88
515.721	85.88
515.937	90.88
516.153	84.88
516.369	91.88
516.585	90.88
516.801	72.88
517.016	93.88
517.232	95.88
517.448	92.88
517.664	92.88
517.879	102.88
518.095	95.88
518.311	75.88
518.527	83.88
518.742	85.88
518.958	100.88
519.173	108.88
519.389	87.88
