Data from 237_1_HRD10591_00028.txt Node
Date: Mon Jan 19 14:10:43 EST 2026
User: Yrep
Spectrometer: HR+D1059
Trigger mode: 1
Integration Time (sec): 1.000000E-1
Scans to average: 1
Electric dark correction enabled: true
Nonlinearity correction enabled: false
Boxcar width: 0
XAxis mode: Wavelengths
Number of Pixels in Spectrum: 2048
>>>>>Begin Spectral Data<<<<<
223.165	-12.31
223.4	-12.31
223.635	-12.31
223.869	-21.31
224.104	-8.31
224.338	-14.31
224.573	-6.31
224.808	-24.31
225.042	-8.31
225.277	-0.31
225.511	-1.31
225.746	-16.31
225.98	8.69
226.215	12.69
226.449	3.69
226.683	21.69
226.918	36.69
227.152	29.69
227.387	24.69
227.621	32.69
227.856	53.69
228.09	36.69
228.324	45.69
228.559	56.69
228.793	70.69
229.027	64.69
229.262	72.69
229.496	79.69
229.73	68.69
229.964	78.69
230.199	73.69
230.433	76.69
230.667	80.69
230.901	84.69
231.136	85.69
231.37	73.69
231.604	78.69
231.838	78.69
232.072	84.69
232.306	84.69
232.541	79.69
232.775	83.69
233.009	85.69
233.243	76.69
233.477	88.69
233.711	79.69
233.945	83.69
234.179	83.69
234.413	81.69
234.647	78.69
234.881	81.69
235.115	86.69
235.349	85.69
235.583	92.69
235.817	93.69
236.051	72.69
236.285	92.69
236.519	99.69
236.753	88.69
236.987	84.69
237.221	84.69
237.455	79.69
237.689	103.69
237.922	82.69
238.156	90.69
238.39	83.69
238.624	82.69
238.858	73.69
239.091	87.69
239.325	85.69
239.559	86.69
239.793	77.69
240.027	72.69
240.26	76.69
240.494	78.69
240.728	78.69
240.961	70.69
241.195	78.69
241.429	82.69
241.662	79.69
241.896	76.69
242.13	80.69
242.363	70.69
242.597	76.69
242.83	73.69
243.064	74.69
243.298	67.69
243.531	64.69
243.765	91.69
243.998	74.69
244.232	71.69
244.465	70.69
244.699	91.69
244.932	84.69
245.166	83.69
245.399	90.69
245.633	80.69
245.866	87.69
246.099	82.69
246.333	82.69
246.566	74.69
246.8	86.69
247.033	77.69
247.266	85.69
247.5	68.69
247.733	73.69
247.966	88.69
248.2	88.69
248.433	76.69
248.666	75.69
248.899	86.69
249.133	86.69
249.366	82.69
249.599	77.69
249.832	74.69
250.066	93.69
250.299	90.69
250.532	73.69
250.765	79.69
250.998	72.69
251.231	97.69
251.465	75.69
251.698	83.69
251.931	81.69
252.164	74.69
252.397	78.69
252.63	78.69
252.863	83.69
253.096	70.69
253.329	96.69
253.562	76.69
253.795	84.69
254.028	82.69
254.261	96.69
254.494	78.69
254.727	69.69
254.96	78.69
255.193	80.69
255.426	77.69
255.659	105.69
255.892	83.69
256.124	74.69
256.357	90.69
256.59	82.69
256.823	89.69
257.056	70.69
257.289	92.69
257.521	78.69
257.754	82.69
257.987	72.69
258.22	86.69
258.452	80.69
258.685	78.69
258.918	91.69
259.151	80.69
259.383	84.69
259.616	69.69
259.849	78.69
260.081	76.69
260.314	69.69
260.547	92.69
260.779	88.69
261.012	85.69
261.244	90.69
261.477	84.69
261.71	90.69
261.942	67.69
262.175	95.69
262.407	101.69
262.64	77.69
262.872	77.69
263.105	81.69
263.337	82.69
263.57	84.69
263.802	73.69
264.035	79.69
264.267	84.69
264.499	87.69
264.732	81.69
264.964	102.69
265.197	77.69
265.429	96.69
265.661	88.69
265.894	84.69
266.126	90.69
266.358	89.69
266.591	100.69
266.823	83.69
267.055	80.69
267.287	94.69
267.52	87.69
267.752	76.69
267.984	80.69
268.216	81.69
268.448	92.69
268.681	90.69
268.913	79.69
269.145	88.69
269.377	85.69
269.609	88.69
269.841	77.69
270.073	89.69
270.306	90.69
270.538	85.69
270.77	92.69
271.002	90.69
271.234	83.69
271.466	82.69
271.698	73.69
271.93	85.69
272.162	76.69
272.394	91.69
272.626	89.69
272.858	81.69
273.09	66.69
273.322	96.69
273.553	82.69
273.785	86.69
274.017	85.69
274.249	72.69
274.481	94.69
274.713	92.69
274.945	73.69
275.176	80.69
275.408	102.69
275.64	90.69
275.872	88.69
276.104	72.69
276.335	94.69
276.567	87.69
276.799	68.69
277.031	80.69
277.262	73.69
277.494	85.69
277.726	84.69
277.957	82.69
278.189	79.69
278.421	91.69
278.652	92.69
278.884	86.69
279.115	73.69
279.347	70.69
279.579	84.69
279.81	94.69
280.042	83.69
280.273	81.69
280.505	80.69
280.736	85.69
280.968	91.69
281.199	72.69
281.431	84.69
281.662	76.69
281.894	81.69
282.125	91.69
282.356	85.69
282.588	88.69
282.819	92.69
283.051	88.69
283.282	100.69
283.513	90.69
283.745	82.69
283.976	91.69
284.207	78.69
284.439	92.69
284.67	77.69
284.901	77.69
285.132	80.69
285.364	84.69
285.595	73.69
285.826	84.69
286.057	87.69
286.288	85.69
286.52	84.69
286.751	86.69
286.982	85.69
287.213	91.69
287.444	78.69
287.675	99.69
287.906	92.69
288.138	75.69
288.369	85.69
288.6	85.69
288.831	76.69
289.062	90.69
289.293	82.69
289.524	88.69
289.755	67.69
289.986	80.69
290.217	81.69
290.448	91.69
290.679	84.69
290.91	85.69
291.141	96.69
291.371	69.69
291.602	78.69
291.833	80.69
292.064	86.69
292.295	86.69
292.526	98.69
292.757	88.69
292.987	84.69
293.218	84.69
293.449	98.69
293.68	80.69
293.91	92.69
294.141	88.69
294.372	84.69
294.603	94.69
294.833	98.69
295.064	93.69
295.295	83.69
295.525	70.69
295.756	91.69
295.987	67.69
296.217	92.69
296.448	82.69
296.679	105.69
296.909	85.69
297.14	88.69
297.37	88.69
297.601	98.69
297.831	88.69
298.062	99.69
298.292	79.69
298.523	70.69
298.753	90.69
298.984	101.69
299.214	94.69
299.445	67.69
299.675	65.69
299.905	78.69
300.136	75.69
300.366	83.69
300.597	82.69
300.827	75.69
301.057	78.69
301.288	78.69
301.518	81.69
301.748	100.69
301.979	99.69
302.209	87.69
302.439	83.69
302.669	88.69
302.9	84.69
303.13	75.69
303.36	86.69
303.59	77.69
303.82	83.69
304.051	88.69
304.281	91.69
304.511	89.69
304.741	80.69
304.971	107.69
305.201	90.69
305.431	92.69
305.661	96.69
305.891	77.69
306.121	88.69
306.352	91.69
306.582	87.69
306.812	106.69
307.042	92.69
307.272	79.69
307.502	70.69
307.731	88.69
307.961	92.69
308.191	97.69
308.421	69.69
308.651	73.69
308.881	87.69
309.111	105.69
309.341	78.69
309.571	91.69
309.8	79.69
310.03	85.69
310.26	92.69
310.49	96.69
310.72	88.69
310.949	104.69
311.179	88.69
311.409	77.69
311.639	76.69
311.868	93.69
312.098	77.69
312.328	97.69
312.557	91.69
312.787	81.69
313.017	87.69
313.246	88.69
313.476	84.69
313.706	91.69
313.935	85.69
314.165	92.69
314.394	76.69
314.624	76.69
314.853	84.69
315.083	96.69
315.312	102.69
315.542	92.69
315.771	96.69
316.001	83.69
316.23	86.69
316.46	81.69
316.689	77.69
316.919	84.69
317.148	78.69
317.377	89.69
317.607	82.69
317.836	81.69
318.065	92.69
318.295	87.69
318.524	80.69
318.753	94.69
318.983	93.69
319.212	96.69
319.441	78.69
319.67	88.69
319.9	72.69
320.129	72.69
320.358	86.69
320.587	82.69
320.816	81.69
321.046	87.69
321.275	92.69
321.504	73.69
321.733	80.69
321.962	97.69
322.191	91.69
322.42	90.69
322.649	101.69
322.878	79.69
323.108	80.69
323.337	73.69
323.566	77.69
323.795	92.69
324.024	86.69
324.253	88.69
324.482	88.69
324.71	79.69
324.939	83.69
325.168	92.69
325.397	79.69
325.626	89.69
325.855	78.69
326.084	102.69
326.313	77.69
326.542	88.69
326.77	88.69
326.999	78.69
327.228	72.69
327.457	91.69
327.686	102.69
327.914	81.69
328.143	87.69
328.372	82.69
328.6	101.69
328.829	96.69
329.058	80.69
329.287	95.69
329.515	88.69
329.744	94.69
329.972	86.69
330.201	90.69
330.43	93.69
330.658	87.69
330.887	83.69
331.115	81.69
331.344	89.69
331.572	85.69
331.801	75.69
332.03	82.69
332.258	90.69
332.486	91.69
332.715	81.69
332.943	81.69
333.172	78.69
333.4	75.69
333.629	84.69
333.857	84.69
334.085	91.69
334.314	92.69
334.542	80.69
334.771	84.69
334.999	93.69
335.227	82.69
335.455	74.69
335.684	105.69
335.912	86.69
336.14	95.69
336.369	98.69
336.597	76.69
336.825	82.69
337.053	109.69
337.281	94.69
337.51	104.69
337.738	99.69
337.966	91.69
338.194	89.69
338.422	94.69
338.65	89.69
338.878	88.69
339.106	77.69
339.334	88.69
339.562	88.69
339.79	84.69
340.018	87.69
340.246	80.69
340.474	94.69
340.702	90.69
340.93	94.69
341.158	100.69
341.386	97.69
341.614	86.69
341.842	83.69
342.07	90.69
342.298	68.69
342.526	97.69
342.754	87.69
342.981	92.69
343.209	94.69
343.437	94.69
343.665	85.69
343.893	83.69
344.12	87.69
344.348	74.69
344.576	89.69
344.804	81.69
345.031	77.69
345.259	86.69
345.487	93.69
345.714	88.69
345.942	88.69
346.17	96.69
346.397	89.69
346.625	84.69
346.853	84.69
347.08	84.69
347.308	80.69
347.535	82.69
347.763	101.69
347.99	91.69
348.218	83.69
348.445	95.69
348.673	84.69
348.9	101.69
349.128	86.69
349.355	74.69
349.583	76.69
349.81	83.69
350.037	86.69
350.265	90.69
350.492	88.69
350.72	79.69
350.947	88.69
351.174	88.69
351.402	87.69
351.629	75.69
351.856	76.69
352.083	98.69
352.311	101.69
352.538	76.69
352.765	91.69
352.992	100.69
353.22	75.69
353.447	82.69
353.674	89.69
353.901	78.69
354.128	92.69
354.355	78.69
354.583	85.69
354.81	79.69
355.037	101.69
355.264	83.69
355.491	86.69
355.718	82.69
355.945	81.69
356.172	90.69
356.399	79.69
356.626	74.69
356.853	82.69
357.08	97.69
357.307	84.69
357.534	84.69
357.761	96.69
357.988	94.69
358.215	84.69
358.441	82.69
358.668	82.69
358.895	85.69
359.122	73.69
359.349	97.69
359.576	84.69
359.802	90.69
360.029	88.69
360.256	85.69
360.483	86.69
360.709	92.69
360.936	91.69
361.163	82.69
361.39	73.69
361.616	81.69
361.843	72.69
362.07	84.69
362.296	66.69
362.523	86.69
362.749	93.69
362.976	88.69
363.203	84.69
363.429	70.69
363.656	91.69
363.882	86.69
364.109	89.69
364.335	85.69
364.562	100.69
364.788	91.69
365.015	93.69
365.241	86.69
365.468	104.69
365.694	87.69
365.92	95.69
366.147	84.69
366.373	77.69
366.599	92.69
366.826	88.69
367.052	85.69
367.278	86.69
367.505	84.69
367.731	87.69
367.957	86.69
368.184	84.69
368.41	87.69
368.636	77.69
368.862	84.69
369.089	90.69
369.315	90.69
369.541	77.69
369.767	80.69
369.993	92.69
370.219	96.69
370.445	81.69
370.672	73.69
370.898	87.69
371.124	102.69
371.35	93.69
371.576	78.69
371.802	101.69
372.028	94.69
372.254	90.69
372.48	96.69
372.706	80.69
372.932	76.69
373.158	84.69
373.384	86.69
373.61	96.69
373.835	86.69
374.061	77.69
374.287	97.69
374.513	85.69
374.739	101.69
374.965	91.69
375.191	93.69
375.416	93.69
375.642	86.69
375.868	75.69
376.094	82.69
376.319	82.69
376.545	75.69
376.771	94.69
376.997	95.69
377.222	82.69
377.448	78.69
377.674	81.69
377.899	66.69
378.125	82.69
378.35	89.69
378.576	85.69
378.802	82.69
379.027	82.69
379.253	76.69
379.478	84.69
379.704	99.69
379.929	89.69
380.155	88.69
380.38	101.69
380.606	80.69
380.831	93.69
381.057	88.69
381.282	67.69
381.507	88.69
381.733	104.69
381.958	81.69
382.184	94.69
382.409	92.69
382.634	85.69
382.86	86.69
383.085	88.69
383.31	92.69
383.535	77.69
383.761	83.69
383.986	95.69
384.211	102.69
384.436	88.69
384.662	82.69
384.887	66.69
385.112	87.69
385.337	83.69
385.562	96.69
385.787	88.69
386.013	91.69
386.238	82.69
386.463	87.69
386.688	87.69
386.913	76.69
387.138	64.69
387.363	78.69
387.588	76.69
387.813	84.69
388.038	101.69
388.263	87.69
388.488	72.69
388.713	70.69
388.938	78.69
389.163	83.69
389.387	87.69
389.612	92.69
389.837	79.69
390.062	90.69
390.287	94.69
390.512	79.69
390.736	83.69
390.961	72.69
391.186	91.69
391.411	86.69
391.636	86.69
391.86	76.69
392.085	82.69
392.31	76.69
392.534	92.69
392.759	86.69
392.984	96.69
393.208	92.69
393.433	127.69
393.658	118.69
393.882	100.69
394.107	93.69
394.331	99.69
394.556	82.69
394.78	92.69
395.005	96.69
395.229	76.69
395.454	80.69
395.678	92.69
395.903	84.69
396.127	112.69
396.352	86.69
396.576	92.69
396.801	107.69
397.025	114.69
397.249	85.69
397.474	89.69
397.698	103.69
397.922	84.69
398.147	79.69
398.371	92.69
398.595	87.69
398.82	90.69
399.044	78.69
399.268	92.69
399.492	91.69
399.717	96.69
399.941	86.69
400.165	85.69
400.389	93.69
400.613	71.69
400.837	96.69
401.062	65.69
401.286	80.69
401.51	84.69
401.734	69.69
401.958	69.69
402.182	65.69
402.406	86.69
402.63	88.69
402.854	76.69
403.078	83.69
403.302	80.69
403.526	105.69
403.75	90.69
403.974	85.69
404.198	97.69
404.422	75.69
404.645	96.69
404.869	91.69
405.093	79.69
405.317	78.69
405.541	85.69
405.765	68.69
405.988	78.69
406.212	84.69
406.436	75.69
406.66	84.69
406.883	87.69
407.107	73.69
407.331	91.69
407.555	80.69
407.778	82.69
408.002	93.69
408.226	82.69
408.449	92.69
408.673	86.69
408.896	86.69
409.12	90.69
409.344	96.69
409.567	90.69
409.791	86.69
410.014	85.69
410.238	87.69
410.461	90.69
410.685	89.69
410.908	82.69
411.132	88.69
411.355	77.69
411.578	88.69
411.802	80.69
412.025	78.69
412.249	86.69
412.472	108.69
412.695	93.69
412.919	90.69
413.142	89.69
413.365	86.69
413.589	90.69
413.812	101.69
414.035	88.69
414.258	82.69
414.482	90.69
414.705	76.69
414.928	76.69
415.151	84.69
415.374	91.69
415.597	80.69
415.821	81.69
416.044	84.69
416.267	65.69
416.49	88.69
416.713	88.69
416.936	82.69
417.159	88.69
417.382	82.69
417.605	86.69
417.828	80.69
418.051	79.69
418.274	73.69
418.497	95.69
418.72	94.69
418.943	89.69
419.166	82.69
419.389	102.69
419.611	94.69
419.834	84.69
420.057	77.69
420.28	77.69
420.503	81.69
420.726	82.69
420.948	87.69
421.171	104.69
421.394	102.69
421.617	93.69
421.839	102.69
422.062	109.69
422.285	109.69
422.507	140.69
422.73	191.69
422.953	165.69
423.175	100.69
423.398	91.69
423.621	88.69
423.843	85.69
424.066	76.69
424.288	78.69
424.511	74.69
424.733	88.69
424.956	82.69
425.178	74.69
425.401	91.69
425.623	98.69
425.846	83.69
426.068	83.69
426.291	93.69
426.513	87.69
426.735	85.69
426.958	91.69
427.18	94.69
427.402	94.69
427.625	94.69
427.847	72.69
428.069	89.69
428.292	92.69
428.514	98.69
428.736	99.69
428.958	99.69
429.181	95.69
429.403	87.69
429.625	81.69
429.847	91.69
430.069	102.69
430.292	106.69
430.514	106.69
430.736	87.69
430.958	109.69
431.18	96.69
431.402	90.69
431.624	96.69
431.846	90.69
432.068	106.69
432.29	95.69
432.512	93.69
432.734	87.69
432.956	93.69
433.178	98.69
433.4	85.69
433.622	93.69
433.844	77.69
434.066	77.69
434.287	88.69
434.509	86.69
434.731	94.69
434.953	100.69
435.175	79.69
435.397	107.69
435.618	90.69
435.84	90.69
436.062	85.69
436.284	77.69
436.505	92.69
436.727	78.69
436.949	74.69
437.17	90.69
437.392	91.69
437.614	87.69
437.835	87.69
438.057	91.69
438.278	84.69
438.5	96.69
438.721	88.69
438.943	88.69
439.165	92.69
439.386	90.69
439.608	84.69
439.829	89.69
440.05	84.69
440.272	86.69
440.493	100.69
440.715	86.69
440.936	83.69
441.158	70.69
441.379	101.69
441.6	92.69
441.822	92.69
442.043	88.69
442.264	93.69
442.486	78.69
442.707	100.69
442.928	104.69
443.149	81.69
443.371	109.69
443.592	111.69
443.813	103.69
444.034	96.69
444.255	74.69
444.476	88.69
444.698	81.69
444.919	96.69
445.14	162.69
445.361	128.69
445.582	132.69
445.803	123.69
446.024	100.69
446.245	89.69
446.466	92.69
446.687	92.69
446.908	95.69
447.129	97.69
447.35	99.69
447.571	89.69
447.792	105.69
448.013	69.69
448.234	73.69
448.455	79.69
448.675	80.69
448.896	87.69
449.117	84.69
449.338	91.69
449.559	83.69
449.779	93.69
450	80.69
450.221	88.69
450.442	68.69
450.662	80.69
450.883	92.69
451.104	84.69
451.324	84.69
451.545	69.69
451.766	77.69
451.986	84.69
452.207	82.69
452.428	96.69
452.648	82.69
452.869	86.69
453.089	95.69
453.31	96.69
453.53	88.69
453.751	76.69
453.971	95.69
454.192	97.69
454.412	80.69
454.633	85.69
454.853	87.69
455.073	97.69
455.294	90.69
455.514	79.69
455.734	89.69
455.955	94.69
456.175	73.69
456.395	88.69
456.616	100.69
456.836	101.69
457.056	98.69
457.276	84.69
457.497	86.69
457.717	76.69
457.937	86.69
458.157	84.69
458.377	96.69
458.598	96.69
458.818	77.69
459.038	79.69
459.258	78.69
459.478	84.69
459.698	76.69
459.918	88.69
460.138	84.69
460.358	72.69
460.578	87.69
460.798	88.69
461.018	104.69
461.238	89.69
461.458	89.69
461.678	97.69
461.898	89.69
462.118	76.69
462.338	77.69
462.558	77.69
462.777	71.69
462.997	103.69
463.217	88.69
463.437	84.69
463.657	92.69
463.876	75.69
464.096	84.69
464.316	85.69
464.536	88.69
464.755	90.69
464.975	85.69
465.195	86.69
465.414	97.69
465.634	96.69
465.854	81.69
466.073	82.69
466.293	70.69
466.512	81.69
466.732	74.69
466.951	104.69
467.171	85.69
467.391	79.69
467.61	78.69
467.829	80.69
468.049	78.69
468.268	73.69
468.488	98.69
468.707	90.69
468.927	78.69
469.146	94.69
469.365	88.69
469.585	73.69
469.804	90.69
470.023	84.69
470.243	91.69
470.462	83.69
470.681	89.69
470.901	86.69
471.12	97.69
471.339	82.69
471.558	87.69
471.777	89.69
471.997	78.69
472.216	97.69
472.435	100.69
472.654	88.69
472.873	83.69
473.092	88.69
473.311	92.69
473.53	86.69
473.749	86.69
473.968	96.69
474.187	102.69
474.406	84.69
474.625	84.69
474.844	86.69
475.063	85.69
475.282	81.69
475.501	89.69
475.72	86.69
475.939	86.69
476.158	82.69
476.377	87.69
476.596	81.69
476.814	90.69
477.033	84.69
477.252	94.69
477.471	94.69
477.69	105.69
477.908	91.69
478.127	84.69
478.346	89.69
478.564	75.69
478.783	83.69
479.002	83.69
479.22	74.69
479.439	89.69
479.658	84.69
479.876	82.69
480.095	104.69
480.313	76.69
480.532	82.69
480.751	92.69
480.969	83.69
481.188	90.69
481.406	88.69
481.624	83.69
481.843	92.69
482.061	93.69
482.28	86.69
482.498	74.69
482.717	99.69
482.935	88.69
483.153	73.69
483.372	86.69
483.59	88.69
483.808	93.69
484.027	86.69
484.245	90.69
484.463	87.69
484.681	100.69
484.9	87.69
485.118	92.69
485.336	89.69
485.554	90.69
485.772	101.69
485.99	81.69
486.209	92.69
486.427	82.69
486.645	84.69
486.863	86.69
487.081	74.69
487.299	81.69
487.517	84.69
487.735	94.69
487.953	106.69
488.171	83.69
488.389	89.69
488.607	95.69
488.825	93.69
489.043	93.69
489.261	91.69
489.479	90.69
489.696	96.69
489.914	85.69
490.132	90.69
490.35	71.69
490.568	81.69
490.786	93.69
491.003	103.69
491.221	85.69
491.439	94.69
491.657	93.69
491.874	92.69
492.092	86.69
492.31	78.69
492.527	75.69
492.745	96.69
492.963	92.69
493.18	85.69
493.398	87.69
493.615	103.69
493.833	91.69
494.05	82.69
494.268	76.69
494.485	86.69
494.703	94.69
494.92	85.69
495.138	77.69
495.355	93.69
495.573	87.69
495.79	84.69
496.008	91.69
496.225	81.69
496.442	77.69
496.66	78.69
496.877	90.69
497.094	93.69
497.312	91.69
497.529	107.69
497.746	81.69
497.963	84.69
498.181	100.69
498.398	91.69
498.615	80.69
498.832	73.69
499.049	84.69
499.267	84.69
499.484	97.69
499.701	90.69
499.918	82.69
500.135	90.69
500.352	85.69
500.569	90.69
500.786	92.69
501.003	85.69
501.22	97.69
501.437	90.69
501.654	94.69
501.871	93.69
502.088	93.69
502.305	85.69
502.522	95.69
502.739	97.69
502.956	96.69
503.172	86.69
503.389	88.69
503.606	84.69
503.823	102.69
504.04	91.69
504.256	94.69
504.473	99.69
504.69	91.69
504.907	105.69
505.123	85.69
505.34	88.69
505.557	100.69
505.773	95.69
505.99	87.69
506.207	94.69
506.423	73.69
506.64	80.69
506.856	83.69
507.073	89.69
507.289	82.69
507.506	93.69
507.722	86.69
507.939	87.69
508.155	85.69
508.372	101.69
508.588	92.69
508.805	94.69
509.021	88.69
509.238	90.69
509.454	92.69
509.67	92.69
509.887	90.69
510.103	87.69
510.319	71.69
510.536	82.69
510.752	87.69
510.968	86.69
511.184	85.69
511.401	81.69
511.617	94.69
511.833	78.69
512.049	85.69
512.265	98.69
512.481	84.69
512.698	72.69
512.914	83.69
513.13	79.69
513.346	101.69
513.562	92.69
513.778	97.69
513.994	88.69
514.21	85.69
514.426	86.69
514.642	93.69
514.858	77.69
515.074	91.69
515.29	84.69
515.506	78.69
515.721	71.69
515.937	84.69
516.153	82.69
516.369	86.69
516.585	86.69
516.801	88.69
517.016	96.69
517.232	88.69
517.448	71.69
517.664	94.69
517.879	93.69
518.095	82.69
518.311	96.69
518.527	75.69
518.742	96.69
518.958	94.69
