Data from 237_1_HRD10591_00009.txt Node
Date: Mon Jan 19 14:10:34 EST 2026
User: Yrep
Spectrometer: HR+D1059
Trigger mode: 1
Integration Time (sec): 1.000000E-1
Scans to average: 1
Electric dark correction enabled: true
Nonlinearity correction enabled: false
Boxcar width: 0
XAxis mode: Wavelengths
Number of Pixels in Spectrum: 2048
>>>>>Begin Spectral Data<<<<<
223.165	-26.31
223.4	-26.31
223.635	-26.31
223.869	-21.31
224.104	-14.31
224.338	-22.31
224.573	-10.31
224.808	-4.31
225.042	-15.31
225.277	-10.31
225.511	6.69
225.746	1.69
225.98	9.69
226.215	21.69
226.449	10.69
226.683	17.69
226.918	22.69
227.152	33.69
227.387	29.69
227.621	41.69
227.856	29.69
228.09	48.69
228.324	45.69
228.559	59.69
228.793	54.69
229.027	59.69
229.262	58.69
229.496	54.69
229.73	63.69
229.964	75.69
230.199	67.69
230.433	78.69
230.667	66.69
230.901	79.69
231.136	69.69
231.37	71.69
231.604	90.69
231.838	71.69
232.072	81.69
232.306	84.69
232.541	82.69
232.775	71.69
233.009	77.69
233.243	80.69
233.477	57.69
233.711	81.69
233.945	89.69
234.179	62.69
234.413	79.69
234.647	80.69
234.881	72.69
235.115	92.69
235.349	83.69
235.583	74.69
235.817	81.69
236.051	80.69
236.285	83.69
236.519	69.69
236.753	74.69
236.987	79.69
237.221	73.69
237.455	73.69
237.689	80.69
237.922	89.69
238.156	75.69
238.39	76.69
238.624	83.69
238.858	62.69
239.091	67.69
239.325	65.69
239.559	77.69
239.793	85.69
240.027	71.69
240.26	87.69
240.494	71.69
240.728	72.69
240.961	69.69
241.195	69.69
241.429	74.69
241.662	65.69
241.896	80.69
242.13	74.69
242.363	73.69
242.597	69.69
242.83	76.69
243.064	66.69
243.298	79.69
243.531	78.69
243.765	89.69
243.998	64.69
244.232	73.69
244.465	71.69
244.699	86.69
244.932	74.69
245.166	74.69
245.399	73.69
245.633	78.69
245.866	83.69
246.099	80.69
246.333	71.69
246.566	77.69
246.8	86.69
247.033	80.69
247.266	73.69
247.5	87.69
247.733	79.69
247.966	75.69
248.2	73.69
248.433	72.69
248.666	75.69
248.899	82.69
249.133	82.69
249.366	71.69
249.599	81.69
249.832	87.69
250.066	72.69
250.299	87.69
250.532	98.69
250.765	93.69
250.998	91.69
251.231	86.69
251.465	65.69
251.698	83.69
251.931	85.69
252.164	65.69
252.397	73.69
252.63	73.69
252.863	74.69
253.096	78.69
253.329	83.69
253.562	87.69
253.795	81.69
254.028	76.69
254.261	83.69
254.494	93.69
254.727	92.69
254.96	96.69
255.193	94.69
255.426	81.69
255.659	88.69
255.892	69.69
256.124	81.69
256.357	83.69
256.59	69.69
256.823	91.69
257.056	89.69
257.289	91.69
257.521	73.69
257.754	81.69
257.987	69.69
258.22	74.69
258.452	76.69
258.685	90.69
258.918	82.69
259.151	88.69
259.383	75.69
259.616	83.69
259.849	75.69
260.081	81.69
260.314	78.69
260.547	85.69
260.779	95.69
261.012	80.69
261.244	79.69
261.477	88.69
261.71	72.69
261.942	91.69
262.175	87.69
262.407	76.69
262.64	73.69
262.872	79.69
263.105	77.69
263.337	89.69
263.57	77.69
263.802	64.69
264.035	75.69
264.267	86.69
264.499	75.69
264.732	89.69
264.964	69.69
265.197	83.69
265.429	83.69
265.661	85.69
265.894	81.69
266.126	74.69
266.358	88.69
266.591	79.69
266.823	77.69
267.055	67.69
267.287	83.69
267.52	85.69
267.752	84.69
267.984	92.69
268.216	75.69
268.448	84.69
268.681	75.69
268.913	94.69
269.145	81.69
269.377	65.69
269.609	75.69
269.841	87.69
270.073	88.69
270.306	73.69
270.538	71.69
270.77	72.69
271.002	88.69
271.234	86.69
271.466	81.69
271.698	86.69
271.93	83.69
272.162	83.69
272.394	76.69
272.626	78.69
272.858	83.69
273.09	85.69
273.322	94.69
273.553	68.69
273.785	71.69
274.017	78.69
274.249	80.69
274.481	80.69
274.713	74.69
274.945	83.69
275.176	65.69
275.408	79.69
275.64	72.69
275.872	88.69
276.104	71.69
276.335	85.69
276.567	82.69
276.799	79.69
277.031	75.69
277.262	85.69
277.494	80.69
277.726	74.69
277.957	82.69
278.189	91.69
278.421	86.69
278.652	77.69
278.884	73.69
279.115	58.69
279.347	77.69
279.579	81.69
279.81	79.69
280.042	83.69
280.273	74.69
280.505	87.69
280.736	95.69
280.968	96.69
281.199	83.69
281.431	83.69
281.662	87.69
281.894	78.69
282.125	83.69
282.356	83.69
282.588	96.69
282.819	73.69
283.051	79.69
283.282	81.69
283.513	74.69
283.745	68.69
283.976	85.69
284.207	85.69
284.439	105.69
284.67	89.69
284.901	94.69
285.132	82.69
285.364	88.69
285.595	90.69
285.826	71.69
286.057	85.69
286.288	89.69
286.52	90.69
286.751	74.69
286.982	93.69
287.213	83.69
287.444	83.69
287.675	87.69
287.906	65.69
288.138	79.69
288.369	73.69
288.6	81.69
288.831	87.69
289.062	106.69
289.293	83.69
289.524	63.69
289.755	81.69
289.986	86.69
290.217	76.69
290.448	75.69
290.679	87.69
290.91	81.69
291.141	83.69
291.371	88.69
291.602	77.69
291.833	70.69
292.064	79.69
292.295	91.69
292.526	74.69
292.757	86.69
292.987	85.69
293.218	94.69
293.449	85.69
293.68	79.69
293.91	98.69
294.141	81.69
294.372	104.69
294.603	89.69
294.833	72.69
295.064	72.69
295.295	89.69
295.525	87.69
295.756	80.69
295.987	73.69
296.217	75.69
296.448	77.69
296.679	87.69
296.909	87.69
297.14	83.69
297.37	92.69
297.601	94.69
297.831	73.69
298.062	96.69
298.292	84.69
298.523	90.69
298.753	83.69
298.984	92.69
299.214	84.69
299.445	86.69
299.675	85.69
299.905	86.69
300.136	93.69
300.366	77.69
300.597	98.69
300.827	95.69
301.057	84.69
301.288	77.69
301.518	81.69
301.748	97.69
301.979	110.69
302.209	95.69
302.439	89.69
302.669	76.69
302.9	83.69
303.13	75.69
303.36	78.69
303.59	75.69
303.82	83.69
304.051	88.69
304.281	79.69
304.511	97.69
304.741	89.69
304.971	77.69
305.201	85.69
305.431	82.69
305.661	87.69
305.891	86.69
306.121	87.69
306.352	80.69
306.582	75.69
306.812	99.69
307.042	84.69
307.272	100.69
307.502	82.69
307.731	94.69
307.961	79.69
308.191	90.69
308.421	87.69
308.651	76.69
308.881	88.69
309.111	87.69
309.341	81.69
309.571	97.69
309.8	76.69
310.03	85.69
310.26	82.69
310.49	88.69
310.72	91.69
310.949	80.69
311.179	82.69
311.409	91.69
311.639	89.69
311.868	80.69
312.098	90.69
312.328	79.69
312.557	81.69
312.787	95.69
313.017	93.69
313.246	93.69
313.476	79.69
313.706	100.69
313.935	78.69
314.165	73.69
314.394	89.69
314.624	79.69
314.853	70.69
315.083	76.69
315.312	89.69
315.542	79.69
315.771	81.69
316.001	105.69
316.23	94.69
316.46	85.69
316.689	85.69
316.919	96.69
317.148	81.69
317.377	101.69
317.607	85.69
317.836	86.69
318.065	91.69
318.295	101.69
318.524	92.69
318.753	93.69
318.983	76.69
319.212	81.69
319.441	78.69
319.67	85.69
319.9	87.69
320.129	73.69
320.358	83.69
320.587	84.69
320.816	89.69
321.046	89.69
321.275	83.69
321.504	87.69
321.733	87.69
321.962	95.69
322.191	90.69
322.42	87.69
322.649	100.69
322.878	91.69
323.108	95.69
323.337	80.69
323.566	91.69
323.795	75.69
324.024	80.69
324.253	84.69
324.482	85.69
324.71	90.69
324.939	94.69
325.168	83.69
325.397	91.69
325.626	82.69
325.855	76.69
326.084	71.69
326.313	83.69
326.542	93.69
326.77	83.69
326.999	75.69
327.228	96.69
327.457	87.69
327.686	90.69
327.914	81.69
328.143	98.69
328.372	97.69
328.6	91.69
328.829	87.69
329.058	92.69
329.287	90.69
329.515	79.69
329.744	99.69
329.972	84.69
330.201	94.69
330.43	100.69
330.658	88.69
330.887	95.69
331.115	85.69
331.344	74.69
331.572	90.69
331.801	75.69
332.03	74.69
332.258	86.69
332.486	95.69
332.715	88.69
332.943	102.69
333.172	84.69
333.4	89.69
333.629	99.69
333.857	81.69
334.085	73.69
334.314	85.69
334.542	104.69
334.771	99.69
334.999	94.69
335.227	86.69
335.455	99.69
335.684	88.69
335.912	89.69
336.14	95.69
336.369	90.69
336.597	83.69
336.825	90.69
337.053	92.69
337.281	97.69
337.51	87.69
337.738	93.69
337.966	81.69
338.194	75.69
338.422	89.69
338.65	97.69
338.878	91.69
339.106	89.69
339.334	85.69
339.562	86.69
339.79	85.69
340.018	79.69
340.246	79.69
340.474	69.69
340.702	99.69
340.93	90.69
341.158	83.69
341.386	98.69
341.614	93.69
341.842	83.69
342.07	86.69
342.298	92.69
342.526	73.69
342.754	83.69
342.981	77.69
343.209	80.69
343.437	104.69
343.665	81.69
343.893	85.69
344.12	82.69
344.348	95.69
344.576	81.69
344.804	85.69
345.031	83.69
345.259	76.69
345.487	94.69
345.714	91.69
345.942	86.69
346.17	82.69
346.397	97.69
346.625	79.69
346.853	79.69
347.08	88.69
347.308	78.69
347.535	89.69
347.763	89.69
347.99	93.69
348.218	88.69
348.445	71.69
348.673	81.69
348.9	75.69
349.128	90.69
349.355	89.69
349.583	83.69
349.81	82.69
350.037	89.69
350.265	80.69
350.492	78.69
350.72	87.69
350.947	95.69
351.174	75.69
351.402	81.69
351.629	84.69
351.856	89.69
352.083	83.69
352.311	87.69
352.538	82.69
352.765	93.69
352.992	78.69
353.22	87.69
353.447	83.69
353.674	81.69
353.901	91.69
354.128	83.69
354.355	91.69
354.583	88.69
354.81	63.69
355.037	85.69
355.264	89.69
355.491	82.69
355.718	77.69
355.945	94.69
356.172	86.69
356.399	90.69
356.626	81.69
356.853	98.69
357.08	100.69
357.307	83.69
357.534	86.69
357.761	85.69
357.988	96.69
358.215	93.69
358.441	73.69
358.668	93.69
358.895	97.69
359.122	89.69
359.349	82.69
359.576	91.69
359.802	73.69
360.029	97.69
360.256	88.69
360.483	80.69
360.709	83.69
360.936	100.69
361.163	91.69
361.39	88.69
361.616	98.69
361.843	94.69
362.07	96.69
362.296	93.69
362.523	90.69
362.749	89.69
362.976	100.69
363.203	122.69
363.429	103.69
363.656	92.69
363.882	95.69
364.109	116.69
364.335	111.69
364.562	118.69
364.788	107.69
365.015	84.69
365.241	81.69
365.468	95.69
365.694	85.69
365.92	98.69
366.147	94.69
366.373	85.69
366.599	100.69
366.826	98.69
367.052	86.69
367.278	97.69
367.505	89.69
367.731	73.69
367.957	97.69
368.184	101.69
368.41	78.69
368.636	89.69
368.862	83.69
369.089	89.69
369.315	80.69
369.541	86.69
369.767	92.69
369.993	89.69
370.219	88.69
370.445	91.69
370.672	85.69
370.898	91.69
371.124	95.69
371.35	97.69
371.576	83.69
371.802	90.69
372.028	97.69
372.254	95.69
372.48	92.69
372.706	88.69
372.932	63.69
373.158	73.69
373.384	97.69
373.61	85.69
373.835	100.69
374.061	83.69
374.287	95.69
374.513	75.69
374.739	100.69
374.965	78.69
375.191	82.69
375.416	87.69
375.642	98.69
375.868	85.69
376.094	85.69
376.319	86.69
376.545	93.69
376.771	87.69
376.997	93.69
377.222	65.69
377.448	87.69
377.674	81.69
377.899	95.69
378.125	87.69
378.35	80.69
378.576	82.69
378.802	90.69
379.027	88.69
379.253	86.69
379.478	90.69
379.704	88.69
379.929	83.69
380.155	105.69
380.38	93.69
380.606	89.69
380.831	82.69
381.057	89.69
381.282	95.69
381.507	87.69
381.733	87.69
381.958	82.69
382.184	96.69
382.409	106.69
382.634	93.69
382.86	95.69
383.085	89.69
383.31	82.69
383.535	97.69
383.761	86.69
383.986	81.69
384.211	106.69
384.436	100.69
384.662	93.69
384.887	94.69
385.112	104.69
385.337	81.69
385.562	83.69
385.787	98.69
386.013	91.69
386.238	104.69
386.463	94.69
386.688	95.69
386.913	85.69
387.138	100.69
387.363	81.69
387.588	90.69
387.813	95.69
388.038	85.69
388.263	93.69
388.488	93.69
388.713	88.69
388.938	82.69
389.163	68.69
389.387	89.69
389.612	96.69
389.837	77.69
390.062	94.69
390.287	98.69
390.512	91.69
390.736	84.69
390.961	90.69
391.186	84.69
391.411	80.69
391.636	87.69
391.86	85.69
392.085	101.69
392.31	82.69
392.534	116.69
392.759	105.69
392.984	151.69
393.208	187.69
393.433	280.69
393.658	228.69
393.882	117.69
394.107	112.69
394.331	118.69
394.556	111.69
394.78	112.69
395.005	90.69
395.229	99.69
395.454	88.69
395.678	91.69
395.903	107.69
396.127	123.69
396.352	115.69
396.576	141.69
396.801	201.69
397.025	211.69
397.249	145.69
397.474	117.69
397.698	101.69
397.922	80.69
398.147	87.69
398.371	82.69
398.595	97.69
398.82	85.69
399.044	88.69
399.268	84.69
399.492	87.69
399.717	91.69
399.941	85.69
400.165	91.69
400.389	94.69
400.613	94.69
400.837	96.69
401.062	84.69
401.286	82.69
401.51	91.69
401.734	80.69
401.958	66.69
402.182	91.69
402.406	85.69
402.63	91.69
402.854	82.69
403.078	93.69
403.302	91.69
403.526	100.69
403.75	99.69
403.974	97.69
404.198	89.69
404.422	134.69
404.645	136.69
404.869	118.69
405.093	85.69
405.317	87.69
405.541	73.69
405.765	92.69
405.988	86.69
406.212	94.69
406.436	97.69
406.66	81.69
406.883	92.69
407.107	93.69
407.331	81.69
407.555	82.69
407.778	93.69
408.002	91.69
408.226	81.69
408.449	89.69
408.673	89.69
408.896	96.69
409.12	83.69
409.344	92.69
409.567	95.69
409.791	90.69
410.014	80.69
410.238	83.69
410.461	93.69
410.685	92.69
410.908	94.69
411.132	81.69
411.355	83.69
411.578	83.69
411.802	82.69
412.025	90.69
412.249	87.69
412.472	92.69
412.695	81.69
412.919	85.69
413.142	81.69
413.365	93.69
413.589	91.69
413.812	87.69
414.035	79.69
414.258	102.69
414.482	79.69
414.705	84.69
414.928	82.69
415.151	78.69
415.374	86.69
415.597	93.69
415.821	79.69
416.044	93.69
416.267	97.69
416.49	77.69
416.713	89.69
416.936	91.69
417.159	103.69
417.382	86.69
417.605	91.69
417.828	91.69
418.051	70.69
418.274	80.69
418.497	91.69
418.72	75.69
418.943	98.69
419.166	89.69
419.389	80.69
419.611	81.69
419.834	103.69
420.057	80.69
420.28	76.69
420.503	91.69
420.726	84.69
420.948	81.69
421.171	90.69
421.394	104.69
421.617	98.69
421.839	102.69
422.062	122.69
422.285	164.69
422.507	241.69
422.73	362.69
422.953	323.69
423.175	197.69
423.398	129.69
423.621	104.69
423.843	106.69
424.066	78.69
424.288	87.69
424.511	101.69
424.733	83.69
424.956	89.69
425.178	90.69
425.401	90.69
425.623	79.69
425.846	80.69
426.068	81.69
426.291	80.69
426.513	70.69
426.735	88.69
426.958	86.69
427.18	83.69
427.402	85.69
427.625	81.69
427.847	96.69
428.069	93.69
428.292	120.69
428.514	128.69
428.736	107.69
428.958	128.69
429.181	129.69
429.403	91.69
429.625	97.69
429.847	97.69
430.069	148.69
430.292	166.69
430.514	150.69
430.736	123.69
430.958	131.69
431.18	99.69
431.402	106.69
431.624	100.69
431.846	119.69
432.068	127.69
432.29	99.69
432.512	84.69
432.734	87.69
432.956	90.69
433.178	98.69
433.4	91.69
433.622	91.69
433.844	98.69
434.066	85.69
434.287	79.69
434.509	93.69
434.731	87.69
434.953	88.69
435.175	84.69
435.397	94.69
435.618	84.69
435.84	85.69
436.062	92.69
436.284	83.69
436.505	79.69
436.727	73.69
436.949	83.69
437.17	86.69
437.392	71.69
437.614	93.69
437.835	88.69
438.057	85.69
438.278	100.69
438.5	75.69
438.721	78.69
438.943	72.69
439.165	77.69
439.386	80.69
439.608	95.69
439.829	90.69
440.05	83.69
440.272	85.69
440.493	88.69
440.715	87.69
440.936	87.69
441.158	92.69
441.379	75.69
441.6	79.69
441.822	90.69
442.043	97.69
442.264	106.69
442.486	118.69
442.707	157.69
442.928	109.69
443.149	115.69
443.371	148.69
443.592	213.69
443.813	203.69
444.034	107.69
444.255	90.69
444.476	91.69
444.698	82.69
444.919	100.69
445.14	161.69
445.361	186.69
445.582	265.69
445.803	221.69
446.024	125.69
446.245	104.69
446.466	67.69
446.687	86.69
446.908	81.69
447.129	90.69
447.35	76.69
447.571	81.69
447.792	86.69
448.013	87.69
448.234	73.69
448.455	73.69
448.675	86.69
448.896	84.69
449.117	95.69
449.338	87.69
449.559	92.69
449.779	82.69
450	87.69
450.221	87.69
450.442	68.69
450.662	81.69
450.883	101.69
451.104	89.69
451.324	85.69
451.545	80.69
451.766	83.69
451.986	83.69
452.207	80.69
452.428	75.69
452.648	90.69
452.869	79.69
453.089	92.69
453.31	74.69
453.53	82.69
453.751	81.69
453.971	90.69
454.192	90.69
454.412	87.69
454.633	89.69
454.853	100.69
455.073	73.69
455.294	92.69
455.514	96.69
455.734	87.69
455.955	84.69
456.175	89.69
456.395	74.69
456.616	85.69
456.836	82.69
457.056	69.69
457.276	85.69
457.497	88.69
457.717	89.69
457.937	89.69
458.157	111.69
458.377	105.69
458.598	93.69
458.818	102.69
459.038	81.69
459.258	86.69
459.478	89.69
459.698	85.69
459.918	81.69
460.138	82.69
460.358	89.69
460.578	99.69
460.798	102.69
461.018	97.69
461.238	79.69
461.458	95.69
461.678	94.69
461.898	89.69
462.118	87.69
462.338	86.69
462.558	88.69
462.777	85.69
462.997	96.69
463.217	79.69
463.437	94.69
463.657	82.69
463.876	88.69
464.096	86.69
464.316	85.69
464.536	84.69
464.755	81.69
464.975	77.69
465.195	80.69
465.414	85.69
465.634	102.69
465.854	83.69
466.073	80.69
466.293	73.69
466.512	97.69
466.732	80.69
466.951	90.69
467.171	93.69
467.391	90.69
467.61	81.69
467.829	83.69
468.049	90.69
468.268	90.69
468.488	95.69
468.707	79.69
468.927	73.69
469.146	69.69
469.365	83.69
469.585	85.69
469.804	90.69
470.023	84.69
470.243	92.69
470.462	94.69
470.681	97.69
470.901	98.69
471.12	79.69
471.339	85.69
471.558	83.69
471.777	91.69
471.997	86.69
472.216	96.69
472.435	69.69
472.654	66.69
472.873	71.69
473.092	74.69
473.311	86.69
473.53	87.69
473.749	88.69
473.968	73.69
474.187	76.69
474.406	87.69
474.625	89.69
474.844	84.69
475.063	82.69
475.282	87.69
475.501	80.69
475.72	91.69
475.939	87.69
476.158	89.69
476.377	83.69
476.596	86.69
476.814	85.69
477.033	85.69
477.252	79.69
477.471	85.69
477.69	91.69
477.908	86.69
478.127	77.69
478.346	78.69
478.564	83.69
478.783	82.69
479.002	81.69
479.22	75.69
479.439	77.69
479.658	85.69
479.876	88.69
480.095	79.69
480.313	86.69
480.532	81.69
480.751	90.69
480.969	76.69
481.188	89.69
481.406	76.69
481.624	80.69
481.843	82.69
482.061	73.69
482.28	67.69
482.498	97.69
482.717	82.69
482.935	68.69
483.153	83.69
483.372	89.69
483.59	73.69
483.808	101.69
484.027	83.69
484.245	83.69
484.463	69.69
484.681	93.69
484.9	88.69
485.118	82.69
485.336	90.69
485.554	86.69
485.772	84.69
485.99	100.69
486.209	77.69
486.427	83.69
486.645	95.69
486.863	75.69
487.081	90.69
487.299	84.69
487.517	118.69
487.735	118.69
487.953	141.69
488.171	117.69
488.389	85.69
488.607	78.69
488.825	76.69
489.043	88.69
489.261	84.69
489.479	93.69
489.696	74.69
489.914	91.69
490.132	90.69
490.35	87.69
490.568	88.69
490.786	96.69
491.003	88.69
491.221	83.69
491.439	107.69
491.657	88.69
491.874	103.69
492.092	84.69
492.31	82.69
492.527	88.69
492.745	82.69
492.963	87.69
493.18	85.69
493.398	90.69
493.615	106.69
493.833	76.69
494.05	91.69
494.268	85.69
494.485	95.69
494.703	89.69
494.92	75.69
495.138	84.69
495.355	85.69
495.573	89.69
495.79	95.69
496.008	77.69
496.225	90.69
496.442	95.69
496.66	87.69
496.877	98.69
497.094	105.69
497.312	99.69
497.529	90.69
497.746	79.69
497.963	98.69
498.181	89.69
498.398	91.69
498.615	85.69
498.832	90.69
499.049	85.69
499.267	95.69
499.484	88.69
499.701	89.69
499.918	75.69
500.135	99.69
500.352	109.69
500.569	103.69
500.786	93.69
501.003	91.69
501.22	76.69
501.437	85.69
501.654	90.69
501.871	83.69
502.088	98.69
502.305	81.69
502.522	75.69
502.739	101.69
502.956	94.69
503.172	97.69
503.389	89.69
503.606	97.69
503.823	80.69
504.04	91.69
504.256	130.69
504.473	117.69
504.69	89.69
504.907	83.69
505.123	93.69
505.34	83.69
505.557	94.69
505.773	98.69
505.99	102.69
506.207	90.69
506.423	78.69
506.64	67.69
506.856	93.69
507.073	73.69
507.289	73.69
507.506	76.69
507.722	90.69
507.939	93.69
508.155	89.69
508.372	93.69
508.588	86.69
508.805	89.69
509.021	86.69
509.238	91.69
509.454	81.69
509.67	89.69
509.887	91.69
510.103	97.69
510.319	99.69
510.536	91.69
510.752	103.69
510.968	89.69
511.184	93.69
511.401	82.69
511.617	86.69
511.833	91.69
512.049	93.69
512.265	104.69
512.481	91.69
512.698	93.69
512.914	101.69
513.13	106.69
513.346	78.69
513.562	79.69
513.778	88.69
513.994	86.69
514.21	83.69
514.426	83.69
514.642	83.69
514.858	81.69
515.074	96.69
515.29	95.69
515.506	99.69
515.721	82.69
515.937	99.69
516.153	83.69
516.369	87.69
516.585	93.69
516.801	89.69
517.016	93.69
517.232	100.69
517.448	97.69
517.664	91.69
517.879	80.69
518.095	77.69
518.311	106.69
