Data from 237_1_HRD10591_00030.txt Node
Date: Mon Jan 19 14:10:44 EST 2026
User: Yrep
Spectrometer: HR+D1059
Trigger mode: 1
Integration Time (sec): 1.000000E-1
Scans to average: 1
Electric dark correction enabled: true
Nonlinearity correction enabled: false
Boxcar width: 0
XAxis mode: Wavelengths
Number of Pixels in Spectrum: 2048
>>>>>Begin Spectral Data<<<<<
223.165	-13.19
223.4	-13.19
223.635	-13.19
223.869	-29.19
224.104	-14.19
224.338	-8.19
224.573	-13.19
224.808	-7.19
225.042	-6.19
225.277	-11.19
225.511	-3.19
225.746	18.81
225.98	4.81
226.215	2.81
226.449	1.81
226.683	18.81
226.918	28.81
227.152	29.81
227.387	33.81
227.621	39.81
227.856	42.81
228.09	51.81
228.324	31.81
228.559	56.81
228.793	52.81
229.027	72.81
229.262	60.81
229.496	67.81
229.73	81.81
229.964	73.81
230.199	64.81
230.433	66.81
230.667	82.81
230.901	73.81
231.136	74.81
231.37	67.81
231.604	75.81
231.838	71.81
232.072	85.81
232.306	73.81
232.541	67.81
232.775	73.81
233.009	79.81
233.243	88.81
233.477	77.81
233.711	72.81
233.945	76.81
234.179	92.81
234.413	65.81
234.647	74.81
234.881	85.81
235.115	68.81
235.349	88.81
235.583	70.81
235.817	88.81
236.051	59.81
236.285	73.81
236.519	69.81
236.753	81.81
236.987	79.81
237.221	73.81
237.455	83.81
237.689	77.81
237.922	80.81
238.156	68.81
238.39	71.81
238.624	86.81
238.858	72.81
239.091	72.81
239.325	61.81
239.559	60.81
239.793	67.81
240.027	73.81
240.26	66.81
240.494	62.81
240.728	75.81
240.961	81.81
241.195	67.81
241.429	78.81
241.662	72.81
241.896	70.81
242.13	83.81
242.363	65.81
242.597	76.81
242.83	82.81
243.064	78.81
243.298	70.81
243.531	68.81
243.765	85.81
243.998	81.81
244.232	67.81
244.465	76.81
244.699	72.81
244.932	77.81
245.166	69.81
245.399	88.81
245.633	71.81
245.866	73.81
246.099	78.81
246.333	86.81
246.566	77.81
246.8	68.81
247.033	84.81
247.266	63.81
247.5	71.81
247.733	72.81
247.966	73.81
248.2	78.81
248.433	79.81
248.666	64.81
248.899	89.81
249.133	76.81
249.366	76.81
249.599	88.81
249.832	79.81
250.066	76.81
250.299	84.81
250.532	81.81
250.765	80.81
250.998	68.81
251.231	78.81
251.465	89.81
251.698	71.81
251.931	94.81
252.164	72.81
252.397	76.81
252.63	68.81
252.863	65.81
253.096	69.81
253.329	80.81
253.562	78.81
253.795	67.81
254.028	82.81
254.261	78.81
254.494	78.81
254.727	69.81
254.96	70.81
255.193	74.81
255.426	77.81
255.659	87.81
255.892	80.81
256.124	74.81
256.357	71.81
256.59	87.81
256.823	75.81
257.056	82.81
257.289	78.81
257.521	82.81
257.754	80.81
257.987	72.81
258.22	71.81
258.452	82.81
258.685	81.81
258.918	82.81
259.151	72.81
259.383	83.81
259.616	72.81
259.849	67.81
260.081	78.81
260.314	85.81
260.547	74.81
260.779	63.81
261.012	93.81
261.244	76.81
261.477	87.81
261.71	69.81
261.942	87.81
262.175	85.81
262.407	67.81
262.64	86.81
262.872	77.81
263.105	82.81
263.337	81.81
263.57	70.81
263.802	66.81
264.035	76.81
264.267	75.81
264.499	77.81
264.732	93.81
264.964	83.81
265.197	93.81
265.429	85.81
265.661	84.81
265.894	91.81
266.126	78.81
266.358	81.81
266.591	73.81
266.823	70.81
267.055	90.81
267.287	73.81
267.52	80.81
267.752	89.81
267.984	87.81
268.216	71.81
268.448	81.81
268.681	91.81
268.913	77.81
269.145	86.81
269.377	93.81
269.609	73.81
269.841	76.81
270.073	76.81
270.306	68.81
270.538	81.81
270.77	73.81
271.002	88.81
271.234	70.81
271.466	79.81
271.698	82.81
271.93	69.81
272.162	91.81
272.394	61.81
272.626	77.81
272.858	90.81
273.09	70.81
273.322	82.81
273.553	76.81
273.785	68.81
274.017	78.81
274.249	77.81
274.481	71.81
274.713	75.81
274.945	56.81
275.176	80.81
275.408	73.81
275.64	94.81
275.872	92.81
276.104	97.81
276.335	73.81
276.567	60.81
276.799	80.81
277.031	65.81
277.262	82.81
277.494	84.81
277.726	85.81
277.957	78.81
278.189	97.81
278.421	83.81
278.652	84.81
278.884	86.81
279.115	65.81
279.347	73.81
279.579	85.81
279.81	71.81
280.042	86.81
280.273	80.81
280.505	74.81
280.736	101.81
280.968	73.81
281.199	82.81
281.431	69.81
281.662	79.81
281.894	83.81
282.125	89.81
282.356	81.81
282.588	85.81
282.819	67.81
283.051	89.81
283.282	92.81
283.513	88.81
283.745	98.81
283.976	82.81
284.207	77.81
284.439	97.81
284.67	74.81
284.901	84.81
285.132	84.81
285.364	92.81
285.595	91.81
285.826	83.81
286.057	76.81
286.288	77.81
286.52	81.81
286.751	85.81
286.982	74.81
287.213	68.81
287.444	78.81
287.675	81.81
287.906	91.81
288.138	89.81
288.369	88.81
288.6	82.81
288.831	79.81
289.062	82.81
289.293	86.81
289.524	96.81
289.755	78.81
289.986	85.81
290.217	81.81
290.448	81.81
290.679	89.81
290.91	80.81
291.141	76.81
291.371	86.81
291.602	79.81
291.833	81.81
292.064	85.81
292.295	85.81
292.526	91.81
292.757	94.81
292.987	69.81
293.218	82.81
293.449	87.81
293.68	88.81
293.91	81.81
294.141	92.81
294.372	73.81
294.603	76.81
294.833	74.81
295.064	89.81
295.295	79.81
295.525	86.81
295.756	82.81
295.987	82.81
296.217	82.81
296.448	74.81
296.679	83.81
296.909	84.81
297.14	89.81
297.37	81.81
297.601	72.81
297.831	62.81
298.062	82.81
298.292	70.81
298.523	74.81
298.753	77.81
298.984	94.81
299.214	72.81
299.445	72.81
299.675	81.81
299.905	80.81
300.136	89.81
300.366	85.81
300.597	76.81
300.827	93.81
301.057	86.81
301.288	89.81
301.518	70.81
301.748	80.81
301.979	84.81
302.209	91.81
302.439	90.81
302.669	76.81
302.9	80.81
303.13	88.81
303.36	84.81
303.59	80.81
303.82	68.81
304.051	82.81
304.281	89.81
304.511	92.81
304.741	80.81
304.971	89.81
305.201	94.81
305.431	93.81
305.661	92.81
305.891	71.81
306.121	91.81
306.352	98.81
306.582	85.81
306.812	76.81
307.042	72.81
307.272	78.81
307.502	96.81
307.731	99.81
307.961	88.81
308.191	82.81
308.421	90.81
308.651	86.81
308.881	76.81
309.111	89.81
309.341	84.81
309.571	77.81
309.8	74.81
310.03	92.81
310.26	80.81
310.49	75.81
310.72	90.81
310.949	92.81
311.179	82.81
311.409	84.81
311.639	82.81
311.868	79.81
312.098	74.81
312.328	94.81
312.557	79.81
312.787	83.81
313.017	94.81
313.246	95.81
313.476	85.81
313.706	79.81
313.935	84.81
314.165	92.81
314.394	78.81
314.624	83.81
314.853	89.81
315.083	80.81
315.312	80.81
315.542	76.81
315.771	80.81
316.001	83.81
316.23	88.81
316.46	81.81
316.689	82.81
316.919	89.81
317.148	84.81
317.377	87.81
317.607	89.81
317.836	84.81
318.065	94.81
318.295	92.81
318.524	82.81
318.753	81.81
318.983	84.81
319.212	77.81
319.441	74.81
319.67	76.81
319.9	97.81
320.129	98.81
320.358	89.81
320.587	81.81
320.816	67.81
321.046	82.81
321.275	86.81
321.504	60.81
321.733	87.81
321.962	94.81
322.191	77.81
322.42	87.81
322.649	97.81
322.878	77.81
323.108	86.81
323.337	86.81
323.566	74.81
323.795	84.81
324.024	66.81
324.253	79.81
324.482	73.81
324.71	86.81
324.939	80.81
325.168	91.81
325.397	70.81
325.626	94.81
325.855	88.81
326.084	78.81
326.313	92.81
326.542	73.81
326.77	67.81
326.999	78.81
327.228	75.81
327.457	68.81
327.686	73.81
327.914	79.81
328.143	74.81
328.372	79.81
328.6	85.81
328.829	86.81
329.058	78.81
329.287	84.81
329.515	88.81
329.744	81.81
329.972	67.81
330.201	78.81
330.43	93.81
330.658	88.81
330.887	81.81
331.115	71.81
331.344	81.81
331.572	72.81
331.801	70.81
332.03	64.81
332.258	85.81
332.486	84.81
332.715	80.81
332.943	62.81
333.172	74.81
333.4	70.81
333.629	86.81
333.857	93.81
334.085	68.81
334.314	80.81
334.542	94.81
334.771	83.81
334.999	73.81
335.227	65.81
335.455	89.81
335.684	80.81
335.912	87.81
336.14	87.81
336.369	90.81
336.597	82.81
336.825	85.81
337.053	80.81
337.281	80.81
337.51	77.81
337.738	74.81
337.966	71.81
338.194	66.81
338.422	84.81
338.65	84.81
338.878	87.81
339.106	81.81
339.334	94.81
339.562	84.81
339.79	78.81
340.018	80.81
340.246	82.81
340.474	82.81
340.702	80.81
340.93	82.81
341.158	78.81
341.386	83.81
341.614	78.81
341.842	78.81
342.07	72.81
342.298	78.81
342.526	90.81
342.754	85.81
342.981	94.81
343.209	98.81
343.437	100.81
343.665	77.81
343.893	94.81
344.12	67.81
344.348	93.81
344.576	78.81
344.804	95.81
345.031	85.81
345.259	87.81
345.487	98.81
345.714	89.81
345.942	74.81
346.17	83.81
346.397	67.81
346.625	90.81
346.853	96.81
347.08	74.81
347.308	80.81
347.535	85.81
347.763	73.81
347.99	87.81
348.218	77.81
348.445	73.81
348.673	96.81
348.9	78.81
349.128	82.81
349.355	67.81
349.583	63.81
349.81	79.81
350.037	78.81
350.265	71.81
350.492	104.81
350.72	95.81
350.947	92.81
351.174	94.81
351.402	80.81
351.629	91.81
351.856	87.81
352.083	81.81
352.311	73.81
352.538	81.81
352.765	80.81
352.992	75.81
353.22	78.81
353.447	79.81
353.674	72.81
353.901	72.81
354.128	84.81
354.355	98.81
354.583	86.81
354.81	87.81
355.037	84.81
355.264	94.81
355.491	80.81
355.718	75.81
355.945	83.81
356.172	80.81
356.399	86.81
356.626	83.81
356.853	99.81
357.08	81.81
357.307	89.81
357.534	88.81
357.761	83.81
357.988	97.81
358.215	86.81
358.441	71.81
358.668	77.81
358.895	72.81
359.122	78.81
359.349	77.81
359.576	85.81
359.802	72.81
360.029	69.81
360.256	94.81
360.483	88.81
360.709	78.81
360.936	96.81
361.163	90.81
361.39	75.81
361.616	69.81
361.843	91.81
362.07	81.81
362.296	87.81
362.523	90.81
362.749	92.81
362.976	102.81
363.203	95.81
363.429	94.81
363.656	84.81
363.882	89.81
364.109	92.81
364.335	96.81
364.562	88.81
364.788	76.81
365.015	90.81
365.241	87.81
365.468	85.81
365.694	71.81
365.92	72.81
366.147	85.81
366.373	82.81
366.599	80.81
366.826	92.81
367.052	81.81
367.278	97.81
367.505	81.81
367.731	99.81
367.957	81.81
368.184	86.81
368.41	76.81
368.636	71.81
368.862	74.81
369.089	81.81
369.315	71.81
369.541	80.81
369.767	104.81
369.993	93.81
370.219	84.81
370.445	97.81
370.672	86.81
370.898	78.81
371.124	79.81
371.35	90.81
371.576	98.81
371.802	102.81
372.028	95.81
372.254	95.81
372.48	74.81
372.706	93.81
372.932	104.81
373.158	94.81
373.384	100.81
373.61	89.81
373.835	104.81
374.061	92.81
374.287	88.81
374.513	95.81
374.739	95.81
374.965	96.81
375.191	91.81
375.416	80.81
375.642	95.81
375.868	92.81
376.094	96.81
376.319	82.81
376.545	91.81
376.771	90.81
376.997	82.81
377.222	92.81
377.448	77.81
377.674	93.81
377.899	85.81
378.125	80.81
378.35	86.81
378.576	74.81
378.802	76.81
379.027	84.81
379.253	82.81
379.478	78.81
379.704	80.81
379.929	77.81
380.155	81.81
380.38	87.81
380.606	82.81
380.831	68.81
381.057	93.81
381.282	85.81
381.507	89.81
381.733	77.81
381.958	97.81
382.184	92.81
382.409	83.81
382.634	79.81
382.86	81.81
383.085	80.81
383.31	90.81
383.535	92.81
383.761	86.81
383.986	81.81
384.211	81.81
384.436	77.81
384.662	81.81
384.887	72.81
385.112	80.81
385.337	88.81
385.562	84.81
385.787	95.81
386.013	108.81
386.238	78.81
386.463	89.81
386.688	82.81
386.913	92.81
387.138	83.81
387.363	97.81
387.588	95.81
387.813	96.81
388.038	97.81
388.263	93.81
388.488	81.81
388.713	85.81
388.938	84.81
389.163	78.81
389.387	86.81
389.612	65.81
389.837	94.81
390.062	78.81
390.287	96.81
390.512	76.81
390.736	79.81
390.961	78.81
391.186	76.81
391.411	82.81
391.636	82.81
391.86	95.81
392.085	73.81
392.31	90.81
392.534	99.81
392.759	88.81
392.984	112.81
393.208	133.81
393.433	185.81
393.658	153.81
393.882	99.81
394.107	90.81
394.331	101.81
394.556	109.81
394.78	96.81
395.005	88.81
395.229	83.81
395.454	91.81
395.678	89.81
395.903	98.81
396.127	108.81
396.352	98.81
396.576	110.81
396.801	138.81
397.025	147.81
397.249	124.81
397.474	97.81
397.698	84.81
397.922	78.81
398.147	76.81
398.371	74.81
398.595	88.81
398.82	78.81
399.044	71.81
399.268	94.81
399.492	80.81
399.717	86.81
399.941	90.81
400.165	82.81
400.389	82.81
400.613	88.81
400.837	94.81
401.062	84.81
401.286	73.81
401.51	84.81
401.734	81.81
401.958	83.81
402.182	73.81
402.406	78.81
402.63	86.81
402.854	86.81
403.078	82.81
403.302	92.81
403.526	89.81
403.75	101.81
403.974	96.81
404.198	80.81
404.422	95.81
404.645	98.81
404.869	81.81
405.093	80.81
405.317	82.81
405.541	82.81
405.765	69.81
405.988	72.81
406.212	87.81
406.436	74.81
406.66	81.81
406.883	84.81
407.107	74.81
407.331	74.81
407.555	71.81
407.778	70.81
408.002	95.81
408.226	82.81
408.449	84.81
408.673	76.81
408.896	83.81
409.12	83.81
409.344	70.81
409.567	70.81
409.791	72.81
410.014	89.81
410.238	81.81
410.461	74.81
410.685	83.81
410.908	84.81
411.132	90.81
411.355	85.81
411.578	78.81
411.802	74.81
412.025	96.81
412.249	80.81
412.472	75.81
412.695	90.81
412.919	82.81
413.142	77.81
413.365	87.81
413.589	71.81
413.812	84.81
414.035	78.81
414.258	76.81
414.482	70.81
414.705	74.81
414.928	75.81
415.151	84.81
415.374	75.81
415.597	89.81
415.821	90.81
416.044	79.81
416.267	76.81
416.49	98.81
416.713	92.81
416.936	79.81
417.159	84.81
417.382	66.81
417.605	59.81
417.828	89.81
418.051	82.81
418.274	80.81
418.497	86.81
418.72	82.81
418.943	82.81
419.166	84.81
419.389	81.81
419.611	78.81
419.834	86.81
420.057	89.81
420.28	76.81
420.503	86.81
420.726	89.81
420.948	73.81
421.171	71.81
421.394	84.81
421.617	94.81
421.839	103.81
422.062	94.81
422.285	110.81
422.507	193.81
422.73	236.81
422.953	215.81
423.175	133.81
423.398	109.81
423.621	91.81
423.843	95.81
424.066	99.81
424.288	95.81
424.511	94.81
424.733	98.81
424.956	79.81
425.178	88.81
425.401	75.81
425.623	85.81
425.846	72.81
426.068	88.81
426.291	78.81
426.513	76.81
426.735	82.81
426.958	74.81
427.18	85.81
427.402	70.81
427.625	85.81
427.847	94.81
428.069	92.81
428.292	95.81
428.514	111.81
428.736	90.81
428.958	96.81
429.181	110.81
429.403	85.81
429.625	87.81
429.847	89.81
430.069	122.81
430.292	135.81
430.514	124.81
430.736	111.81
430.958	91.81
431.18	103.81
431.402	83.81
431.624	89.81
431.846	91.81
432.068	100.81
432.29	79.81
432.512	82.81
432.734	91.81
432.956	81.81
433.178	91.81
433.4	69.81
433.622	82.81
433.844	87.81
434.066	71.81
434.287	80.81
434.509	80.81
434.731	82.81
434.953	89.81
435.175	74.81
435.397	82.81
435.618	92.81
435.84	96.81
436.062	72.81
436.284	83.81
436.505	79.81
436.727	74.81
436.949	80.81
437.17	87.81
437.392	74.81
437.614	78.81
437.835	74.81
438.057	89.81
438.278	76.81
438.5	97.81
438.721	95.81
438.943	88.81
439.165	87.81
439.386	90.81
439.608	77.81
439.829	88.81
440.05	65.81
440.272	67.81
440.493	83.81
440.715	75.81
440.936	79.81
441.158	86.81
441.379	84.81
441.6	77.81
441.822	86.81
442.043	65.81
442.264	92.81
442.486	98.81
442.707	123.81
442.928	85.81
443.149	92.81
443.371	120.81
443.592	166.81
443.813	154.81
444.034	93.81
444.255	85.81
444.476	78.81
444.698	89.81
444.919	78.81
445.14	166.81
445.361	155.81
445.582	182.81
445.803	148.81
446.024	78.81
446.245	92.81
446.466	86.81
446.687	72.81
446.908	78.81
447.129	74.81
447.35	81.81
447.571	98.81
447.792	83.81
448.013	62.81
448.234	93.81
448.455	81.81
448.675	84.81
448.896	87.81
449.117	81.81
449.338	82.81
449.559	80.81
449.779	99.81
450	84.81
450.221	74.81
450.442	60.81
450.662	89.81
450.883	80.81
451.104	81.81
451.324	76.81
451.545	75.81
451.766	86.81
451.986	83.81
452.207	74.81
452.428	60.81
452.648	92.81
452.869	91.81
453.089	82.81
453.31	78.81
453.53	76.81
453.751	86.81
453.971	84.81
454.192	80.81
454.412	67.81
454.633	65.81
454.853	111.81
455.073	67.81
455.294	85.81
455.514	90.81
455.734	80.81
455.955	78.81
456.175	79.81
456.395	82.81
456.616	75.81
456.836	94.81
457.056	88.81
457.276	75.81
457.497	87.81
457.717	81.81
457.937	80.81
458.157	93.81
458.377	108.81
458.598	97.81
458.818	100.81
459.038	88.81
459.258	69.81
459.478	72.81
459.698	79.81
459.918	79.81
460.138	72.81
460.358	77.81
460.578	85.81
460.798	101.81
461.018	95.81
461.238	86.81
461.458	78.81
461.678	79.81
461.898	77.81
462.118	82.81
462.338	75.81
462.558	82.81
462.777	84.81
462.997	86.81
463.217	89.81
463.437	93.81
463.657	64.81
463.876	85.81
464.096	66.81
464.316	68.81
464.536	85.81
464.755	78.81
464.975	87.81
465.195	78.81
465.414	78.81
465.634	84.81
465.854	68.81
466.073	71.81
466.293	78.81
466.512	72.81
466.732	77.81
466.951	77.81
467.171	80.81
467.391	88.81
467.61	69.81
467.829	82.81
468.049	76.81
468.268	77.81
468.488	88.81
468.707	92.81
468.927	84.81
469.146	86.81
469.365	89.81
469.585	82.81
469.804	70.81
470.023	88.81
470.243	84.81
470.462	74.81
470.681	75.81
470.901	61.81
471.12	92.81
471.339	98.81
471.558	81.81
471.777	78.81
471.997	82.81
472.216	81.81
472.435	73.81
472.654	72.81
472.873	90.81
473.092	85.81
473.311	87.81
473.53	80.81
473.749	97.81
473.968	85.81
474.187	84.81
474.406	97.81
474.625	71.81
474.844	81.81
475.063	80.81
475.282	88.81
475.501	75.81
475.72	83.81
475.939	76.81
476.158	78.81
476.377	85.81
476.596	72.81
476.814	92.81
477.033	83.81
477.252	81.81
477.471	85.81
477.69	81.81
477.908	83.81
478.127	83.81
478.346	86.81
478.564	68.81
478.783	80.81
479.002	84.81
479.22	74.81
479.439	81.81
479.658	91.81
479.876	87.81
480.095	79.81
480.313	84.81
480.532	79.81
480.751	72.81
480.969	74.81
481.188	69.81
481.406	84.81
481.624	68.81
481.843	84.81
482.061	61.81
482.28	64.81
482.498	73.81
482.717	91.81
482.935	100.81
483.153	97.81
483.372	68.81
483.59	85.81
483.808	88.81
484.027	93.81
484.245	96.81
484.463	70.81
484.681	82.81
484.9	86.81
485.118	80.81
485.336	90.81
485.554	90.81
485.772	84.81
485.99	78.81
486.209	80.81
486.427	93.81
486.645	93.81
486.863	77.81
487.081	70.81
487.299	84.81
487.517	89.81
487.735	90.81
487.953	120.81
488.171	115.81
488.389	94.81
488.607	87.81
488.825	92.81
489.043	94.81
489.261	103.81
489.479	72.81
489.696	82.81
489.914	86.81
490.132	92.81
490.35	90.81
490.568	64.81
490.786	97.81
491.003	73.81
491.221	69.81
491.439	78.81
491.657	92.81
491.874	89.81
492.092	76.81
492.31	81.81
492.527	73.81
492.745	87.81
492.963	78.81
493.18	88.81
493.398	98.81
493.615	76.81
493.833	77.81
494.05	82.81
494.268	93.81
494.485	98.81
494.703	79.81
494.92	78.81
495.138	76.81
495.355	84.81
495.573	85.81
495.79	92.81
496.008	94.81
496.225	91.81
496.442	75.81
496.66	81.81
496.877	82.81
497.094	74.81
497.312	78.81
497.529	73.81
497.746	82.81
497.963	85.81
498.181	82.81
498.398	83.81
498.615	87.81
498.832	89.81
499.049	77.81
499.267	86.81
499.484	81.81
499.701	77.81
499.918	85.81
500.135	100.81
500.352	92.81
500.569	88.81
500.786	98.81
501.003	95.81
501.22	79.81
501.437	90.81
501.654	82.81
501.871	83.81
502.088	74.81
502.305	101.81
502.522	80.81
502.739	74.81
502.956	87.81
503.172	70.81
503.389	78.81
503.606	90.81
503.823	82.81
504.04	88.81
504.256	96.81
504.473	98.81
504.69	95.81
504.907	79.81
505.123	75.81
505.34	84.81
505.557	78.81
505.773	80.81
505.99	77.81
506.207	74.81
506.423	92.81
506.64	84.81
506.856	77.81
507.073	86.81
507.289	90.81
507.506	79.81
507.722	78.81
507.939	77.81
508.155	82.81
508.372	78.81
508.588	80.81
508.805	66.81
509.021	87.81
509.238	80.81
509.454	65.81
509.67	80.81
509.887	72.81
510.103	78.81
510.319	75.81
510.536	72.81
510.752	74.81
510.968	89.81
511.184	83.81
511.401	85.81
511.617	83.81
511.833	63.81
512.049	69.81
512.265	81.81
512.481	82.81
512.698	77.81
512.914	72.81
513.13	79.81
513.346	86.81
513.562	72.81
513.778	90.81
513.994	70.81
514.21	70.81
514.426	77.81
514.642	69.81
514.858	73.81
515.074	75.81
515.29	74.81
515.506	87.81
515.721	72.81
515.937	94.81
516.153	91.81
516.369	81.81
516.585	81.81
516.801	96.81
517.016	92.81
517.232	82.81
517.448	96.81
517.664	83.81
517.879	67.81
518.095	104.81
518.311	74.81
518.527	105.81
518.742	103.81
518.958	106.81
519.173	123.81
519.389	99.81
