Data from 237_1_HRD10591_00041.txt Node
Date: Mon Jan 19 14:10:50 EST 2026
User: Yrep
Spectrometer: HR+D1059
Trigger mode: 1
Integration Time (sec): 1.000000E-1
Scans to average: 1
Electric dark correction enabled: true
Nonlinearity correction enabled: false
Boxcar width: 0
XAxis mode: Wavelengths
Number of Pixels in Spectrum: 2048
>>>>>Begin Spectral Data<<<<<
223.165	-19.12
223.4	-19.12
223.635	-19.12
223.869	-17.12
224.104	-18.12
224.338	-21.12
224.573	-10.12
224.808	-21.12
225.042	-6.12
225.277	-1.12
225.511	2.88
225.746	4.88
225.98	0.88
226.215	21.88
226.449	10.88
226.683	21.88
226.918	27.88
227.152	22.88
227.387	38.88
227.621	48.88
227.856	50.88
228.09	38.88
228.324	50.88
228.559	62.88
228.793	66.88
229.027	69.88
229.262	72.88
229.496	67.88
229.73	77.88
229.964	86.88
230.199	76.88
230.433	65.88
230.667	80.88
230.901	79.88
231.136	71.88
231.37	76.88
231.604	80.88
231.838	81.88
232.072	81.88
232.306	80.88
232.541	79.88
232.775	87.88
233.009	91.88
233.243	74.88
233.477	72.88
233.711	89.88
233.945	90.88
234.179	73.88
234.413	72.88
234.647	90.88
234.881	76.88
235.115	81.88
235.349	72.88
235.583	85.88
235.817	72.88
236.051	87.88
236.285	75.88
236.519	81.88
236.753	87.88
236.987	72.88
237.221	63.88
237.455	72.88
237.689	76.88
237.922	70.88
238.156	64.88
238.39	56.88
238.624	75.88
238.858	74.88
239.091	73.88
239.325	75.88
239.559	68.88
239.793	71.88
240.027	75.88
240.26	74.88
240.494	85.88
240.728	78.88
240.961	88.88
241.195	73.88
241.429	91.88
241.662	84.88
241.896	89.88
242.13	68.88
242.363	82.88
242.597	68.88
242.83	79.88
243.064	72.88
243.298	68.88
243.531	76.88
243.765	80.88
243.998	78.88
244.232	75.88
244.465	64.88
244.699	82.88
244.932	77.88
245.166	65.88
245.399	80.88
245.633	84.88
245.866	85.88
246.099	76.88
246.333	65.88
246.566	80.88
246.8	77.88
247.033	71.88
247.266	85.88
247.5	69.88
247.733	72.88
247.966	78.88
248.2	70.88
248.433	69.88
248.666	89.88
248.899	75.88
249.133	79.88
249.366	85.88
249.599	69.88
249.832	78.88
250.066	72.88
250.299	76.88
250.532	80.88
250.765	73.88
250.998	84.88
251.231	92.88
251.465	88.88
251.698	71.88
251.931	79.88
252.164	87.88
252.397	80.88
252.63	65.88
252.863	90.88
253.096	80.88
253.329	75.88
253.562	80.88
253.795	74.88
254.028	73.88
254.261	86.88
254.494	73.88
254.727	95.88
254.96	102.88
255.193	88.88
255.426	78.88
255.659	78.88
255.892	80.88
256.124	82.88
256.357	75.88
256.59	74.88
256.823	80.88
257.056	81.88
257.289	81.88
257.521	81.88
257.754	92.88
257.987	60.88
258.22	88.88
258.452	82.88
258.685	70.88
258.918	67.88
259.151	95.88
259.383	97.88
259.616	88.88
259.849	80.88
260.081	80.88
260.314	81.88
260.547	83.88
260.779	94.88
261.012	81.88
261.244	90.88
261.477	80.88
261.71	75.88
261.942	83.88
262.175	71.88
262.407	70.88
262.64	94.88
262.872	80.88
263.105	86.88
263.337	85.88
263.57	77.88
263.802	80.88
264.035	80.88
264.267	75.88
264.499	85.88
264.732	80.88
264.964	64.88
265.197	82.88
265.429	82.88
265.661	81.88
265.894	78.88
266.126	101.88
266.358	71.88
266.591	83.88
266.823	71.88
267.055	78.88
267.287	82.88
267.52	82.88
267.752	77.88
267.984	73.88
268.216	76.88
268.448	78.88
268.681	85.88
268.913	80.88
269.145	84.88
269.377	79.88
269.609	87.88
269.841	84.88
270.073	81.88
270.306	74.88
270.538	66.88
270.77	77.88
271.002	75.88
271.234	75.88
271.466	87.88
271.698	89.88
271.93	82.88
272.162	83.88
272.394	92.88
272.626	80.88
272.858	83.88
273.09	68.88
273.322	73.88
273.553	89.88
273.785	78.88
274.017	86.88
274.249	87.88
274.481	84.88
274.713	65.88
274.945	86.88
275.176	81.88
275.408	84.88
275.64	80.88
275.872	91.88
276.104	78.88
276.335	76.88
276.567	92.88
276.799	93.88
277.031	71.88
277.262	93.88
277.494	84.88
277.726	85.88
277.957	86.88
278.189	81.88
278.421	92.88
278.652	88.88
278.884	89.88
279.115	84.88
279.347	85.88
279.579	78.88
279.81	102.88
280.042	82.88
280.273	69.88
280.505	79.88
280.736	76.88
280.968	71.88
281.199	73.88
281.431	81.88
281.662	77.88
281.894	79.88
282.125	84.88
282.356	87.88
282.588	81.88
282.819	74.88
283.051	86.88
283.282	90.88
283.513	110.88
283.745	80.88
283.976	80.88
284.207	86.88
284.439	92.88
284.67	105.88
284.901	82.88
285.132	78.88
285.364	66.88
285.595	81.88
285.826	82.88
286.057	77.88
286.288	75.88
286.52	94.88
286.751	85.88
286.982	86.88
287.213	74.88
287.444	84.88
287.675	76.88
287.906	77.88
288.138	64.88
288.369	88.88
288.6	91.88
288.831	82.88
289.062	70.88
289.293	94.88
289.524	88.88
289.755	82.88
289.986	91.88
290.217	75.88
290.448	91.88
290.679	75.88
290.91	87.88
291.141	75.88
291.371	79.88
291.602	81.88
291.833	77.88
292.064	88.88
292.295	106.88
292.526	78.88
292.757	78.88
292.987	82.88
293.218	81.88
293.449	74.88
293.68	93.88
293.91	61.88
294.141	100.88
294.372	73.88
294.603	101.88
294.833	73.88
295.064	87.88
295.295	73.88
295.525	84.88
295.756	90.88
295.987	76.88
296.217	87.88
296.448	76.88
296.679	89.88
296.909	94.88
297.14	90.88
297.37	89.88
297.601	96.88
297.831	87.88
298.062	74.88
298.292	90.88
298.523	84.88
298.753	81.88
298.984	83.88
299.214	73.88
299.445	76.88
299.675	95.88
299.905	85.88
300.136	82.88
300.366	86.88
300.597	88.88
300.827	101.88
301.057	91.88
301.288	82.88
301.518	82.88
301.748	89.88
301.979	85.88
302.209	70.88
302.439	70.88
302.669	84.88
302.9	93.88
303.13	70.88
303.36	77.88
303.59	73.88
303.82	81.88
304.051	89.88
304.281	84.88
304.511	93.88
304.741	79.88
304.971	84.88
305.201	90.88
305.431	88.88
305.661	86.88
305.891	85.88
306.121	103.88
306.352	84.88
306.582	72.88
306.812	81.88
307.042	86.88
307.272	81.88
307.502	79.88
307.731	88.88
307.961	88.88
308.191	83.88
308.421	73.88
308.651	85.88
308.881	80.88
309.111	85.88
309.341	94.88
309.571	85.88
309.8	88.88
310.03	74.88
310.26	72.88
310.49	79.88
310.72	90.88
310.949	86.88
311.179	87.88
311.409	92.88
311.639	88.88
311.868	92.88
312.098	77.88
312.328	83.88
312.557	86.88
312.787	87.88
313.017	79.88
313.246	74.88
313.476	79.88
313.706	88.88
313.935	81.88
314.165	73.88
314.394	87.88
314.624	75.88
314.853	78.88
315.083	82.88
315.312	97.88
315.542	83.88
315.771	88.88
316.001	92.88
316.23	84.88
316.46	82.88
316.689	74.88
316.919	83.88
317.148	83.88
317.377	96.88
317.607	71.88
317.836	89.88
318.065	89.88
318.295	92.88
318.524	79.88
318.753	80.88
318.983	73.88
319.212	93.88
319.441	80.88
319.67	85.88
319.9	76.88
320.129	95.88
320.358	86.88
320.587	103.88
320.816	91.88
321.046	76.88
321.275	76.88
321.504	82.88
321.733	90.88
321.962	80.88
322.191	89.88
322.42	92.88
322.649	78.88
322.878	80.88
323.108	87.88
323.337	89.88
323.566	84.88
323.795	81.88
324.024	89.88
324.253	78.88
324.482	81.88
324.71	74.88
324.939	85.88
325.168	82.88
325.397	67.88
325.626	64.88
325.855	77.88
326.084	85.88
326.313	88.88
326.542	86.88
326.77	81.88
326.999	88.88
327.228	87.88
327.457	78.88
327.686	83.88
327.914	82.88
328.143	89.88
328.372	79.88
328.6	82.88
328.829	101.88
329.058	84.88
329.287	87.88
329.515	78.88
329.744	74.88
329.972	86.88
330.201	84.88
330.43	83.88
330.658	77.88
330.887	67.88
331.115	86.88
331.344	70.88
331.572	89.88
331.801	86.88
332.03	102.88
332.258	74.88
332.486	87.88
332.715	72.88
332.943	80.88
333.172	85.88
333.4	72.88
333.629	80.88
333.857	80.88
334.085	84.88
334.314	82.88
334.542	78.88
334.771	69.88
334.999	78.88
335.227	103.88
335.455	76.88
335.684	88.88
335.912	87.88
336.14	83.88
336.369	85.88
336.597	91.88
336.825	86.88
337.053	84.88
337.281	82.88
337.51	92.88
337.738	69.88
337.966	87.88
338.194	83.88
338.422	80.88
338.65	92.88
338.878	75.88
339.106	95.88
339.334	82.88
339.562	85.88
339.79	64.88
340.018	84.88
340.246	82.88
340.474	86.88
340.702	87.88
340.93	88.88
341.158	75.88
341.386	81.88
341.614	81.88
341.842	88.88
342.07	80.88
342.298	81.88
342.526	85.88
342.754	84.88
342.981	65.88
343.209	90.88
343.437	108.88
343.665	98.88
343.893	90.88
344.12	94.88
344.348	80.88
344.576	71.88
344.804	76.88
345.031	71.88
345.259	78.88
345.487	72.88
345.714	84.88
345.942	69.88
346.17	94.88
346.397	82.88
346.625	87.88
346.853	76.88
347.08	68.88
347.308	89.88
347.535	85.88
347.763	74.88
347.99	85.88
348.218	84.88
348.445	77.88
348.673	67.88
348.9	79.88
349.128	86.88
349.355	80.88
349.583	84.88
349.81	77.88
350.037	80.88
350.265	77.88
350.492	82.88
350.72	65.88
350.947	80.88
351.174	85.88
351.402	93.88
351.629	96.88
351.856	94.88
352.083	89.88
352.311	79.88
352.538	70.88
352.765	75.88
352.992	89.88
353.22	78.88
353.447	76.88
353.674	81.88
353.901	82.88
354.128	76.88
354.355	85.88
354.583	74.88
354.81	70.88
355.037	82.88
355.264	80.88
355.491	89.88
355.718	74.88
355.945	94.88
356.172	86.88
356.399	98.88
356.626	76.88
356.853	92.88
357.08	94.88
357.307	79.88
357.534	86.88
357.761	78.88
357.988	80.88
358.215	72.88
358.441	85.88
358.668	76.88
358.895	69.88
359.122	83.88
359.349	74.88
359.576	69.88
359.802	77.88
360.029	83.88
360.256	64.88
360.483	88.88
360.709	80.88
360.936	92.88
361.163	87.88
361.39	102.88
361.616	85.88
361.843	88.88
362.07	71.88
362.296	83.88
362.523	80.88
362.749	68.88
362.976	86.88
363.203	104.88
363.429	70.88
363.656	89.88
363.882	84.88
364.109	80.88
364.335	105.88
364.562	77.88
364.788	68.88
365.015	78.88
365.241	88.88
365.468	89.88
365.694	80.88
365.92	86.88
366.147	87.88
366.373	86.88
366.599	90.88
366.826	85.88
367.052	82.88
367.278	91.88
367.505	74.88
367.731	94.88
367.957	97.88
368.184	77.88
368.41	81.88
368.636	77.88
368.862	65.88
369.089	79.88
369.315	92.88
369.541	93.88
369.767	89.88
369.993	70.88
370.219	84.88
370.445	94.88
370.672	86.88
370.898	88.88
371.124	92.88
371.35	68.88
371.576	72.88
371.802	75.88
372.028	68.88
372.254	72.88
372.48	81.88
372.706	81.88
372.932	72.88
373.158	92.88
373.384	92.88
373.61	80.88
373.835	79.88
374.061	98.88
374.287	91.88
374.513	96.88
374.739	85.88
374.965	85.88
375.191	87.88
375.416	83.88
375.642	85.88
375.868	78.88
376.094	81.88
376.319	80.88
376.545	86.88
376.771	74.88
376.997	76.88
377.222	82.88
377.448	81.88
377.674	86.88
377.899	77.88
378.125	67.88
378.35	75.88
378.576	74.88
378.802	72.88
379.027	83.88
379.253	70.88
379.478	69.88
379.704	80.88
379.929	72.88
380.155	65.88
380.38	76.88
380.606	82.88
380.831	74.88
381.057	83.88
381.282	76.88
381.507	81.88
381.733	71.88
381.958	84.88
382.184	84.88
382.409	87.88
382.634	92.88
382.86	78.88
383.085	72.88
383.31	86.88
383.535	79.88
383.761	86.88
383.986	81.88
384.211	79.88
384.436	90.88
384.662	77.88
384.887	73.88
385.112	62.88
385.337	84.88
385.562	83.88
385.787	77.88
386.013	83.88
386.238	74.88
386.463	73.88
386.688	105.88
386.913	84.88
387.138	74.88
387.363	80.88
387.588	88.88
387.813	86.88
388.038	76.88
388.263	93.88
388.488	81.88
388.713	81.88
388.938	77.88
389.163	82.88
389.387	74.88
389.612	80.88
389.837	84.88
390.062	85.88
390.287	87.88
390.512	74.88
390.736	81.88
390.961	71.88
391.186	83.88
391.411	85.88
391.636	76.88
391.86	66.88
392.085	85.88
392.31	76.88
392.534	83.88
392.759	81.88
392.984	110.88
393.208	122.88
393.433	165.88
393.658	134.88
393.882	93.88
394.107	88.88
394.331	88.88
394.556	90.88
394.78	81.88
395.005	81.88
395.229	85.88
395.454	85.88
395.678	69.88
395.903	93.88
396.127	77.88
396.352	86.88
396.576	87.88
396.801	104.88
397.025	128.88
397.249	111.88
397.474	93.88
397.698	87.88
397.922	80.88
398.147	92.88
398.371	82.88
398.595	84.88
398.82	75.88
399.044	98.88
399.268	83.88
399.492	66.88
399.717	58.88
399.941	70.88
400.165	79.88
400.389	85.88
400.613	80.88
400.837	84.88
401.062	83.88
401.286	80.88
401.51	84.88
401.734	92.88
401.958	84.88
402.182	82.88
402.406	86.88
402.63	84.88
402.854	72.88
403.078	73.88
403.302	90.88
403.526	84.88
403.75	64.88
403.974	74.88
404.198	93.88
404.422	80.88
404.645	92.88
404.869	80.88
405.093	76.88
405.317	65.88
405.541	97.88
405.765	90.88
405.988	84.88
406.212	76.88
406.436	83.88
406.66	80.88
406.883	91.88
407.107	88.88
407.331	73.88
407.555	67.88
407.778	72.88
408.002	92.88
408.226	85.88
408.449	69.88
408.673	75.88
408.896	87.88
409.12	80.88
409.344	92.88
409.567	81.88
409.791	73.88
410.014	74.88
410.238	78.88
410.461	85.88
410.685	74.88
410.908	73.88
411.132	79.88
411.355	79.88
411.578	69.88
411.802	77.88
412.025	77.88
412.249	86.88
412.472	76.88
412.695	71.88
412.919	80.88
413.142	75.88
413.365	81.88
413.589	82.88
413.812	78.88
414.035	82.88
414.258	89.88
414.482	82.88
414.705	76.88
414.928	77.88
415.151	77.88
415.374	88.88
415.597	70.88
415.821	80.88
416.044	82.88
416.267	76.88
416.49	77.88
416.713	90.88
416.936	78.88
417.159	82.88
417.382	86.88
417.605	64.88
417.828	89.88
418.051	73.88
418.274	72.88
418.497	80.88
418.72	85.88
418.943	87.88
419.166	69.88
419.389	98.88
419.611	79.88
419.834	69.88
420.057	94.88
420.28	85.88
420.503	98.88
420.726	74.88
420.948	70.88
421.171	66.88
421.394	79.88
421.617	77.88
421.839	82.88
422.062	96.88
422.285	81.88
422.507	116.88
422.73	169.88
422.953	151.88
423.175	97.88
423.398	86.88
423.621	82.88
423.843	81.88
424.066	75.88
424.288	78.88
424.511	104.88
424.733	72.88
424.956	85.88
425.178	84.88
425.401	84.88
425.623	81.88
425.846	81.88
426.068	77.88
426.291	66.88
426.513	69.88
426.735	72.88
426.958	77.88
427.18	76.88
427.402	74.88
427.625	94.88
427.847	82.88
428.069	79.88
428.292	78.88
428.514	84.88
428.736	76.88
428.958	90.88
429.181	86.88
429.403	84.88
429.625	72.88
429.847	88.88
430.069	111.88
430.292	90.88
430.514	97.88
430.736	83.88
430.958	83.88
431.18	79.88
431.402	72.88
431.624	66.88
431.846	74.88
432.068	81.88
432.29	79.88
432.512	70.88
432.734	79.88
432.956	82.88
433.178	87.88
433.4	78.88
433.622	88.88
433.844	77.88
434.066	68.88
434.287	76.88
434.509	80.88
434.731	89.88
434.953	74.88
435.175	80.88
435.397	86.88
435.618	68.88
435.84	69.88
436.062	74.88
436.284	85.88
436.505	82.88
436.727	81.88
436.949	68.88
437.17	84.88
437.392	81.88
437.614	81.88
437.835	72.88
438.057	83.88
438.278	82.88
438.5	68.88
438.721	74.88
438.943	64.88
439.165	83.88
439.386	92.88
439.608	89.88
439.829	78.88
440.05	92.88
440.272	83.88
440.493	80.88
440.715	66.88
440.936	79.88
441.158	72.88
441.379	72.88
441.6	76.88
441.822	72.88
442.043	81.88
442.264	84.88
442.486	96.88
442.707	95.88
442.928	98.88
443.149	85.88
443.371	91.88
443.592	120.88
443.813	102.88
444.034	88.88
444.255	82.88
444.476	79.88
444.698	78.88
444.919	80.88
445.14	141.88
445.361	129.88
445.582	132.88
445.803	114.88
446.024	78.88
446.245	70.88
446.466	74.88
446.687	78.88
446.908	84.88
447.129	67.88
447.35	79.88
447.571	81.88
447.792	78.88
448.013	96.88
448.234	83.88
448.455	80.88
448.675	87.88
448.896	68.88
449.117	59.88
449.338	83.88
449.559	89.88
449.779	86.88
450	73.88
450.221	75.88
450.442	86.88
450.662	87.88
450.883	87.88
451.104	67.88
451.324	80.88
451.545	70.88
451.766	80.88
451.986	72.88
452.207	83.88
452.428	86.88
452.648	74.88
452.869	71.88
453.089	93.88
453.31	88.88
453.53	82.88
453.751	83.88
453.971	62.88
454.192	71.88
454.412	80.88
454.633	70.88
454.853	79.88
455.073	94.88
455.294	84.88
455.514	82.88
455.734	78.88
455.955	78.88
456.175	82.88
456.395	73.88
456.616	76.88
456.836	94.88
457.056	74.88
457.276	69.88
457.497	78.88
457.717	86.88
457.937	75.88
458.157	87.88
458.377	81.88
458.598	84.88
458.818	104.88
459.038	88.88
459.258	80.88
459.478	72.88
459.698	81.88
459.918	94.88
460.138	94.88
460.358	66.88
460.578	85.88
460.798	89.88
461.018	93.88
461.238	96.88
461.458	81.88
461.678	79.88
461.898	75.88
462.118	76.88
462.338	85.88
462.558	79.88
462.777	71.88
462.997	82.88
463.217	83.88
463.437	98.88
463.657	78.88
463.876	90.88
464.096	80.88
464.316	85.88
464.536	74.88
464.755	75.88
464.975	86.88
465.195	89.88
465.414	90.88
465.634	81.88
465.854	79.88
466.073	86.88
466.293	88.88
466.512	83.88
466.732	88.88
466.951	58.88
467.171	80.88
467.391	86.88
467.61	65.88
467.829	78.88
468.049	79.88
468.268	81.88
468.488	68.88
468.707	72.88
468.927	80.88
469.146	82.88
469.365	82.88
469.585	95.88
469.804	74.88
470.023	82.88
470.243	77.88
470.462	76.88
470.681	80.88
470.901	78.88
471.12	70.88
471.339	80.88
471.558	90.88
471.777	85.88
471.997	81.88
472.216	84.88
472.435	74.88
472.654	67.88
472.873	85.88
473.092	88.88
473.311	73.88
473.53	92.88
473.749	88.88
473.968	81.88
474.187	76.88
474.406	69.88
474.625	82.88
474.844	79.88
475.063	78.88
475.282	75.88
475.501	89.88
475.72	96.88
475.939	84.88
476.158	70.88
476.377	79.88
476.596	79.88
476.814	83.88
477.033	79.88
477.252	82.88
477.471	72.88
477.69	71.88
477.908	90.88
478.127	72.88
478.346	76.88
478.564	98.88
478.783	77.88
479.002	71.88
479.22	88.88
479.439	92.88
479.658	74.88
479.876	80.88
480.095	92.88
480.313	64.88
480.532	90.88
480.751	84.88
480.969	75.88
481.188	84.88
481.406	85.88
481.624	68.88
481.843	75.88
482.061	75.88
482.28	80.88
482.498	86.88
482.717	79.88
482.935	79.88
483.153	83.88
483.372	65.88
483.59	72.88
483.808	63.88
484.027	76.88
484.245	70.88
484.463	72.88
484.681	81.88
484.9	78.88
485.118	80.88
485.336	77.88
485.554	95.88
485.772	89.88
485.99	86.88
486.209	89.88
486.427	85.88
486.645	73.88
486.863	88.88
487.081	84.88
487.299	81.88
487.517	91.88
487.735	86.88
487.953	89.88
488.171	82.88
488.389	89.88
488.607	73.88
488.825	65.88
489.043	89.88
489.261	86.88
489.479	70.88
489.696	85.88
489.914	78.88
490.132	84.88
490.35	88.88
490.568	64.88
490.786	70.88
491.003	74.88
491.221	73.88
491.439	80.88
491.657	78.88
491.874	80.88
492.092	77.88
492.31	92.88
492.527	85.88
492.745	79.88
492.963	98.88
493.18	82.88
493.398	80.88
493.615	88.88
493.833	96.88
494.05	78.88
494.268	76.88
494.485	74.88
494.703	77.88
494.92	75.88
495.138	71.88
495.355	92.88
495.573	81.88
495.79	72.88
496.008	73.88
496.225	83.88
496.442	85.88
496.66	99.88
496.877	68.88
497.094	81.88
497.312	92.88
497.529	94.88
497.746	79.88
497.963	86.88
498.181	87.88
498.398	78.88
498.615	92.88
498.832	80.88
499.049	82.88
499.267	87.88
499.484	73.88
499.701	82.88
499.918	80.88
500.135	80.88
500.352	98.88
500.569	88.88
500.786	89.88
501.003	72.88
501.22	78.88
501.437	80.88
501.654	80.88
501.871	81.88
502.088	72.88
502.305	83.88
502.522	83.88
502.739	79.88
502.956	91.88
503.172	87.88
503.389	88.88
503.606	81.88
503.823	86.88
504.04	102.88
504.256	82.88
504.473	87.88
504.69	66.88
504.907	72.88
505.123	74.88
505.34	78.88
505.557	84.88
505.773	93.88
505.99	86.88
506.207	68.88
506.423	84.88
506.64	82.88
506.856	93.88
507.073	75.88
507.289	85.88
507.506	93.88
507.722	86.88
507.939	84.88
508.155	89.88
508.372	77.88
508.588	69.88
508.805	77.88
509.021	71.88
509.238	69.88
509.454	84.88
509.67	78.88
509.887	85.88
510.103	68.88
510.319	88.88
510.536	80.88
510.752	99.88
510.968	86.88
511.184	75.88
511.401	83.88
511.617	88.88
511.833	91.88
512.049	78.88
512.265	82.88
512.481	83.88
512.698	80.88
512.914	70.88
513.13	68.88
513.346	86.88
513.562	80.88
513.778	77.88
513.994	90.88
514.21	86.88
514.426	90.88
514.642	77.88
514.858	90.88
515.074	83.88
515.29	78.88
515.506	84.88
515.721	72.88
515.937	89.88
516.153	88.88
516.369	86.88
516.585	84.88
516.801	83.88
517.016	92.88
517.232	85.88
517.448	87.88
517.664	83.88
517.879	79.88
518.095	87.88
518.311	77.88
518.527	90.88
518.742	91.88
518.958	81.88
519.173	101.88
519.389	83.88
519.605	93.88
519.82	69.88
