Data from 237_1_HRD10591_00031.txt Node
Date: Mon Jan 19 14:10:45 EST 2026
User: Yrep
Spectrometer: HR+D1059
Trigger mode: 1
Integration Time (sec): 1.000000E-1
Scans to average: 1
Electric dark correction enabled: true
Nonlinearity correction enabled: false
Boxcar width: 0
XAxis mode: Wavelengths
Number of Pixels in Spectrum: 2048
>>>>>Begin Spectral Data<<<<<
223.165	-24.81
223.4	-24.81
223.635	-24.81
223.869	-20.81
224.104	-17.81
224.338	-11.81
224.573	-10.81
224.808	-5.81
225.042	-1.81
225.277	-0.81
225.511	-9.81
225.746	0.19
225.98	5.19
226.215	4.19
226.449	22.19
226.683	17.19
226.918	28.19
227.152	27.19
227.387	40.19
227.621	54.19
227.856	45.19
228.09	51.19
228.324	59.19
228.559	48.19
228.793	54.19
229.027	65.19
229.262	60.19
229.496	57.19
229.73	72.19
229.964	59.19
230.199	75.19
230.433	64.19
230.667	82.19
230.901	65.19
231.136	77.19
231.37	79.19
231.604	84.19
231.838	69.19
232.072	76.19
232.306	81.19
232.541	75.19
232.775	74.19
233.009	92.19
233.243	79.19
233.477	81.19
233.711	76.19
233.945	81.19
234.179	60.19
234.413	75.19
234.647	66.19
234.881	86.19
235.115	76.19
235.349	75.19
235.583	76.19
235.817	75.19
236.051	78.19
236.285	82.19
236.519	86.19
236.753	76.19
236.987	91.19
237.221	73.19
237.455	77.19
237.689	81.19
237.922	70.19
238.156	78.19
238.39	72.19
238.624	83.19
238.858	80.19
239.091	71.19
239.325	84.19
239.559	85.19
239.793	81.19
240.027	83.19
240.26	72.19
240.494	63.19
240.728	76.19
240.961	82.19
241.195	85.19
241.429	89.19
241.662	70.19
241.896	85.19
242.13	73.19
242.363	95.19
242.597	69.19
242.83	90.19
243.064	83.19
243.298	77.19
243.531	85.19
243.765	74.19
243.998	67.19
244.232	83.19
244.465	69.19
244.699	89.19
244.932	85.19
245.166	74.19
245.399	86.19
245.633	72.19
245.866	73.19
246.099	82.19
246.333	84.19
246.566	85.19
246.8	81.19
247.033	69.19
247.266	83.19
247.5	88.19
247.733	85.19
247.966	72.19
248.2	86.19
248.433	83.19
248.666	80.19
248.899	89.19
249.133	79.19
249.366	75.19
249.599	62.19
249.832	84.19
250.066	73.19
250.299	79.19
250.532	70.19
250.765	78.19
250.998	84.19
251.231	79.19
251.465	77.19
251.698	73.19
251.931	66.19
252.164	84.19
252.397	83.19
252.63	81.19
252.863	73.19
253.096	75.19
253.329	81.19
253.562	85.19
253.795	69.19
254.028	87.19
254.261	68.19
254.494	85.19
254.727	93.19
254.96	84.19
255.193	88.19
255.426	81.19
255.659	80.19
255.892	90.19
256.124	85.19
256.357	79.19
256.59	82.19
256.823	84.19
257.056	80.19
257.289	79.19
257.521	79.19
257.754	74.19
257.987	77.19
258.22	71.19
258.452	84.19
258.685	80.19
258.918	64.19
259.151	83.19
259.383	93.19
259.616	80.19
259.849	70.19
260.081	74.19
260.314	73.19
260.547	89.19
260.779	89.19
261.012	81.19
261.244	91.19
261.477	88.19
261.71	95.19
261.942	87.19
262.175	85.19
262.407	67.19
262.64	66.19
262.872	75.19
263.105	80.19
263.337	87.19
263.57	96.19
263.802	83.19
264.035	88.19
264.267	98.19
264.499	83.19
264.732	76.19
264.964	88.19
265.197	76.19
265.429	81.19
265.661	90.19
265.894	83.19
266.126	80.19
266.358	77.19
266.591	73.19
266.823	79.19
267.055	85.19
267.287	80.19
267.52	87.19
267.752	81.19
267.984	75.19
268.216	83.19
268.448	83.19
268.681	79.19
268.913	79.19
269.145	84.19
269.377	81.19
269.609	77.19
269.841	90.19
270.073	82.19
270.306	75.19
270.538	96.19
270.77	79.19
271.002	81.19
271.234	90.19
271.466	90.19
271.698	72.19
271.93	74.19
272.162	84.19
272.394	89.19
272.626	87.19
272.858	93.19
273.09	73.19
273.322	89.19
273.553	83.19
273.785	70.19
274.017	76.19
274.249	85.19
274.481	63.19
274.713	85.19
274.945	75.19
275.176	69.19
275.408	102.19
275.64	97.19
275.872	85.19
276.104	87.19
276.335	78.19
276.567	89.19
276.799	93.19
277.031	76.19
277.262	73.19
277.494	89.19
277.726	80.19
277.957	80.19
278.189	75.19
278.421	81.19
278.652	96.19
278.884	101.19
279.115	85.19
279.347	83.19
279.579	84.19
279.81	91.19
280.042	80.19
280.273	93.19
280.505	75.19
280.736	90.19
280.968	82.19
281.199	91.19
281.431	77.19
281.662	89.19
281.894	71.19
282.125	86.19
282.356	79.19
282.588	84.19
282.819	83.19
283.051	88.19
283.282	85.19
283.513	85.19
283.745	82.19
283.976	81.19
284.207	83.19
284.439	98.19
284.67	85.19
284.901	73.19
285.132	97.19
285.364	88.19
285.595	90.19
285.826	86.19
286.057	80.19
286.288	84.19
286.52	92.19
286.751	81.19
286.982	77.19
287.213	75.19
287.444	83.19
287.675	79.19
287.906	86.19
288.138	80.19
288.369	85.19
288.6	91.19
288.831	97.19
289.062	86.19
289.293	81.19
289.524	89.19
289.755	86.19
289.986	83.19
290.217	82.19
290.448	79.19
290.679	80.19
290.91	75.19
291.141	81.19
291.371	106.19
291.602	89.19
291.833	75.19
292.064	81.19
292.295	84.19
292.526	85.19
292.757	85.19
292.987	79.19
293.218	81.19
293.449	97.19
293.68	81.19
293.91	70.19
294.141	81.19
294.372	78.19
294.603	81.19
294.833	96.19
295.064	87.19
295.295	69.19
295.525	73.19
295.756	78.19
295.987	75.19
296.217	79.19
296.448	85.19
296.679	75.19
296.909	85.19
297.14	93.19
297.37	83.19
297.601	95.19
297.831	82.19
298.062	85.19
298.292	93.19
298.523	75.19
298.753	76.19
298.984	81.19
299.214	90.19
299.445	83.19
299.675	75.19
299.905	87.19
300.136	85.19
300.366	84.19
300.597	84.19
300.827	82.19
301.057	89.19
301.288	95.19
301.518	75.19
301.748	88.19
301.979	93.19
302.209	76.19
302.439	88.19
302.669	70.19
302.9	91.19
303.13	81.19
303.36	81.19
303.59	81.19
303.82	67.19
304.051	84.19
304.281	109.19
304.511	81.19
304.741	80.19
304.971	82.19
305.201	83.19
305.431	91.19
305.661	83.19
305.891	76.19
306.121	95.19
306.352	93.19
306.582	72.19
306.812	90.19
307.042	79.19
307.272	87.19
307.502	80.19
307.731	84.19
307.961	85.19
308.191	82.19
308.421	91.19
308.651	77.19
308.881	85.19
309.111	85.19
309.341	106.19
309.571	93.19
309.8	97.19
310.03	86.19
310.26	91.19
310.49	84.19
310.72	87.19
310.949	84.19
311.179	78.19
311.409	82.19
311.639	79.19
311.868	89.19
312.098	82.19
312.328	80.19
312.557	75.19
312.787	82.19
313.017	81.19
313.246	84.19
313.476	88.19
313.706	79.19
313.935	85.19
314.165	90.19
314.394	76.19
314.624	76.19
314.853	74.19
315.083	78.19
315.312	85.19
315.542	67.19
315.771	75.19
316.001	93.19
316.23	81.19
316.46	72.19
316.689	93.19
316.919	83.19
317.148	85.19
317.377	87.19
317.607	67.19
317.836	82.19
318.065	94.19
318.295	94.19
318.524	77.19
318.753	69.19
318.983	76.19
319.212	81.19
319.441	90.19
319.67	84.19
319.9	82.19
320.129	89.19
320.358	73.19
320.587	74.19
320.816	92.19
321.046	89.19
321.275	89.19
321.504	101.19
321.733	75.19
321.962	77.19
322.191	101.19
322.42	62.19
322.649	74.19
322.878	80.19
323.108	81.19
323.337	82.19
323.566	94.19
323.795	80.19
324.024	90.19
324.253	90.19
324.482	85.19
324.71	83.19
324.939	96.19
325.168	85.19
325.397	74.19
325.626	84.19
325.855	84.19
326.084	102.19
326.313	75.19
326.542	88.19
326.77	94.19
326.999	75.19
327.228	86.19
327.457	87.19
327.686	79.19
327.914	94.19
328.143	85.19
328.372	93.19
328.6	86.19
328.829	79.19
329.058	75.19
329.287	86.19
329.515	86.19
329.744	66.19
329.972	85.19
330.201	85.19
330.43	95.19
330.658	91.19
330.887	89.19
331.115	83.19
331.344	81.19
331.572	80.19
331.801	70.19
332.03	77.19
332.258	95.19
332.486	82.19
332.715	65.19
332.943	93.19
333.172	79.19
333.4	91.19
333.629	85.19
333.857	97.19
334.085	86.19
334.314	71.19
334.542	80.19
334.771	93.19
334.999	93.19
335.227	69.19
335.455	71.19
335.684	83.19
335.912	97.19
336.14	75.19
336.369	71.19
336.597	77.19
336.825	81.19
337.053	82.19
337.281	93.19
337.51	77.19
337.738	99.19
337.966	83.19
338.194	89.19
338.422	75.19
338.65	79.19
338.878	91.19
339.106	78.19
339.334	74.19
339.562	81.19
339.79	86.19
340.018	92.19
340.246	81.19
340.474	83.19
340.702	71.19
340.93	85.19
341.158	91.19
341.386	86.19
341.614	85.19
341.842	74.19
342.07	85.19
342.298	91.19
342.526	70.19
342.754	73.19
342.981	74.19
343.209	91.19
343.437	93.19
343.665	87.19
343.893	75.19
344.12	87.19
344.348	80.19
344.576	78.19
344.804	80.19
345.031	78.19
345.259	68.19
345.487	94.19
345.714	84.19
345.942	81.19
346.17	75.19
346.397	77.19
346.625	75.19
346.853	87.19
347.08	67.19
347.308	79.19
347.535	72.19
347.763	77.19
347.99	78.19
348.218	75.19
348.445	85.19
348.673	90.19
348.9	87.19
349.128	94.19
349.355	71.19
349.583	70.19
349.81	69.19
350.037	87.19
350.265	79.19
350.492	70.19
350.72	97.19
350.947	97.19
351.174	71.19
351.402	84.19
351.629	87.19
351.856	81.19
352.083	72.19
352.311	73.19
352.538	82.19
352.765	67.19
352.992	78.19
353.22	72.19
353.447	86.19
353.674	81.19
353.901	81.19
354.128	82.19
354.355	64.19
354.583	94.19
354.81	73.19
355.037	78.19
355.264	97.19
355.491	76.19
355.718	86.19
355.945	74.19
356.172	66.19
356.399	70.19
356.626	81.19
356.853	73.19
357.08	81.19
357.307	94.19
357.534	89.19
357.761	90.19
357.988	89.19
358.215	92.19
358.441	82.19
358.668	70.19
358.895	91.19
359.122	79.19
359.349	86.19
359.576	81.19
359.802	73.19
360.029	81.19
360.256	77.19
360.483	78.19
360.709	84.19
360.936	88.19
361.163	89.19
361.39	96.19
361.616	77.19
361.843	86.19
362.07	91.19
362.296	89.19
362.523	90.19
362.749	82.19
362.976	80.19
363.203	98.19
363.429	69.19
363.656	87.19
363.882	86.19
364.109	83.19
364.335	93.19
364.562	99.19
364.788	91.19
365.015	94.19
365.241	93.19
365.468	89.19
365.694	77.19
365.92	79.19
366.147	75.19
366.373	88.19
366.599	88.19
366.826	75.19
367.052	85.19
367.278	88.19
367.505	74.19
367.731	90.19
367.957	70.19
368.184	86.19
368.41	83.19
368.636	87.19
368.862	95.19
369.089	68.19
369.315	80.19
369.541	91.19
369.767	83.19
369.993	76.19
370.219	67.19
370.445	77.19
370.672	104.19
370.898	91.19
371.124	74.19
371.35	86.19
371.576	58.19
371.802	67.19
372.028	77.19
372.254	96.19
372.48	81.19
372.706	75.19
372.932	80.19
373.158	81.19
373.384	99.19
373.61	99.19
373.835	89.19
374.061	70.19
374.287	86.19
374.513	79.19
374.739	91.19
374.965	88.19
375.191	78.19
375.416	80.19
375.642	105.19
375.868	83.19
376.094	81.19
376.319	86.19
376.545	70.19
376.771	90.19
376.997	81.19
377.222	83.19
377.448	85.19
377.674	75.19
377.899	76.19
378.125	79.19
378.35	87.19
378.576	85.19
378.802	90.19
379.027	80.19
379.253	84.19
379.478	97.19
379.704	86.19
379.929	89.19
380.155	85.19
380.38	90.19
380.606	61.19
380.831	81.19
381.057	78.19
381.282	74.19
381.507	80.19
381.733	88.19
381.958	79.19
382.184	95.19
382.409	91.19
382.634	77.19
382.86	95.19
383.085	85.19
383.31	81.19
383.535	80.19
383.761	94.19
383.986	73.19
384.211	71.19
384.436	93.19
384.662	94.19
384.887	99.19
385.112	80.19
385.337	74.19
385.562	76.19
385.787	88.19
386.013	90.19
386.238	86.19
386.463	83.19
386.688	79.19
386.913	79.19
387.138	75.19
387.363	79.19
387.588	72.19
387.813	82.19
388.038	84.19
388.263	81.19
388.488	96.19
388.713	76.19
388.938	83.19
389.163	86.19
389.387	64.19
389.612	79.19
389.837	90.19
390.062	83.19
390.287	82.19
390.512	84.19
390.736	92.19
390.961	80.19
391.186	90.19
391.411	79.19
391.636	80.19
391.86	95.19
392.085	80.19
392.31	77.19
392.534	96.19
392.759	89.19
392.984	103.19
393.208	116.19
393.433	151.19
393.658	130.19
393.882	89.19
394.107	91.19
394.331	100.19
394.556	105.19
394.78	86.19
395.005	94.19
395.229	80.19
395.454	101.19
395.678	94.19
395.903	80.19
396.127	109.19
396.352	115.19
396.576	96.19
396.801	122.19
397.025	140.19
397.249	98.19
397.474	77.19
397.698	86.19
397.922	69.19
398.147	89.19
398.371	89.19
398.595	74.19
398.82	85.19
399.044	82.19
399.268	88.19
399.492	81.19
399.717	82.19
399.941	91.19
400.165	92.19
400.389	71.19
400.613	95.19
400.837	89.19
401.062	82.19
401.286	86.19
401.51	86.19
401.734	91.19
401.958	84.19
402.182	68.19
402.406	94.19
402.63	88.19
402.854	87.19
403.078	86.19
403.302	82.19
403.526	79.19
403.75	76.19
403.974	74.19
404.198	86.19
404.422	96.19
404.645	101.19
404.869	84.19
405.093	90.19
405.317	75.19
405.541	83.19
405.765	81.19
405.988	85.19
406.212	88.19
406.436	81.19
406.66	86.19
406.883	81.19
407.107	95.19
407.331	88.19
407.555	93.19
407.778	86.19
408.002	77.19
408.226	89.19
408.449	79.19
408.673	75.19
408.896	93.19
409.12	91.19
409.344	85.19
409.567	80.19
409.791	85.19
410.014	85.19
410.238	81.19
410.461	70.19
410.685	71.19
410.908	85.19
411.132	85.19
411.355	76.19
411.578	77.19
411.802	88.19
412.025	83.19
412.249	76.19
412.472	78.19
412.695	88.19
412.919	75.19
413.142	78.19
413.365	74.19
413.589	82.19
413.812	90.19
414.035	94.19
414.258	91.19
414.482	77.19
414.705	85.19
414.928	68.19
415.151	79.19
415.374	74.19
415.597	80.19
415.821	73.19
416.044	73.19
416.267	73.19
416.49	95.19
416.713	87.19
416.936	91.19
417.159	80.19
417.382	65.19
417.605	69.19
417.828	97.19
418.051	78.19
418.274	89.19
418.497	82.19
418.72	87.19
418.943	82.19
419.166	87.19
419.389	98.19
419.611	92.19
419.834	75.19
420.057	69.19
420.28	78.19
420.503	68.19
420.726	81.19
420.948	86.19
421.171	66.19
421.394	84.19
421.617	84.19
421.839	89.19
422.062	95.19
422.285	102.19
422.507	146.19
422.73	211.19
422.953	198.19
423.175	117.19
423.398	91.19
423.621	74.19
423.843	81.19
424.066	73.19
424.288	77.19
424.511	74.19
424.733	83.19
424.956	83.19
425.178	70.19
425.401	86.19
425.623	84.19
425.846	77.19
426.068	82.19
426.291	85.19
426.513	84.19
426.735	95.19
426.958	94.19
427.18	83.19
427.402	81.19
427.625	86.19
427.847	69.19
428.069	67.19
428.292	86.19
428.514	107.19
428.736	98.19
428.958	95.19
429.181	90.19
429.403	85.19
429.625	96.19
429.847	88.19
430.069	109.19
430.292	110.19
430.514	99.19
430.736	104.19
430.958	104.19
431.18	84.19
431.402	82.19
431.624	82.19
431.846	101.19
432.068	103.19
432.29	83.19
432.512	88.19
432.734	85.19
432.956	78.19
433.178	78.19
433.4	75.19
433.622	78.19
433.844	81.19
434.066	89.19
434.287	78.19
434.509	87.19
434.731	73.19
434.953	75.19
435.175	85.19
435.397	75.19
435.618	77.19
435.84	73.19
436.062	81.19
436.284	96.19
436.505	86.19
436.727	72.19
436.949	67.19
437.17	79.19
437.392	74.19
437.614	87.19
437.835	72.19
438.057	77.19
438.278	89.19
438.5	81.19
438.721	92.19
438.943	81.19
439.165	81.19
439.386	78.19
439.608	72.19
439.829	85.19
440.05	87.19
440.272	86.19
440.493	82.19
440.715	82.19
440.936	90.19
441.158	86.19
441.379	78.19
441.6	87.19
441.822	80.19
442.043	90.19
442.264	99.19
442.486	92.19
442.707	111.19
442.928	97.19
443.149	97.19
443.371	116.19
443.592	136.19
443.813	122.19
444.034	98.19
444.255	97.19
444.476	83.19
444.698	85.19
444.919	81.19
445.14	148.19
445.361	130.19
445.582	155.19
445.803	132.19
446.024	94.19
446.245	93.19
446.466	80.19
446.687	75.19
446.908	99.19
447.129	98.19
447.35	91.19
447.571	85.19
447.792	71.19
448.013	80.19
448.234	85.19
448.455	83.19
448.675	86.19
448.896	81.19
449.117	74.19
449.338	86.19
449.559	82.19
449.779	77.19
450	72.19
450.221	70.19
450.442	80.19
450.662	93.19
450.883	89.19
451.104	90.19
451.324	91.19
451.545	87.19
451.766	91.19
451.986	78.19
452.207	90.19
452.428	77.19
452.648	96.19
452.869	98.19
453.089	87.19
453.31	82.19
453.53	89.19
453.751	80.19
453.971	80.19
454.192	89.19
454.412	91.19
454.633	60.19
454.853	98.19
455.073	81.19
455.294	78.19
455.514	74.19
455.734	82.19
455.955	79.19
456.175	90.19
456.395	79.19
456.616	79.19
456.836	70.19
457.056	74.19
457.276	72.19
457.497	71.19
457.717	85.19
457.937	86.19
458.157	95.19
458.377	85.19
458.598	67.19
458.818	78.19
459.038	81.19
459.258	91.19
459.478	78.19
459.698	81.19
459.918	79.19
460.138	90.19
460.358	81.19
460.578	85.19
460.798	88.19
461.018	90.19
461.238	87.19
461.458	89.19
461.678	77.19
461.898	90.19
462.118	83.19
462.338	75.19
462.558	84.19
462.777	79.19
462.997	75.19
463.217	82.19
463.437	81.19
463.657	97.19
463.876	93.19
464.096	86.19
464.316	86.19
464.536	85.19
464.755	75.19
464.975	86.19
465.195	90.19
465.414	92.19
465.634	81.19
465.854	76.19
466.073	78.19
466.293	89.19
466.512	74.19
466.732	87.19
466.951	77.19
467.171	79.19
467.391	80.19
467.61	93.19
467.829	81.19
468.049	93.19
468.268	76.19
468.488	81.19
468.707	80.19
468.927	85.19
469.146	85.19
469.365	78.19
469.585	86.19
469.804	76.19
470.023	80.19
470.243	79.19
470.462	88.19
470.681	78.19
470.901	88.19
471.12	97.19
471.339	81.19
471.558	87.19
471.777	91.19
471.997	91.19
472.216	84.19
472.435	74.19
472.654	70.19
472.873	83.19
473.092	87.19
473.311	94.19
473.53	82.19
473.749	69.19
473.968	89.19
474.187	95.19
474.406	79.19
474.625	81.19
474.844	85.19
475.063	77.19
475.282	83.19
475.501	101.19
475.72	91.19
475.939	78.19
476.158	81.19
476.377	86.19
476.596	76.19
476.814	80.19
477.033	80.19
477.252	88.19
477.471	80.19
477.69	77.19
477.908	70.19
478.127	82.19
478.346	103.19
478.564	90.19
478.783	79.19
479.002	90.19
479.22	97.19
479.439	95.19
479.658	82.19
479.876	86.19
480.095	71.19
480.313	82.19
480.532	81.19
480.751	82.19
480.969	81.19
481.188	90.19
481.406	83.19
481.624	99.19
481.843	64.19
482.061	80.19
482.28	73.19
482.498	107.19
482.717	75.19
482.935	86.19
483.153	65.19
483.372	74.19
483.59	87.19
483.808	88.19
484.027	78.19
484.245	101.19
484.463	97.19
484.681	87.19
484.9	98.19
485.118	89.19
485.336	93.19
485.554	83.19
485.772	85.19
485.99	77.19
486.209	83.19
486.427	78.19
486.645	90.19
486.863	83.19
487.081	88.19
487.299	76.19
487.517	90.19
487.735	92.19
487.953	103.19
488.171	103.19
488.389	67.19
488.607	79.19
488.825	81.19
489.043	68.19
489.261	64.19
489.479	84.19
489.696	87.19
489.914	89.19
490.132	84.19
490.35	91.19
490.568	89.19
490.786	82.19
491.003	80.19
491.221	81.19
491.439	79.19
491.657	77.19
491.874	87.19
492.092	93.19
492.31	82.19
492.527	81.19
492.745	81.19
492.963	96.19
493.18	78.19
493.398	84.19
493.615	73.19
493.833	77.19
494.05	74.19
494.268	83.19
494.485	102.19
494.703	89.19
494.92	72.19
495.138	84.19
495.355	78.19
495.573	81.19
495.79	92.19
496.008	90.19
496.225	88.19
496.442	81.19
496.66	93.19
496.877	83.19
497.094	89.19
497.312	87.19
497.529	85.19
497.746	95.19
497.963	79.19
498.181	88.19
498.398	86.19
498.615	103.19
498.832	90.19
499.049	89.19
499.267	93.19
499.484	85.19
499.701	89.19
499.918	85.19
500.135	89.19
500.352	98.19
500.569	73.19
500.786	91.19
501.003	97.19
501.22	87.19
501.437	75.19
501.654	79.19
501.871	88.19
502.088	82.19
502.305	90.19
502.522	72.19
502.739	83.19
502.956	91.19
503.172	82.19
503.389	87.19
503.606	88.19
503.823	92.19
504.04	80.19
504.256	99.19
504.473	92.19
504.69	84.19
504.907	91.19
505.123	94.19
505.34	77.19
505.557	90.19
505.773	84.19
505.99	81.19
506.207	87.19
506.423	75.19
506.64	86.19
506.856	84.19
507.073	87.19
507.289	87.19
507.506	90.19
507.722	72.19
507.939	86.19
508.155	97.19
508.372	87.19
508.588	87.19
508.805	90.19
509.021	77.19
509.238	91.19
509.454	85.19
509.67	77.19
509.887	98.19
510.103	82.19
510.319	85.19
510.536	81.19
510.752	86.19
510.968	82.19
511.184	83.19
511.401	83.19
511.617	86.19
511.833	78.19
512.049	84.19
512.265	85.19
512.481	75.19
512.698	103.19
512.914	83.19
513.13	84.19
513.346	72.19
513.562	81.19
513.778	85.19
513.994	87.19
514.21	95.19
514.426	89.19
514.642	96.19
514.858	87.19
515.074	71.19
515.29	85.19
515.506	89.19
515.721	65.19
515.937	85.19
516.153	82.19
516.369	98.19
516.585	85.19
516.801	101.19
517.016	85.19
517.232	84.19
517.448	93.19
517.664	81.19
517.879	90.19
518.095	94.19
518.311	81.19
518.527	87.19
518.742	73.19
518.958	114.19
519.173	103.19
519.389	86.19
519.605	84.19
