Data from 237_1_HRD10591_00014.txt Node
Date: Mon Jan 19 14:10:36 EST 2026
User: Yrep
Spectrometer: HR+D1059
Trigger mode: 1
Integration Time (sec): 1.000000E-1
Scans to average: 1
Electric dark correction enabled: true
Nonlinearity correction enabled: false
Boxcar width: 0
XAxis mode: Wavelengths
Number of Pixels in Spectrum: 2048
>>>>>Begin Spectral Data<<<<<
223.165	-3.31
223.4	-3.31
223.635	-3.31
223.869	-28.31
224.104	-12.31
224.338	-13.31
224.573	-11.31
224.808	-14.31
225.042	-11.31
225.277	-8.31
225.511	-9.31
225.746	-1.31
225.98	-1.31
226.215	12.69
226.449	25.69
226.683	20.69
226.918	28.69
227.152	26.69
227.387	42.69
227.621	50.69
227.856	31.69
228.09	39.69
228.324	43.69
228.559	70.69
228.793	61.69
229.027	64.69
229.262	61.69
229.496	62.69
229.73	74.69
229.964	76.69
230.199	62.69
230.433	65.69
230.667	76.69
230.901	72.69
231.136	72.69
231.37	69.69
231.604	78.69
231.838	69.69
232.072	89.69
232.306	86.69
232.541	75.69
232.775	85.69
233.009	75.69
233.243	78.69
233.477	85.69
233.711	78.69
233.945	78.69
234.179	75.69
234.413	76.69
234.647	84.69
234.881	90.69
235.115	69.69
235.349	81.69
235.583	83.69
235.817	84.69
236.051	84.69
236.285	81.69
236.519	76.69
236.753	74.69
236.987	84.69
237.221	86.69
237.455	93.69
237.689	64.69
237.922	80.69
238.156	72.69
238.39	87.69
238.624	72.69
238.858	72.69
239.091	69.69
239.325	73.69
239.559	65.69
239.793	61.69
240.027	86.69
240.26	96.69
240.494	74.69
240.728	72.69
240.961	67.69
241.195	90.69
241.429	89.69
241.662	69.69
241.896	71.69
242.13	87.69
242.363	74.69
242.597	75.69
242.83	75.69
243.064	78.69
243.298	81.69
243.531	62.69
243.765	68.69
243.998	74.69
244.232	84.69
244.465	86.69
244.699	72.69
244.932	64.69
245.166	76.69
245.399	72.69
245.633	72.69
245.866	78.69
246.099	76.69
246.333	81.69
246.566	80.69
246.8	75.69
247.033	81.69
247.266	68.69
247.5	78.69
247.733	64.69
247.966	80.69
248.2	93.69
248.433	78.69
248.666	82.69
248.899	73.69
249.133	75.69
249.366	81.69
249.599	74.69
249.832	81.69
250.066	84.69
250.299	76.69
250.532	82.69
250.765	90.69
250.998	74.69
251.231	73.69
251.465	71.69
251.698	72.69
251.931	83.69
252.164	78.69
252.397	68.69
252.63	83.69
252.863	75.69
253.096	75.69
253.329	84.69
253.562	68.69
253.795	76.69
254.028	85.69
254.261	68.69
254.494	74.69
254.727	88.69
254.96	82.69
255.193	85.69
255.426	86.69
255.659	85.69
255.892	76.69
256.124	76.69
256.357	85.69
256.59	88.69
256.823	81.69
257.056	82.69
257.289	77.69
257.521	82.69
257.754	90.69
257.987	90.69
258.22	85.69
258.452	71.69
258.685	59.69
258.918	77.69
259.151	90.69
259.383	84.69
259.616	76.69
259.849	67.69
260.081	87.69
260.314	79.69
260.547	76.69
260.779	82.69
261.012	76.69
261.244	73.69
261.477	87.69
261.71	90.69
261.942	81.69
262.175	69.69
262.407	81.69
262.64	74.69
262.872	89.69
263.105	78.69
263.337	78.69
263.57	78.69
263.802	81.69
264.035	77.69
264.267	90.69
264.499	83.69
264.732	81.69
264.964	69.69
265.197	77.69
265.429	86.69
265.661	85.69
265.894	83.69
266.126	84.69
266.358	77.69
266.591	86.69
266.823	80.69
267.055	80.69
267.287	76.69
267.52	72.69
267.752	87.69
267.984	84.69
268.216	84.69
268.448	87.69
268.681	84.69
268.913	87.69
269.145	91.69
269.377	90.69
269.609	83.69
269.841	91.69
270.073	79.69
270.306	80.69
270.538	86.69
270.77	77.69
271.002	75.69
271.234	82.69
271.466	92.69
271.698	92.69
271.93	92.69
272.162	90.69
272.394	81.69
272.626	73.69
272.858	93.69
273.09	74.69
273.322	84.69
273.553	68.69
273.785	73.69
274.017	72.69
274.249	89.69
274.481	68.69
274.713	86.69
274.945	101.69
275.176	78.69
275.408	86.69
275.64	94.69
275.872	88.69
276.104	96.69
276.335	85.69
276.567	84.69
276.799	82.69
277.031	79.69
277.262	78.69
277.494	82.69
277.726	72.69
277.957	68.69
278.189	88.69
278.421	78.69
278.652	81.69
278.884	88.69
279.115	103.69
279.347	87.69
279.579	96.69
279.81	98.69
280.042	81.69
280.273	85.69
280.505	74.69
280.736	88.69
280.968	84.69
281.199	83.69
281.431	82.69
281.662	72.69
281.894	94.69
282.125	88.69
282.356	82.69
282.588	85.69
282.819	90.69
283.051	78.69
283.282	81.69
283.513	78.69
283.745	91.69
283.976	82.69
284.207	85.69
284.439	79.69
284.67	92.69
284.901	84.69
285.132	90.69
285.364	88.69
285.595	91.69
285.826	84.69
286.057	76.69
286.288	85.69
286.52	82.69
286.751	76.69
286.982	83.69
287.213	92.69
287.444	94.69
287.675	84.69
287.906	76.69
288.138	93.69
288.369	94.69
288.6	93.69
288.831	90.69
289.062	87.69
289.293	87.69
289.524	86.69
289.755	87.69
289.986	80.69
290.217	88.69
290.448	93.69
290.679	89.69
290.91	78.69
291.141	82.69
291.371	93.69
291.602	84.69
291.833	81.69
292.064	94.69
292.295	81.69
292.526	85.69
292.757	83.69
292.987	70.69
293.218	75.69
293.449	90.69
293.68	82.69
293.91	73.69
294.141	92.69
294.372	84.69
294.603	81.69
294.833	85.69
295.064	98.69
295.295	89.69
295.525	84.69
295.756	94.69
295.987	82.69
296.217	79.69
296.448	83.69
296.679	78.69
296.909	82.69
297.14	88.69
297.37	88.69
297.601	95.69
297.831	93.69
298.062	77.69
298.292	96.69
298.523	86.69
298.753	99.69
298.984	84.69
299.214	91.69
299.445	99.69
299.675	106.69
299.905	86.69
300.136	82.69
300.366	87.69
300.597	81.69
300.827	94.69
301.057	99.69
301.288	97.69
301.518	76.69
301.748	98.69
301.979	92.69
302.209	84.69
302.439	94.69
302.669	89.69
302.9	93.69
303.13	94.69
303.36	91.69
303.59	75.69
303.82	81.69
304.051	70.69
304.281	71.69
304.511	80.69
304.741	94.69
304.971	83.69
305.201	90.69
305.431	92.69
305.661	82.69
305.891	88.69
306.121	92.69
306.352	90.69
306.582	94.69
306.812	87.69
307.042	86.69
307.272	89.69
307.502	87.69
307.731	83.69
307.961	107.69
308.191	79.69
308.421	94.69
308.651	89.69
308.881	90.69
309.111	95.69
309.341	109.69
309.571	99.69
309.8	95.69
310.03	78.69
310.26	97.69
310.49	89.69
310.72	89.69
310.949	96.69
311.179	87.69
311.409	81.69
311.639	83.69
311.868	85.69
312.098	94.69
312.328	82.69
312.557	87.69
312.787	94.69
313.017	81.69
313.246	85.69
313.476	93.69
313.706	93.69
313.935	76.69
314.165	94.69
314.394	100.69
314.624	88.69
314.853	85.69
315.083	94.69
315.312	102.69
315.542	99.69
315.771	83.69
316.001	97.69
316.23	89.69
316.46	83.69
316.689	85.69
316.919	73.69
317.148	80.69
317.377	106.69
317.607	90.69
317.836	82.69
318.065	112.69
318.295	103.69
318.524	82.69
318.753	93.69
318.983	82.69
319.212	93.69
319.441	88.69
319.67	90.69
319.9	91.69
320.129	72.69
320.358	99.69
320.587	88.69
320.816	88.69
321.046	89.69
321.275	116.69
321.504	94.69
321.733	87.69
321.962	94.69
322.191	70.69
322.42	92.69
322.649	96.69
322.878	84.69
323.108	89.69
323.337	78.69
323.566	82.69
323.795	100.69
324.024	94.69
324.253	92.69
324.482	74.69
324.71	93.69
324.939	91.69
325.168	74.69
325.397	77.69
325.626	88.69
325.855	93.69
326.084	78.69
326.313	85.69
326.542	82.69
326.77	79.69
326.999	76.69
327.228	92.69
327.457	91.69
327.686	89.69
327.914	83.69
328.143	88.69
328.372	88.69
328.6	87.69
328.829	85.69
329.058	98.69
329.287	91.69
329.515	78.69
329.744	83.69
329.972	85.69
330.201	88.69
330.43	94.69
330.658	79.69
330.887	85.69
331.115	82.69
331.344	94.69
331.572	88.69
331.801	81.69
332.03	87.69
332.258	96.69
332.486	90.69
332.715	86.69
332.943	79.69
333.172	97.69
333.4	89.69
333.629	87.69
333.857	90.69
334.085	96.69
334.314	79.69
334.542	95.69
334.771	98.69
334.999	104.69
335.227	104.69
335.455	85.69
335.684	113.69
335.912	82.69
336.14	96.69
336.369	114.69
336.597	92.69
336.825	92.69
337.053	99.69
337.281	92.69
337.51	88.69
337.738	87.69
337.966	86.69
338.194	88.69
338.422	91.69
338.65	89.69
338.878	86.69
339.106	89.69
339.334	80.69
339.562	85.69
339.79	90.69
340.018	77.69
340.246	95.69
340.474	92.69
340.702	90.69
340.93	75.69
341.158	85.69
341.386	92.69
341.614	79.69
341.842	70.69
342.07	92.69
342.298	96.69
342.526	92.69
342.754	88.69
342.981	93.69
343.209	100.69
343.437	110.69
343.665	94.69
343.893	95.69
344.12	105.69
344.348	98.69
344.576	84.69
344.804	101.69
345.031	94.69
345.259	79.69
345.487	82.69
345.714	93.69
345.942	74.69
346.17	114.69
346.397	90.69
346.625	99.69
346.853	94.69
347.08	92.69
347.308	78.69
347.535	101.69
347.763	88.69
347.99	92.69
348.218	91.69
348.445	83.69
348.673	96.69
348.9	99.69
349.128	85.69
349.355	81.69
349.583	89.69
349.81	93.69
350.037	102.69
350.265	99.69
350.492	84.69
350.72	85.69
350.947	97.69
351.174	97.69
351.402	86.69
351.629	90.69
351.856	95.69
352.083	93.69
352.311	79.69
352.538	76.69
352.765	93.69
352.992	93.69
353.22	96.69
353.447	70.69
353.674	94.69
353.901	81.69
354.128	90.69
354.355	78.69
354.583	72.69
354.81	86.69
355.037	83.69
355.264	87.69
355.491	89.69
355.718	98.69
355.945	103.69
356.172	106.69
356.399	90.69
356.626	95.69
356.853	102.69
357.08	99.69
357.307	99.69
357.534	91.69
357.761	96.69
357.988	99.69
358.215	104.69
358.441	102.69
358.668	86.69
358.895	81.69
359.122	91.69
359.349	83.69
359.576	87.69
359.802	72.69
360.029	70.69
360.256	82.69
360.483	83.69
360.709	78.69
360.936	98.69
361.163	111.69
361.39	76.69
361.616	92.69
361.843	104.69
362.07	113.69
362.296	110.69
362.523	130.69
362.749	114.69
362.976	134.69
363.203	153.69
363.429	109.69
363.656	94.69
363.882	109.69
364.109	122.69
364.335	151.69
364.562	154.69
364.788	106.69
365.015	108.69
365.241	90.69
365.468	107.69
365.694	98.69
365.92	96.69
366.147	84.69
366.373	82.69
366.599	81.69
366.826	88.69
367.052	96.69
367.278	82.69
367.505	83.69
367.731	91.69
367.957	85.69
368.184	82.69
368.41	94.69
368.636	75.69
368.862	91.69
369.089	89.69
369.315	91.69
369.541	96.69
369.767	77.69
369.993	86.69
370.219	99.69
370.445	92.69
370.672	100.69
370.898	87.69
371.124	71.69
371.35	88.69
371.576	81.69
371.802	95.69
372.028	91.69
372.254	102.69
372.48	92.69
372.706	113.69
372.932	98.69
373.158	104.69
373.384	114.69
373.61	132.69
373.835	121.69
374.061	88.69
374.287	113.69
374.513	118.69
374.739	122.69
374.965	95.69
375.191	101.69
375.416	85.69
375.642	97.69
375.868	104.69
376.094	105.69
376.319	92.69
376.545	102.69
376.771	83.69
376.997	90.69
377.222	80.69
377.448	88.69
377.674	86.69
377.899	80.69
378.125	94.69
378.35	87.69
378.576	78.69
378.802	100.69
379.027	95.69
379.253	94.69
379.478	98.69
379.704	98.69
379.929	98.69
380.155	97.69
380.38	78.69
380.606	76.69
380.831	100.69
381.057	85.69
381.282	88.69
381.507	78.69
381.733	84.69
381.958	105.69
382.184	116.69
382.409	91.69
382.634	110.69
382.86	118.69
383.085	95.69
383.31	103.69
383.535	106.69
383.761	120.69
383.986	110.69
384.211	96.69
384.436	89.69
384.662	97.69
384.887	85.69
385.112	94.69
385.337	80.69
385.562	78.69
385.787	112.69
386.013	124.69
386.238	105.69
386.463	112.69
386.688	107.69
386.913	106.69
387.138	98.69
387.363	102.69
387.588	91.69
387.813	94.69
388.038	112.69
388.263	99.69
388.488	108.69
388.713	109.69
388.938	104.69
389.163	96.69
389.387	87.69
389.612	92.69
389.837	100.69
390.062	100.69
390.287	90.69
390.512	98.69
390.736	101.69
390.961	84.69
391.186	90.69
391.411	84.69
391.636	95.69
391.86	104.69
392.085	108.69
392.31	92.69
392.534	113.69
392.759	141.69
392.984	195.69
393.208	343.69
393.433	488.69
393.658	404.69
393.882	172.69
394.107	130.69
394.331	129.69
394.556	128.69
394.78	103.69
395.005	97.69
395.229	115.69
395.454	119.69
395.678	128.69
395.903	134.69
396.127	151.69
396.352	196.69
396.576	202.69
396.801	320.69
397.025	401.69
397.249	209.69
397.474	132.69
397.698	127.69
397.922	97.69
398.147	100.69
398.371	113.69
398.595	106.69
398.82	84.69
399.044	99.69
399.268	102.69
399.492	96.69
399.717	96.69
399.941	89.69
400.165	91.69
400.389	92.69
400.613	90.69
400.837	97.69
401.062	95.69
401.286	90.69
401.51	67.69
401.734	84.69
401.958	92.69
402.182	91.69
402.406	92.69
402.63	86.69
402.854	100.69
403.078	97.69
403.302	94.69
403.526	99.69
403.75	86.69
403.974	96.69
404.198	101.69
404.422	128.69
404.645	153.69
404.869	150.69
405.093	106.69
405.317	99.69
405.541	90.69
405.765	94.69
405.988	88.69
406.212	97.69
406.436	99.69
406.66	75.69
406.883	86.69
407.107	92.69
407.331	104.69
407.555	105.69
407.778	122.69
408.002	120.69
408.226	89.69
408.449	85.69
408.673	88.69
408.896	72.69
409.12	86.69
409.344	95.69
409.567	120.69
409.791	129.69
410.014	116.69
410.238	107.69
410.461	93.69
410.685	89.69
410.908	97.69
411.132	97.69
411.355	84.69
411.578	89.69
411.802	96.69
412.025	93.69
412.249	85.69
412.472	105.69
412.695	72.69
412.919	96.69
413.142	89.69
413.365	85.69
413.589	82.69
413.812	92.69
414.035	97.69
414.258	89.69
414.482	88.69
414.705	85.69
414.928	87.69
415.151	100.69
415.374	83.69
415.597	87.69
415.821	86.69
416.044	81.69
416.267	79.69
416.49	94.69
416.713	86.69
416.936	88.69
417.159	91.69
417.382	96.69
417.605	97.69
417.828	96.69
418.051	90.69
418.274	93.69
418.497	88.69
418.72	98.69
418.943	101.69
419.166	103.69
419.389	96.69
419.611	105.69
419.834	104.69
420.057	92.69
420.28	97.69
420.503	108.69
420.726	93.69
420.948	120.69
421.171	105.69
421.394	112.69
421.617	147.69
421.839	160.69
422.062	158.69
422.285	230.69
422.507	434.69
422.73	706.69
422.953	602.69
423.175	304.69
423.398	160.69
423.621	128.69
423.843	109.69
424.066	101.69
424.288	104.69
424.511	102.69
424.733	96.69
424.956	92.69
425.178	97.69
425.401	98.69
425.623	96.69
425.846	94.69
426.068	88.69
426.291	84.69
426.513	91.69
426.735	97.69
426.958	98.69
427.18	106.69
427.402	98.69
427.625	99.69
427.847	104.69
428.069	114.69
428.292	161.69
428.514	166.69
428.736	127.69
428.958	170.69
429.181	173.69
429.403	125.69
429.625	109.69
429.847	142.69
430.069	214.69
430.292	260.69
430.514	228.69
430.736	180.69
430.958	200.69
431.18	120.69
431.402	97.69
431.624	119.69
431.846	153.69
432.068	180.69
432.29	114.69
432.512	102.69
432.734	98.69
432.956	85.69
433.178	90.69
433.4	83.69
433.622	77.69
433.844	102.69
434.066	92.69
434.287	85.69
434.509	89.69
434.731	90.69
434.953	73.69
435.175	92.69
435.397	89.69
435.618	91.69
435.84	107.69
436.062	105.69
436.284	84.69
436.505	86.69
436.727	94.69
436.949	91.69
437.17	73.69
437.392	85.69
437.614	86.69
437.835	85.69
438.057	89.69
438.278	98.69
438.5	92.69
438.721	86.69
438.943	90.69
439.165	86.69
439.386	84.69
439.608	95.69
439.829	80.69
440.05	85.69
440.272	93.69
440.493	99.69
440.715	91.69
440.936	94.69
441.158	102.69
441.379	89.69
441.6	90.69
441.822	87.69
442.043	104.69
442.264	114.69
442.486	180.69
442.707	219.69
442.928	154.69
443.149	135.69
443.371	209.69
443.592	350.69
443.813	320.69
444.034	131.69
444.255	92.69
444.476	88.69
444.698	89.69
444.919	106.69
445.14	222.69
445.361	253.69
445.582	434.69
445.803	360.69
446.024	159.69
446.245	116.69
446.466	102.69
446.687	69.69
446.908	92.69
447.129	88.69
447.35	90.69
447.571	115.69
447.792	82.69
448.013	80.69
448.234	85.69
448.455	84.69
448.675	78.69
448.896	102.69
449.117	91.69
449.338	95.69
449.559	97.69
449.779	104.69
450	76.69
450.221	96.69
450.442	91.69
450.662	74.69
450.883	93.69
451.104	85.69
451.324	86.69
451.545	87.69
451.766	90.69
451.986	91.69
452.207	104.69
452.428	91.69
452.648	98.69
452.869	104.69
453.089	100.69
453.31	92.69
453.53	107.69
453.751	87.69
453.971	82.69
454.192	84.69
454.412	83.69
454.633	77.69
454.853	104.69
455.073	88.69
455.294	85.69
455.514	106.69
455.734	108.69
455.955	102.69
456.175	85.69
456.395	86.69
456.616	94.69
456.836	97.69
457.056	86.69
457.276	81.69
457.497	97.69
457.717	104.69
457.937	119.69
458.157	147.69
458.377	134.69
458.598	146.69
458.818	156.69
459.038	106.69
459.258	97.69
459.478	101.69
459.698	93.69
459.918	77.69
460.138	97.69
460.358	110.69
460.578	104.69
460.798	161.69
461.018	142.69
461.238	117.69
461.458	104.69
461.678	76.69
461.898	87.69
462.118	93.69
462.338	97.69
462.558	86.69
462.777	100.69
462.997	93.69
463.217	82.69
463.437	86.69
463.657	87.69
463.876	96.69
464.096	84.69
464.316	91.69
464.536	76.69
464.755	88.69
464.975	99.69
465.195	101.69
465.414	72.69
465.634	92.69
465.854	98.69
466.073	98.69
466.293	77.69
466.512	93.69
466.732	89.69
466.951	81.69
467.171	91.69
467.391	88.69
467.61	69.69
467.829	91.69
468.049	92.69
468.268	98.69
468.488	95.69
468.707	96.69
468.927	86.69
469.146	82.69
469.365	86.69
469.585	94.69
469.804	88.69
470.023	102.69
470.243	105.69
470.462	102.69
470.681	84.69
470.901	98.69
471.12	79.69
471.339	82.69
471.558	83.69
471.777	97.69
471.997	102.69
472.216	93.69
472.435	88.69
472.654	103.69
472.873	82.69
473.092	84.69
473.311	89.69
473.53	96.69
473.749	98.69
473.968	97.69
474.187	99.69
474.406	89.69
474.625	99.69
474.844	82.69
475.063	91.69
475.282	98.69
475.501	105.69
475.72	89.69
475.939	96.69
476.158	88.69
476.377	98.69
476.596	94.69
476.814	80.69
477.033	82.69
477.252	99.69
477.471	91.69
477.69	88.69
477.908	106.69
478.127	110.69
478.346	96.69
478.564	88.69
478.783	84.69
479.002	85.69
479.22	89.69
479.439	91.69
479.658	94.69
479.876	92.69
480.095	98.69
480.313	88.69
480.532	98.69
480.751	91.69
480.969	92.69
481.188	99.69
481.406	118.69
481.624	92.69
481.843	93.69
482.061	89.69
482.28	99.69
482.498	106.69
482.717	91.69
482.935	89.69
483.153	90.69
483.372	108.69
483.59	98.69
483.808	98.69
484.027	96.69
484.245	92.69
484.463	101.69
484.681	96.69
484.9	91.69
485.118	103.69
485.336	95.69
485.554	104.69
485.772	99.69
485.99	78.69
486.209	108.69
486.427	93.69
486.645	96.69
486.863	87.69
487.081	96.69
487.299	105.69
487.517	109.69
487.735	141.69
487.953	231.69
488.171	184.69
488.389	94.69
488.607	92.69
488.825	105.69
489.043	91.69
489.261	106.69
489.479	95.69
489.696	105.69
489.914	90.69
490.132	96.69
490.35	114.69
490.568	93.69
490.786	90.69
491.003	96.69
491.221	104.69
491.439	95.69
491.657	84.69
491.874	92.69
492.092	110.69
492.31	99.69
492.527	91.69
492.745	90.69
492.963	104.69
493.18	102.69
493.398	93.69
493.615	89.69
493.833	72.69
494.05	97.69
494.268	89.69
494.485	98.69
494.703	100.69
494.92	88.69
495.138	96.69
495.355	92.69
495.573	92.69
495.79	96.69
496.008	101.69
496.225	104.69
496.442	100.69
496.66	99.69
496.877	98.69
497.094	102.69
497.312	100.69
497.529	100.69
497.746	81.69
497.963	102.69
498.181	117.69
498.398	122.69
498.615	97.69
498.832	87.69
499.049	96.69
499.267	96.69
499.484	109.69
499.701	99.69
499.918	91.69
500.135	93.69
500.352	102.69
500.569	94.69
500.786	100.69
501.003	89.69
501.22	93.69
501.437	90.69
501.654	90.69
501.871	100.69
502.088	92.69
502.305	97.69
502.522	102.69
502.739	96.69
502.956	91.69
503.172	86.69
503.389	92.69
503.606	92.69
503.823	102.69
504.04	122.69
504.256	155.69
504.473	151.69
504.69	106.69
504.907	120.69
505.123	99.69
505.34	93.69
505.557	93.69
505.773	84.69
505.99	103.69
506.207	93.69
506.423	89.69
506.64	83.69
506.856	87.69
507.073	79.69
507.289	99.69
507.506	103.69
507.722	90.69
507.939	98.69
508.155	97.69
508.372	102.69
508.588	88.69
508.805	85.69
509.021	94.69
509.238	96.69
509.454	72.69
509.67	99.69
509.887	96.69
510.103	90.69
510.319	107.69
510.536	94.69
510.752	100.69
510.968	81.69
511.184	91.69
511.401	86.69
511.617	98.69
511.833	89.69
512.049	92.69
512.265	96.69
512.481	88.69
512.698	88.69
512.914	93.69
513.13	81.69
513.346	96.69
513.562	84.69
513.778	88.69
513.994	97.69
514.21	98.69
514.426	101.69
514.642	91.69
514.858	109.69
515.074	94.69
515.29	93.69
515.506	106.69
515.721	94.69
515.937	102.69
516.153	102.69
516.369	97.69
