Data from 237_1_HRD10591_00007.txt Node
Date: Mon Jan 19 14:10:33 EST 2026
User: Yrep
Spectrometer: HR+D1059
Trigger mode: 1
Integration Time (sec): 1.000000E-1
Scans to average: 1
Electric dark correction enabled: true
Nonlinearity correction enabled: false
Boxcar width: 0
XAxis mode: Wavelengths
Number of Pixels in Spectrum: 2048
>>>>>Begin Spectral Data<<<<<
223.165	-16.56
223.4	-16.56
223.635	-16.56
223.869	-14.56
224.104	-14.56
224.338	-38.56
224.573	-25.56
224.808	-18.56
225.042	-2.56
225.277	-5.56
225.511	1.44
225.746	13.44
225.98	-8.56
226.215	12.44
226.449	18.44
226.683	27.44
226.918	32.44
227.152	39.44
227.387	54.44
227.621	43.44
227.856	62.44
228.09	47.44
228.324	62.44
228.559	50.44
228.793	53.44
229.027	58.44
229.262	49.44
229.496	63.44
229.73	66.44
229.964	75.44
230.199	74.44
230.433	64.44
230.667	75.44
230.901	77.44
231.136	69.44
231.37	74.44
231.604	67.44
231.838	79.44
232.072	71.44
232.306	91.44
232.541	81.44
232.775	76.44
233.009	75.44
233.243	76.44
233.477	76.44
233.711	93.44
233.945	85.44
234.179	82.44
234.413	76.44
234.647	77.44
234.881	81.44
235.115	71.44
235.349	77.44
235.583	73.44
235.817	74.44
236.051	71.44
236.285	90.44
236.519	84.44
236.753	66.44
236.987	67.44
237.221	82.44
237.455	73.44
237.689	72.44
237.922	78.44
238.156	76.44
238.39	72.44
238.624	75.44
238.858	88.44
239.091	66.44
239.325	65.44
239.559	73.44
239.793	71.44
240.027	81.44
240.26	75.44
240.494	81.44
240.728	89.44
240.961	87.44
241.195	81.44
241.429	74.44
241.662	76.44
241.896	80.44
242.13	75.44
242.363	82.44
242.597	70.44
242.83	89.44
243.064	69.44
243.298	83.44
243.531	84.44
243.765	75.44
243.998	63.44
244.232	74.44
244.465	67.44
244.699	83.44
244.932	76.44
245.166	61.44
245.399	68.44
245.633	67.44
245.866	63.44
246.099	82.44
246.333	71.44
246.566	72.44
246.8	81.44
247.033	85.44
247.266	66.44
247.5	63.44
247.733	84.44
247.966	74.44
248.2	76.44
248.433	81.44
248.666	85.44
248.899	82.44
249.133	84.44
249.366	79.44
249.599	77.44
249.832	73.44
250.066	61.44
250.299	76.44
250.532	71.44
250.765	61.44
250.998	77.44
251.231	93.44
251.465	80.44
251.698	61.44
251.931	77.44
252.164	83.44
252.397	65.44
252.63	94.44
252.863	89.44
253.096	83.44
253.329	72.44
253.562	71.44
253.795	72.44
254.028	69.44
254.261	78.44
254.494	75.44
254.727	79.44
254.96	85.44
255.193	72.44
255.426	85.44
255.659	81.44
255.892	84.44
256.124	61.44
256.357	81.44
256.59	70.44
256.823	73.44
257.056	79.44
257.289	79.44
257.521	71.44
257.754	86.44
257.987	77.44
258.22	86.44
258.452	70.44
258.685	85.44
258.918	81.44
259.151	76.44
259.383	86.44
259.616	70.44
259.849	72.44
260.081	79.44
260.314	89.44
260.547	55.44
260.779	86.44
261.012	68.44
261.244	90.44
261.477	91.44
261.71	87.44
261.942	74.44
262.175	85.44
262.407	63.44
262.64	83.44
262.872	65.44
263.105	81.44
263.337	74.44
263.57	95.44
263.802	71.44
264.035	78.44
264.267	83.44
264.499	77.44
264.732	85.44
264.964	84.44
265.197	71.44
265.429	85.44
265.661	81.44
265.894	87.44
266.126	79.44
266.358	85.44
266.591	67.44
266.823	80.44
267.055	89.44
267.287	75.44
267.52	87.44
267.752	77.44
267.984	70.44
268.216	82.44
268.448	54.44
268.681	75.44
268.913	73.44
269.145	92.44
269.377	73.44
269.609	82.44
269.841	69.44
270.073	76.44
270.306	65.44
270.538	72.44
270.77	97.44
271.002	86.44
271.234	74.44
271.466	81.44
271.698	85.44
271.93	82.44
272.162	100.44
272.394	89.44
272.626	73.44
272.858	66.44
273.09	77.44
273.322	68.44
273.553	87.44
273.785	85.44
274.017	72.44
274.249	99.44
274.481	78.44
274.713	88.44
274.945	79.44
275.176	79.44
275.408	82.44
275.64	84.44
275.872	85.44
276.104	86.44
276.335	88.44
276.567	69.44
276.799	83.44
277.031	89.44
277.262	77.44
277.494	87.44
277.726	81.44
277.957	100.44
278.189	69.44
278.421	81.44
278.652	89.44
278.884	70.44
279.115	104.44
279.347	90.44
279.579	93.44
279.81	86.44
280.042	99.44
280.273	88.44
280.505	90.44
280.736	88.44
280.968	85.44
281.199	83.44
281.431	79.44
281.662	84.44
281.894	80.44
282.125	83.44
282.356	88.44
282.588	86.44
282.819	91.44
283.051	102.44
283.282	93.44
283.513	83.44
283.745	86.44
283.976	58.44
284.207	91.44
284.439	86.44
284.67	92.44
284.901	82.44
285.132	103.44
285.364	94.44
285.595	84.44
285.826	93.44
286.057	82.44
286.288	80.44
286.52	92.44
286.751	105.44
286.982	95.44
287.213	75.44
287.444	87.44
287.675	93.44
287.906	74.44
288.138	85.44
288.369	84.44
288.6	89.44
288.831	76.44
289.062	78.44
289.293	95.44
289.524	90.44
289.755	81.44
289.986	81.44
290.217	87.44
290.448	98.44
290.679	77.44
290.91	77.44
291.141	88.44
291.371	89.44
291.602	88.44
291.833	87.44
292.064	90.44
292.295	74.44
292.526	98.44
292.757	71.44
292.987	78.44
293.218	91.44
293.449	73.44
293.68	87.44
293.91	84.44
294.141	83.44
294.372	96.44
294.603	84.44
294.833	97.44
295.064	93.44
295.295	89.44
295.525	84.44
295.756	95.44
295.987	99.44
296.217	98.44
296.448	93.44
296.679	71.44
296.909	89.44
297.14	93.44
297.37	101.44
297.601	97.44
297.831	95.44
298.062	84.44
298.292	85.44
298.523	105.44
298.753	81.44
298.984	85.44
299.214	84.44
299.445	95.44
299.675	99.44
299.905	106.44
300.136	103.44
300.366	105.44
300.597	111.44
300.827	91.44
301.057	97.44
301.288	90.44
301.518	77.44
301.748	98.44
301.979	100.44
302.209	98.44
302.439	88.44
302.669	85.44
302.9	84.44
303.13	75.44
303.36	70.44
303.59	87.44
303.82	89.44
304.051	91.44
304.281	98.44
304.511	78.44
304.741	97.44
304.971	89.44
305.201	92.44
305.431	101.44
305.661	92.44
305.891	97.44
306.121	88.44
306.352	102.44
306.582	83.44
306.812	101.44
307.042	89.44
307.272	88.44
307.502	91.44
307.731	85.44
307.961	91.44
308.191	99.44
308.421	98.44
308.651	98.44
308.881	79.44
309.111	96.44
309.341	100.44
309.571	103.44
309.8	98.44
310.03	83.44
310.26	97.44
310.49	95.44
310.72	89.44
310.949	90.44
311.179	88.44
311.409	79.44
311.639	90.44
311.868	94.44
312.098	82.44
312.328	96.44
312.557	105.44
312.787	94.44
313.017	102.44
313.246	81.44
313.476	79.44
313.706	89.44
313.935	84.44
314.165	96.44
314.394	97.44
314.624	83.44
314.853	100.44
315.083	101.44
315.312	102.44
315.542	98.44
315.771	104.44
316.001	114.44
316.23	105.44
316.46	83.44
316.689	99.44
316.919	95.44
317.148	87.44
317.377	97.44
317.607	91.44
317.836	110.44
318.065	121.44
318.295	108.44
318.524	99.44
318.753	94.44
318.983	91.44
319.212	84.44
319.441	91.44
319.67	85.44
319.9	107.44
320.129	100.44
320.358	95.44
320.587	80.44
320.816	105.44
321.046	82.44
321.275	76.44
321.504	96.44
321.733	105.44
321.962	102.44
322.191	106.44
322.42	99.44
322.649	101.44
322.878	97.44
323.108	102.44
323.337	96.44
323.566	104.44
323.795	92.44
324.024	100.44
324.253	88.44
324.482	105.44
324.71	98.44
324.939	83.44
325.168	89.44
325.397	98.44
325.626	95.44
325.855	91.44
326.084	94.44
326.313	89.44
326.542	67.44
326.77	90.44
326.999	90.44
327.228	93.44
327.457	97.44
327.686	93.44
327.914	69.44
328.143	92.44
328.372	97.44
328.6	102.44
328.829	85.44
329.058	94.44
329.287	85.44
329.515	95.44
329.744	90.44
329.972	95.44
330.201	96.44
330.43	91.44
330.658	93.44
330.887	89.44
331.115	94.44
331.344	86.44
331.572	107.44
331.801	86.44
332.03	90.44
332.258	89.44
332.486	75.44
332.715	83.44
332.943	75.44
333.172	97.44
333.4	88.44
333.629	102.44
333.857	117.44
334.085	117.44
334.314	121.44
334.542	111.44
334.771	132.44
334.999	138.44
335.227	127.44
335.455	115.44
335.684	116.44
335.912	136.44
336.14	136.44
336.369	139.44
336.597	110.44
336.825	115.44
337.053	111.44
337.281	110.44
337.51	96.44
337.738	109.44
337.966	106.44
338.194	88.44
338.422	95.44
338.65	95.44
338.878	76.44
339.106	100.44
339.334	88.44
339.562	86.44
339.79	90.44
340.018	88.44
340.246	93.44
340.474	92.44
340.702	87.44
340.93	92.44
341.158	96.44
341.386	101.44
341.614	75.44
341.842	84.44
342.07	92.44
342.298	98.44
342.526	103.44
342.754	80.44
342.981	91.44
343.209	90.44
343.437	90.44
343.665	85.44
343.893	95.44
344.12	106.44
344.348	111.44
344.576	101.44
344.804	91.44
345.031	93.44
345.259	91.44
345.487	104.44
345.714	98.44
345.942	95.44
346.17	88.44
346.397	102.44
346.625	96.44
346.853	103.44
347.08	88.44
347.308	90.44
347.535	99.44
347.763	106.44
347.99	92.44
348.218	86.44
348.445	89.44
348.673	101.44
348.9	90.44
349.128	109.44
349.355	95.44
349.583	95.44
349.81	80.44
350.037	100.44
350.265	81.44
350.492	103.44
350.72	97.44
350.947	88.44
351.174	91.44
351.402	76.44
351.629	85.44
351.856	88.44
352.083	96.44
352.311	91.44
352.538	89.44
352.765	89.44
352.992	105.44
353.22	96.44
353.447	81.44
353.674	93.44
353.901	94.44
354.128	100.44
354.355	93.44
354.583	88.44
354.81	98.44
355.037	97.44
355.264	90.44
355.491	94.44
355.718	89.44
355.945	90.44
356.172	85.44
356.399	107.44
356.626	105.44
356.853	103.44
357.08	108.44
357.307	99.44
357.534	88.44
357.761	91.44
357.988	116.44
358.215	117.44
358.441	112.44
358.668	88.44
358.895	102.44
359.122	84.44
359.349	113.44
359.576	83.44
359.802	90.44
360.029	87.44
360.256	110.44
360.483	96.44
360.709	95.44
360.936	90.44
361.163	109.44
361.39	81.44
361.616	109.44
361.843	111.44
362.07	135.44
362.296	151.44
362.523	164.44
362.749	184.44
362.976	231.44
363.203	227.44
363.429	174.44
363.656	139.44
363.882	159.44
364.109	219.44
364.335	295.44
364.562	283.44
364.788	200.44
365.015	145.44
365.241	124.44
365.468	117.44
365.694	109.44
365.92	103.44
366.147	115.44
366.373	91.44
366.599	84.44
366.826	95.44
367.052	90.44
367.278	93.44
367.505	109.44
367.731	110.44
367.957	94.44
368.184	96.44
368.41	94.44
368.636	94.44
368.862	98.44
369.089	101.44
369.315	90.44
369.541	98.44
369.767	90.44
369.993	96.44
370.219	84.44
370.445	124.44
370.672	109.44
370.898	112.44
371.124	112.44
371.35	93.44
371.576	109.44
371.802	95.44
372.028	115.44
372.254	110.44
372.48	106.44
372.706	102.44
372.932	104.44
373.158	106.44
373.384	130.44
373.61	160.44
373.835	142.44
374.061	111.44
374.287	134.44
374.513	129.44
374.739	135.44
374.965	148.44
375.191	118.44
375.416	103.44
375.642	104.44
375.868	112.44
376.094	113.44
376.319	111.44
376.545	113.44
376.771	114.44
376.997	87.44
377.222	94.44
377.448	89.44
377.674	102.44
377.899	94.44
378.125	106.44
378.35	83.44
378.576	91.44
378.802	94.44
379.027	101.44
379.253	79.44
379.478	102.44
379.704	91.44
379.929	104.44
380.155	105.44
380.38	98.44
380.606	98.44
380.831	94.44
381.057	107.44
381.282	94.44
381.507	87.44
381.733	119.44
381.958	114.44
382.184	129.44
382.409	115.44
382.634	134.44
382.86	125.44
383.085	120.44
383.31	127.44
383.535	127.44
383.761	130.44
383.986	136.44
384.211	118.44
384.436	98.44
384.662	86.44
384.887	99.44
385.112	109.44
385.337	102.44
385.562	106.44
385.787	123.44
386.013	115.44
386.238	113.44
386.463	123.44
386.688	142.44
386.913	113.44
387.138	118.44
387.363	130.44
387.588	115.44
387.813	125.44
388.038	124.44
388.263	129.44
388.488	126.44
388.713	137.44
388.938	105.44
389.163	100.44
389.387	101.44
389.612	106.44
389.837	105.44
390.062	117.44
390.287	113.44
390.512	122.44
390.736	133.44
390.961	104.44
391.186	101.44
391.411	108.44
391.636	113.44
391.86	122.44
392.085	129.44
392.31	152.44
392.534	179.44
392.759	213.44
392.984	358.44
393.208	650.44
393.433	909.44
393.658	696.44
393.882	288.44
394.107	203.44
394.331	175.44
394.556	177.44
394.78	155.44
395.005	156.44
395.229	129.44
395.454	144.44
395.678	191.44
395.903	230.44
396.127	243.44
396.352	296.44
396.576	376.44
396.801	635.44
397.025	714.44
397.249	399.44
397.474	253.44
397.698	180.44
397.922	146.44
398.147	109.44
398.371	113.44
398.595	111.44
398.82	106.44
399.044	107.44
399.268	107.44
399.492	110.44
399.717	92.44
399.941	101.44
400.165	104.44
400.389	93.44
400.613	100.44
400.837	93.44
401.062	87.44
401.286	97.44
401.51	91.44
401.734	104.44
401.958	121.44
402.182	89.44
402.406	98.44
402.63	89.44
402.854	104.44
403.078	110.44
403.302	95.44
403.526	114.44
403.75	115.44
403.974	105.44
404.198	128.44
404.422	195.44
404.645	203.44
404.869	154.44
405.093	123.44
405.317	99.44
405.541	121.44
405.765	105.44
405.988	109.44
406.212	115.44
406.436	110.44
406.66	105.44
406.883	89.44
407.107	112.44
407.331	119.44
407.555	118.44
407.778	159.44
408.002	147.44
408.226	98.44
408.449	97.44
408.673	97.44
408.896	99.44
409.12	117.44
409.344	125.44
409.567	137.44
409.791	140.44
410.014	152.44
410.238	126.44
410.461	122.44
410.685	105.44
410.908	113.44
411.132	106.44
411.355	113.44
411.578	104.44
411.802	102.44
412.025	103.44
412.249	113.44
412.472	92.44
412.695	92.44
412.919	98.44
413.142	110.44
413.365	104.44
413.589	89.44
413.812	110.44
414.035	93.44
414.258	98.44
414.482	93.44
414.705	100.44
414.928	88.44
415.151	91.44
415.374	97.44
415.597	94.44
415.821	91.44
416.044	95.44
416.267	99.44
416.49	89.44
416.713	74.44
416.936	88.44
417.159	89.44
417.382	94.44
417.605	84.44
417.828	106.44
418.051	91.44
418.274	101.44
418.497	90.44
418.72	84.44
418.943	114.44
419.166	83.44
419.389	106.44
419.611	118.44
419.834	109.44
420.057	117.44
420.28	88.44
420.503	114.44
420.726	101.44
420.948	131.44
421.171	132.44
421.394	161.44
421.617	212.44
421.839	247.44
422.062	315.44
422.285	469.44
422.507	823.44
422.73	1166.44
422.953	1070.44
423.175	628.44
423.398	339.44
423.621	235.44
423.843	179.44
424.066	159.44
424.288	162.44
424.511	127.44
424.733	138.44
424.956	122.44
425.178	109.44
425.401	105.44
425.623	104.44
425.846	112.44
426.068	107.44
426.291	94.44
426.513	99.44
426.735	117.44
426.958	111.44
427.18	113.44
427.402	106.44
427.625	126.44
427.847	121.44
428.069	180.44
428.292	274.44
428.514	321.44
428.736	205.44
428.958	281.44
429.181	286.44
429.403	154.44
429.625	157.44
429.847	264.44
430.069	434.44
430.292	531.44
430.514	472.44
430.736	326.44
430.958	328.44
431.18	154.44
431.402	129.44
431.624	165.44
431.846	249.44
432.068	307.44
432.29	159.44
432.512	114.44
432.734	106.44
432.956	87.44
433.178	87.44
433.4	91.44
433.622	101.44
433.844	106.44
434.066	90.44
434.287	104.44
434.509	105.44
434.731	81.44
434.953	83.44
435.175	96.44
435.397	102.44
435.618	126.44
435.84	125.44
436.062	113.44
436.284	97.44
436.505	87.44
436.727	72.44
436.949	102.44
437.17	95.44
437.392	84.44
437.614	101.44
437.835	103.44
438.057	97.44
438.278	105.44
438.5	101.44
438.721	103.44
438.943	110.44
439.165	91.44
439.386	85.44
439.608	83.44
439.829	63.44
440.05	81.44
440.272	105.44
440.493	97.44
440.715	99.44
440.936	104.44
441.158	99.44
441.379	96.44
441.6	95.44
441.822	103.44
442.043	130.44
442.264	176.44
442.486	311.44
442.707	467.44
442.928	284.44
443.149	229.44
443.371	409.44
443.592	800.44
443.813	640.44
444.034	235.44
444.255	150.44
444.476	136.44
444.698	125.44
444.919	167.44
445.14	287.44
445.361	505.44
445.582	970.44
445.803	791.44
446.024	290.44
446.245	144.44
446.466	109.44
446.687	111.44
446.908	106.44
447.129	95.44
447.35	97.44
447.571	83.44
447.792	110.44
448.013	89.44
448.234	91.44
448.455	91.44
448.675	90.44
448.896	91.44
449.117	89.44
449.338	74.44
449.559	94.44
449.779	83.44
450	99.44
450.221	97.44
450.442	87.44
450.662	97.44
450.883	101.44
451.104	92.44
451.324	91.44
451.545	103.44
451.766	91.44
451.986	95.44
452.207	111.44
452.428	116.44
452.648	127.44
452.869	166.44
453.089	137.44
453.31	140.44
453.53	157.44
453.751	136.44
453.971	117.44
454.192	93.44
454.412	88.44
454.633	93.44
454.853	107.44
455.073	95.44
455.294	92.44
455.514	109.44
455.734	107.44
455.955	99.44
456.175	91.44
456.395	91.44
456.616	84.44
456.836	75.44
457.056	87.44
457.276	104.44
457.497	117.44
457.717	118.44
457.937	203.44
458.157	276.44
458.377	303.44
458.598	275.44
458.818	298.44
459.038	177.44
459.258	107.44
459.478	107.44
459.698	93.44
459.918	103.44
460.138	97.44
460.358	105.44
460.578	109.44
460.798	190.44
461.018	169.44
461.238	99.44
461.458	117.44
461.678	80.44
461.898	90.44
462.118	97.44
462.338	94.44
462.558	91.44
462.777	81.44
462.997	81.44
463.217	90.44
463.437	78.44
463.657	92.44
463.876	89.44
464.096	89.44
464.316	83.44
464.536	87.44
464.755	87.44
464.975	84.44
465.195	84.44
465.414	91.44
465.634	87.44
465.854	70.44
466.073	84.44
466.293	105.44
466.512	82.44
466.732	93.44
466.951	100.44
467.171	92.44
467.391	97.44
467.61	86.44
467.829	90.44
468.049	99.44
468.268	109.44
468.488	101.44
468.707	114.44
468.927	81.44
469.146	92.44
469.365	93.44
469.585	88.44
469.804	91.44
470.023	86.44
470.243	90.44
470.462	76.44
470.681	86.44
470.901	87.44
471.12	82.44
471.339	76.44
471.558	82.44
471.777	83.44
471.997	89.44
472.216	94.44
472.435	104.44
472.654	86.44
472.873	95.44
473.092	86.44
473.311	85.44
473.53	91.44
473.749	103.44
473.968	84.44
474.187	70.44
474.406	89.44
474.625	93.44
474.844	102.44
475.063	87.44
475.282	82.44
475.501	91.44
475.72	92.44
475.939	100.44
476.158	93.44
476.377	93.44
476.596	102.44
476.814	85.44
477.033	95.44
477.252	72.44
477.471	91.44
477.69	83.44
477.908	90.44
478.127	81.44
478.346	88.44
478.564	89.44
478.783	78.44
479.002	88.44
479.22	93.44
479.439	97.44
479.658	94.44
479.876	94.44
480.095	96.44
480.313	93.44
480.532	99.44
480.751	90.44
480.969	105.44
481.188	94.44
481.406	114.44
481.624	93.44
481.843	94.44
482.061	92.44
482.28	104.44
482.498	97.44
482.717	94.44
482.935	110.44
483.153	109.44
483.372	101.44
483.59	99.44
483.808	99.44
484.027	105.44
484.245	113.44
484.463	102.44
484.681	115.44
484.9	111.44
485.118	96.44
485.336	116.44
485.554	93.44
485.772	107.44
485.99	96.44
486.209	98.44
486.427	93.44
486.645	103.44
486.863	114.44
487.081	90.44
487.299	129.44
487.517	145.44
487.735	230.44
487.953	465.44
488.171	387.44
488.389	168.44
488.607	122.44
488.825	105.44
489.043	93.44
489.261	94.44
489.479	101.44
489.696	104.44
489.914	111.44
490.132	112.44
490.35	95.44
490.568	103.44
490.786	116.44
491.003	107.44
491.221	109.44
491.439	90.44
491.657	89.44
491.874	104.44
492.092	94.44
492.31	109.44
492.527	99.44
492.745	89.44
492.963	88.44
493.18	110.44
493.398	111.44
493.615	100.44
493.833	98.44
494.05	95.44
494.268	100.44
494.485	99.44
494.703	92.44
494.92	95.44
495.138	94.44
495.355	109.44
495.573	76.44
495.79	106.44
496.008	117.44
496.225	109.44
496.442	117.44
496.66	92.44
496.877	102.44
497.094	114.44
497.312	91.44
497.529	98.44
497.746	102.44
497.963	97.44
498.181	122.44
498.398	152.44
498.615	109.44
498.832	106.44
499.049	106.44
499.267	149.44
499.484	125.44
499.701	106.44
499.918	103.44
500.135	139.44
500.352	109.44
500.569	109.44
500.786	100.44
501.003	120.44
501.22	107.44
501.437	119.44
501.654	145.44
501.871	120.44
502.088	110.44
502.305	115.44
502.522	109.44
502.739	109.44
502.956	102.44
503.172	100.44
503.389	100.44
503.606	121.44
503.823	150.44
504.04	183.44
504.256	306.44
504.473	319.44
504.69	164.44
504.907	117.44
505.123	109.44
505.34	90.44
505.557	104.44
505.773	93.44
505.99	98.44
506.207	106.44
506.423	100.44
506.64	117.44
506.856	85.44
507.073	86.44
507.289	106.44
507.506	90.44
507.722	83.44
507.939	103.44
508.155	85.44
508.372	82.44
508.588	89.44
508.805	90.44
509.021	98.44
509.238	109.44
509.454	87.44
509.67	90.44
509.887	95.44
510.103	89.44
510.319	90.44
510.536	98.44
510.752	105.44
510.968	87.44
511.184	98.44
511.401	103.44
511.617	92.44
511.833	106.44
512.049	101.44
512.265	94.44
512.481	86.44
512.698	89.44
512.914	89.44
513.13	110.44
