Data from 237_1_HRD10591_00046.txt Node
Date: Mon Jan 19 14:10:52 EST 2026
User: Yrep
Spectrometer: HR+D1059
Trigger mode: 1
Integration Time (sec): 1.000000E-1
Scans to average: 1
Electric dark correction enabled: true
Nonlinearity correction enabled: false
Boxcar width: 0
XAxis mode: Wavelengths
Number of Pixels in Spectrum: 2048
>>>>>Begin Spectral Data<<<<<
223.165	-21.69
223.4	-21.69
223.635	-21.69
223.869	-5.69
224.104	-7.69
224.338	-22.69
224.573	-0.69
224.808	-8.69
225.042	-12.69
225.277	-5.69
225.511	-9.69
225.746	-15.69
225.98	6.31
226.215	12.31
226.449	22.31
226.683	26.31
226.918	21.31
227.152	22.31
227.387	30.31
227.621	48.31
227.856	34.31
228.09	40.31
228.324	60.31
228.559	45.31
228.793	58.31
229.027	60.31
229.262	54.31
229.496	68.31
229.73	57.31
229.964	56.31
230.199	66.31
230.433	66.31
230.667	83.31
230.901	72.31
231.136	68.31
231.37	89.31
231.604	84.31
231.838	74.31
232.072	76.31
232.306	78.31
232.541	62.31
232.775	89.31
233.009	79.31
233.243	85.31
233.477	90.31
233.711	79.31
233.945	67.31
234.179	59.31
234.413	66.31
234.647	78.31
234.881	60.31
235.115	76.31
235.349	78.31
235.583	71.31
235.817	73.31
236.051	72.31
236.285	84.31
236.519	69.31
236.753	71.31
236.987	59.31
237.221	78.31
237.455	73.31
237.689	60.31
237.922	66.31
238.156	76.31
238.39	78.31
238.624	71.31
238.858	62.31
239.091	76.31
239.325	78.31
239.559	70.31
239.793	74.31
240.027	76.31
240.26	69.31
240.494	62.31
240.728	69.31
240.961	64.31
241.195	79.31
241.429	63.31
241.662	83.31
241.896	85.31
242.13	75.31
242.363	84.31
242.597	54.31
242.83	73.31
243.064	62.31
243.298	71.31
243.531	71.31
243.765	59.31
243.998	74.31
244.232	70.31
244.465	68.31
244.699	71.31
244.932	60.31
245.166	70.31
245.399	56.31
245.633	72.31
245.866	52.31
246.099	75.31
246.333	82.31
246.566	69.31
246.8	78.31
247.033	72.31
247.266	68.31
247.5	75.31
247.733	62.31
247.966	80.31
248.2	80.31
248.433	65.31
248.666	71.31
248.899	77.31
249.133	64.31
249.366	66.31
249.599	71.31
249.832	62.31
250.066	74.31
250.299	77.31
250.532	70.31
250.765	56.31
250.998	76.31
251.231	61.31
251.465	76.31
251.698	61.31
251.931	83.31
252.164	73.31
252.397	72.31
252.63	70.31
252.863	80.31
253.096	76.31
253.329	69.31
253.562	72.31
253.795	66.31
254.028	61.31
254.261	73.31
254.494	70.31
254.727	76.31
254.96	81.31
255.193	68.31
255.426	92.31
255.659	81.31
255.892	72.31
256.124	72.31
256.357	74.31
256.59	78.31
256.823	64.31
257.056	79.31
257.289	80.31
257.521	67.31
257.754	66.31
257.987	73.31
258.22	75.31
258.452	70.31
258.685	76.31
258.918	65.31
259.151	87.31
259.383	69.31
259.616	78.31
259.849	72.31
260.081	89.31
260.314	66.31
260.547	77.31
260.779	79.31
261.012	80.31
261.244	79.31
261.477	79.31
261.71	61.31
261.942	77.31
262.175	79.31
262.407	78.31
262.64	65.31
262.872	80.31
263.105	84.31
263.337	81.31
263.57	84.31
263.802	81.31
264.035	86.31
264.267	84.31
264.499	74.31
264.732	78.31
264.964	81.31
265.197	86.31
265.429	83.31
265.661	63.31
265.894	74.31
266.126	67.31
266.358	62.31
266.591	75.31
266.823	69.31
267.055	66.31
267.287	85.31
267.52	82.31
267.752	81.31
267.984	86.31
268.216	71.31
268.448	74.31
268.681	82.31
268.913	75.31
269.145	81.31
269.377	72.31
269.609	80.31
269.841	99.31
270.073	83.31
270.306	81.31
270.538	75.31
270.77	76.31
271.002	87.31
271.234	74.31
271.466	74.31
271.698	83.31
271.93	70.31
272.162	70.31
272.394	85.31
272.626	62.31
272.858	72.31
273.09	80.31
273.322	71.31
273.553	86.31
273.785	81.31
274.017	75.31
274.249	72.31
274.481	64.31
274.713	90.31
274.945	61.31
275.176	70.31
275.408	77.31
275.64	62.31
275.872	62.31
276.104	72.31
276.335	82.31
276.567	86.31
276.799	82.31
277.031	76.31
277.262	70.31
277.494	84.31
277.726	74.31
277.957	75.31
278.189	74.31
278.421	82.31
278.652	80.31
278.884	80.31
279.115	64.31
279.347	84.31
279.579	90.31
279.81	84.31
280.042	80.31
280.273	67.31
280.505	71.31
280.736	86.31
280.968	79.31
281.199	69.31
281.431	80.31
281.662	94.31
281.894	90.31
282.125	85.31
282.356	60.31
282.588	60.31
282.819	88.31
283.051	82.31
283.282	67.31
283.513	75.31
283.745	100.31
283.976	80.31
284.207	85.31
284.439	81.31
284.67	87.31
284.901	78.31
285.132	77.31
285.364	80.31
285.595	86.31
285.826	75.31
286.057	83.31
286.288	94.31
286.52	79.31
286.751	74.31
286.982	76.31
287.213	78.31
287.444	71.31
287.675	76.31
287.906	77.31
288.138	83.31
288.369	89.31
288.6	73.31
288.831	75.31
289.062	74.31
289.293	76.31
289.524	66.31
289.755	81.31
289.986	76.31
290.217	68.31
290.448	80.31
290.679	71.31
290.91	74.31
291.141	80.31
291.371	88.31
291.602	72.31
291.833	76.31
292.064	82.31
292.295	80.31
292.526	86.31
292.757	88.31
292.987	70.31
293.218	80.31
293.449	78.31
293.68	93.31
293.91	86.31
294.141	76.31
294.372	82.31
294.603	77.31
294.833	97.31
295.064	84.31
295.295	78.31
295.525	88.31
295.756	80.31
295.987	81.31
296.217	67.31
296.448	80.31
296.679	76.31
296.909	82.31
297.14	92.31
297.37	87.31
297.601	89.31
297.831	75.31
298.062	67.31
298.292	84.31
298.523	97.31
298.753	78.31
298.984	83.31
299.214	84.31
299.445	86.31
299.675	81.31
299.905	93.31
300.136	88.31
300.366	96.31
300.597	87.31
300.827	96.31
301.057	68.31
301.288	86.31
301.518	91.31
301.748	70.31
301.979	96.31
302.209	91.31
302.439	84.31
302.669	66.31
302.9	76.31
303.13	72.31
303.36	72.31
303.59	85.31
303.82	81.31
304.051	84.31
304.281	77.31
304.511	81.31
304.741	78.31
304.971	76.31
305.201	77.31
305.431	73.31
305.661	72.31
305.891	83.31
306.121	85.31
306.352	74.31
306.582	69.31
306.812	77.31
307.042	97.31
307.272	89.31
307.502	89.31
307.731	92.31
307.961	95.31
308.191	91.31
308.421	95.31
308.651	87.31
308.881	89.31
309.111	83.31
309.341	104.31
309.571	91.31
309.8	85.31
310.03	66.31
310.26	84.31
310.49	76.31
310.72	76.31
310.949	80.31
311.179	81.31
311.409	86.31
311.639	81.31
311.868	92.31
312.098	84.31
312.328	87.31
312.557	76.31
312.787	73.31
313.017	71.31
313.246	68.31
313.476	83.31
313.706	86.31
313.935	85.31
314.165	76.31
314.394	80.31
314.624	90.31
314.853	86.31
315.083	92.31
315.312	86.31
315.542	79.31
315.771	78.31
316.001	88.31
316.23	92.31
316.46	74.31
316.689	93.31
316.919	81.31
317.148	83.31
317.377	104.31
317.607	88.31
317.836	89.31
318.065	104.31
318.295	108.31
318.524	86.31
318.753	80.31
318.983	76.31
319.212	86.31
319.441	79.31
319.67	73.31
319.9	82.31
320.129	82.31
320.358	88.31
320.587	97.31
320.816	84.31
321.046	60.31
321.275	81.31
321.504	77.31
321.733	82.31
321.962	74.31
322.191	81.31
322.42	76.31
322.649	88.31
322.878	67.31
323.108	94.31
323.337	74.31
323.566	74.31
323.795	79.31
324.024	80.31
324.253	78.31
324.482	94.31
324.71	86.31
324.939	81.31
325.168	85.31
325.397	91.31
325.626	87.31
325.855	84.31
326.084	95.31
326.313	72.31
326.542	83.31
326.77	77.31
326.999	80.31
327.228	99.31
327.457	83.31
327.686	76.31
327.914	84.31
328.143	83.31
328.372	71.31
328.6	72.31
328.829	91.31
329.058	92.31
329.287	74.31
329.515	80.31
329.744	83.31
329.972	86.31
330.201	82.31
330.43	92.31
330.658	88.31
330.887	80.31
331.115	94.31
331.344	90.31
331.572	84.31
331.801	77.31
332.03	83.31
332.258	90.31
332.486	85.31
332.715	76.31
332.943	79.31
333.172	82.31
333.4	80.31
333.629	81.31
333.857	75.31
334.085	88.31
334.314	82.31
334.542	74.31
334.771	91.31
334.999	101.31
335.227	81.31
335.455	79.31
335.684	79.31
335.912	82.31
336.14	105.31
336.369	114.31
336.597	88.31
336.825	83.31
337.053	77.31
337.281	86.31
337.51	69.31
337.738	78.31
337.966	61.31
338.194	92.31
338.422	82.31
338.65	81.31
338.878	93.31
339.106	90.31
339.334	71.31
339.562	65.31
339.79	76.31
340.018	71.31
340.246	87.31
340.474	92.31
340.702	90.31
340.93	86.31
341.158	68.31
341.386	85.31
341.614	75.31
341.842	83.31
342.07	76.31
342.298	79.31
342.526	76.31
342.754	88.31
342.981	88.31
343.209	83.31
343.437	101.31
343.665	95.31
343.893	86.31
344.12	88.31
344.348	79.31
344.576	88.31
344.804	91.31
345.031	82.31
345.259	82.31
345.487	92.31
345.714	86.31
345.942	91.31
346.17	92.31
346.397	86.31
346.625	81.31
346.853	84.31
347.08	92.31
347.308	82.31
347.535	78.31
347.763	72.31
347.99	71.31
348.218	80.31
348.445	92.31
348.673	86.31
348.9	85.31
349.128	78.31
349.355	85.31
349.583	84.31
349.81	77.31
350.037	71.31
350.265	80.31
350.492	63.31
350.72	83.31
350.947	71.31
351.174	82.31
351.402	88.31
351.629	72.31
351.856	74.31
352.083	76.31
352.311	68.31
352.538	74.31
352.765	85.31
352.992	88.31
353.22	76.31
353.447	90.31
353.674	85.31
353.901	88.31
354.128	76.31
354.355	78.31
354.583	72.31
354.81	80.31
355.037	67.31
355.264	75.31
355.491	70.31
355.718	72.31
355.945	76.31
356.172	91.31
356.399	81.31
356.626	91.31
356.853	85.31
357.08	83.31
357.307	92.31
357.534	94.31
357.761	84.31
357.988	99.31
358.215	94.31
358.441	96.31
358.668	102.31
358.895	88.31
359.122	95.31
359.349	96.31
359.576	74.31
359.802	86.31
360.029	84.31
360.256	84.31
360.483	74.31
360.709	83.31
360.936	93.31
361.163	80.31
361.39	94.31
361.616	81.31
361.843	85.31
362.07	102.31
362.296	105.31
362.523	92.31
362.749	104.31
362.976	118.31
363.203	125.31
363.429	105.31
363.656	112.31
363.882	100.31
364.109	99.31
364.335	136.31
364.562	149.31
364.788	106.31
365.015	98.31
365.241	96.31
365.468	100.31
365.694	73.31
365.92	83.31
366.147	83.31
366.373	84.31
366.599	78.31
366.826	78.31
367.052	78.31
367.278	82.31
367.505	83.31
367.731	71.31
367.957	79.31
368.184	76.31
368.41	67.31
368.636	82.31
368.862	80.31
369.089	68.31
369.315	57.31
369.541	88.31
369.767	79.31
369.993	77.31
370.219	89.31
370.445	86.31
370.672	92.31
370.898	93.31
371.124	94.31
371.35	73.31
371.576	94.31
371.802	93.31
372.028	100.31
372.254	93.31
372.48	77.31
372.706	88.31
372.932	88.31
373.158	73.31
373.384	118.31
373.61	112.31
373.835	115.31
374.061	103.31
374.287	93.31
374.513	93.31
374.739	94.31
374.965	97.31
375.191	100.31
375.416	87.31
375.642	92.31
375.868	81.31
376.094	102.31
376.319	88.31
376.545	78.31
376.771	78.31
376.997	82.31
377.222	78.31
377.448	77.31
377.674	84.31
377.899	77.31
378.125	78.31
378.35	81.31
378.576	89.31
378.802	94.31
379.027	84.31
379.253	78.31
379.478	68.31
379.704	78.31
379.929	68.31
380.155	78.31
380.38	103.31
380.606	78.31
380.831	84.31
381.057	97.31
381.282	86.31
381.507	96.31
381.733	86.31
381.958	90.31
382.184	92.31
382.409	98.31
382.634	110.31
382.86	90.31
383.085	80.31
383.31	115.31
383.535	88.31
383.761	109.31
383.986	110.31
384.211	96.31
384.436	82.31
384.662	75.31
384.887	99.31
385.112	100.31
385.337	84.31
385.562	100.31
385.787	108.31
386.013	99.31
386.238	104.31
386.463	89.31
386.688	97.31
386.913	98.31
387.138	95.31
387.363	85.31
387.588	90.31
387.813	92.31
388.038	98.31
388.263	92.31
388.488	89.31
388.713	89.31
388.938	96.31
389.163	76.31
389.387	73.31
389.612	88.31
389.837	83.31
390.062	80.31
390.287	81.31
390.512	81.31
390.736	81.31
390.961	94.31
391.186	63.31
391.411	77.31
391.636	69.31
391.86	88.31
392.085	79.31
392.31	106.31
392.534	108.31
392.759	111.31
392.984	182.31
393.208	326.31
393.433	458.31
393.658	352.31
393.882	159.31
394.107	106.31
394.331	124.31
394.556	149.31
394.78	116.31
395.005	96.31
395.229	107.31
395.454	101.31
395.678	108.31
395.903	122.31
396.127	158.31
396.352	193.31
396.576	207.31
396.801	318.31
397.025	364.31
397.249	213.31
397.474	126.31
397.698	102.31
397.922	92.31
398.147	85.31
398.371	69.31
398.595	87.31
398.82	90.31
399.044	72.31
399.268	87.31
399.492	92.31
399.717	81.31
399.941	90.31
400.165	87.31
400.389	81.31
400.613	69.31
400.837	78.31
401.062	82.31
401.286	76.31
401.51	97.31
401.734	59.31
401.958	82.31
402.182	84.31
402.406	71.31
402.63	77.31
402.854	65.31
403.078	81.31
403.302	91.31
403.526	88.31
403.75	89.31
403.974	84.31
404.198	93.31
404.422	111.31
404.645	133.31
404.869	112.31
405.093	95.31
405.317	102.31
405.541	86.31
405.765	81.31
405.988	86.31
406.212	76.31
406.436	85.31
406.66	90.31
406.883	88.31
407.107	85.31
407.331	85.31
407.555	102.31
407.778	120.31
408.002	119.31
408.226	92.31
408.449	85.31
408.673	74.31
408.896	91.31
409.12	90.31
409.344	94.31
409.567	83.31
409.791	116.31
410.014	106.31
410.238	104.31
410.461	79.31
410.685	91.31
410.908	88.31
411.132	84.31
411.355	74.31
411.578	86.31
411.802	91.31
412.025	83.31
412.249	97.31
412.472	81.31
412.695	76.31
412.919	71.31
413.142	94.31
413.365	72.31
413.589	75.31
413.812	77.31
414.035	71.31
414.258	72.31
414.482	76.31
414.705	80.31
414.928	81.31
415.151	81.31
415.374	78.31
415.597	80.31
415.821	76.31
416.044	87.31
416.267	93.31
416.49	94.31
416.713	79.31
416.936	80.31
417.159	77.31
417.382	96.31
417.605	80.31
417.828	90.31
418.051	69.31
418.274	70.31
418.497	86.31
418.72	65.31
418.943	92.31
419.166	68.31
419.389	84.31
419.611	70.31
419.834	81.31
420.057	101.31
420.28	70.31
420.503	81.31
420.726	87.31
420.948	96.31
421.171	96.31
421.394	94.31
421.617	112.31
421.839	118.31
422.062	126.31
422.285	198.31
422.507	310.31
422.73	522.31
422.953	448.31
423.175	214.31
423.398	126.31
423.621	102.31
423.843	95.31
424.066	98.31
424.288	96.31
424.511	82.31
424.733	81.31
424.956	93.31
425.178	77.31
425.401	104.31
425.623	85.31
425.846	85.31
426.068	81.31
426.291	81.31
426.513	84.31
426.735	77.31
426.958	79.31
427.18	71.31
427.402	91.31
427.625	88.31
427.847	82.31
428.069	105.31
428.292	142.31
428.514	158.31
428.736	118.31
428.958	139.31
429.181	150.31
429.403	93.31
429.625	92.31
429.847	117.31
430.069	192.31
430.292	222.31
430.514	209.31
430.736	150.31
430.958	161.31
431.18	102.31
431.402	99.31
431.624	116.31
431.846	125.31
432.068	149.31
432.29	92.31
432.512	94.31
432.734	81.31
432.956	79.31
433.178	98.31
433.4	94.31
433.622	84.31
433.844	77.31
434.066	88.31
434.287	66.31
434.509	75.31
434.731	75.31
434.953	69.31
435.175	80.31
435.397	77.31
435.618	88.31
435.84	97.31
436.062	82.31
436.284	70.31
436.505	88.31
436.727	89.31
436.949	70.31
437.17	74.31
437.392	96.31
437.614	73.31
437.835	84.31
438.057	94.31
438.278	90.31
438.5	86.31
438.721	74.31
438.943	83.31
439.165	78.31
439.386	70.31
439.608	80.31
439.829	70.31
440.05	70.31
440.272	92.31
440.493	93.31
440.715	90.31
440.936	87.31
441.158	83.31
441.379	93.31
441.6	88.31
441.822	100.31
442.043	93.31
442.264	102.31
442.486	143.31
442.707	209.31
442.928	133.31
443.149	114.31
443.371	176.31
443.592	329.31
443.813	296.31
444.034	109.31
444.255	101.31
444.476	92.31
444.698	94.31
444.919	91.31
445.14	200.31
445.361	261.31
445.582	396.31
445.803	306.31
446.024	135.31
446.245	91.31
446.466	81.31
446.687	92.31
446.908	86.31
447.129	78.31
447.35	78.31
447.571	82.31
447.792	71.31
448.013	74.31
448.234	78.31
448.455	69.31
448.675	64.31
448.896	77.31
449.117	78.31
449.338	97.31
449.559	94.31
449.779	76.31
450	78.31
450.221	80.31
450.442	88.31
450.662	78.31
450.883	76.31
451.104	74.31
451.324	77.31
451.545	81.31
451.766	93.31
451.986	82.31
452.207	93.31
452.428	84.31
452.648	94.31
452.869	98.31
453.089	82.31
453.31	82.31
453.53	110.31
453.751	105.31
453.971	90.31
454.192	77.31
454.412	70.31
454.633	84.31
454.853	80.31
455.073	73.31
455.294	89.31
455.514	93.31
455.734	80.31
455.955	68.31
456.175	92.31
456.395	77.31
456.616	84.31
456.836	72.31
457.056	101.31
457.276	87.31
457.497	88.31
457.717	73.31
457.937	108.31
458.157	132.31
458.377	145.31
458.598	124.31
458.818	130.31
459.038	94.31
459.258	101.31
459.478	66.31
459.698	92.31
459.918	77.31
460.138	86.31
460.358	93.31
460.578	104.31
460.798	118.31
461.018	120.31
461.238	99.31
461.458	64.31
461.678	76.31
461.898	88.31
462.118	93.31
462.338	77.31
462.558	70.31
462.777	83.31
462.997	76.31
463.217	77.31
463.437	84.31
463.657	86.31
463.876	88.31
464.096	80.31
464.316	75.31
464.536	76.31
464.755	85.31
464.975	69.31
465.195	88.31
465.414	80.31
465.634	88.31
465.854	92.31
466.073	75.31
466.293	67.31
466.512	76.31
466.732	88.31
466.951	78.31
467.171	76.31
467.391	76.31
467.61	84.31
467.829	74.31
468.049	77.31
468.268	80.31
468.488	96.31
468.707	81.31
468.927	86.31
469.146	74.31
469.365	80.31
469.585	77.31
469.804	76.31
470.023	80.31
470.243	88.31
470.462	86.31
470.681	79.31
470.901	76.31
471.12	80.31
471.339	85.31
471.558	66.31
471.777	84.31
471.997	74.31
472.216	88.31
472.435	91.31
472.654	85.31
472.873	78.31
473.092	88.31
473.311	88.31
473.53	76.31
473.749	90.31
473.968	78.31
474.187	89.31
474.406	84.31
474.625	76.31
474.844	77.31
475.063	84.31
475.282	88.31
475.501	84.31
475.72	78.31
475.939	77.31
476.158	83.31
476.377	80.31
476.596	81.31
476.814	84.31
477.033	96.31
477.252	72.31
477.471	86.31
477.69	74.31
477.908	92.31
478.127	76.31
478.346	89.31
478.564	72.31
478.783	62.31
479.002	74.31
479.22	91.31
479.439	84.31
479.658	73.31
479.876	69.31
480.095	72.31
480.313	96.31
480.532	87.31
480.751	92.31
480.969	87.31
481.188	88.31
481.406	88.31
481.624	75.31
481.843	84.31
482.061	82.31
482.28	81.31
482.498	76.31
482.717	69.31
482.935	70.31
483.153	96.31
483.372	97.31
483.59	91.31
483.808	90.31
484.027	79.31
484.245	68.31
484.463	72.31
484.681	90.31
484.9	80.31
485.118	85.31
485.336	85.31
485.554	86.31
485.772	90.31
485.99	88.31
486.209	90.31
486.427	83.31
486.645	84.31
486.863	89.31
487.081	86.31
487.299	92.31
487.517	94.31
487.735	119.31
487.953	214.31
488.171	156.31
488.389	78.31
488.607	99.31
488.825	85.31
489.043	92.31
489.261	86.31
489.479	82.31
489.696	81.31
489.914	95.31
490.132	87.31
490.35	82.31
490.568	72.31
490.786	81.31
491.003	77.31
491.221	88.31
491.439	76.31
491.657	95.31
491.874	106.31
492.092	90.31
492.31	103.31
492.527	88.31
492.745	80.31
492.963	78.31
493.18	84.31
493.398	76.31
493.615	92.31
493.833	90.31
494.05	96.31
494.268	76.31
494.485	85.31
494.703	78.31
494.92	96.31
495.138	82.31
495.355	103.31
495.573	84.31
495.79	80.31
496.008	101.31
496.225	82.31
496.442	99.31
496.66	93.31
496.877	80.31
497.094	92.31
497.312	93.31
497.529	91.31
497.746	93.31
497.963	95.31
498.181	83.31
498.398	109.31
498.615	76.31
498.832	65.31
499.049	98.31
499.267	104.31
499.484	80.31
499.701	77.31
499.918	75.31
500.135	94.31
500.352	76.31
500.569	66.31
500.786	85.31
501.003	101.31
501.22	87.31
501.437	92.31
501.654	95.31
501.871	73.31
502.088	80.31
502.305	66.31
502.522	91.31
502.739	93.31
502.956	83.31
503.172	81.31
503.389	80.31
503.606	93.31
503.823	112.31
504.04	98.31
504.256	144.31
504.473	150.31
504.69	91.31
504.907	91.31
505.123	101.31
505.34	89.31
505.557	92.31
505.773	82.31
505.99	92.31
506.207	74.31
506.423	84.31
506.64	84.31
506.856	85.31
507.073	85.31
507.289	92.31
507.506	78.31
507.722	81.31
507.939	94.31
508.155	84.31
508.372	78.31
508.588	75.31
508.805	97.31
509.021	82.31
509.238	81.31
509.454	88.31
509.67	88.31
509.887	76.31
510.103	96.31
510.319	96.31
510.536	68.31
510.752	71.31
510.968	85.31
511.184	95.31
511.401	81.31
511.617	79.31
511.833	89.31
512.049	98.31
512.265	85.31
512.481	74.31
512.698	76.31
512.914	76.31
513.13	89.31
513.346	66.31
513.562	85.31
513.778	73.31
513.994	75.31
514.21	69.31
514.426	76.31
514.642	80.31
514.858	68.31
515.074	76.31
515.29	94.31
515.506	90.31
515.721	74.31
515.937	83.31
516.153	80.31
516.369	75.31
516.585	84.31
516.801	94.31
517.016	98.31
517.232	90.31
517.448	112.31
517.664	97.31
517.879	86.31
518.095	90.31
518.311	104.31
