Data from 237_1_HRD10591_00029.txt Node
Date: Mon Jan 19 14:10:44 EST 2026
User: Yrep
Spectrometer: HR+D1059
Trigger mode: 1
Integration Time (sec): 1.000000E-1
Scans to average: 1
Electric dark correction enabled: true
Nonlinearity correction enabled: false
Boxcar width: 0
XAxis mode: Wavelengths
Number of Pixels in Spectrum: 2048
>>>>>Begin Spectral Data<<<<<
223.165	-23.19
223.4	-23.19
223.635	-23.19
223.869	-12.19
224.104	-18.19
224.338	-16.19
224.573	-8.19
224.808	-21.19
225.042	-3.19
225.277	-0.19
225.511	-0.19
225.746	14.81
225.98	2.81
226.215	4.81
226.449	11.81
226.683	24.81
226.918	18.81
227.152	24.81
227.387	30.81
227.621	45.81
227.856	30.81
228.09	44.81
228.324	60.81
228.559	48.81
228.793	60.81
229.027	70.81
229.262	70.81
229.496	85.81
229.73	66.81
229.964	60.81
230.199	64.81
230.433	69.81
230.667	72.81
230.901	68.81
231.136	77.81
231.37	89.81
231.604	92.81
231.838	69.81
232.072	93.81
232.306	75.81
232.541	71.81
232.775	76.81
233.009	97.81
233.243	83.81
233.477	84.81
233.711	86.81
233.945	74.81
234.179	86.81
234.413	82.81
234.647	72.81
234.881	81.81
235.115	66.81
235.349	72.81
235.583	80.81
235.817	66.81
236.051	72.81
236.285	75.81
236.519	78.81
236.753	70.81
236.987	73.81
237.221	71.81
237.455	81.81
237.689	79.81
237.922	69.81
238.156	81.81
238.39	64.81
238.624	70.81
238.858	88.81
239.091	88.81
239.325	73.81
239.559	78.81
239.793	62.81
240.027	66.81
240.26	70.81
240.494	78.81
240.728	77.81
240.961	66.81
241.195	71.81
241.429	81.81
241.662	69.81
241.896	89.81
242.13	63.81
242.363	77.81
242.597	82.81
242.83	68.81
243.064	62.81
243.298	74.81
243.531	57.81
243.765	67.81
243.998	80.81
244.232	82.81
244.465	85.81
244.699	81.81
244.932	70.81
245.166	60.81
245.399	72.81
245.633	89.81
245.866	70.81
246.099	90.81
246.333	76.81
246.566	68.81
246.8	70.81
247.033	84.81
247.266	78.81
247.5	66.81
247.733	73.81
247.966	77.81
248.2	68.81
248.433	83.81
248.666	66.81
248.899	72.81
249.133	75.81
249.366	73.81
249.599	85.81
249.832	68.81
250.066	71.81
250.299	78.81
250.532	69.81
250.765	68.81
250.998	65.81
251.231	79.81
251.465	72.81
251.698	87.81
251.931	74.81
252.164	78.81
252.397	80.81
252.63	77.81
252.863	71.81
253.096	82.81
253.329	60.81
253.562	67.81
253.795	76.81
254.028	77.81
254.261	83.81
254.494	83.81
254.727	73.81
254.96	80.81
255.193	72.81
255.426	70.81
255.659	82.81
255.892	89.81
256.124	93.81
256.357	84.81
256.59	87.81
256.823	76.81
257.056	82.81
257.289	74.81
257.521	87.81
257.754	80.81
257.987	62.81
258.22	86.81
258.452	78.81
258.685	80.81
258.918	78.81
259.151	70.81
259.383	84.81
259.616	82.81
259.849	77.81
260.081	81.81
260.314	70.81
260.547	84.81
260.779	70.81
261.012	72.81
261.244	82.81
261.477	78.81
261.71	71.81
261.942	80.81
262.175	73.81
262.407	73.81
262.64	78.81
262.872	87.81
263.105	68.81
263.337	87.81
263.57	81.81
263.802	85.81
264.035	100.81
264.267	81.81
264.499	74.81
264.732	80.81
264.964	84.81
265.197	75.81
265.429	79.81
265.661	78.81
265.894	68.81
266.126	88.81
266.358	70.81
266.591	74.81
266.823	81.81
267.055	84.81
267.287	74.81
267.52	93.81
267.752	91.81
267.984	74.81
268.216	80.81
268.448	88.81
268.681	91.81
268.913	84.81
269.145	89.81
269.377	82.81
269.609	71.81
269.841	85.81
270.073	72.81
270.306	84.81
270.538	71.81
270.77	84.81
271.002	82.81
271.234	88.81
271.466	81.81
271.698	96.81
271.93	79.81
272.162	78.81
272.394	71.81
272.626	94.81
272.858	71.81
273.09	78.81
273.322	86.81
273.553	80.81
273.785	68.81
274.017	79.81
274.249	73.81
274.481	81.81
274.713	89.81
274.945	78.81
275.176	82.81
275.408	81.81
275.64	84.81
275.872	82.81
276.104	93.81
276.335	75.81
276.567	74.81
276.799	74.81
277.031	78.81
277.262	80.81
277.494	74.81
277.726	89.81
277.957	74.81
278.189	74.81
278.421	71.81
278.652	82.81
278.884	84.81
279.115	83.81
279.347	86.81
279.579	89.81
279.81	92.81
280.042	88.81
280.273	74.81
280.505	78.81
280.736	88.81
280.968	84.81
281.199	78.81
281.431	72.81
281.662	74.81
281.894	89.81
282.125	72.81
282.356	76.81
282.588	89.81
282.819	66.81
283.051	85.81
283.282	87.81
283.513	96.81
283.745	88.81
283.976	72.81
284.207	82.81
284.439	67.81
284.67	90.81
284.901	66.81
285.132	87.81
285.364	94.81
285.595	85.81
285.826	93.81
286.057	73.81
286.288	77.81
286.52	65.81
286.751	75.81
286.982	81.81
287.213	94.81
287.444	83.81
287.675	92.81
287.906	82.81
288.138	86.81
288.369	90.81
288.6	92.81
288.831	78.81
289.062	87.81
289.293	89.81
289.524	89.81
289.755	86.81
289.986	96.81
290.217	101.81
290.448	81.81
290.679	88.81
290.91	79.81
291.141	79.81
291.371	86.81
291.602	71.81
291.833	78.81
292.064	76.81
292.295	81.81
292.526	80.81
292.757	84.81
292.987	78.81
293.218	87.81
293.449	72.81
293.68	82.81
293.91	75.81
294.141	92.81
294.372	75.81
294.603	81.81
294.833	68.81
295.064	78.81
295.295	73.81
295.525	73.81
295.756	83.81
295.987	77.81
296.217	81.81
296.448	75.81
296.679	86.81
296.909	84.81
297.14	92.81
297.37	84.81
297.601	72.81
297.831	78.81
298.062	89.81
298.292	105.81
298.523	81.81
298.753	77.81
298.984	74.81
299.214	82.81
299.445	89.81
299.675	80.81
299.905	85.81
300.136	79.81
300.366	80.81
300.597	91.81
300.827	82.81
301.057	94.81
301.288	92.81
301.518	80.81
301.748	74.81
301.979	110.81
302.209	93.81
302.439	93.81
302.669	88.81
302.9	81.81
303.13	81.81
303.36	92.81
303.59	83.81
303.82	87.81
304.051	93.81
304.281	93.81
304.511	90.81
304.741	92.81
304.971	94.81
305.201	80.81
305.431	87.81
305.661	89.81
305.891	86.81
306.121	91.81
306.352	90.81
306.582	79.81
306.812	87.81
307.042	89.81
307.272	83.81
307.502	90.81
307.731	89.81
307.961	92.81
308.191	92.81
308.421	95.81
308.651	79.81
308.881	91.81
309.111	79.81
309.341	88.81
309.571	81.81
309.8	96.81
310.03	66.81
310.26	88.81
310.49	79.81
310.72	84.81
310.949	80.81
311.179	74.81
311.409	91.81
311.639	78.81
311.868	80.81
312.098	86.81
312.328	84.81
312.557	81.81
312.787	81.81
313.017	88.81
313.246	82.81
313.476	83.81
313.706	78.81
313.935	73.81
314.165	72.81
314.394	77.81
314.624	96.81
314.853	74.81
315.083	77.81
315.312	82.81
315.542	78.81
315.771	71.81
316.001	85.81
316.23	104.81
316.46	80.81
316.689	87.81
316.919	70.81
317.148	75.81
317.377	91.81
317.607	76.81
317.836	82.81
318.065	102.81
318.295	91.81
318.524	88.81
318.753	81.81
318.983	92.81
319.212	90.81
319.441	89.81
319.67	90.81
319.9	76.81
320.129	78.81
320.358	87.81
320.587	94.81
320.816	80.81
321.046	85.81
321.275	86.81
321.504	83.81
321.733	98.81
321.962	85.81
322.191	94.81
322.42	87.81
322.649	92.81
322.878	92.81
323.108	80.81
323.337	83.81
323.566	87.81
323.795	86.81
324.024	80.81
324.253	87.81
324.482	93.81
324.71	88.81
324.939	94.81
325.168	104.81
325.397	66.81
325.626	85.81
325.855	79.81
326.084	89.81
326.313	88.81
326.542	72.81
326.77	90.81
326.999	88.81
327.228	86.81
327.457	100.81
327.686	74.81
327.914	103.81
328.143	78.81
328.372	84.81
328.6	71.81
328.829	78.81
329.058	85.81
329.287	85.81
329.515	89.81
329.744	83.81
329.972	92.81
330.201	77.81
330.43	62.81
330.658	74.81
330.887	80.81
331.115	78.81
331.344	96.81
331.572	84.81
331.801	74.81
332.03	92.81
332.258	88.81
332.486	91.81
332.715	78.81
332.943	87.81
333.172	92.81
333.4	100.81
333.629	93.81
333.857	81.81
334.085	88.81
334.314	93.81
334.542	85.81
334.771	93.81
334.999	86.81
335.227	72.81
335.455	92.81
335.684	80.81
335.912	88.81
336.14	77.81
336.369	96.81
336.597	85.81
336.825	92.81
337.053	80.81
337.281	101.81
337.51	88.81
337.738	88.81
337.966	82.81
338.194	89.81
338.422	87.81
338.65	87.81
338.878	88.81
339.106	86.81
339.334	96.81
339.562	105.81
339.79	87.81
340.018	77.81
340.246	87.81
340.474	96.81
340.702	90.81
340.93	78.81
341.158	83.81
341.386	73.81
341.614	74.81
341.842	102.81
342.07	77.81
342.298	81.81
342.526	75.81
342.754	90.81
342.981	84.81
343.209	86.81
343.437	94.81
343.665	77.81
343.893	78.81
344.12	92.81
344.348	78.81
344.576	93.81
344.804	83.81
345.031	67.81
345.259	72.81
345.487	90.81
345.714	84.81
345.942	81.81
346.17	93.81
346.397	74.81
346.625	79.81
346.853	82.81
347.08	87.81
347.308	101.81
347.535	94.81
347.763	87.81
347.99	86.81
348.218	92.81
348.445	88.81
348.673	82.81
348.9	98.81
349.128	96.81
349.355	69.81
349.583	86.81
349.81	77.81
350.037	77.81
350.265	79.81
350.492	84.81
350.72	96.81
350.947	80.81
351.174	103.81
351.402	85.81
351.629	90.81
351.856	79.81
352.083	82.81
352.311	83.81
352.538	76.81
352.765	92.81
352.992	93.81
353.22	86.81
353.447	73.81
353.674	74.81
353.901	101.81
354.128	75.81
354.355	61.81
354.583	69.81
354.81	90.81
355.037	84.81
355.264	79.81
355.491	88.81
355.718	97.81
355.945	94.81
356.172	77.81
356.399	89.81
356.626	89.81
356.853	90.81
357.08	85.81
357.307	84.81
357.534	72.81
357.761	83.81
357.988	92.81
358.215	97.81
358.441	93.81
358.668	108.81
358.895	81.81
359.122	79.81
359.349	101.81
359.576	73.81
359.802	89.81
360.029	77.81
360.256	94.81
360.483	89.81
360.709	74.81
360.936	88.81
361.163	93.81
361.39	84.81
361.616	78.81
361.843	86.81
362.07	86.81
362.296	80.81
362.523	86.81
362.749	102.81
362.976	101.81
363.203	112.81
363.429	101.81
363.656	96.81
363.882	98.81
364.109	93.81
364.335	103.81
364.562	127.81
364.788	110.81
365.015	85.81
365.241	83.81
365.468	81.81
365.694	74.81
365.92	82.81
366.147	87.81
366.373	81.81
366.599	87.81
366.826	74.81
367.052	64.81
367.278	83.81
367.505	70.81
367.731	86.81
367.957	72.81
368.184	73.81
368.41	83.81
368.636	96.81
368.862	71.81
369.089	92.81
369.315	81.81
369.541	81.81
369.767	83.81
369.993	83.81
370.219	86.81
370.445	95.81
370.672	89.81
370.898	80.81
371.124	68.81
371.35	83.81
371.576	97.81
371.802	79.81
372.028	84.81
372.254	86.81
372.48	86.81
372.706	80.81
372.932	86.81
373.158	93.81
373.384	99.81
373.61	112.81
373.835	104.81
374.061	94.81
374.287	94.81
374.513	91.81
374.739	84.81
374.965	101.81
375.191	98.81
375.416	77.81
375.642	94.81
375.868	94.81
376.094	88.81
376.319	96.81
376.545	80.81
376.771	91.81
376.997	98.81
377.222	86.81
377.448	100.81
377.674	76.81
377.899	83.81
378.125	89.81
378.35	95.81
378.576	97.81
378.802	81.81
379.027	84.81
379.253	80.81
379.478	82.81
379.704	96.81
379.929	88.81
380.155	78.81
380.38	89.81
380.606	84.81
380.831	95.81
381.057	82.81
381.282	90.81
381.507	88.81
381.733	86.81
381.958	88.81
382.184	98.81
382.409	113.81
382.634	98.81
382.86	97.81
383.085	104.81
383.31	98.81
383.535	104.81
383.761	90.81
383.986	94.81
384.211	79.81
384.436	78.81
384.662	84.81
384.887	83.81
385.112	85.81
385.337	89.81
385.562	96.81
385.787	101.81
386.013	113.81
386.238	89.81
386.463	92.81
386.688	94.81
386.913	96.81
387.138	96.81
387.363	93.81
387.588	98.81
387.813	92.81
388.038	89.81
388.263	109.81
388.488	89.81
388.713	89.81
388.938	88.81
389.163	79.81
389.387	84.81
389.612	85.81
389.837	87.81
390.062	98.81
390.287	88.81
390.512	73.81
390.736	81.81
390.961	80.81
391.186	77.81
391.411	91.81
391.636	101.81
391.86	101.81
392.085	87.81
392.31	77.81
392.534	83.81
392.759	106.81
392.984	139.81
393.208	256.81
393.433	382.81
393.658	290.81
393.882	141.81
394.107	108.81
394.331	112.81
394.556	103.81
394.78	89.81
395.005	86.81
395.229	76.81
395.454	92.81
395.678	98.81
395.903	102.81
396.127	126.81
396.352	161.81
396.576	179.81
396.801	257.81
397.025	294.81
397.249	157.81
397.474	117.81
397.698	95.81
397.922	90.81
398.147	96.81
398.371	77.81
398.595	93.81
398.82	89.81
399.044	92.81
399.268	87.81
399.492	92.81
399.717	96.81
399.941	92.81
400.165	96.81
400.389	90.81
400.613	86.81
400.837	95.81
401.062	79.81
401.286	90.81
401.51	88.81
401.734	88.81
401.958	83.81
402.182	93.81
402.406	84.81
402.63	87.81
402.854	70.81
403.078	96.81
403.302	95.81
403.526	95.81
403.75	97.81
403.974	82.81
404.198	90.81
404.422	107.81
404.645	92.81
404.869	93.81
405.093	94.81
405.317	90.81
405.541	89.81
405.765	85.81
405.988	80.81
406.212	76.81
406.436	81.81
406.66	88.81
406.883	97.81
407.107	100.81
407.331	75.81
407.555	87.81
407.778	101.81
408.002	116.81
408.226	100.81
408.449	86.81
408.673	82.81
408.896	89.81
409.12	82.81
409.344	89.81
409.567	95.81
409.791	95.81
410.014	88.81
410.238	93.81
410.461	82.81
410.685	84.81
410.908	75.81
411.132	86.81
411.355	75.81
411.578	72.81
411.802	73.81
412.025	81.81
412.249	93.81
412.472	79.81
412.695	88.81
412.919	89.81
413.142	95.81
413.365	105.81
413.589	79.81
413.812	80.81
414.035	91.81
414.258	96.81
414.482	81.81
414.705	77.81
414.928	87.81
415.151	83.81
415.374	80.81
415.597	88.81
415.821	77.81
416.044	70.81
416.267	86.81
416.49	87.81
416.713	73.81
416.936	80.81
417.159	92.81
417.382	79.81
417.605	70.81
417.828	94.81
418.051	84.81
418.274	79.81
418.497	80.81
418.72	101.81
418.943	79.81
419.166	73.81
419.389	88.81
419.611	70.81
419.834	89.81
420.057	80.81
420.28	80.81
420.503	74.81
420.726	84.81
420.948	70.81
421.171	95.81
421.394	100.81
421.617	105.81
421.839	112.81
422.062	116.81
422.285	128.81
422.507	234.81
422.73	351.81
422.953	324.81
423.175	188.81
423.398	99.81
423.621	89.81
423.843	93.81
424.066	70.81
424.288	87.81
424.511	90.81
424.733	82.81
424.956	104.81
425.178	84.81
425.401	79.81
425.623	92.81
425.846	95.81
426.068	91.81
426.291	85.81
426.513	88.81
426.735	84.81
426.958	87.81
427.18	91.81
427.402	105.81
427.625	84.81
427.847	92.81
428.069	108.81
428.292	105.81
428.514	134.81
428.736	114.81
428.958	117.81
429.181	111.81
429.403	97.81
429.625	89.81
429.847	119.81
430.069	138.81
430.292	153.81
430.514	156.81
430.736	125.81
430.958	134.81
431.18	93.81
431.402	86.81
431.624	77.81
431.846	113.81
432.068	138.81
432.29	101.81
432.512	92.81
432.734	89.81
432.956	84.81
433.178	89.81
433.4	89.81
433.622	79.81
433.844	82.81
434.066	84.81
434.287	78.81
434.509	87.81
434.731	73.81
434.953	80.81
435.175	76.81
435.397	79.81
435.618	75.81
435.84	90.81
436.062	78.81
436.284	87.81
436.505	75.81
436.727	88.81
436.949	87.81
437.17	75.81
437.392	78.81
437.614	68.81
437.835	85.81
438.057	87.81
438.278	88.81
438.5	95.81
438.721	94.81
438.943	95.81
439.165	93.81
439.386	82.81
439.608	81.81
439.829	84.81
440.05	79.81
440.272	93.81
440.493	97.81
440.715	84.81
440.936	80.81
441.158	84.81
441.379	90.81
441.6	90.81
441.822	94.81
442.043	87.81
442.264	95.81
442.486	111.81
442.707	146.81
442.928	118.81
443.149	100.81
443.371	122.81
443.592	198.81
443.813	168.81
444.034	101.81
444.255	92.81
444.476	73.81
444.698	84.81
444.919	93.81
445.14	150.81
445.361	160.81
445.582	230.81
445.803	201.81
446.024	108.81
446.245	86.81
446.466	74.81
446.687	91.81
446.908	79.81
447.129	84.81
447.35	94.81
447.571	72.81
447.792	74.81
448.013	75.81
448.234	88.81
448.455	88.81
448.675	96.81
448.896	98.81
449.117	96.81
449.338	74.81
449.559	83.81
449.779	82.81
450	80.81
450.221	93.81
450.442	89.81
450.662	75.81
450.883	82.81
451.104	104.81
451.324	81.81
451.545	75.81
451.766	86.81
451.986	86.81
452.207	86.81
452.428	101.81
452.648	89.81
452.869	96.81
453.089	89.81
453.31	75.81
453.53	89.81
453.751	87.81
453.971	83.81
454.192	83.81
454.412	71.81
454.633	89.81
454.853	91.81
455.073	82.81
455.294	92.81
455.514	86.81
455.734	80.81
455.955	100.81
456.175	85.81
456.395	94.81
456.616	77.81
456.836	81.81
457.056	86.81
457.276	88.81
457.497	70.81
457.717	83.81
457.937	100.81
458.157	98.81
458.377	104.81
458.598	93.81
458.818	116.81
459.038	90.81
459.258	88.81
459.478	86.81
459.698	79.81
459.918	84.81
460.138	75.81
460.358	88.81
460.578	88.81
460.798	106.81
461.018	103.81
461.238	85.81
461.458	81.81
461.678	82.81
461.898	85.81
462.118	81.81
462.338	85.81
462.558	77.81
462.777	80.81
462.997	74.81
463.217	83.81
463.437	71.81
463.657	87.81
463.876	96.81
464.096	92.81
464.316	78.81
464.536	83.81
464.755	75.81
464.975	71.81
465.195	80.81
465.414	77.81
465.634	87.81
465.854	84.81
466.073	78.81
466.293	88.81
466.512	78.81
466.732	80.81
466.951	85.81
467.171	74.81
467.391	86.81
467.61	85.81
467.829	73.81
468.049	81.81
468.268	80.81
468.488	76.81
468.707	84.81
468.927	81.81
469.146	66.81
469.365	79.81
469.585	90.81
469.804	91.81
470.023	87.81
470.243	89.81
470.462	77.81
470.681	85.81
470.901	83.81
471.12	73.81
471.339	88.81
471.558	77.81
471.777	82.81
471.997	86.81
472.216	86.81
472.435	79.81
472.654	88.81
472.873	88.81
473.092	73.81
473.311	93.81
473.53	72.81
473.749	76.81
473.968	88.81
474.187	95.81
474.406	90.81
474.625	75.81
474.844	99.81
475.063	110.81
475.282	100.81
475.501	85.81
475.72	86.81
475.939	82.81
476.158	78.81
476.377	76.81
476.596	86.81
476.814	88.81
477.033	86.81
477.252	86.81
477.471	82.81
477.69	69.81
477.908	89.81
478.127	88.81
478.346	74.81
478.564	90.81
478.783	79.81
479.002	84.81
479.22	83.81
479.439	102.81
479.658	63.81
479.876	78.81
480.095	91.81
480.313	76.81
480.532	89.81
480.751	70.81
480.969	99.81
481.188	84.81
481.406	74.81
481.624	81.81
481.843	71.81
482.061	79.81
482.28	101.81
482.498	89.81
482.717	81.81
482.935	87.81
483.153	92.81
483.372	81.81
483.59	85.81
483.808	80.81
484.027	73.81
484.245	86.81
484.463	80.81
484.681	99.81
484.9	83.81
485.118	94.81
485.336	89.81
485.554	104.81
485.772	95.81
485.99	82.81
486.209	93.81
486.427	88.81
486.645	87.81
486.863	86.81
487.081	92.81
487.299	87.81
487.517	86.81
487.735	104.81
487.953	144.81
488.171	117.81
488.389	93.81
488.607	90.81
488.825	82.81
489.043	85.81
489.261	86.81
489.479	81.81
489.696	94.81
489.914	101.81
490.132	96.81
490.35	86.81
490.568	78.81
490.786	105.81
491.003	78.81
491.221	77.81
491.439	84.81
491.657	106.81
491.874	86.81
492.092	85.81
492.31	80.81
492.527	85.81
492.745	84.81
492.963	100.81
493.18	88.81
493.398	93.81
493.615	104.81
493.833	95.81
494.05	74.81
494.268	80.81
494.485	91.81
494.703	99.81
494.92	102.81
495.138	73.81
495.355	82.81
495.573	81.81
495.79	84.81
496.008	92.81
496.225	94.81
496.442	89.81
496.66	91.81
496.877	88.81
497.094	85.81
497.312	92.81
497.529	87.81
497.746	84.81
497.963	92.81
498.181	94.81
498.398	112.81
498.615	95.81
498.832	82.81
499.049	92.81
499.267	88.81
499.484	83.81
499.701	76.81
499.918	89.81
500.135	84.81
500.352	81.81
500.569	75.81
500.786	93.81
501.003	87.81
501.22	94.81
501.437	90.81
501.654	89.81
501.871	84.81
502.088	88.81
502.305	84.81
502.522	86.81
502.739	87.81
502.956	78.81
503.172	81.81
503.389	83.81
503.606	89.81
503.823	80.81
504.04	102.81
504.256	133.81
504.473	102.81
504.69	90.81
504.907	101.81
505.123	70.81
505.34	84.81
505.557	84.81
505.773	95.81
505.99	78.81
506.207	91.81
506.423	94.81
506.64	82.81
506.856	100.81
507.073	94.81
507.289	86.81
507.506	92.81
507.722	78.81
507.939	94.81
508.155	93.81
508.372	95.81
508.588	87.81
508.805	91.81
509.021	94.81
509.238	93.81
509.454	84.81
509.67	76.81
509.887	96.81
510.103	90.81
510.319	85.81
510.536	88.81
510.752	74.81
510.968	67.81
511.184	95.81
511.401	89.81
511.617	85.81
511.833	82.81
512.049	85.81
512.265	99.81
512.481	88.81
512.698	84.81
512.914	90.81
513.13	91.81
513.346	85.81
513.562	86.81
513.778	85.81
513.994	86.81
514.21	88.81
514.426	80.81
514.642	81.81
514.858	92.81
515.074	88.81
515.29	86.81
515.506	103.81
515.721	93.81
515.937	78.81
516.153	91.81
516.369	82.81
516.585	77.81
516.801	95.81
517.016	80.81
517.232	88.81
517.448	96.81
517.664	84.81
517.879	81.81
518.095	76.81
518.311	83.81
518.527	99.81
