Data from 237_1_HRD10591_00035.txt Node
Date: Mon Jan 19 14:10:47 EST 2026
User: Yrep
Spectrometer: HR+D1059
Trigger mode: 1
Integration Time (sec): 1.000000E-1
Scans to average: 1
Electric dark correction enabled: true
Nonlinearity correction enabled: false
Boxcar width: 0
XAxis mode: Wavelengths
Number of Pixels in Spectrum: 2048
>>>>>Begin Spectral Data<<<<<
223.165	-8.12
223.4	-8.12
223.635	-8.12
223.869	-21.12
224.104	-22.12
224.338	-10.12
224.573	-12.12
224.808	-7.12
225.042	0.88
225.277	-20.12
225.511	10.88
225.746	0.88
225.98	-5.12
226.215	9.88
226.449	22.88
226.683	19.88
226.918	12.88
227.152	27.88
227.387	48.88
227.621	39.88
227.856	43.88
228.09	50.88
228.324	24.88
228.559	61.88
228.793	60.88
229.027	50.88
229.262	67.88
229.496	77.88
229.73	67.88
229.964	72.88
230.199	76.88
230.433	77.88
230.667	79.88
230.901	75.88
231.136	65.88
231.37	63.88
231.604	76.88
231.838	76.88
232.072	82.88
232.306	76.88
232.541	81.88
232.775	74.88
233.009	82.88
233.243	83.88
233.477	74.88
233.711	82.88
233.945	110.88
234.179	84.88
234.413	86.88
234.647	83.88
234.881	78.88
235.115	81.88
235.349	64.88
235.583	72.88
235.817	88.88
236.051	87.88
236.285	68.88
236.519	73.88
236.753	75.88
236.987	83.88
237.221	71.88
237.455	87.88
237.689	74.88
237.922	74.88
238.156	64.88
238.39	86.88
238.624	74.88
238.858	82.88
239.091	70.88
239.325	75.88
239.559	81.88
239.793	77.88
240.027	76.88
240.26	78.88
240.494	75.88
240.728	76.88
240.961	83.88
241.195	80.88
241.429	76.88
241.662	83.88
241.896	79.88
242.13	55.88
242.363	56.88
242.597	75.88
242.83	67.88
243.064	79.88
243.298	75.88
243.531	98.88
243.765	79.88
243.998	76.88
244.232	76.88
244.465	85.88
244.699	66.88
244.932	71.88
245.166	85.88
245.399	72.88
245.633	72.88
245.866	87.88
246.099	75.88
246.333	73.88
246.566	84.88
246.8	72.88
247.033	81.88
247.266	86.88
247.5	75.88
247.733	75.88
247.966	75.88
248.2	79.88
248.433	78.88
248.666	82.88
248.899	67.88
249.133	68.88
249.366	71.88
249.599	67.88
249.832	71.88
250.066	78.88
250.299	84.88
250.532	64.88
250.765	68.88
250.998	86.88
251.231	69.88
251.465	90.88
251.698	71.88
251.931	91.88
252.164	74.88
252.397	86.88
252.63	96.88
252.863	78.88
253.096	83.88
253.329	82.88
253.562	68.88
253.795	64.88
254.028	69.88
254.261	75.88
254.494	80.88
254.727	90.88
254.96	76.88
255.193	77.88
255.426	82.88
255.659	87.88
255.892	89.88
256.124	68.88
256.357	71.88
256.59	76.88
256.823	82.88
257.056	75.88
257.289	85.88
257.521	86.88
257.754	96.88
257.987	87.88
258.22	82.88
258.452	94.88
258.685	79.88
258.918	93.88
259.151	78.88
259.383	86.88
259.616	84.88
259.849	80.88
260.081	68.88
260.314	72.88
260.547	85.88
260.779	91.88
261.012	71.88
261.244	80.88
261.477	74.88
261.71	77.88
261.942	85.88
262.175	83.88
262.407	73.88
262.64	76.88
262.872	81.88
263.105	78.88
263.337	81.88
263.57	71.88
263.802	86.88
264.035	80.88
264.267	89.88
264.499	72.88
264.732	82.88
264.964	88.88
265.197	74.88
265.429	79.88
265.661	87.88
265.894	86.88
266.126	75.88
266.358	70.88
266.591	89.88
266.823	81.88
267.055	80.88
267.287	69.88
267.52	84.88
267.752	81.88
267.984	89.88
268.216	87.88
268.448	86.88
268.681	84.88
268.913	83.88
269.145	87.88
269.377	71.88
269.609	92.88
269.841	82.88
270.073	72.88
270.306	76.88
270.538	96.88
270.77	76.88
271.002	96.88
271.234	71.88
271.466	65.88
271.698	77.88
271.93	76.88
272.162	92.88
272.394	84.88
272.626	80.88
272.858	72.88
273.09	91.88
273.322	88.88
273.553	78.88
273.785	81.88
274.017	75.88
274.249	89.88
274.481	86.88
274.713	82.88
274.945	74.88
275.176	78.88
275.408	66.88
275.64	76.88
275.872	82.88
276.104	94.88
276.335	74.88
276.567	79.88
276.799	86.88
277.031	93.88
277.262	78.88
277.494	74.88
277.726	82.88
277.957	73.88
278.189	90.88
278.421	86.88
278.652	94.88
278.884	79.88
279.115	96.88
279.347	103.88
279.579	74.88
279.81	74.88
280.042	84.88
280.273	94.88
280.505	74.88
280.736	86.88
280.968	80.88
281.199	66.88
281.431	70.88
281.662	84.88
281.894	86.88
282.125	87.88
282.356	75.88
282.588	91.88
282.819	72.88
283.051	81.88
283.282	86.88
283.513	96.88
283.745	80.88
283.976	84.88
284.207	85.88
284.439	85.88
284.67	83.88
284.901	87.88
285.132	85.88
285.364	73.88
285.595	84.88
285.826	74.88
286.057	81.88
286.288	74.88
286.52	75.88
286.751	82.88
286.982	71.88
287.213	73.88
287.444	84.88
287.675	75.88
287.906	88.88
288.138	110.88
288.369	90.88
288.6	74.88
288.831	91.88
289.062	74.88
289.293	78.88
289.524	80.88
289.755	78.88
289.986	84.88
290.217	85.88
290.448	92.88
290.679	83.88
290.91	84.88
291.141	81.88
291.371	90.88
291.602	88.88
291.833	80.88
292.064	86.88
292.295	83.88
292.526	82.88
292.757	88.88
292.987	83.88
293.218	81.88
293.449	77.88
293.68	95.88
293.91	87.88
294.141	83.88
294.372	89.88
294.603	86.88
294.833	74.88
295.064	86.88
295.295	77.88
295.525	91.88
295.756	96.88
295.987	95.88
296.217	81.88
296.448	87.88
296.679	92.88
296.909	83.88
297.14	90.88
297.37	81.88
297.601	92.88
297.831	91.88
298.062	84.88
298.292	67.88
298.523	86.88
298.753	82.88
298.984	84.88
299.214	81.88
299.445	97.88
299.675	85.88
299.905	86.88
300.136	95.88
300.366	81.88
300.597	82.88
300.827	90.88
301.057	72.88
301.288	79.88
301.518	70.88
301.748	93.88
301.979	104.88
302.209	80.88
302.439	97.88
302.669	76.88
302.9	81.88
303.13	82.88
303.36	95.88
303.59	93.88
303.82	86.88
304.051	78.88
304.281	90.88
304.511	82.88
304.741	75.88
304.971	76.88
305.201	89.88
305.431	87.88
305.661	82.88
305.891	84.88
306.121	90.88
306.352	72.88
306.582	90.88
306.812	80.88
307.042	80.88
307.272	77.88
307.502	84.88
307.731	83.88
307.961	91.88
308.191	90.88
308.421	91.88
308.651	89.88
308.881	87.88
309.111	90.88
309.341	82.88
309.571	83.88
309.8	87.88
310.03	91.88
310.26	86.88
310.49	78.88
310.72	73.88
310.949	77.88
311.179	83.88
311.409	77.88
311.639	90.88
311.868	83.88
312.098	89.88
312.328	75.88
312.557	95.88
312.787	83.88
313.017	78.88
313.246	86.88
313.476	82.88
313.706	85.88
313.935	83.88
314.165	83.88
314.394	95.88
314.624	79.88
314.853	83.88
315.083	92.88
315.312	81.88
315.542	75.88
315.771	86.88
316.001	79.88
316.23	88.88
316.46	99.88
316.689	91.88
316.919	76.88
317.148	79.88
317.377	87.88
317.607	88.88
317.836	82.88
318.065	82.88
318.295	77.88
318.524	77.88
318.753	87.88
318.983	94.88
319.212	79.88
319.441	76.88
319.67	98.88
319.9	92.88
320.129	86.88
320.358	74.88
320.587	80.88
320.816	87.88
321.046	78.88
321.275	79.88
321.504	84.88
321.733	98.88
321.962	74.88
322.191	84.88
322.42	82.88
322.649	85.88
322.878	80.88
323.108	96.88
323.337	98.88
323.566	78.88
323.795	97.88
324.024	84.88
324.253	81.88
324.482	83.88
324.71	83.88
324.939	89.88
325.168	96.88
325.397	83.88
325.626	73.88
325.855	99.88
326.084	78.88
326.313	88.88
326.542	83.88
326.77	74.88
326.999	86.88
327.228	77.88
327.457	80.88
327.686	76.88
327.914	79.88
328.143	81.88
328.372	84.88
328.6	88.88
328.829	90.88
329.058	95.88
329.287	95.88
329.515	97.88
329.744	83.88
329.972	90.88
330.201	83.88
330.43	79.88
330.658	76.88
330.887	83.88
331.115	85.88
331.344	81.88
331.572	86.88
331.801	95.88
332.03	92.88
332.258	82.88
332.486	77.88
332.715	82.88
332.943	96.88
333.172	82.88
333.4	80.88
333.629	74.88
333.857	83.88
334.085	100.88
334.314	74.88
334.542	85.88
334.771	82.88
334.999	70.88
335.227	101.88
335.455	90.88
335.684	84.88
335.912	83.88
336.14	84.88
336.369	82.88
336.597	96.88
336.825	90.88
337.053	90.88
337.281	84.88
337.51	90.88
337.738	85.88
337.966	83.88
338.194	83.88
338.422	95.88
338.65	87.88
338.878	81.88
339.106	86.88
339.334	85.88
339.562	97.88
339.79	88.88
340.018	78.88
340.246	95.88
340.474	98.88
340.702	89.88
340.93	90.88
341.158	81.88
341.386	87.88
341.614	86.88
341.842	68.88
342.07	77.88
342.298	82.88
342.526	83.88
342.754	86.88
342.981	94.88
343.209	84.88
343.437	80.88
343.665	84.88
343.893	84.88
344.12	92.88
344.348	95.88
344.576	87.88
344.804	79.88
345.031	85.88
345.259	78.88
345.487	76.88
345.714	68.88
345.942	96.88
346.17	94.88
346.397	90.88
346.625	81.88
346.853	82.88
347.08	87.88
347.308	80.88
347.535	91.88
347.763	83.88
347.99	73.88
348.218	75.88
348.445	88.88
348.673	83.88
348.9	98.88
349.128	87.88
349.355	84.88
349.583	77.88
349.81	83.88
350.037	82.88
350.265	87.88
350.492	86.88
350.72	86.88
350.947	79.88
351.174	74.88
351.402	71.88
351.629	90.88
351.856	101.88
352.083	90.88
352.311	83.88
352.538	80.88
352.765	79.88
352.992	87.88
353.22	71.88
353.447	83.88
353.674	88.88
353.901	84.88
354.128	87.88
354.355	84.88
354.583	86.88
354.81	105.88
355.037	79.88
355.264	78.88
355.491	89.88
355.718	99.88
355.945	95.88
356.172	85.88
356.399	89.88
356.626	88.88
356.853	80.88
357.08	77.88
357.307	96.88
357.534	81.88
357.761	86.88
357.988	85.88
358.215	77.88
358.441	103.88
358.668	85.88
358.895	83.88
359.122	79.88
359.349	84.88
359.576	82.88
359.802	84.88
360.029	93.88
360.256	90.88
360.483	82.88
360.709	100.88
360.936	102.88
361.163	73.88
361.39	83.88
361.616	78.88
361.843	76.88
362.07	83.88
362.296	80.88
362.523	75.88
362.749	92.88
362.976	86.88
363.203	106.88
363.429	83.88
363.656	78.88
363.882	83.88
364.109	88.88
364.335	100.88
364.562	97.88
364.788	80.88
365.015	87.88
365.241	96.88
365.468	83.88
365.694	70.88
365.92	81.88
366.147	77.88
366.373	87.88
366.599	93.88
366.826	72.88
367.052	88.88
367.278	79.88
367.505	88.88
367.731	82.88
367.957	78.88
368.184	77.88
368.41	88.88
368.636	83.88
368.862	81.88
369.089	86.88
369.315	92.88
369.541	82.88
369.767	80.88
369.993	78.88
370.219	71.88
370.445	81.88
370.672	90.88
370.898	102.88
371.124	82.88
371.35	79.88
371.576	82.88
371.802	91.88
372.028	75.88
372.254	83.88
372.48	98.88
372.706	91.88
372.932	86.88
373.158	92.88
373.384	100.88
373.61	92.88
373.835	75.88
374.061	91.88
374.287	90.88
374.513	92.88
374.739	95.88
374.965	87.88
375.191	87.88
375.416	85.88
375.642	80.88
375.868	76.88
376.094	84.88
376.319	86.88
376.545	94.88
376.771	87.88
376.997	89.88
377.222	82.88
377.448	94.88
377.674	90.88
377.899	87.88
378.125	92.88
378.35	77.88
378.576	84.88
378.802	98.88
379.027	85.88
379.253	68.88
379.478	90.88
379.704	92.88
379.929	89.88
380.155	85.88
380.38	73.88
380.606	84.88
380.831	82.88
381.057	92.88
381.282	82.88
381.507	79.88
381.733	85.88
381.958	92.88
382.184	90.88
382.409	91.88
382.634	89.88
382.86	90.88
383.085	97.88
383.31	86.88
383.535	98.88
383.761	81.88
383.986	82.88
384.211	81.88
384.436	82.88
384.662	71.88
384.887	94.88
385.112	86.88
385.337	84.88
385.562	95.88
385.787	94.88
386.013	86.88
386.238	93.88
386.463	78.88
386.688	88.88
386.913	91.88
387.138	72.88
387.363	80.88
387.588	92.88
387.813	92.88
388.038	85.88
388.263	103.88
388.488	76.88
388.713	79.88
388.938	80.88
389.163	74.88
389.387	88.88
389.612	93.88
389.837	86.88
390.062	88.88
390.287	81.88
390.512	97.88
390.736	84.88
390.961	76.88
391.186	94.88
391.411	82.88
391.636	91.88
391.86	81.88
392.085	90.88
392.31	88.88
392.534	84.88
392.759	94.88
392.984	100.88
393.208	132.88
393.433	166.88
393.658	144.88
393.882	102.88
394.107	88.88
394.331	107.88
394.556	94.88
394.78	91.88
395.005	83.88
395.229	86.88
395.454	87.88
395.678	82.88
395.903	98.88
396.127	110.88
396.352	119.88
396.576	105.88
396.801	141.88
397.025	146.88
397.249	113.88
397.474	115.88
397.698	86.88
397.922	88.88
398.147	87.88
398.371	79.88
398.595	86.88
398.82	90.88
399.044	88.88
399.268	93.88
399.492	74.88
399.717	86.88
399.941	77.88
400.165	89.88
400.389	94.88
400.613	80.88
400.837	82.88
401.062	88.88
401.286	94.88
401.51	80.88
401.734	82.88
401.958	70.88
402.182	82.88
402.406	80.88
402.63	83.88
402.854	83.88
403.078	85.88
403.302	81.88
403.526	71.88
403.75	82.88
403.974	74.88
404.198	93.88
404.422	88.88
404.645	75.88
404.869	83.88
405.093	74.88
405.317	88.88
405.541	78.88
405.765	79.88
405.988	73.88
406.212	79.88
406.436	84.88
406.66	87.88
406.883	87.88
407.107	82.88
407.331	73.88
407.555	82.88
407.778	78.88
408.002	81.88
408.226	75.88
408.449	76.88
408.673	64.88
408.896	86.88
409.12	90.88
409.344	88.88
409.567	83.88
409.791	82.88
410.014	84.88
410.238	76.88
410.461	94.88
410.685	80.88
410.908	102.88
411.132	85.88
411.355	81.88
411.578	78.88
411.802	98.88
412.025	85.88
412.249	96.88
412.472	88.88
412.695	93.88
412.919	78.88
413.142	78.88
413.365	71.88
413.589	87.88
413.812	82.88
414.035	82.88
414.258	72.88
414.482	86.88
414.705	91.88
414.928	70.88
415.151	70.88
415.374	82.88
415.597	85.88
415.821	80.88
416.044	91.88
416.267	80.88
416.49	70.88
416.713	73.88
416.936	98.88
417.159	82.88
417.382	82.88
417.605	72.88
417.828	81.88
418.051	86.88
418.274	77.88
418.497	81.88
418.72	67.88
418.943	74.88
419.166	75.88
419.389	94.88
419.611	87.88
419.834	80.88
420.057	92.88
420.28	89.88
420.503	78.88
420.726	77.88
420.948	79.88
421.171	78.88
421.394	90.88
421.617	90.88
421.839	93.88
422.062	96.88
422.285	101.88
422.507	132.88
422.73	165.88
422.953	154.88
423.175	101.88
423.398	83.88
423.621	92.88
423.843	94.88
424.066	91.88
424.288	103.88
424.511	83.88
424.733	91.88
424.956	68.88
425.178	86.88
425.401	79.88
425.623	74.88
425.846	73.88
426.068	83.88
426.291	85.88
426.513	66.88
426.735	87.88
426.958	81.88
427.18	85.88
427.402	88.88
427.625	85.88
427.847	75.88
428.069	95.88
428.292	98.88
428.514	106.88
428.736	100.88
428.958	91.88
429.181	101.88
429.403	72.88
429.625	77.88
429.847	78.88
430.069	115.88
430.292	128.88
430.514	99.88
430.736	98.88
430.958	97.88
431.18	80.88
431.402	96.88
431.624	83.88
431.846	84.88
432.068	103.88
432.29	96.88
432.512	77.88
432.734	90.88
432.956	81.88
433.178	75.88
433.4	80.88
433.622	90.88
433.844	88.88
434.066	85.88
434.287	71.88
434.509	73.88
434.731	95.88
434.953	70.88
435.175	76.88
435.397	86.88
435.618	74.88
435.84	92.88
436.062	80.88
436.284	87.88
436.505	88.88
436.727	88.88
436.949	80.88
437.17	79.88
437.392	82.88
437.614	86.88
437.835	81.88
438.057	84.88
438.278	82.88
438.5	80.88
438.721	82.88
438.943	74.88
439.165	86.88
439.386	91.88
439.608	80.88
439.829	75.88
440.05	94.88
440.272	77.88
440.493	78.88
440.715	77.88
440.936	85.88
441.158	77.88
441.379	70.88
441.6	79.88
441.822	94.88
442.043	83.88
442.264	81.88
442.486	112.88
442.707	89.88
442.928	102.88
443.149	78.88
443.371	111.88
443.592	128.88
443.813	116.88
444.034	91.88
444.255	76.88
444.476	86.88
444.698	76.88
444.919	80.88
445.14	154.88
445.361	123.88
445.582	140.88
445.803	121.88
446.024	88.88
446.245	81.88
446.466	81.88
446.687	83.88
446.908	79.88
447.129	103.88
447.35	73.88
447.571	66.88
447.792	79.88
448.013	78.88
448.234	64.88
448.455	85.88
448.675	91.88
448.896	79.88
449.117	90.88
449.338	80.88
449.559	88.88
449.779	64.88
450	93.88
450.221	87.88
450.442	80.88
450.662	77.88
450.883	91.88
451.104	80.88
451.324	90.88
451.545	83.88
451.766	80.88
451.986	86.88
452.207	74.88
452.428	80.88
452.648	88.88
452.869	99.88
453.089	93.88
453.31	75.88
453.53	82.88
453.751	86.88
453.971	72.88
454.192	85.88
454.412	84.88
454.633	83.88
454.853	82.88
455.073	97.88
455.294	84.88
455.514	98.88
455.734	82.88
455.955	80.88
456.175	76.88
456.395	72.88
456.616	90.88
456.836	91.88
457.056	88.88
457.276	88.88
457.497	68.88
457.717	76.88
457.937	91.88
458.157	89.88
458.377	83.88
458.598	92.88
458.818	92.88
459.038	89.88
459.258	76.88
459.478	76.88
459.698	78.88
459.918	87.88
460.138	89.88
460.358	69.88
460.578	87.88
460.798	73.88
461.018	76.88
461.238	90.88
461.458	71.88
461.678	76.88
461.898	86.88
462.118	75.88
462.338	70.88
462.558	76.88
462.777	84.88
462.997	81.88
463.217	77.88
463.437	69.88
463.657	86.88
463.876	73.88
464.096	91.88
464.316	88.88
464.536	77.88
464.755	73.88
464.975	99.88
465.195	98.88
465.414	85.88
465.634	76.88
465.854	83.88
466.073	86.88
466.293	85.88
466.512	78.88
466.732	83.88
466.951	81.88
467.171	83.88
467.391	100.88
467.61	92.88
467.829	86.88
468.049	93.88
468.268	78.88
468.488	83.88
468.707	81.88
468.927	87.88
469.146	82.88
469.365	82.88
469.585	87.88
469.804	98.88
470.023	82.88
470.243	80.88
470.462	74.88
470.681	75.88
470.901	94.88
471.12	85.88
471.339	81.88
471.558	82.88
471.777	86.88
471.997	77.88
472.216	74.88
472.435	82.88
472.654	83.88
472.873	68.88
473.092	77.88
473.311	86.88
473.53	95.88
473.749	71.88
473.968	86.88
474.187	85.88
474.406	87.88
474.625	87.88
474.844	84.88
475.063	93.88
475.282	95.88
475.501	85.88
475.72	87.88
475.939	84.88
476.158	84.88
476.377	81.88
476.596	88.88
476.814	74.88
477.033	89.88
477.252	78.88
477.471	79.88
477.69	80.88
477.908	71.88
478.127	75.88
478.346	71.88
478.564	70.88
478.783	76.88
479.002	75.88
479.22	90.88
479.439	84.88
479.658	64.88
479.876	89.88
480.095	74.88
480.313	85.88
480.532	84.88
480.751	88.88
480.969	83.88
481.188	80.88
481.406	82.88
481.624	88.88
481.843	74.88
482.061	82.88
482.28	74.88
482.498	84.88
482.717	71.88
482.935	84.88
483.153	86.88
483.372	78.88
483.59	88.88
483.808	90.88
484.027	90.88
484.245	83.88
484.463	85.88
484.681	87.88
484.9	69.88
485.118	89.88
485.336	78.88
485.554	73.88
485.772	79.88
485.99	90.88
486.209	91.88
486.427	80.88
486.645	78.88
486.863	99.88
487.081	80.88
487.299	73.88
487.517	85.88
487.735	96.88
487.953	100.88
488.171	85.88
488.389	83.88
488.607	84.88
488.825	79.88
489.043	81.88
489.261	102.88
489.479	92.88
489.696	92.88
489.914	83.88
490.132	82.88
490.35	81.88
490.568	86.88
490.786	94.88
491.003	88.88
491.221	72.88
491.439	89.88
491.657	88.88
491.874	99.88
492.092	80.88
492.31	76.88
492.527	76.88
492.745	80.88
492.963	83.88
493.18	79.88
493.398	93.88
493.615	85.88
493.833	81.88
494.05	84.88
494.268	88.88
494.485	88.88
494.703	74.88
494.92	90.88
495.138	83.88
495.355	86.88
495.573	87.88
495.79	100.88
496.008	86.88
496.225	78.88
496.442	103.88
496.66	86.88
496.877	82.88
497.094	94.88
497.312	82.88
497.529	82.88
497.746	81.88
497.963	72.88
498.181	93.88
498.398	76.88
498.615	86.88
498.832	80.88
499.049	86.88
499.267	82.88
499.484	87.88
499.701	71.88
499.918	89.88
500.135	79.88
500.352	80.88
500.569	85.88
500.786	110.88
501.003	77.88
501.22	86.88
501.437	81.88
501.654	86.88
501.871	83.88
502.088	96.88
502.305	84.88
502.522	94.88
502.739	85.88
502.956	64.88
503.172	84.88
503.389	72.88
503.606	73.88
503.823	86.88
504.04	94.88
504.256	91.88
504.473	101.88
504.69	86.88
504.907	94.88
505.123	80.88
505.34	77.88
505.557	72.88
505.773	86.88
505.99	82.88
506.207	73.88
506.423	84.88
506.64	84.88
506.856	86.88
507.073	83.88
507.289	80.88
507.506	73.88
507.722	78.88
507.939	78.88
508.155	79.88
508.372	76.88
508.588	93.88
508.805	81.88
509.021	84.88
509.238	79.88
509.454	78.88
509.67	91.88
509.887	84.88
510.103	87.88
510.319	87.88
510.536	88.88
510.752	81.88
510.968	77.88
511.184	82.88
511.401	75.88
511.617	76.88
511.833	79.88
512.049	92.88
512.265	82.88
512.481	86.88
512.698	83.88
512.914	78.88
513.13	73.88
513.346	73.88
513.562	82.88
513.778	82.88
513.994	86.88
514.21	82.88
514.426	72.88
514.642	75.88
514.858	69.88
515.074	81.88
515.29	70.88
515.506	78.88
515.721	93.88
515.937	81.88
516.153	78.88
516.369	89.88
516.585	81.88
516.801	80.88
517.016	88.88
517.232	74.88
517.448	77.88
517.664	83.88
517.879	82.88
518.095	83.88
518.311	83.88
518.527	93.88
518.742	102.88
518.958	99.88
519.173	104.88
519.389	90.88
519.605	87.88
