Data from 237_1_HRD10591_00026.txt Node
Date: Mon Jan 19 14:10:42 EST 2026
User: Yrep
Spectrometer: HR+D1059
Trigger mode: 1
Integration Time (sec): 1.000000E-1
Scans to average: 1
Electric dark correction enabled: true
Nonlinearity correction enabled: false
Boxcar width: 0
XAxis mode: Wavelengths
Number of Pixels in Spectrum: 2048
>>>>>Begin Spectral Data<<<<<
223.165	-29.19
223.4	-29.19
223.635	-29.19
223.869	-17.19
224.104	-20.19
224.338	-26.19
224.573	-14.19
224.808	-9.19
225.042	-19.19
225.277	-9.19
225.511	12.81
225.746	12.81
225.98	-2.19
226.215	15.81
226.449	29.81
226.683	30.81
226.918	11.81
227.152	32.81
227.387	47.81
227.621	48.81
227.856	38.81
228.09	54.81
228.324	55.81
228.559	54.81
228.793	53.81
229.027	63.81
229.262	55.81
229.496	57.81
229.73	68.81
229.964	67.81
230.199	83.81
230.433	84.81
230.667	80.81
230.901	73.81
231.136	89.81
231.37	71.81
231.604	81.81
231.838	77.81
232.072	69.81
232.306	89.81
232.541	70.81
232.775	81.81
233.009	96.81
233.243	96.81
233.477	81.81
233.711	95.81
233.945	87.81
234.179	73.81
234.413	87.81
234.647	71.81
234.881	73.81
235.115	79.81
235.349	81.81
235.583	72.81
235.817	84.81
236.051	80.81
236.285	62.81
236.519	76.81
236.753	74.81
236.987	71.81
237.221	78.81
237.455	77.81
237.689	73.81
237.922	61.81
238.156	80.81
238.39	64.81
238.624	83.81
238.858	71.81
239.091	71.81
239.325	63.81
239.559	78.81
239.793	79.81
240.027	82.81
240.26	79.81
240.494	84.81
240.728	76.81
240.961	81.81
241.195	77.81
241.429	84.81
241.662	73.81
241.896	69.81
242.13	79.81
242.363	65.81
242.597	84.81
242.83	64.81
243.064	69.81
243.298	65.81
243.531	75.81
243.765	73.81
243.998	81.81
244.232	75.81
244.465	69.81
244.699	77.81
244.932	74.81
245.166	80.81
245.399	76.81
245.633	85.81
245.866	74.81
246.099	89.81
246.333	67.81
246.566	74.81
246.8	59.81
247.033	70.81
247.266	71.81
247.5	93.81
247.733	71.81
247.966	85.81
248.2	84.81
248.433	69.81
248.666	63.81
248.899	70.81
249.133	69.81
249.366	73.81
249.599	78.81
249.832	78.81
250.066	85.81
250.299	80.81
250.532	71.81
250.765	64.81
250.998	70.81
251.231	81.81
251.465	68.81
251.698	63.81
251.931	83.81
252.164	74.81
252.397	74.81
252.63	84.81
252.863	71.81
253.096	72.81
253.329	84.81
253.562	81.81
253.795	85.81
254.028	93.81
254.261	88.81
254.494	79.81
254.727	71.81
254.96	75.81
255.193	54.81
255.426	69.81
255.659	69.81
255.892	90.81
256.124	79.81
256.357	81.81
256.59	89.81
256.823	87.81
257.056	88.81
257.289	84.81
257.521	74.81
257.754	84.81
257.987	88.81
258.22	83.81
258.452	79.81
258.685	81.81
258.918	90.81
259.151	72.81
259.383	84.81
259.616	76.81
259.849	76.81
260.081	78.81
260.314	71.81
260.547	72.81
260.779	73.81
261.012	81.81
261.244	72.81
261.477	88.81
261.71	72.81
261.942	73.81
262.175	73.81
262.407	72.81
262.64	95.81
262.872	88.81
263.105	78.81
263.337	84.81
263.57	69.81
263.802	94.81
264.035	82.81
264.267	68.81
264.499	84.81
264.732	89.81
264.964	87.81
265.197	69.81
265.429	70.81
265.661	79.81
265.894	76.81
266.126	84.81
266.358	63.81
266.591	81.81
266.823	64.81
267.055	74.81
267.287	86.81
267.52	84.81
267.752	98.81
267.984	63.81
268.216	77.81
268.448	72.81
268.681	70.81
268.913	77.81
269.145	80.81
269.377	79.81
269.609	70.81
269.841	91.81
270.073	64.81
270.306	70.81
270.538	80.81
270.77	68.81
271.002	87.81
271.234	75.81
271.466	87.81
271.698	85.81
271.93	78.81
272.162	72.81
272.394	85.81
272.626	71.81
272.858	71.81
273.09	71.81
273.322	80.81
273.553	77.81
273.785	78.81
274.017	63.81
274.249	72.81
274.481	76.81
274.713	77.81
274.945	90.81
275.176	80.81
275.408	83.81
275.64	88.81
275.872	75.81
276.104	89.81
276.335	87.81
276.567	79.81
276.799	65.81
277.031	78.81
277.262	76.81
277.494	79.81
277.726	83.81
277.957	74.81
278.189	75.81
278.421	85.81
278.652	63.81
278.884	79.81
279.115	77.81
279.347	82.81
279.579	77.81
279.81	82.81
280.042	59.81
280.273	71.81
280.505	91.81
280.736	65.81
280.968	76.81
281.199	86.81
281.431	79.81
281.662	89.81
281.894	83.81
282.125	77.81
282.356	74.81
282.588	81.81
282.819	68.81
283.051	83.81
283.282	76.81
283.513	73.81
283.745	73.81
283.976	84.81
284.207	80.81
284.439	93.81
284.67	93.81
284.901	74.81
285.132	79.81
285.364	78.81
285.595	87.81
285.826	74.81
286.057	72.81
286.288	89.81
286.52	91.81
286.751	65.81
286.982	86.81
287.213	80.81
287.444	79.81
287.675	93.81
287.906	82.81
288.138	75.81
288.369	91.81
288.6	85.81
288.831	66.81
289.062	75.81
289.293	77.81
289.524	79.81
289.755	86.81
289.986	82.81
290.217	71.81
290.448	77.81
290.679	89.81
290.91	74.81
291.141	79.81
291.371	88.81
291.602	87.81
291.833	77.81
292.064	89.81
292.295	92.81
292.526	82.81
292.757	74.81
292.987	70.81
293.218	72.81
293.449	79.81
293.68	82.81
293.91	81.81
294.141	70.81
294.372	79.81
294.603	88.81
294.833	72.81
295.064	75.81
295.295	67.81
295.525	87.81
295.756	83.81
295.987	85.81
296.217	83.81
296.448	73.81
296.679	89.81
296.909	87.81
297.14	63.81
297.37	80.81
297.601	86.81
297.831	84.81
298.062	73.81
298.292	87.81
298.523	83.81
298.753	85.81
298.984	81.81
299.214	71.81
299.445	65.81
299.675	80.81
299.905	80.81
300.136	76.81
300.366	74.81
300.597	79.81
300.827	66.81
301.057	78.81
301.288	91.81
301.518	87.81
301.748	76.81
301.979	93.81
302.209	86.81
302.439	86.81
302.669	72.81
302.9	88.81
303.13	88.81
303.36	83.81
303.59	85.81
303.82	86.81
304.051	83.81
304.281	77.81
304.511	77.81
304.741	74.81
304.971	83.81
305.201	87.81
305.431	91.81
305.661	77.81
305.891	79.81
306.121	66.81
306.352	75.81
306.582	92.81
306.812	95.81
307.042	87.81
307.272	80.81
307.502	77.81
307.731	78.81
307.961	85.81
308.191	83.81
308.421	75.81
308.651	68.81
308.881	79.81
309.111	87.81
309.341	84.81
309.571	85.81
309.8	93.81
310.03	77.81
310.26	83.81
310.49	85.81
310.72	69.81
310.949	73.81
311.179	76.81
311.409	79.81
311.639	85.81
311.868	87.81
312.098	85.81
312.328	74.81
312.557	83.81
312.787	80.81
313.017	89.81
313.246	86.81
313.476	76.81
313.706	67.81
313.935	88.81
314.165	89.81
314.394	86.81
314.624	77.81
314.853	77.81
315.083	83.81
315.312	83.81
315.542	86.81
315.771	79.81
316.001	79.81
316.23	86.81
316.46	79.81
316.689	94.81
316.919	73.81
317.148	88.81
317.377	82.81
317.607	76.81
317.836	85.81
318.065	80.81
318.295	85.81
318.524	78.81
318.753	79.81
318.983	82.81
319.212	87.81
319.441	72.81
319.67	83.81
319.9	72.81
320.129	71.81
320.358	80.81
320.587	79.81
320.816	85.81
321.046	83.81
321.275	80.81
321.504	89.81
321.733	79.81
321.962	75.81
322.191	94.81
322.42	77.81
322.649	79.81
322.878	85.81
323.108	78.81
323.337	76.81
323.566	85.81
323.795	88.81
324.024	85.81
324.253	86.81
324.482	87.81
324.71	85.81
324.939	87.81
325.168	82.81
325.397	89.81
325.626	82.81
325.855	74.81
326.084	91.81
326.313	80.81
326.542	77.81
326.77	87.81
326.999	86.81
327.228	73.81
327.457	82.81
327.686	77.81
327.914	88.81
328.143	68.81
328.372	83.81
328.6	80.81
328.829	73.81
329.058	91.81
329.287	79.81
329.515	69.81
329.744	79.81
329.972	75.81
330.201	92.81
330.43	85.81
330.658	73.81
330.887	95.81
331.115	86.81
331.344	81.81
331.572	91.81
331.801	77.81
332.03	76.81
332.258	92.81
332.486	86.81
332.715	70.81
332.943	71.81
333.172	87.81
333.4	63.81
333.629	77.81
333.857	72.81
334.085	83.81
334.314	94.81
334.542	93.81
334.771	78.81
334.999	85.81
335.227	103.81
335.455	76.81
335.684	81.81
335.912	96.81
336.14	85.81
336.369	79.81
336.597	71.81
336.825	80.81
337.053	102.81
337.281	83.81
337.51	91.81
337.738	78.81
337.966	81.81
338.194	91.81
338.422	89.81
338.65	81.81
338.878	82.81
339.106	76.81
339.334	87.81
339.562	83.81
339.79	77.81
340.018	83.81
340.246	82.81
340.474	87.81
340.702	82.81
340.93	71.81
341.158	87.81
341.386	80.81
341.614	73.81
341.842	80.81
342.07	80.81
342.298	84.81
342.526	79.81
342.754	80.81
342.981	71.81
343.209	77.81
343.437	84.81
343.665	80.81
343.893	79.81
344.12	93.81
344.348	84.81
344.576	88.81
344.804	83.81
345.031	87.81
345.259	81.81
345.487	80.81
345.714	80.81
345.942	82.81
346.17	71.81
346.397	92.81
346.625	81.81
346.853	80.81
347.08	81.81
347.308	78.81
347.535	74.81
347.763	84.81
347.99	83.81
348.218	85.81
348.445	84.81
348.673	85.81
348.9	88.81
349.128	98.81
349.355	75.81
349.583	81.81
349.81	80.81
350.037	87.81
350.265	84.81
350.492	71.81
350.72	70.81
350.947	78.81
351.174	80.81
351.402	86.81
351.629	87.81
351.856	84.81
352.083	79.81
352.311	85.81
352.538	80.81
352.765	82.81
352.992	90.81
353.22	91.81
353.447	83.81
353.674	85.81
353.901	82.81
354.128	78.81
354.355	87.81
354.583	77.81
354.81	93.81
355.037	85.81
355.264	80.81
355.491	94.81
355.718	93.81
355.945	79.81
356.172	71.81
356.399	69.81
356.626	84.81
356.853	92.81
357.08	91.81
357.307	95.81
357.534	79.81
357.761	86.81
357.988	80.81
358.215	86.81
358.441	74.81
358.668	81.81
358.895	97.81
359.122	87.81
359.349	82.81
359.576	91.81
359.802	74.81
360.029	79.81
360.256	81.81
360.483	89.81
360.709	80.81
360.936	84.81
361.163	82.81
361.39	81.81
361.616	98.81
361.843	74.81
362.07	69.81
362.296	82.81
362.523	79.81
362.749	81.81
362.976	100.81
363.203	110.81
363.429	93.81
363.656	85.81
363.882	105.81
364.109	82.81
364.335	80.81
364.562	79.81
364.788	87.81
365.015	84.81
365.241	77.81
365.468	83.81
365.694	89.81
365.92	87.81
366.147	76.81
366.373	77.81
366.599	75.81
366.826	87.81
367.052	88.81
367.278	87.81
367.505	70.81
367.731	72.81
367.957	96.81
368.184	69.81
368.41	73.81
368.636	84.81
368.862	78.81
369.089	83.81
369.315	84.81
369.541	86.81
369.767	84.81
369.993	74.81
370.219	78.81
370.445	80.81
370.672	83.81
370.898	80.81
371.124	84.81
371.35	83.81
371.576	91.81
371.802	86.81
372.028	90.81
372.254	83.81
372.48	73.81
372.706	75.81
372.932	80.81
373.158	87.81
373.384	91.81
373.61	95.81
373.835	85.81
374.061	87.81
374.287	85.81
374.513	88.81
374.739	83.81
374.965	79.81
375.191	87.81
375.416	91.81
375.642	111.81
375.868	77.81
376.094	88.81
376.319	81.81
376.545	88.81
376.771	87.81
376.997	91.81
377.222	76.81
377.448	89.81
377.674	69.81
377.899	70.81
378.125	76.81
378.35	87.81
378.576	80.81
378.802	83.81
379.027	101.81
379.253	84.81
379.478	91.81
379.704	67.81
379.929	90.81
380.155	87.81
380.38	74.81
380.606	69.81
380.831	86.81
381.057	80.81
381.282	83.81
381.507	58.81
381.733	83.81
381.958	93.81
382.184	81.81
382.409	76.81
382.634	88.81
382.86	88.81
383.085	82.81
383.31	83.81
383.535	82.81
383.761	80.81
383.986	94.81
384.211	86.81
384.436	78.81
384.662	83.81
384.887	82.81
385.112	84.81
385.337	84.81
385.562	68.81
385.787	89.81
386.013	76.81
386.238	83.81
386.463	82.81
386.688	90.81
386.913	82.81
387.138	86.81
387.363	75.81
387.588	83.81
387.813	84.81
388.038	77.81
388.263	87.81
388.488	86.81
388.713	77.81
388.938	87.81
389.163	75.81
389.387	78.81
389.612	80.81
389.837	81.81
390.062	87.81
390.287	80.81
390.512	89.81
390.736	75.81
390.961	88.81
391.186	87.81
391.411	71.81
391.636	83.81
391.86	74.81
392.085	79.81
392.31	79.81
392.534	91.81
392.759	83.81
392.984	100.81
393.208	111.81
393.433	145.81
393.658	135.81
393.882	84.81
394.107	82.81
394.331	93.81
394.556	95.81
394.78	90.81
395.005	85.81
395.229	78.81
395.454	79.81
395.678	91.81
395.903	80.81
396.127	108.81
396.352	104.81
396.576	109.81
396.801	114.81
397.025	128.81
397.249	91.81
397.474	94.81
397.698	98.81
397.922	84.81
398.147	76.81
398.371	82.81
398.595	84.81
398.82	90.81
399.044	83.81
399.268	88.81
399.492	64.81
399.717	81.81
399.941	79.81
400.165	95.81
400.389	63.81
400.613	73.81
400.837	76.81
401.062	90.81
401.286	82.81
401.51	80.81
401.734	79.81
401.958	72.81
402.182	82.81
402.406	85.81
402.63	94.81
402.854	65.81
403.078	89.81
403.302	85.81
403.526	89.81
403.75	64.81
403.974	76.81
404.198	93.81
404.422	101.81
404.645	91.81
404.869	89.81
405.093	59.81
405.317	83.81
405.541	73.81
405.765	87.81
405.988	77.81
406.212	73.81
406.436	87.81
406.66	94.81
406.883	83.81
407.107	77.81
407.331	84.81
407.555	89.81
407.778	89.81
408.002	83.81
408.226	80.81
408.449	82.81
408.673	83.81
408.896	83.81
409.12	83.81
409.344	85.81
409.567	84.81
409.791	91.81
410.014	96.81
410.238	69.81
410.461	87.81
410.685	84.81
410.908	85.81
411.132	91.81
411.355	77.81
411.578	88.81
411.802	73.81
412.025	80.81
412.249	85.81
412.472	89.81
412.695	78.81
412.919	76.81
413.142	85.81
413.365	83.81
413.589	87.81
413.812	78.81
414.035	71.81
414.258	80.81
414.482	100.81
414.705	86.81
414.928	83.81
415.151	81.81
415.374	73.81
415.597	74.81
415.821	70.81
416.044	76.81
416.267	71.81
416.49	83.81
416.713	87.81
416.936	74.81
417.159	84.81
417.382	88.81
417.605	87.81
417.828	87.81
418.051	81.81
418.274	75.81
418.497	87.81
418.72	89.81
418.943	85.81
419.166	87.81
419.389	84.81
419.611	79.81
419.834	71.81
420.057	81.81
420.28	73.81
420.503	87.81
420.726	87.81
420.948	86.81
421.171	83.81
421.394	84.81
421.617	97.81
421.839	87.81
422.062	88.81
422.285	100.81
422.507	140.81
422.73	219.81
422.953	171.81
423.175	125.81
423.398	94.81
423.621	91.81
423.843	89.81
424.066	78.81
424.288	81.81
424.511	84.81
424.733	79.81
424.956	79.81
425.178	83.81
425.401	87.81
425.623	85.81
425.846	71.81
426.068	75.81
426.291	81.81
426.513	80.81
426.735	88.81
426.958	82.81
427.18	88.81
427.402	84.81
427.625	79.81
427.847	61.81
428.069	98.81
428.292	97.81
428.514	93.81
428.736	80.81
428.958	93.81
429.181	107.81
429.403	70.81
429.625	88.81
429.847	95.81
430.069	77.81
430.292	111.81
430.514	112.81
430.736	84.81
430.958	102.81
431.18	83.81
431.402	80.81
431.624	83.81
431.846	82.81
432.068	89.81
432.29	80.81
432.512	88.81
432.734	79.81
432.956	87.81
433.178	74.81
433.4	73.81
433.622	89.81
433.844	87.81
434.066	71.81
434.287	80.81
434.509	84.81
434.731	84.81
434.953	85.81
435.175	72.81
435.397	74.81
435.618	63.81
435.84	77.81
436.062	81.81
436.284	93.81
436.505	80.81
436.727	85.81
436.949	84.81
437.17	72.81
437.392	82.81
437.614	71.81
437.835	72.81
438.057	84.81
438.278	93.81
438.5	88.81
438.721	86.81
438.943	95.81
439.165	73.81
439.386	81.81
439.608	78.81
439.829	71.81
440.05	89.81
440.272	83.81
440.493	72.81
440.715	94.81
440.936	82.81
441.158	88.81
441.379	86.81
441.6	85.81
441.822	84.81
442.043	59.81
442.264	82.81
442.486	91.81
442.707	109.81
442.928	92.81
443.149	73.81
443.371	99.81
443.592	128.81
443.813	126.81
444.034	79.81
444.255	86.81
444.476	83.81
444.698	83.81
444.919	78.81
445.14	144.81
445.361	127.81
445.582	137.81
445.803	123.81
446.024	89.81
446.245	71.81
446.466	81.81
446.687	87.81
446.908	73.81
447.129	85.81
447.35	84.81
447.571	95.81
447.792	74.81
448.013	81.81
448.234	92.81
448.455	74.81
448.675	73.81
448.896	73.81
449.117	80.81
449.338	87.81
449.559	76.81
449.779	73.81
450	67.81
450.221	79.81
450.442	86.81
450.662	89.81
450.883	86.81
451.104	96.81
451.324	86.81
451.545	79.81
451.766	83.81
451.986	67.81
452.207	71.81
452.428	76.81
452.648	77.81
452.869	80.81
453.089	91.81
453.31	81.81
453.53	93.81
453.751	78.81
453.971	83.81
454.192	79.81
454.412	74.81
454.633	85.81
454.853	89.81
455.073	79.81
455.294	72.81
455.514	91.81
455.734	84.81
455.955	81.81
456.175	71.81
456.395	77.81
456.616	76.81
456.836	69.81
457.056	82.81
457.276	87.81
457.497	78.81
457.717	91.81
457.937	87.81
458.157	98.81
458.377	99.81
458.598	89.81
458.818	84.81
459.038	72.81
459.258	81.81
459.478	80.81
459.698	88.81
459.918	70.81
460.138	73.81
460.358	80.81
460.578	86.81
460.798	93.81
461.018	71.81
461.238	80.81
461.458	80.81
461.678	82.81
461.898	73.81
462.118	69.81
462.338	77.81
462.558	61.81
462.777	80.81
462.997	83.81
463.217	69.81
463.437	80.81
463.657	85.81
463.876	92.81
464.096	65.81
464.316	58.81
464.536	65.81
464.755	79.81
464.975	74.81
465.195	81.81
465.414	70.81
465.634	80.81
465.854	73.81
466.073	79.81
466.293	79.81
466.512	88.81
466.732	72.81
466.951	80.81
467.171	94.81
467.391	81.81
467.61	96.81
467.829	86.81
468.049	70.81
468.268	81.81
468.488	88.81
468.707	80.81
468.927	80.81
469.146	87.81
469.365	89.81
469.585	92.81
469.804	95.81
470.023	84.81
470.243	79.81
470.462	82.81
470.681	89.81
470.901	80.81
471.12	88.81
471.339	83.81
471.558	93.81
471.777	80.81
471.997	87.81
472.216	81.81
472.435	70.81
472.654	78.81
472.873	92.81
473.092	84.81
473.311	82.81
473.53	81.81
473.749	75.81
473.968	82.81
474.187	81.81
474.406	101.81
474.625	91.81
474.844	91.81
475.063	78.81
475.282	80.81
475.501	81.81
475.72	88.81
475.939	91.81
476.158	61.81
476.377	93.81
476.596	85.81
476.814	57.81
477.033	73.81
477.252	79.81
477.471	81.81
477.69	81.81
477.908	74.81
478.127	82.81
478.346	78.81
478.564	74.81
478.783	85.81
479.002	89.81
479.22	96.81
479.439	89.81
479.658	80.81
479.876	74.81
480.095	67.81
480.313	97.81
480.532	63.81
480.751	80.81
480.969	89.81
481.188	87.81
481.406	71.81
481.624	91.81
481.843	79.81
482.061	72.81
482.28	75.81
482.498	79.81
482.717	86.81
482.935	71.81
483.153	81.81
483.372	99.81
483.59	92.81
483.808	76.81
484.027	82.81
484.245	79.81
484.463	82.81
484.681	74.81
484.9	82.81
485.118	102.81
485.336	98.81
485.554	87.81
485.772	87.81
485.99	70.81
486.209	93.81
486.427	83.81
486.645	84.81
486.863	87.81
487.081	93.81
487.299	90.81
487.517	91.81
487.735	85.81
487.953	109.81
488.171	103.81
488.389	86.81
488.607	83.81
488.825	90.81
489.043	85.81
489.261	90.81
489.479	97.81
489.696	71.81
489.914	80.81
490.132	91.81
490.35	84.81
490.568	77.81
490.786	78.81
491.003	85.81
491.221	88.81
491.439	86.81
491.657	83.81
491.874	71.81
492.092	77.81
492.31	93.81
492.527	87.81
492.745	96.81
492.963	83.81
493.18	91.81
493.398	84.81
493.615	99.81
493.833	86.81
494.05	76.81
494.268	83.81
494.485	85.81
494.703	81.81
494.92	89.81
495.138	84.81
495.355	83.81
495.573	87.81
495.79	87.81
496.008	74.81
496.225	90.81
496.442	84.81
496.66	84.81
496.877	94.81
497.094	88.81
497.312	84.81
497.529	87.81
497.746	78.81
497.963	70.81
498.181	63.81
498.398	74.81
498.615	88.81
498.832	85.81
499.049	86.81
499.267	81.81
499.484	95.81
499.701	96.81
499.918	80.81
500.135	77.81
500.352	87.81
500.569	79.81
500.786	82.81
501.003	84.81
501.22	82.81
501.437	85.81
501.654	93.81
501.871	91.81
502.088	89.81
502.305	85.81
502.522	69.81
502.739	77.81
502.956	101.81
503.172	84.81
503.389	87.81
503.606	87.81
503.823	91.81
504.04	78.81
504.256	92.81
504.473	92.81
504.69	80.81
504.907	102.81
505.123	96.81
505.34	92.81
505.557	75.81
505.773	79.81
505.99	79.81
506.207	99.81
506.423	81.81
506.64	73.81
506.856	84.81
507.073	74.81
507.289	72.81
507.506	74.81
507.722	79.81
507.939	78.81
508.155	88.81
508.372	76.81
508.588	85.81
508.805	75.81
509.021	85.81
509.238	91.81
509.454	79.81
509.67	81.81
509.887	69.81
510.103	83.81
510.319	79.81
510.536	74.81
510.752	81.81
510.968	74.81
511.184	74.81
511.401	77.81
511.617	83.81
511.833	73.81
512.049	79.81
512.265	87.81
512.481	83.81
512.698	76.81
512.914	83.81
513.13	89.81
513.346	80.81
513.562	73.81
513.778	88.81
513.994	79.81
514.21	80.81
514.426	75.81
514.642	91.81
514.858	67.81
515.074	76.81
515.29	85.81
515.506	84.81
515.721	77.81
515.937	95.81
516.153	87.81
516.369	83.81
516.585	64.81
516.801	75.81
517.016	83.81
517.232	81.81
517.448	83.81
517.664	73.81
517.879	87.81
518.095	87.81
518.311	83.81
518.527	100.81
518.742	84.81
518.958	95.81
519.173	93.81
519.389	86.81
519.605	81.81
519.82	94.81
