Data from 237_1_HRD10591_00011.txt Node
Date: Mon Jan 19 14:10:35 EST 2026
User: Yrep
Spectrometer: HR+D1059
Trigger mode: 1
Integration Time (sec): 1.000000E-1
Scans to average: 1
Electric dark correction enabled: true
Nonlinearity correction enabled: false
Boxcar width: 0
XAxis mode: Wavelengths
Number of Pixels in Spectrum: 2048
>>>>>Begin Spectral Data<<<<<
223.165	-24.94
223.4	-24.94
223.635	-24.94
223.869	-13.94
224.104	-32.94
224.338	0.06
224.573	-10.94
224.808	-21.94
225.042	-3.94
225.277	-6.94
225.511	-6.94
225.746	-3.94
225.98	7.06
226.215	13.06
226.449	12.06
226.683	27.06
226.918	28.06
227.152	39.06
227.387	46.06
227.621	36.06
227.856	35.06
228.09	42.06
228.324	45.06
228.559	59.06
228.793	49.06
229.027	63.06
229.262	66.06
229.496	54.06
229.73	64.06
229.964	75.06
230.199	67.06
230.433	77.06
230.667	81.06
230.901	92.06
231.136	80.06
231.37	74.06
231.604	86.06
231.838	78.06
232.072	95.06
232.306	78.06
232.541	72.06
232.775	83.06
233.009	92.06
233.243	77.06
233.477	92.06
233.711	77.06
233.945	73.06
234.179	77.06
234.413	84.06
234.647	81.06
234.881	75.06
235.115	75.06
235.349	80.06
235.583	80.06
235.817	75.06
236.051	83.06
236.285	84.06
236.519	83.06
236.753	87.06
236.987	86.06
237.221	83.06
237.455	76.06
237.689	80.06
237.922	59.06
238.156	71.06
238.39	76.06
238.624	67.06
238.858	85.06
239.091	73.06
239.325	75.06
239.559	77.06
239.793	83.06
240.027	66.06
240.26	76.06
240.494	76.06
240.728	76.06
240.961	71.06
241.195	83.06
241.429	91.06
241.662	83.06
241.896	84.06
242.13	72.06
242.363	75.06
242.597	60.06
242.83	70.06
243.064	79.06
243.298	62.06
243.531	75.06
243.765	78.06
243.998	75.06
244.232	72.06
244.465	77.06
244.699	68.06
244.932	74.06
245.166	78.06
245.399	77.06
245.633	93.06
245.866	79.06
246.099	72.06
246.333	67.06
246.566	77.06
246.8	86.06
247.033	87.06
247.266	78.06
247.5	85.06
247.733	77.06
247.966	81.06
248.2	65.06
248.433	80.06
248.666	77.06
248.899	77.06
249.133	72.06
249.366	75.06
249.599	77.06
249.832	76.06
250.066	85.06
250.299	87.06
250.532	63.06
250.765	76.06
250.998	88.06
251.231	68.06
251.465	74.06
251.698	86.06
251.931	81.06
252.164	84.06
252.397	88.06
252.63	91.06
252.863	82.06
253.096	75.06
253.329	84.06
253.562	75.06
253.795	86.06
254.028	84.06
254.261	84.06
254.494	73.06
254.727	82.06
254.96	75.06
255.193	67.06
255.426	65.06
255.659	67.06
255.892	87.06
256.124	93.06
256.357	87.06
256.59	72.06
256.823	72.06
257.056	89.06
257.289	75.06
257.521	73.06
257.754	83.06
257.987	76.06
258.22	81.06
258.452	90.06
258.685	71.06
258.918	74.06
259.151	81.06
259.383	63.06
259.616	90.06
259.849	95.06
260.081	77.06
260.314	68.06
260.547	81.06
260.779	70.06
261.012	85.06
261.244	73.06
261.477	87.06
261.71	69.06
261.942	84.06
262.175	77.06
262.407	75.06
262.64	78.06
262.872	79.06
263.105	78.06
263.337	88.06
263.57	83.06
263.802	77.06
264.035	77.06
264.267	86.06
264.499	77.06
264.732	79.06
264.964	82.06
265.197	57.06
265.429	65.06
265.661	74.06
265.894	67.06
266.126	76.06
266.358	86.06
266.591	75.06
266.823	82.06
267.055	75.06
267.287	77.06
267.52	71.06
267.752	73.06
267.984	86.06
268.216	83.06
268.448	80.06
268.681	90.06
268.913	76.06
269.145	72.06
269.377	88.06
269.609	84.06
269.841	96.06
270.073	83.06
270.306	83.06
270.538	77.06
270.77	79.06
271.002	77.06
271.234	77.06
271.466	93.06
271.698	90.06
271.93	76.06
272.162	74.06
272.394	84.06
272.626	85.06
272.858	75.06
273.09	81.06
273.322	102.06
273.553	90.06
273.785	79.06
274.017	78.06
274.249	87.06
274.481	85.06
274.713	93.06
274.945	63.06
275.176	83.06
275.408	87.06
275.64	79.06
275.872	83.06
276.104	82.06
276.335	90.06
276.567	83.06
276.799	81.06
277.031	85.06
277.262	88.06
277.494	91.06
277.726	95.06
277.957	92.06
278.189	79.06
278.421	73.06
278.652	70.06
278.884	77.06
279.115	67.06
279.347	79.06
279.579	92.06
279.81	73.06
280.042	77.06
280.273	86.06
280.505	87.06
280.736	87.06
280.968	69.06
281.199	72.06
281.431	83.06
281.662	79.06
281.894	83.06
282.125	82.06
282.356	85.06
282.588	96.06
282.819	87.06
283.051	75.06
283.282	87.06
283.513	83.06
283.745	93.06
283.976	80.06
284.207	79.06
284.439	84.06
284.67	80.06
284.901	71.06
285.132	75.06
285.364	81.06
285.595	84.06
285.826	93.06
286.057	92.06
286.288	90.06
286.52	83.06
286.751	70.06
286.982	87.06
287.213	81.06
287.444	77.06
287.675	88.06
287.906	91.06
288.138	95.06
288.369	70.06
288.6	81.06
288.831	73.06
289.062	87.06
289.293	89.06
289.524	78.06
289.755	73.06
289.986	81.06
290.217	67.06
290.448	78.06
290.679	79.06
290.91	79.06
291.141	81.06
291.371	80.06
291.602	82.06
291.833	77.06
292.064	68.06
292.295	86.06
292.526	76.06
292.757	73.06
292.987	89.06
293.218	74.06
293.449	88.06
293.68	81.06
293.91	93.06
294.141	95.06
294.372	78.06
294.603	76.06
294.833	95.06
295.064	83.06
295.295	72.06
295.525	95.06
295.756	93.06
295.987	114.06
296.217	75.06
296.448	83.06
296.679	89.06
296.909	91.06
297.14	84.06
297.37	78.06
297.601	87.06
297.831	89.06
298.062	78.06
298.292	88.06
298.523	87.06
298.753	84.06
298.984	89.06
299.214	78.06
299.445	85.06
299.675	85.06
299.905	90.06
300.136	84.06
300.366	88.06
300.597	98.06
300.827	95.06
301.057	89.06
301.288	82.06
301.518	73.06
301.748	93.06
301.979	97.06
302.209	89.06
302.439	71.06
302.669	81.06
302.9	92.06
303.13	89.06
303.36	76.06
303.59	85.06
303.82	82.06
304.051	78.06
304.281	82.06
304.511	93.06
304.741	92.06
304.971	100.06
305.201	91.06
305.431	82.06
305.661	84.06
305.891	81.06
306.121	84.06
306.352	85.06
306.582	89.06
306.812	75.06
307.042	79.06
307.272	83.06
307.502	68.06
307.731	87.06
307.961	83.06
308.191	72.06
308.421	102.06
308.651	84.06
308.881	75.06
309.111	88.06
309.341	95.06
309.571	89.06
309.8	78.06
310.03	81.06
310.26	86.06
310.49	89.06
310.72	72.06
310.949	78.06
311.179	89.06
311.409	87.06
311.639	76.06
311.868	82.06
312.098	77.06
312.328	89.06
312.557	98.06
312.787	89.06
313.017	88.06
313.246	94.06
313.476	81.06
313.706	89.06
313.935	86.06
314.165	74.06
314.394	89.06
314.624	81.06
314.853	87.06
315.083	89.06
315.312	91.06
315.542	89.06
315.771	89.06
316.001	90.06
316.23	90.06
316.46	83.06
316.689	79.06
316.919	81.06
317.148	66.06
317.377	77.06
317.607	87.06
317.836	91.06
318.065	82.06
318.295	94.06
318.524	95.06
318.753	88.06
318.983	88.06
319.212	83.06
319.441	77.06
319.67	77.06
319.9	92.06
320.129	87.06
320.358	80.06
320.587	81.06
320.816	79.06
321.046	76.06
321.275	96.06
321.504	98.06
321.733	72.06
321.962	89.06
322.191	76.06
322.42	92.06
322.649	78.06
322.878	85.06
323.108	69.06
323.337	78.06
323.566	75.06
323.795	85.06
324.024	80.06
324.253	92.06
324.482	95.06
324.71	86.06
324.939	100.06
325.168	97.06
325.397	84.06
325.626	89.06
325.855	83.06
326.084	76.06
326.313	93.06
326.542	85.06
326.77	79.06
326.999	74.06
327.228	82.06
327.457	84.06
327.686	85.06
327.914	82.06
328.143	86.06
328.372	80.06
328.6	80.06
328.829	72.06
329.058	89.06
329.287	71.06
329.515	84.06
329.744	79.06
329.972	83.06
330.201	86.06
330.43	93.06
330.658	75.06
330.887	73.06
331.115	88.06
331.344	71.06
331.572	83.06
331.801	94.06
332.03	81.06
332.258	83.06
332.486	76.06
332.715	84.06
332.943	98.06
333.172	83.06
333.4	84.06
333.629	93.06
333.857	72.06
334.085	86.06
334.314	83.06
334.542	89.06
334.771	78.06
334.999	82.06
335.227	78.06
335.455	83.06
335.684	86.06
335.912	103.06
336.14	85.06
336.369	79.06
336.597	92.06
336.825	86.06
337.053	89.06
337.281	91.06
337.51	90.06
337.738	90.06
337.966	82.06
338.194	89.06
338.422	84.06
338.65	92.06
338.878	85.06
339.106	99.06
339.334	93.06
339.562	91.06
339.79	79.06
340.018	91.06
340.246	83.06
340.474	88.06
340.702	75.06
340.93	79.06
341.158	89.06
341.386	86.06
341.614	82.06
341.842	91.06
342.07	86.06
342.298	87.06
342.526	97.06
342.754	78.06
342.981	100.06
343.209	89.06
343.437	84.06
343.665	76.06
343.893	87.06
344.12	90.06
344.348	80.06
344.576	113.06
344.804	91.06
345.031	75.06
345.259	83.06
345.487	87.06
345.714	81.06
345.942	96.06
346.17	81.06
346.397	87.06
346.625	90.06
346.853	89.06
347.08	75.06
347.308	91.06
347.535	99.06
347.763	83.06
347.99	91.06
348.218	93.06
348.445	88.06
348.673	81.06
348.9	84.06
349.128	96.06
349.355	65.06
349.583	83.06
349.81	91.06
350.037	88.06
350.265	77.06
350.492	80.06
350.72	95.06
350.947	89.06
351.174	83.06
351.402	76.06
351.629	75.06
351.856	75.06
352.083	68.06
352.311	74.06
352.538	78.06
352.765	85.06
352.992	92.06
353.22	88.06
353.447	77.06
353.674	87.06
353.901	102.06
354.128	92.06
354.355	92.06
354.583	80.06
354.81	81.06
355.037	78.06
355.264	91.06
355.491	95.06
355.718	92.06
355.945	87.06
356.172	86.06
356.399	92.06
356.626	84.06
356.853	95.06
357.08	85.06
357.307	92.06
357.534	92.06
357.761	83.06
357.988	92.06
358.215	85.06
358.441	75.06
358.668	78.06
358.895	84.06
359.122	95.06
359.349	80.06
359.576	79.06
359.802	76.06
360.029	72.06
360.256	88.06
360.483	97.06
360.709	86.06
360.936	91.06
361.163	83.06
361.39	74.06
361.616	81.06
361.843	75.06
362.07	96.06
362.296	95.06
362.523	90.06
362.749	87.06
362.976	92.06
363.203	93.06
363.429	97.06
363.656	84.06
363.882	83.06
364.109	87.06
364.335	100.06
364.562	96.06
364.788	106.06
365.015	82.06
365.241	103.06
365.468	90.06
365.694	74.06
365.92	84.06
366.147	79.06
366.373	83.06
366.599	94.06
366.826	86.06
367.052	85.06
367.278	95.06
367.505	77.06
367.731	94.06
367.957	71.06
368.184	84.06
368.41	96.06
368.636	84.06
368.862	73.06
369.089	83.06
369.315	87.06
369.541	89.06
369.767	80.06
369.993	91.06
370.219	85.06
370.445	92.06
370.672	89.06
370.898	77.06
371.124	91.06
371.35	96.06
371.576	81.06
371.802	94.06
372.028	91.06
372.254	71.06
372.48	89.06
372.706	88.06
372.932	90.06
373.158	93.06
373.384	91.06
373.61	92.06
373.835	83.06
374.061	81.06
374.287	92.06
374.513	96.06
374.739	94.06
374.965	88.06
375.191	93.06
375.416	95.06
375.642	88.06
375.868	87.06
376.094	80.06
376.319	94.06
376.545	104.06
376.771	82.06
376.997	84.06
377.222	91.06
377.448	95.06
377.674	83.06
377.899	80.06
378.125	101.06
378.35	90.06
378.576	79.06
378.802	77.06
379.027	77.06
379.253	81.06
379.478	99.06
379.704	72.06
379.929	80.06
380.155	80.06
380.38	91.06
380.606	94.06
380.831	76.06
381.057	76.06
381.282	108.06
381.507	92.06
381.733	75.06
381.958	88.06
382.184	104.06
382.409	82.06
382.634	95.06
382.86	68.06
383.085	92.06
383.31	98.06
383.535	95.06
383.761	85.06
383.986	90.06
384.211	99.06
384.436	89.06
384.662	80.06
384.887	80.06
385.112	77.06
385.337	79.06
385.562	83.06
385.787	74.06
386.013	80.06
386.238	86.06
386.463	97.06
386.688	98.06
386.913	78.06
387.138	85.06
387.363	82.06
387.588	85.06
387.813	82.06
388.038	83.06
388.263	87.06
388.488	94.06
388.713	79.06
388.938	85.06
389.163	93.06
389.387	82.06
389.612	80.06
389.837	76.06
390.062	97.06
390.287	94.06
390.512	81.06
390.736	82.06
390.961	75.06
391.186	92.06
391.411	89.06
391.636	81.06
391.86	86.06
392.085	81.06
392.31	73.06
392.534	87.06
392.759	111.06
392.984	111.06
393.208	152.06
393.433	200.06
393.658	167.06
393.882	102.06
394.107	91.06
394.331	102.06
394.556	106.06
394.78	95.06
395.005	75.06
395.229	92.06
395.454	89.06
395.678	88.06
395.903	105.06
396.127	109.06
396.352	115.06
396.576	123.06
396.801	156.06
397.025	179.06
397.249	115.06
397.474	100.06
397.698	93.06
397.922	81.06
398.147	101.06
398.371	98.06
398.595	84.06
398.82	81.06
399.044	85.06
399.268	82.06
399.492	95.06
399.717	99.06
399.941	86.06
400.165	92.06
400.389	77.06
400.613	91.06
400.837	88.06
401.062	73.06
401.286	82.06
401.51	91.06
401.734	76.06
401.958	66.06
402.182	80.06
402.406	77.06
402.63	81.06
402.854	87.06
403.078	79.06
403.302	90.06
403.526	94.06
403.75	82.06
403.974	89.06
404.198	89.06
404.422	103.06
404.645	89.06
404.869	108.06
405.093	84.06
405.317	59.06
405.541	76.06
405.765	83.06
405.988	91.06
406.212	81.06
406.436	84.06
406.66	103.06
406.883	93.06
407.107	81.06
407.331	86.06
407.555	83.06
407.778	86.06
408.002	85.06
408.226	95.06
408.449	77.06
408.673	96.06
408.896	81.06
409.12	99.06
409.344	91.06
409.567	94.06
409.791	84.06
410.014	97.06
410.238	90.06
410.461	88.06
410.685	92.06
410.908	76.06
411.132	75.06
411.355	74.06
411.578	79.06
411.802	85.06
412.025	77.06
412.249	84.06
412.472	77.06
412.695	80.06
412.919	91.06
413.142	93.06
413.365	91.06
413.589	79.06
413.812	80.06
414.035	83.06
414.258	92.06
414.482	82.06
414.705	82.06
414.928	85.06
415.151	79.06
415.374	91.06
415.597	86.06
415.821	87.06
416.044	91.06
416.267	75.06
416.49	83.06
416.713	72.06
416.936	89.06
417.159	67.06
417.382	78.06
417.605	78.06
417.828	98.06
418.051	83.06
418.274	67.06
418.497	83.06
418.72	86.06
418.943	80.06
419.166	84.06
419.389	80.06
419.611	80.06
419.834	93.06
420.057	87.06
420.28	77.06
420.503	70.06
420.726	80.06
420.948	84.06
421.171	83.06
421.394	92.06
421.617	92.06
421.839	103.06
422.062	106.06
422.285	128.06
422.507	175.06
422.73	251.06
422.953	229.06
423.175	131.06
423.398	99.06
423.621	88.06
423.843	91.06
424.066	71.06
424.288	83.06
424.511	89.06
424.733	84.06
424.956	79.06
425.178	76.06
425.401	86.06
425.623	92.06
425.846	87.06
426.068	77.06
426.291	78.06
426.513	89.06
426.735	83.06
426.958	86.06
427.18	83.06
427.402	86.06
427.625	87.06
427.847	74.06
428.069	86.06
428.292	85.06
428.514	102.06
428.736	115.06
428.958	99.06
429.181	113.06
429.403	96.06
429.625	84.06
429.847	99.06
430.069	112.06
430.292	127.06
430.514	115.06
430.736	110.06
430.958	119.06
431.18	88.06
431.402	99.06
431.624	77.06
431.846	105.06
432.068	96.06
432.29	89.06
432.512	82.06
432.734	83.06
432.956	83.06
433.178	100.06
433.4	99.06
433.622	86.06
433.844	84.06
434.066	86.06
434.287	89.06
434.509	67.06
434.731	87.06
434.953	85.06
435.175	85.06
435.397	96.06
435.618	85.06
435.84	83.06
436.062	88.06
436.284	78.06
436.505	92.06
436.727	77.06
436.949	77.06
437.17	91.06
437.392	77.06
437.614	78.06
437.835	77.06
438.057	86.06
438.278	79.06
438.5	80.06
438.721	80.06
438.943	82.06
439.165	82.06
439.386	85.06
439.608	85.06
439.829	91.06
440.05	87.06
440.272	83.06
440.493	98.06
440.715	90.06
440.936	81.06
441.158	80.06
441.379	90.06
441.6	86.06
441.822	82.06
442.043	80.06
442.264	83.06
442.486	103.06
442.707	115.06
442.928	105.06
443.149	102.06
443.371	123.06
443.592	147.06
443.813	128.06
444.034	97.06
444.255	97.06
444.476	84.06
444.698	87.06
444.919	84.06
445.14	164.06
445.361	150.06
445.582	180.06
445.803	159.06
446.024	92.06
446.245	97.06
446.466	73.06
446.687	73.06
446.908	76.06
447.129	88.06
447.35	81.06
447.571	89.06
447.792	92.06
448.013	77.06
448.234	84.06
448.455	84.06
448.675	92.06
448.896	73.06
449.117	82.06
449.338	72.06
449.559	74.06
449.779	92.06
450	75.06
450.221	75.06
450.442	72.06
450.662	83.06
450.883	86.06
451.104	89.06
451.324	75.06
451.545	80.06
451.766	87.06
451.986	90.06
452.207	91.06
452.428	70.06
452.648	93.06
452.869	91.06
453.089	91.06
453.31	71.06
453.53	80.06
453.751	89.06
453.971	80.06
454.192	78.06
454.412	72.06
454.633	84.06
454.853	91.06
455.073	92.06
455.294	73.06
455.514	79.06
455.734	86.06
455.955	86.06
456.175	72.06
456.395	89.06
456.616	86.06
456.836	87.06
457.056	85.06
457.276	74.06
457.497	85.06
457.717	87.06
457.937	103.06
458.157	105.06
458.377	106.06
458.598	101.06
458.818	89.06
459.038	84.06
459.258	85.06
459.478	92.06
459.698	78.06
459.918	78.06
460.138	77.06
460.358	75.06
460.578	100.06
460.798	104.06
461.018	111.06
461.238	72.06
461.458	97.06
461.678	92.06
461.898	67.06
462.118	87.06
462.338	83.06
462.558	88.06
462.777	82.06
462.997	73.06
463.217	83.06
463.437	97.06
463.657	76.06
463.876	73.06
464.096	79.06
464.316	79.06
464.536	94.06
464.755	76.06
464.975	86.06
465.195	88.06
465.414	87.06
465.634	98.06
465.854	81.06
466.073	87.06
466.293	78.06
466.512	76.06
466.732	85.06
466.951	75.06
467.171	88.06
467.391	89.06
467.61	76.06
467.829	89.06
468.049	89.06
468.268	77.06
468.488	85.06
468.707	96.06
468.927	67.06
469.146	81.06
469.365	89.06
469.585	77.06
469.804	87.06
470.023	83.06
470.243	77.06
470.462	81.06
470.681	89.06
470.901	79.06
471.12	76.06
471.339	81.06
471.558	77.06
471.777	84.06
471.997	84.06
472.216	74.06
472.435	97.06
472.654	87.06
472.873	91.06
473.092	92.06
473.311	79.06
473.53	76.06
473.749	83.06
473.968	89.06
474.187	83.06
474.406	79.06
474.625	90.06
474.844	92.06
475.063	84.06
475.282	87.06
475.501	84.06
475.72	76.06
475.939	80.06
476.158	75.06
476.377	85.06
476.596	78.06
476.814	71.06
477.033	84.06
477.252	91.06
477.471	89.06
477.69	80.06
477.908	74.06
478.127	80.06
478.346	84.06
478.564	90.06
478.783	92.06
479.002	78.06
479.22	99.06
479.439	87.06
479.658	92.06
479.876	92.06
480.095	84.06
480.313	85.06
480.532	92.06
480.751	88.06
480.969	81.06
481.188	83.06
481.406	88.06
481.624	87.06
481.843	83.06
482.061	80.06
482.28	85.06
482.498	82.06
482.717	86.06
482.935	98.06
483.153	98.06
483.372	93.06
483.59	90.06
483.808	71.06
484.027	83.06
484.245	84.06
484.463	87.06
484.681	106.06
484.9	86.06
485.118	87.06
485.336	85.06
485.554	80.06
485.772	77.06
485.99	98.06
486.209	85.06
486.427	76.06
486.645	91.06
486.863	90.06
487.081	90.06
487.299	95.06
487.517	85.06
487.735	82.06
487.953	118.06
488.171	104.06
488.389	89.06
488.607	85.06
488.825	87.06
489.043	90.06
489.261	85.06
489.479	91.06
489.696	97.06
489.914	83.06
490.132	92.06
490.35	85.06
490.568	94.06
490.786	95.06
491.003	85.06
491.221	90.06
491.439	93.06
491.657	85.06
491.874	90.06
492.092	89.06
492.31	97.06
492.527	88.06
492.745	73.06
492.963	84.06
493.18	95.06
493.398	90.06
493.615	88.06
493.833	77.06
494.05	84.06
494.268	79.06
494.485	99.06
494.703	78.06
494.92	88.06
495.138	93.06
495.355	78.06
495.573	75.06
495.79	87.06
496.008	71.06
496.225	93.06
496.442	96.06
496.66	99.06
496.877	81.06
497.094	84.06
497.312	104.06
497.529	85.06
497.746	78.06
497.963	95.06
498.181	63.06
498.398	76.06
498.615	85.06
498.832	83.06
499.049	76.06
499.267	79.06
499.484	94.06
499.701	76.06
499.918	91.06
500.135	78.06
500.352	82.06
500.569	94.06
500.786	77.06
501.003	82.06
501.22	71.06
501.437	76.06
501.654	88.06
501.871	70.06
502.088	87.06
502.305	88.06
502.522	78.06
502.739	78.06
502.956	84.06
503.172	86.06
503.389	90.06
503.606	77.06
503.823	95.06
504.04	88.06
504.256	103.06
504.473	111.06
504.69	73.06
504.907	95.06
505.123	73.06
505.34	84.06
505.557	74.06
505.773	87.06
505.99	79.06
506.207	99.06
506.423	93.06
506.64	84.06
506.856	67.06
507.073	91.06
507.289	74.06
507.506	86.06
507.722	87.06
507.939	87.06
508.155	86.06
508.372	80.06
508.588	95.06
508.805	87.06
509.021	92.06
509.238	93.06
509.454	72.06
509.67	84.06
509.887	90.06
510.103	85.06
510.319	91.06
510.536	95.06
510.752	81.06
510.968	80.06
511.184	66.06
511.401	90.06
511.617	89.06
511.833	85.06
512.049	82.06
512.265	91.06
512.481	92.06
512.698	81.06
512.914	100.06
513.13	87.06
513.346	80.06
513.562	92.06
513.778	85.06
513.994	85.06
514.21	91.06
514.426	85.06
514.642	75.06
514.858	76.06
515.074	97.06
515.29	91.06
515.506	87.06
515.721	80.06
515.937	87.06
516.153	93.06
516.369	70.06
516.585	83.06
516.801	78.06
517.016	77.06
517.232	83.06
517.448	88.06
517.664	81.06
517.879	77.06
518.095	94.06
518.311	79.06
518.527	92.06
518.742	99.06
518.958	95.06
519.173	115.06
