Data from 237_1_HRD10591_00006.txt Node
Date: Mon Jan 19 14:10:32 EST 2026
User: Yrep
Spectrometer: HR+D1059
Trigger mode: 1
Integration Time (sec): 1.000000E-1
Scans to average: 1
Electric dark correction enabled: true
Nonlinearity correction enabled: false
Boxcar width: 0
XAxis mode: Wavelengths
Number of Pixels in Spectrum: 2048
>>>>>Begin Spectral Data<<<<<
223.165	-17.75
223.4	-17.75
223.635	-17.75
223.869	-13.75
224.104	-29.75
224.338	-19.75
224.573	-8.75
224.808	-17.75
225.042	-15.75
225.277	-19.75
225.511	-0.75
225.746	9.25
225.98	7.25
226.215	28.25
226.449	22.25
226.683	21.25
226.918	9.25
227.152	46.25
227.387	47.25
227.621	37.25
227.856	52.25
228.09	41.25
228.324	56.25
228.559	58.25
228.793	52.25
229.027	63.25
229.262	53.25
229.496	60.25
229.73	55.25
229.964	81.25
230.199	85.25
230.433	88.25
230.667	80.25
230.901	70.25
231.136	70.25
231.37	85.25
231.604	78.25
231.838	79.25
232.072	71.25
232.306	81.25
232.541	75.25
232.775	70.25
233.009	89.25
233.243	80.25
233.477	80.25
233.711	67.25
233.945	76.25
234.179	71.25
234.413	70.25
234.647	75.25
234.881	77.25
235.115	64.25
235.349	83.25
235.583	94.25
235.817	86.25
236.051	70.25
236.285	72.25
236.519	83.25
236.753	70.25
236.987	86.25
237.221	64.25
237.455	84.25
237.689	72.25
237.922	79.25
238.156	84.25
238.39	81.25
238.624	79.25
238.858	82.25
239.091	68.25
239.325	76.25
239.559	72.25
239.793	66.25
240.027	88.25
240.26	84.25
240.494	81.25
240.728	76.25
240.961	68.25
241.195	80.25
241.429	76.25
241.662	79.25
241.896	64.25
242.13	73.25
242.363	76.25
242.597	84.25
242.83	77.25
243.064	66.25
243.298	59.25
243.531	74.25
243.765	72.25
243.998	75.25
244.232	86.25
244.465	85.25
244.699	52.25
244.932	69.25
245.166	71.25
245.399	73.25
245.633	83.25
245.866	74.25
246.099	86.25
246.333	76.25
246.566	82.25
246.8	82.25
247.033	71.25
247.266	79.25
247.5	75.25
247.733	92.25
247.966	78.25
248.2	86.25
248.433	86.25
248.666	83.25
248.899	83.25
249.133	82.25
249.366	82.25
249.599	84.25
249.832	91.25
250.066	72.25
250.299	64.25
250.532	87.25
250.765	81.25
250.998	78.25
251.231	72.25
251.465	76.25
251.698	75.25
251.931	89.25
252.164	92.25
252.397	77.25
252.63	85.25
252.863	90.25
253.096	68.25
253.329	76.25
253.562	64.25
253.795	86.25
254.028	81.25
254.261	76.25
254.494	81.25
254.727	77.25
254.96	81.25
255.193	74.25
255.426	79.25
255.659	71.25
255.892	85.25
256.124	76.25
256.357	83.25
256.59	83.25
256.823	87.25
257.056	79.25
257.289	75.25
257.521	82.25
257.754	89.25
257.987	75.25
258.22	77.25
258.452	77.25
258.685	76.25
258.918	72.25
259.151	77.25
259.383	70.25
259.616	62.25
259.849	86.25
260.081	81.25
260.314	66.25
260.547	74.25
260.779	88.25
261.012	76.25
261.244	77.25
261.477	84.25
261.71	83.25
261.942	88.25
262.175	86.25
262.407	80.25
262.64	79.25
262.872	85.25
263.105	82.25
263.337	87.25
263.57	92.25
263.802	100.25
264.035	72.25
264.267	76.25
264.499	82.25
264.732	81.25
264.964	74.25
265.197	88.25
265.429	92.25
265.661	72.25
265.894	83.25
266.126	80.25
266.358	76.25
266.591	84.25
266.823	85.25
267.055	87.25
267.287	94.25
267.52	86.25
267.752	71.25
267.984	89.25
268.216	77.25
268.448	74.25
268.681	81.25
268.913	80.25
269.145	71.25
269.377	81.25
269.609	83.25
269.841	82.25
270.073	72.25
270.306	78.25
270.538	81.25
270.77	86.25
271.002	88.25
271.234	65.25
271.466	84.25
271.698	75.25
271.93	65.25
272.162	97.25
272.394	81.25
272.626	95.25
272.858	74.25
273.09	80.25
273.322	78.25
273.553	86.25
273.785	76.25
274.017	82.25
274.249	76.25
274.481	78.25
274.713	75.25
274.945	86.25
275.176	78.25
275.408	83.25
275.64	88.25
275.872	92.25
276.104	77.25
276.335	88.25
276.567	74.25
276.799	71.25
277.031	84.25
277.262	75.25
277.494	68.25
277.726	87.25
277.957	81.25
278.189	73.25
278.421	82.25
278.652	85.25
278.884	92.25
279.115	96.25
279.347	89.25
279.579	87.25
279.81	80.25
280.042	87.25
280.273	84.25
280.505	89.25
280.736	99.25
280.968	87.25
281.199	80.25
281.431	102.25
281.662	98.25
281.894	83.25
282.125	75.25
282.356	78.25
282.588	79.25
282.819	87.25
283.051	83.25
283.282	92.25
283.513	81.25
283.745	75.25
283.976	82.25
284.207	90.25
284.439	84.25
284.67	88.25
284.901	95.25
285.132	99.25
285.364	107.25
285.595	91.25
285.826	101.25
286.057	104.25
286.288	79.25
286.52	79.25
286.751	89.25
286.982	91.25
287.213	75.25
287.444	87.25
287.675	86.25
287.906	92.25
288.138	91.25
288.369	89.25
288.6	82.25
288.831	71.25
289.062	89.25
289.293	86.25
289.524	70.25
289.755	85.25
289.986	81.25
290.217	82.25
290.448	83.25
290.679	89.25
290.91	91.25
291.141	92.25
291.371	107.25
291.602	81.25
291.833	80.25
292.064	85.25
292.295	92.25
292.526	89.25
292.757	80.25
292.987	83.25
293.218	76.25
293.449	70.25
293.68	82.25
293.91	91.25
294.141	86.25
294.372	80.25
294.603	90.25
294.833	86.25
295.064	81.25
295.295	86.25
295.525	96.25
295.756	81.25
295.987	88.25
296.217	76.25
296.448	94.25
296.679	97.25
296.909	87.25
297.14	86.25
297.37	84.25
297.601	84.25
297.831	87.25
298.062	88.25
298.292	94.25
298.523	93.25
298.753	80.25
298.984	89.25
299.214	88.25
299.445	77.25
299.675	87.25
299.905	79.25
300.136	91.25
300.366	90.25
300.597	104.25
300.827	95.25
301.057	95.25
301.288	92.25
301.518	80.25
301.748	80.25
301.979	96.25
302.209	100.25
302.439	93.25
302.669	80.25
302.9	86.25
303.13	94.25
303.36	91.25
303.59	90.25
303.82	76.25
304.051	76.25
304.281	96.25
304.511	87.25
304.741	84.25
304.971	108.25
305.201	103.25
305.431	78.25
305.661	89.25
305.891	90.25
306.121	101.25
306.352	88.25
306.582	85.25
306.812	73.25
307.042	84.25
307.272	85.25
307.502	76.25
307.731	82.25
307.961	97.25
308.191	84.25
308.421	89.25
308.651	80.25
308.881	84.25
309.111	90.25
309.341	102.25
309.571	90.25
309.8	80.25
310.03	102.25
310.26	82.25
310.49	76.25
310.72	95.25
310.949	81.25
311.179	84.25
311.409	90.25
311.639	99.25
311.868	84.25
312.098	81.25
312.328	74.25
312.557	76.25
312.787	86.25
313.017	87.25
313.246	80.25
313.476	83.25
313.706	77.25
313.935	73.25
314.165	87.25
314.394	88.25
314.624	85.25
314.853	110.25
315.083	76.25
315.312	96.25
315.542	81.25
315.771	108.25
316.001	98.25
316.23	92.25
316.46	82.25
316.689	91.25
316.919	86.25
317.148	85.25
317.377	92.25
317.607	94.25
317.836	102.25
318.065	98.25
318.295	94.25
318.524	83.25
318.753	98.25
318.983	92.25
319.212	93.25
319.441	94.25
319.67	108.25
319.9	94.25
320.129	86.25
320.358	97.25
320.587	89.25
320.816	87.25
321.046	83.25
321.275	96.25
321.504	100.25
321.733	102.25
321.962	91.25
322.191	93.25
322.42	92.25
322.649	96.25
322.878	89.25
323.108	88.25
323.337	97.25
323.566	94.25
323.795	103.25
324.024	92.25
324.253	95.25
324.482	90.25
324.71	80.25
324.939	88.25
325.168	85.25
325.397	81.25
325.626	90.25
325.855	70.25
326.084	85.25
326.313	82.25
326.542	80.25
326.77	74.25
326.999	87.25
327.228	100.25
327.457	79.25
327.686	88.25
327.914	94.25
328.143	94.25
328.372	77.25
328.6	81.25
328.829	75.25
329.058	88.25
329.287	87.25
329.515	84.25
329.744	90.25
329.972	92.25
330.201	89.25
330.43	82.25
330.658	102.25
330.887	67.25
331.115	98.25
331.344	83.25
331.572	90.25
331.801	90.25
332.03	88.25
332.258	91.25
332.486	92.25
332.715	76.25
332.943	92.25
333.172	96.25
333.4	92.25
333.629	92.25
333.857	96.25
334.085	95.25
334.314	93.25
334.542	94.25
334.771	100.25
334.999	101.25
335.227	100.25
335.455	98.25
335.684	104.25
335.912	104.25
336.14	110.25
336.369	110.25
336.597	100.25
336.825	100.25
337.053	80.25
337.281	94.25
337.51	88.25
337.738	89.25
337.966	100.25
338.194	105.25
338.422	91.25
338.65	86.25
338.878	86.25
339.106	99.25
339.334	92.25
339.562	73.25
339.79	90.25
340.018	79.25
340.246	74.25
340.474	84.25
340.702	87.25
340.93	82.25
341.158	90.25
341.386	86.25
341.614	85.25
341.842	102.25
342.07	99.25
342.298	75.25
342.526	83.25
342.754	107.25
342.981	87.25
343.209	90.25
343.437	91.25
343.665	88.25
343.893	93.25
344.12	91.25
344.348	99.25
344.576	88.25
344.804	94.25
345.031	76.25
345.259	87.25
345.487	84.25
345.714	86.25
345.942	82.25
346.17	82.25
346.397	78.25
346.625	101.25
346.853	88.25
347.08	88.25
347.308	96.25
347.535	89.25
347.763	102.25
347.99	89.25
348.218	82.25
348.445	80.25
348.673	98.25
348.9	96.25
349.128	88.25
349.355	78.25
349.583	92.25
349.81	85.25
350.037	92.25
350.265	82.25
350.492	86.25
350.72	94.25
350.947	74.25
351.174	87.25
351.402	90.25
351.629	88.25
351.856	91.25
352.083	86.25
352.311	86.25
352.538	91.25
352.765	100.25
352.992	110.25
353.22	82.25
353.447	97.25
353.674	83.25
353.901	76.25
354.128	83.25
354.355	72.25
354.583	77.25
354.81	86.25
355.037	102.25
355.264	95.25
355.491	85.25
355.718	79.25
355.945	76.25
356.172	74.25
356.399	116.25
356.626	88.25
356.853	97.25
357.08	88.25
357.307	97.25
357.534	87.25
357.761	101.25
357.988	91.25
358.215	104.25
358.441	95.25
358.668	85.25
358.895	87.25
359.122	93.25
359.349	90.25
359.576	98.25
359.802	93.25
360.029	89.25
360.256	73.25
360.483	94.25
360.709	89.25
360.936	96.25
361.163	90.25
361.39	89.25
361.616	98.25
361.843	95.25
362.07	117.25
362.296	120.25
362.523	122.25
362.749	127.25
362.976	134.25
363.203	147.25
363.429	120.25
363.656	98.25
363.882	118.25
364.109	130.25
364.335	169.25
364.562	177.25
364.788	144.25
365.015	123.25
365.241	88.25
365.468	94.25
365.694	88.25
365.92	97.25
366.147	95.25
366.373	86.25
366.599	90.25
366.826	94.25
367.052	94.25
367.278	97.25
367.505	92.25
367.731	86.25
367.957	78.25
368.184	83.25
368.41	86.25
368.636	85.25
368.862	82.25
369.089	86.25
369.315	83.25
369.541	91.25
369.767	108.25
369.993	84.25
370.219	71.25
370.445	90.25
370.672	105.25
370.898	105.25
371.124	97.25
371.35	86.25
371.576	84.25
371.802	84.25
372.028	99.25
372.254	101.25
372.48	98.25
372.706	87.25
372.932	75.25
373.158	105.25
373.384	110.25
373.61	114.25
373.835	105.25
374.061	102.25
374.287	88.25
374.513	86.25
374.739	103.25
374.965	96.25
375.191	99.25
375.416	90.25
375.642	87.25
375.868	103.25
376.094	100.25
376.319	99.25
376.545	99.25
376.771	101.25
376.997	84.25
377.222	84.25
377.448	84.25
377.674	89.25
377.899	79.25
378.125	90.25
378.35	85.25
378.576	94.25
378.802	86.25
379.027	81.25
379.253	91.25
379.478	90.25
379.704	89.25
379.929	99.25
380.155	85.25
380.38	94.25
380.606	77.25
380.831	79.25
381.057	95.25
381.282	94.25
381.507	92.25
381.733	101.25
381.958	94.25
382.184	97.25
382.409	102.25
382.634	99.25
382.86	89.25
383.085	94.25
383.31	112.25
383.535	104.25
383.761	112.25
383.986	113.25
384.211	99.25
384.436	105.25
384.662	98.25
384.887	97.25
385.112	87.25
385.337	96.25
385.562	90.25
385.787	89.25
386.013	120.25
386.238	101.25
386.463	102.25
386.688	99.25
386.913	96.25
387.138	91.25
387.363	93.25
387.588	110.25
387.813	98.25
388.038	101.25
388.263	108.25
388.488	109.25
388.713	95.25
388.938	94.25
389.163	98.25
389.387	103.25
389.612	82.25
389.837	103.25
390.062	97.25
390.287	107.25
390.512	97.25
390.736	87.25
390.961	88.25
391.186	82.25
391.411	90.25
391.636	95.25
391.86	107.25
392.085	119.25
392.31	107.25
392.534	118.25
392.759	135.25
392.984	192.25
393.208	329.25
393.433	440.25
393.658	352.25
393.882	181.25
394.107	138.25
394.331	130.25
394.556	137.25
394.78	114.25
395.005	106.25
395.229	113.25
395.454	107.25
395.678	123.25
395.903	136.25
396.127	154.25
396.352	180.25
396.576	218.25
396.801	321.25
397.025	347.25
397.249	223.25
397.474	130.25
397.698	115.25
397.922	102.25
398.147	102.25
398.371	95.25
398.595	93.25
398.82	95.25
399.044	91.25
399.268	90.25
399.492	93.25
399.717	80.25
399.941	103.25
400.165	86.25
400.389	76.25
400.613	97.25
400.837	93.25
401.062	86.25
401.286	82.25
401.51	89.25
401.734	91.25
401.958	87.25
402.182	81.25
402.406	74.25
402.63	82.25
402.854	87.25
403.078	87.25
403.302	79.25
403.526	86.25
403.75	90.25
403.974	105.25
404.198	124.25
404.422	155.25
404.645	163.25
404.869	132.25
405.093	120.25
405.317	100.25
405.541	89.25
405.765	87.25
405.988	98.25
406.212	103.25
406.436	97.25
406.66	97.25
406.883	76.25
407.107	99.25
407.331	95.25
407.555	90.25
407.778	106.25
408.002	114.25
408.226	101.25
408.449	80.25
408.673	84.25
408.896	94.25
409.12	95.25
409.344	111.25
409.567	100.25
409.791	113.25
410.014	98.25
410.238	114.25
410.461	102.25
410.685	110.25
410.908	83.25
411.132	98.25
411.355	108.25
411.578	98.25
411.802	91.25
412.025	88.25
412.249	82.25
412.472	91.25
412.695	89.25
412.919	83.25
413.142	85.25
413.365	90.25
413.589	88.25
413.812	82.25
414.035	72.25
414.258	88.25
414.482	99.25
414.705	84.25
414.928	93.25
415.151	89.25
415.374	96.25
415.597	96.25
415.821	82.25
416.044	90.25
416.267	91.25
416.49	80.25
416.713	91.25
416.936	83.25
417.159	90.25
417.382	86.25
417.605	75.25
417.828	96.25
418.051	91.25
418.274	84.25
418.497	86.25
418.72	84.25
418.943	90.25
419.166	89.25
419.389	81.25
419.611	75.25
419.834	94.25
420.057	101.25
420.28	105.25
420.503	112.25
420.726	103.25
420.948	97.25
421.171	115.25
421.394	108.25
421.617	150.25
421.839	158.25
422.062	192.25
422.285	285.25
422.507	449.25
422.73	679.25
422.953	594.25
423.175	333.25
423.398	198.25
423.621	146.25
423.843	126.25
424.066	123.25
424.288	105.25
424.511	99.25
424.733	115.25
424.956	110.25
425.178	98.25
425.401	96.25
425.623	90.25
425.846	96.25
426.068	86.25
426.291	94.25
426.513	90.25
426.735	91.25
426.958	107.25
427.18	104.25
427.402	102.25
427.625	98.25
427.847	98.25
428.069	118.25
428.292	155.25
428.514	190.25
428.736	129.25
428.958	176.25
429.181	179.25
429.403	120.25
429.625	114.25
429.847	150.25
430.069	247.25
430.292	281.25
430.514	238.25
430.736	180.25
430.958	209.25
431.18	126.25
431.402	99.25
431.624	112.25
431.846	168.25
432.068	177.25
432.29	114.25
432.512	100.25
432.734	91.25
432.956	92.25
433.178	88.25
433.4	91.25
433.622	92.25
433.844	94.25
434.066	86.25
434.287	82.25
434.509	81.25
434.731	92.25
434.953	87.25
435.175	81.25
435.397	94.25
435.618	96.25
435.84	86.25
436.062	90.25
436.284	83.25
436.505	89.25
436.727	84.25
436.949	110.25
437.17	87.25
437.392	77.25
437.614	82.25
437.835	88.25
438.057	102.25
438.278	94.25
438.5	96.25
438.721	104.25
438.943	91.25
439.165	76.25
439.386	92.25
439.608	79.25
439.829	88.25
440.05	77.25
440.272	83.25
440.493	100.25
440.715	91.25
440.936	107.25
441.158	87.25
441.379	95.25
441.6	91.25
441.822	80.25
442.043	106.25
442.264	119.25
442.486	199.25
442.707	266.25
442.928	166.25
443.149	149.25
443.371	231.25
443.592	386.25
443.813	334.25
444.034	137.25
444.255	120.25
444.476	108.25
444.698	99.25
444.919	107.25
445.14	205.25
445.361	289.25
445.582	482.25
445.803	406.25
446.024	180.25
446.245	122.25
446.466	92.25
446.687	86.25
446.908	73.25
447.129	101.25
447.35	86.25
447.571	86.25
447.792	82.25
448.013	76.25
448.234	86.25
448.455	74.25
448.675	75.25
448.896	100.25
449.117	79.25
449.338	83.25
449.559	94.25
449.779	87.25
450	87.25
450.221	92.25
450.442	78.25
450.662	88.25
450.883	88.25
451.104	102.25
451.324	76.25
451.545	88.25
451.766	95.25
451.986	83.25
452.207	90.25
452.428	104.25
452.648	107.25
452.869	115.25
453.089	107.25
453.31	88.25
453.53	106.25
453.751	107.25
453.971	87.25
454.192	86.25
454.412	86.25
454.633	87.25
454.853	86.25
455.073	100.25
455.294	95.25
455.514	84.25
455.734	84.25
455.955	89.25
456.175	74.25
456.395	82.25
456.616	88.25
456.836	82.25
457.056	85.25
457.276	85.25
457.497	83.25
457.717	113.25
457.937	132.25
458.157	158.25
458.377	180.25
458.598	179.25
458.818	187.25
459.038	121.25
459.258	97.25
459.478	86.25
459.698	83.25
459.918	87.25
460.138	79.25
460.358	75.25
460.578	96.25
460.798	144.25
461.018	149.25
461.238	90.25
461.458	83.25
461.678	91.25
461.898	85.25
462.118	84.25
462.338	71.25
462.558	96.25
462.777	82.25
462.997	87.25
463.217	90.25
463.437	88.25
463.657	86.25
463.876	87.25
464.096	81.25
464.316	88.25
464.536	85.25
464.755	90.25
464.975	85.25
465.195	73.25
465.414	90.25
465.634	90.25
465.854	94.25
466.073	81.25
466.293	84.25
466.512	77.25
466.732	103.25
466.951	94.25
467.171	102.25
467.391	89.25
467.61	71.25
467.829	94.25
468.049	84.25
468.268	92.25
468.488	94.25
468.707	89.25
468.927	71.25
469.146	78.25
469.365	82.25
469.585	95.25
469.804	86.25
470.023	110.25
470.243	77.25
470.462	77.25
470.681	74.25
470.901	78.25
471.12	88.25
471.339	91.25
471.558	86.25
471.777	87.25
471.997	89.25
472.216	81.25
472.435	90.25
472.654	82.25
472.873	85.25
473.092	89.25
473.311	85.25
473.53	87.25
473.749	88.25
473.968	89.25
474.187	83.25
474.406	88.25
474.625	72.25
474.844	79.25
475.063	87.25
475.282	91.25
475.501	87.25
475.72	91.25
475.939	100.25
476.158	82.25
476.377	95.25
476.596	86.25
476.814	74.25
477.033	91.25
477.252	85.25
477.471	90.25
477.69	85.25
477.908	81.25
478.127	96.25
478.346	100.25
478.564	82.25
478.783	80.25
479.002	84.25
479.22	92.25
479.439	94.25
479.658	106.25
479.876	91.25
480.095	89.25
480.313	81.25
480.532	80.25
480.751	104.25
480.969	94.25
481.188	93.25
481.406	84.25
481.624	77.25
481.843	99.25
482.061	82.25
482.28	90.25
482.498	90.25
482.717	89.25
482.935	90.25
483.153	95.25
483.372	98.25
483.59	90.25
483.808	90.25
484.027	93.25
484.245	92.25
484.463	108.25
484.681	94.25
484.9	99.25
485.118	100.25
485.336	92.25
485.554	98.25
485.772	74.25
485.99	90.25
486.209	94.25
486.427	82.25
486.645	84.25
486.863	91.25
487.081	96.25
487.299	88.25
487.517	118.25
487.735	149.25
487.953	236.25
488.171	219.25
488.389	124.25
488.607	99.25
488.825	95.25
489.043	72.25
489.261	90.25
489.479	92.25
489.696	89.25
489.914	80.25
490.132	98.25
490.35	89.25
490.568	97.25
490.786	114.25
491.003	98.25
491.221	94.25
491.439	90.25
491.657	95.25
491.874	85.25
492.092	89.25
492.31	87.25
492.527	84.25
492.745	79.25
492.963	105.25
493.18	87.25
493.398	94.25
493.615	87.25
493.833	94.25
494.05	95.25
494.268	79.25
494.485	84.25
494.703	84.25
494.92	79.25
495.138	76.25
495.355	102.25
495.573	104.25
495.79	98.25
496.008	83.25
496.225	90.25
496.442	90.25
496.66	103.25
496.877	96.25
497.094	89.25
497.312	82.25
497.529	87.25
497.746	92.25
497.963	79.25
498.181	82.25
498.398	113.25
498.615	110.25
498.832	90.25
499.049	87.25
499.267	97.25
499.484	92.25
499.701	95.25
499.918	99.25
500.135	108.25
500.352	101.25
500.569	94.25
500.786	97.25
501.003	113.25
501.22	100.25
501.437	96.25
501.654	102.25
501.871	85.25
502.088	89.25
502.305	111.25
502.522	89.25
502.739	98.25
502.956	81.25
503.172	100.25
503.389	89.25
503.606	92.25
503.823	93.25
504.04	113.25
504.256	153.25
504.473	166.25
504.69	114.25
504.907	111.25
505.123	96.25
505.34	89.25
505.557	93.25
505.773	95.25
505.99	94.25
506.207	74.25
506.423	101.25
506.64	95.25
506.856	91.25
507.073	81.25
507.289	90.25
507.506	99.25
507.722	93.25
507.939	90.25
508.155	95.25
508.372	69.25
508.588	86.25
508.805	74.25
509.021	86.25
509.238	88.25
509.454	99.25
509.67	90.25
509.887	86.25
510.103	85.25
510.319	104.25
510.536	87.25
510.752	83.25
510.968	94.25
511.184	91.25
511.401	88.25
511.617	91.25
511.833	92.25
512.049	77.25
512.265	102.25
512.481	91.25
512.698	91.25
512.914	91.25
513.13	86.25
513.346	94.25
513.562	90.25
513.778	89.25
513.994	87.25
514.21	87.25
514.426	76.25
514.642	96.25
514.858	86.25
515.074	87.25
515.29	96.25
515.506	92.25
515.721	75.25
515.937	89.25
516.153	91.25
516.369	92.25
516.585	96.25
