Data from 237_1_HRD10591_00019.txt Node
Date: Mon Jan 19 14:10:39 EST 2026
User: Yrep
Spectrometer: HR+D1059
Trigger mode: 1
Integration Time (sec): 1.000000E-1
Scans to average: 1
Electric dark correction enabled: true
Nonlinearity correction enabled: false
Boxcar width: 0
XAxis mode: Wavelengths
Number of Pixels in Spectrum: 2048
>>>>>Begin Spectral Data<<<<<
223.165	-11.19
223.4	-11.19
223.635	-11.19
223.869	-17.19
224.104	-22.19
224.338	-10.19
224.573	-18.19
224.808	-14.19
225.042	-8.19
225.277	-7.19
225.511	9.81
225.746	4.81
225.98	9.81
226.215	4.81
226.449	8.81
226.683	13.81
226.918	23.81
227.152	32.81
227.387	35.81
227.621	31.81
227.856	50.81
228.09	42.81
228.324	49.81
228.559	57.81
228.793	55.81
229.027	61.81
229.262	65.81
229.496	63.81
229.73	71.81
229.964	71.81
230.199	82.81
230.433	67.81
230.667	62.81
230.901	67.81
231.136	74.81
231.37	65.81
231.604	80.81
231.838	87.81
232.072	74.81
232.306	84.81
232.541	90.81
232.775	78.81
233.009	95.81
233.243	73.81
233.477	73.81
233.711	88.81
233.945	84.81
234.179	72.81
234.413	75.81
234.647	78.81
234.881	69.81
235.115	77.81
235.349	80.81
235.583	81.81
235.817	87.81
236.051	74.81
236.285	78.81
236.519	80.81
236.753	86.81
236.987	97.81
237.221	75.81
237.455	70.81
237.689	63.81
237.922	78.81
238.156	65.81
238.39	69.81
238.624	68.81
238.858	82.81
239.091	64.81
239.325	80.81
239.559	70.81
239.793	80.81
240.027	83.81
240.26	87.81
240.494	72.81
240.728	79.81
240.961	78.81
241.195	80.81
241.429	84.81
241.662	66.81
241.896	70.81
242.13	83.81
242.363	77.81
242.597	78.81
242.83	78.81
243.064	69.81
243.298	87.81
243.531	75.81
243.765	74.81
243.998	73.81
244.232	87.81
244.465	71.81
244.699	81.81
244.932	70.81
245.166	72.81
245.399	77.81
245.633	76.81
245.866	67.81
246.099	81.81
246.333	75.81
246.566	76.81
246.8	75.81
247.033	77.81
247.266	88.81
247.5	77.81
247.733	79.81
247.966	76.81
248.2	54.81
248.433	72.81
248.666	67.81
248.899	70.81
249.133	81.81
249.366	75.81
249.599	81.81
249.832	74.81
250.066	85.81
250.299	93.81
250.532	80.81
250.765	76.81
250.998	83.81
251.231	81.81
251.465	69.81
251.698	81.81
251.931	72.81
252.164	89.81
252.397	78.81
252.63	88.81
252.863	67.81
253.096	81.81
253.329	74.81
253.562	81.81
253.795	86.81
254.028	82.81
254.261	77.81
254.494	86.81
254.727	80.81
254.96	79.81
255.193	76.81
255.426	87.81
255.659	71.81
255.892	82.81
256.124	77.81
256.357	80.81
256.59	83.81
256.823	76.81
257.056	70.81
257.289	74.81
257.521	78.81
257.754	80.81
257.987	83.81
258.22	75.81
258.452	90.81
258.685	84.81
258.918	66.81
259.151	77.81
259.383	67.81
259.616	90.81
259.849	83.81
260.081	89.81
260.314	79.81
260.547	91.81
260.779	64.81
261.012	90.81
261.244	66.81
261.477	81.81
261.71	66.81
261.942	70.81
262.175	84.81
262.407	84.81
262.64	101.81
262.872	62.81
263.105	66.81
263.337	74.81
263.57	72.81
263.802	77.81
264.035	78.81
264.267	75.81
264.499	91.81
264.732	84.81
264.964	83.81
265.197	80.81
265.429	64.81
265.661	84.81
265.894	83.81
266.126	91.81
266.358	71.81
266.591	74.81
266.823	81.81
267.055	83.81
267.287	89.81
267.52	89.81
267.752	89.81
267.984	72.81
268.216	84.81
268.448	79.81
268.681	90.81
268.913	98.81
269.145	83.81
269.377	91.81
269.609	67.81
269.841	94.81
270.073	75.81
270.306	101.81
270.538	74.81
270.77	90.81
271.002	64.81
271.234	67.81
271.466	69.81
271.698	86.81
271.93	77.81
272.162	81.81
272.394	71.81
272.626	83.81
272.858	71.81
273.09	77.81
273.322	91.81
273.553	85.81
273.785	77.81
274.017	76.81
274.249	80.81
274.481	75.81
274.713	85.81
274.945	67.81
275.176	79.81
275.408	76.81
275.64	84.81
275.872	84.81
276.104	86.81
276.335	90.81
276.567	83.81
276.799	75.81
277.031	73.81
277.262	72.81
277.494	70.81
277.726	72.81
277.957	80.81
278.189	78.81
278.421	79.81
278.652	80.81
278.884	65.81
279.115	75.81
279.347	88.81
279.579	81.81
279.81	80.81
280.042	100.81
280.273	88.81
280.505	77.81
280.736	69.81
280.968	85.81
281.199	80.81
281.431	93.81
281.662	72.81
281.894	79.81
282.125	73.81
282.356	73.81
282.588	75.81
282.819	73.81
283.051	84.81
283.282	87.81
283.513	86.81
283.745	78.81
283.976	82.81
284.207	74.81
284.439	87.81
284.67	89.81
284.901	92.81
285.132	92.81
285.364	95.81
285.595	81.81
285.826	80.81
286.057	89.81
286.288	68.81
286.52	91.81
286.751	82.81
286.982	77.81
287.213	75.81
287.444	80.81
287.675	83.81
287.906	78.81
288.138	77.81
288.369	81.81
288.6	78.81
288.831	81.81
289.062	85.81
289.293	73.81
289.524	89.81
289.755	93.81
289.986	82.81
290.217	90.81
290.448	95.81
290.679	94.81
290.91	76.81
291.141	81.81
291.371	85.81
291.602	80.81
291.833	75.81
292.064	81.81
292.295	87.81
292.526	92.81
292.757	95.81
292.987	98.81
293.218	86.81
293.449	83.81
293.68	80.81
293.91	78.81
294.141	90.81
294.372	76.81
294.603	79.81
294.833	90.81
295.064	71.81
295.295	90.81
295.525	97.81
295.756	96.81
295.987	81.81
296.217	68.81
296.448	77.81
296.679	83.81
296.909	88.81
297.14	91.81
297.37	84.81
297.601	92.81
297.831	72.81
298.062	93.81
298.292	93.81
298.523	86.81
298.753	76.81
298.984	76.81
299.214	76.81
299.445	93.81
299.675	96.81
299.905	93.81
300.136	83.81
300.366	80.81
300.597	90.81
300.827	75.81
301.057	91.81
301.288	69.81
301.518	83.81
301.748	81.81
301.979	104.81
302.209	96.81
302.439	77.81
302.669	99.81
302.9	88.81
303.13	91.81
303.36	92.81
303.59	88.81
303.82	89.81
304.051	89.81
304.281	89.81
304.511	72.81
304.741	81.81
304.971	102.81
305.201	102.81
305.431	84.81
305.661	93.81
305.891	85.81
306.121	87.81
306.352	70.81
306.582	76.81
306.812	88.81
307.042	95.81
307.272	95.81
307.502	73.81
307.731	74.81
307.961	100.81
308.191	84.81
308.421	86.81
308.651	99.81
308.881	93.81
309.111	88.81
309.341	94.81
309.571	97.81
309.8	77.81
310.03	91.81
310.26	90.81
310.49	89.81
310.72	78.81
310.949	74.81
311.179	77.81
311.409	88.81
311.639	102.81
311.868	95.81
312.098	83.81
312.328	98.81
312.557	88.81
312.787	84.81
313.017	89.81
313.246	77.81
313.476	72.81
313.706	76.81
313.935	90.81
314.165	81.81
314.394	90.81
314.624	80.81
314.853	86.81
315.083	74.81
315.312	77.81
315.542	88.81
315.771	91.81
316.001	75.81
316.23	81.81
316.46	68.81
316.689	91.81
316.919	88.81
317.148	93.81
317.377	91.81
317.607	80.81
317.836	87.81
318.065	89.81
318.295	90.81
318.524	81.81
318.753	88.81
318.983	87.81
319.212	88.81
319.441	90.81
319.67	103.81
319.9	83.81
320.129	91.81
320.358	97.81
320.587	89.81
320.816	83.81
321.046	91.81
321.275	96.81
321.504	93.81
321.733	87.81
321.962	79.81
322.191	80.81
322.42	98.81
322.649	96.81
322.878	80.81
323.108	96.81
323.337	87.81
323.566	86.81
323.795	98.81
324.024	73.81
324.253	87.81
324.482	87.81
324.71	90.81
324.939	89.81
325.168	84.81
325.397	88.81
325.626	97.81
325.855	97.81
326.084	77.81
326.313	94.81
326.542	91.81
326.77	79.81
326.999	89.81
327.228	97.81
327.457	88.81
327.686	87.81
327.914	82.81
328.143	93.81
328.372	87.81
328.6	77.81
328.829	80.81
329.058	81.81
329.287	77.81
329.515	81.81
329.744	87.81
329.972	83.81
330.201	83.81
330.43	84.81
330.658	96.81
330.887	100.81
331.115	91.81
331.344	79.81
331.572	96.81
331.801	83.81
332.03	88.81
332.258	89.81
332.486	81.81
332.715	76.81
332.943	81.81
333.172	88.81
333.4	104.81
333.629	89.81
333.857	87.81
334.085	86.81
334.314	88.81
334.542	100.81
334.771	97.81
334.999	83.81
335.227	100.81
335.455	77.81
335.684	93.81
335.912	91.81
336.14	97.81
336.369	100.81
336.597	87.81
336.825	74.81
337.053	75.81
337.281	86.81
337.51	99.81
337.738	77.81
337.966	83.81
338.194	74.81
338.422	78.81
338.65	76.81
338.878	72.81
339.106	88.81
339.334	72.81
339.562	72.81
339.79	88.81
340.018	77.81
340.246	80.81
340.474	85.81
340.702	78.81
340.93	87.81
341.158	78.81
341.386	97.81
341.614	82.81
341.842	81.81
342.07	93.81
342.298	93.81
342.526	80.81
342.754	78.81
342.981	84.81
343.209	86.81
343.437	106.81
343.665	85.81
343.893	91.81
344.12	94.81
344.348	90.81
344.576	82.81
344.804	88.81
345.031	67.81
345.259	91.81
345.487	87.81
345.714	77.81
345.942	82.81
346.17	87.81
346.397	80.81
346.625	97.81
346.853	83.81
347.08	99.81
347.308	88.81
347.535	84.81
347.763	92.81
347.99	80.81
348.218	92.81
348.445	87.81
348.673	94.81
348.9	90.81
349.128	76.81
349.355	89.81
349.583	83.81
349.81	90.81
350.037	86.81
350.265	94.81
350.492	91.81
350.72	83.81
350.947	83.81
351.174	88.81
351.402	88.81
351.629	89.81
351.856	88.81
352.083	92.81
352.311	83.81
352.538	87.81
352.765	78.81
352.992	83.81
353.22	93.81
353.447	79.81
353.674	72.81
353.901	91.81
354.128	65.81
354.355	81.81
354.583	68.81
354.81	89.81
355.037	84.81
355.264	95.81
355.491	76.81
355.718	88.81
355.945	86.81
356.172	83.81
356.399	95.81
356.626	81.81
356.853	98.81
357.08	86.81
357.307	85.81
357.534	79.81
357.761	83.81
357.988	84.81
358.215	84.81
358.441	84.81
358.668	88.81
358.895	96.81
359.122	98.81
359.349	96.81
359.576	89.81
359.802	90.81
360.029	87.81
360.256	91.81
360.483	96.81
360.709	99.81
360.936	99.81
361.163	95.81
361.39	70.81
361.616	87.81
361.843	93.81
362.07	97.81
362.296	99.81
362.523	89.81
362.749	102.81
362.976	106.81
363.203	118.81
363.429	91.81
363.656	96.81
363.882	91.81
364.109	105.81
364.335	116.81
364.562	107.81
364.788	107.81
365.015	99.81
365.241	96.81
365.468	82.81
365.694	84.81
365.92	85.81
366.147	96.81
366.373	80.81
366.599	81.81
366.826	90.81
367.052	80.81
367.278	88.81
367.505	76.81
367.731	82.81
367.957	99.81
368.184	98.81
368.41	86.81
368.636	97.81
368.862	83.81
369.089	104.81
369.315	81.81
369.541	81.81
369.767	90.81
369.993	81.81
370.219	90.81
370.445	77.81
370.672	85.81
370.898	82.81
371.124	71.81
371.35	84.81
371.576	76.81
371.802	76.81
372.028	76.81
372.254	87.81
372.48	91.81
372.706	87.81
372.932	81.81
373.158	93.81
373.384	101.81
373.61	108.81
373.835	97.81
374.061	86.81
374.287	89.81
374.513	105.81
374.739	87.81
374.965	106.81
375.191	92.81
375.416	100.81
375.642	89.81
375.868	83.81
376.094	95.81
376.319	85.81
376.545	90.81
376.771	91.81
376.997	86.81
377.222	90.81
377.448	92.81
377.674	95.81
377.899	95.81
378.125	87.81
378.35	88.81
378.576	91.81
378.802	101.81
379.027	100.81
379.253	101.81
379.478	79.81
379.704	72.81
379.929	87.81
380.155	85.81
380.38	64.81
380.606	69.81
380.831	77.81
381.057	96.81
381.282	84.81
381.507	84.81
381.733	85.81
381.958	88.81
382.184	75.81
382.409	95.81
382.634	102.81
382.86	75.81
383.085	108.81
383.31	115.81
383.535	91.81
383.761	88.81
383.986	97.81
384.211	90.81
384.436	89.81
384.662	89.81
384.887	69.81
385.112	72.81
385.337	84.81
385.562	93.81
385.787	90.81
386.013	93.81
386.238	100.81
386.463	88.81
386.688	93.81
386.913	99.81
387.138	90.81
387.363	103.81
387.588	73.81
387.813	91.81
388.038	86.81
388.263	71.81
388.488	91.81
388.713	80.81
388.938	87.81
389.163	79.81
389.387	89.81
389.612	87.81
389.837	91.81
390.062	83.81
390.287	89.81
390.512	88.81
390.736	77.81
390.961	92.81
391.186	85.81
391.411	89.81
391.636	72.81
391.86	80.81
392.085	109.81
392.31	90.81
392.534	75.81
392.759	98.81
392.984	108.81
393.208	188.81
393.433	246.81
393.658	188.81
393.882	113.81
394.107	95.81
394.331	97.81
394.556	101.81
394.78	106.81
395.005	97.81
395.229	82.81
395.454	101.81
395.678	108.81
395.903	109.81
396.127	129.81
396.352	124.81
396.576	140.81
396.801	192.81
397.025	206.81
397.249	125.81
397.474	103.81
397.698	83.81
397.922	78.81
398.147	85.81
398.371	91.81
398.595	76.81
398.82	75.81
399.044	92.81
399.268	75.81
399.492	92.81
399.717	92.81
399.941	90.81
400.165	76.81
400.389	89.81
400.613	97.81
400.837	81.81
401.062	100.81
401.286	85.81
401.51	67.81
401.734	75.81
401.958	87.81
402.182	98.81
402.406	79.81
402.63	82.81
402.854	72.81
403.078	89.81
403.302	94.81
403.526	96.81
403.75	97.81
403.974	94.81
404.198	86.81
404.422	107.81
404.645	99.81
404.869	97.81
405.093	99.81
405.317	90.81
405.541	81.81
405.765	76.81
405.988	79.81
406.212	75.81
406.436	79.81
406.66	95.81
406.883	79.81
407.107	94.81
407.331	97.81
407.555	96.81
407.778	107.81
408.002	91.81
408.226	88.81
408.449	84.81
408.673	85.81
408.896	81.81
409.12	93.81
409.344	90.81
409.567	96.81
409.791	80.81
410.014	89.81
410.238	86.81
410.461	95.81
410.685	100.81
410.908	82.81
411.132	85.81
411.355	83.81
411.578	93.81
411.802	84.81
412.025	75.81
412.249	79.81
412.472	96.81
412.695	78.81
412.919	83.81
413.142	81.81
413.365	72.81
413.589	90.81
413.812	94.81
414.035	100.81
414.258	92.81
414.482	94.81
414.705	87.81
414.928	75.81
415.151	89.81
415.374	86.81
415.597	85.81
415.821	76.81
416.044	73.81
416.267	76.81
416.49	83.81
416.713	84.81
416.936	98.81
417.159	81.81
417.382	81.81
417.605	80.81
417.828	88.81
418.051	75.81
418.274	70.81
418.497	83.81
418.72	90.81
418.943	88.81
419.166	80.81
419.389	74.81
419.611	76.81
419.834	79.81
420.057	96.81
420.28	87.81
420.503	78.81
420.726	68.81
420.948	85.81
421.171	102.81
421.394	88.81
421.617	99.81
421.839	98.81
422.062	96.81
422.285	138.81
422.507	218.81
422.73	290.81
422.953	284.81
423.175	147.81
423.398	107.81
423.621	99.81
423.843	86.81
424.066	104.81
424.288	78.81
424.511	87.81
424.733	101.81
424.956	82.81
425.178	92.81
425.401	81.81
425.623	81.81
425.846	89.81
426.068	76.81
426.291	80.81
426.513	93.81
426.735	88.81
426.958	88.81
427.18	84.81
427.402	90.81
427.625	91.81
427.847	85.81
428.069	83.81
428.292	104.81
428.514	124.81
428.736	102.81
428.958	103.81
429.181	105.81
429.403	74.81
429.625	94.81
429.847	99.81
430.069	129.81
430.292	152.81
430.514	155.81
430.736	112.81
430.958	127.81
431.18	91.81
431.402	95.81
431.624	100.81
431.846	95.81
432.068	126.81
432.29	100.81
432.512	84.81
432.734	85.81
432.956	94.81
433.178	99.81
433.4	83.81
433.622	76.81
433.844	83.81
434.066	83.81
434.287	75.81
434.509	78.81
434.731	86.81
434.953	97.81
435.175	76.81
435.397	83.81
435.618	95.81
435.84	99.81
436.062	77.81
436.284	99.81
436.505	76.81
436.727	86.81
436.949	89.81
437.17	78.81
437.392	73.81
437.614	87.81
437.835	85.81
438.057	84.81
438.278	84.81
438.5	94.81
438.721	93.81
438.943	83.81
439.165	91.81
439.386	78.81
439.608	87.81
439.829	80.81
440.05	79.81
440.272	85.81
440.493	100.81
440.715	84.81
440.936	82.81
441.158	89.81
441.379	78.81
441.6	88.81
441.822	83.81
442.043	88.81
442.264	97.81
442.486	102.81
442.707	147.81
442.928	116.81
443.149	100.81
443.371	140.81
443.592	195.81
443.813	169.81
444.034	111.81
444.255	82.81
444.476	95.81
444.698	89.81
444.919	98.81
445.14	143.81
445.361	162.81
445.582	230.81
445.803	177.81
446.024	112.81
446.245	97.81
446.466	81.81
446.687	87.81
446.908	110.81
447.129	77.81
447.35	77.81
447.571	88.81
447.792	94.81
448.013	72.81
448.234	75.81
448.455	83.81
448.675	84.81
448.896	74.81
449.117	73.81
449.338	81.81
449.559	91.81
449.779	74.81
450	80.81
450.221	81.81
450.442	90.81
450.662	79.81
450.883	81.81
451.104	72.81
451.324	83.81
451.545	87.81
451.766	82.81
451.986	85.81
452.207	76.81
452.428	93.81
452.648	87.81
452.869	84.81
453.089	89.81
453.31	77.81
453.53	89.81
453.751	85.81
453.971	91.81
454.192	93.81
454.412	92.81
454.633	92.81
454.853	88.81
455.073	87.81
455.294	87.81
455.514	75.81
455.734	88.81
455.955	80.81
456.175	88.81
456.395	81.81
456.616	95.81
456.836	90.81
457.056	70.81
457.276	73.81
457.497	80.81
457.717	95.81
457.937	89.81
458.157	101.81
458.377	96.81
458.598	115.81
458.818	123.81
459.038	78.81
459.258	77.81
459.478	71.81
459.698	81.81
459.918	75.81
460.138	69.81
460.358	83.81
460.578	97.81
460.798	112.81
461.018	102.81
461.238	88.81
461.458	90.81
461.678	77.81
461.898	79.81
462.118	80.81
462.338	66.81
462.558	87.81
462.777	83.81
462.997	86.81
463.217	99.81
463.437	80.81
463.657	58.81
463.876	80.81
464.096	81.81
464.316	73.81
464.536	79.81
464.755	85.81
464.975	88.81
465.195	93.81
465.414	73.81
465.634	95.81
465.854	76.81
466.073	91.81
466.293	74.81
466.512	97.81
466.732	81.81
466.951	87.81
467.171	77.81
467.391	84.81
467.61	83.81
467.829	83.81
468.049	78.81
468.268	86.81
468.488	92.81
468.707	82.81
468.927	73.81
469.146	80.81
469.365	85.81
469.585	76.81
469.804	84.81
470.023	92.81
470.243	81.81
470.462	82.81
470.681	90.81
470.901	78.81
471.12	75.81
471.339	79.81
471.558	81.81
471.777	76.81
471.997	83.81
472.216	87.81
472.435	76.81
472.654	85.81
472.873	97.81
473.092	78.81
473.311	100.81
473.53	80.81
473.749	93.81
473.968	87.81
474.187	92.81
474.406	96.81
474.625	82.81
474.844	93.81
475.063	79.81
475.282	90.81
475.501	99.81
475.72	71.81
475.939	94.81
476.158	92.81
476.377	87.81
476.596	90.81
476.814	72.81
477.033	86.81
477.252	90.81
477.471	79.81
477.69	77.81
477.908	84.81
478.127	93.81
478.346	71.81
478.564	81.81
478.783	86.81
479.002	89.81
479.22	86.81
479.439	86.81
479.658	86.81
479.876	76.81
480.095	80.81
480.313	96.81
480.532	91.81
480.751	73.81
480.969	73.81
481.188	77.81
481.406	80.81
481.624	83.81
481.843	74.81
482.061	74.81
482.28	68.81
482.498	93.81
482.717	71.81
482.935	83.81
483.153	97.81
483.372	96.81
483.59	103.81
483.808	90.81
484.027	98.81
484.245	84.81
484.463	88.81
484.681	107.81
484.9	81.81
485.118	94.81
485.336	75.81
485.554	93.81
485.772	96.81
485.99	92.81
486.209	79.81
486.427	92.81
486.645	88.81
486.863	79.81
487.081	95.81
487.299	80.81
487.517	91.81
487.735	91.81
487.953	138.81
488.171	128.81
488.389	74.81
488.607	84.81
488.825	89.81
489.043	75.81
489.261	79.81
489.479	92.81
489.696	89.81
489.914	95.81
490.132	97.81
490.35	92.81
490.568	94.81
490.786	94.81
491.003	85.81
491.221	94.81
491.439	82.81
491.657	96.81
491.874	91.81
492.092	85.81
492.31	87.81
492.527	98.81
492.745	87.81
492.963	86.81
493.18	98.81
493.398	96.81
493.615	72.81
493.833	99.81
494.05	90.81
494.268	82.81
494.485	85.81
494.703	87.81
494.92	92.81
495.138	78.81
495.355	88.81
495.573	89.81
495.79	85.81
496.008	97.81
496.225	92.81
496.442	91.81
496.66	95.81
496.877	80.81
497.094	86.81
497.312	76.81
497.529	68.81
497.746	78.81
497.963	81.81
498.181	98.81
498.398	105.81
498.615	83.81
498.832	81.81
499.049	78.81
499.267	73.81
499.484	90.81
499.701	89.81
499.918	82.81
500.135	80.81
500.352	82.81
500.569	73.81
500.786	88.81
501.003	99.81
501.22	91.81
501.437	89.81
501.654	79.81
501.871	75.81
502.088	85.81
502.305	76.81
502.522	92.81
502.739	88.81
502.956	93.81
503.172	80.81
503.389	76.81
503.606	83.81
503.823	97.81
504.04	91.81
504.256	113.81
504.473	119.81
504.69	91.81
504.907	102.81
505.123	86.81
505.34	68.81
505.557	101.81
505.773	92.81
505.99	90.81
506.207	86.81
506.423	90.81
506.64	92.81
506.856	79.81
507.073	90.81
507.289	85.81
507.506	94.81
507.722	90.81
507.939	87.81
508.155	78.81
508.372	82.81
508.588	84.81
508.805	79.81
509.021	94.81
509.238	81.81
509.454	95.81
509.67	77.81
509.887	83.81
510.103	74.81
510.319	86.81
510.536	87.81
510.752	79.81
510.968	100.81
511.184	84.81
511.401	85.81
511.617	84.81
511.833	79.81
512.049	87.81
512.265	93.81
512.481	70.81
512.698	88.81
512.914	95.81
513.13	63.81
513.346	80.81
513.562	95.81
513.778	95.81
513.994	83.81
514.21	76.81
514.426	88.81
514.642	84.81
514.858	87.81
515.074	92.81
515.29	95.81
515.506	99.81
515.721	82.81
515.937	93.81
516.153	83.81
516.369	80.81
516.585	96.81
516.801	85.81
517.016	93.81
517.232	105.81
517.448	95.81
517.664	93.81
517.879	88.81
518.095	95.81
518.311	97.81
518.527	101.81
518.742	111.81
