Data from 237_1_HRD10591_00023.txt Node
Date: Mon Jan 19 14:10:41 EST 2026
User: Yrep
Spectrometer: HR+D1059
Trigger mode: 1
Integration Time (sec): 1.000000E-1
Scans to average: 1
Electric dark correction enabled: true
Nonlinearity correction enabled: false
Boxcar width: 0
XAxis mode: Wavelengths
Number of Pixels in Spectrum: 2048
>>>>>Begin Spectral Data<<<<<
223.165	-30.62
223.4	-30.62
223.635	-30.62
223.869	-10.62
224.104	-14.62
224.338	-26.62
224.573	-16.62
224.808	-12.62
225.042	2.38
225.277	-0.62
225.511	-9.62
225.746	-0.62
225.98	1.38
226.215	20.38
226.449	19.38
226.683	11.38
226.918	25.38
227.152	42.38
227.387	42.38
227.621	41.38
227.856	31.38
228.09	45.38
228.324	59.38
228.559	58.38
228.793	58.38
229.027	66.38
229.262	67.38
229.496	59.38
229.73	57.38
229.964	75.38
230.199	86.38
230.433	73.38
230.667	84.38
230.901	83.38
231.136	83.38
231.37	78.38
231.604	87.38
231.838	73.38
232.072	85.38
232.306	69.38
232.541	69.38
232.775	83.38
233.009	77.38
233.243	81.38
233.477	73.38
233.711	85.38
233.945	79.38
234.179	79.38
234.413	96.38
234.647	87.38
234.881	72.38
235.115	90.38
235.349	94.38
235.583	87.38
235.817	80.38
236.051	70.38
236.285	77.38
236.519	93.38
236.753	66.38
236.987	69.38
237.221	76.38
237.455	65.38
237.689	73.38
237.922	64.38
238.156	63.38
238.39	81.38
238.624	51.38
238.858	75.38
239.091	73.38
239.325	78.38
239.559	70.38
239.793	66.38
240.027	73.38
240.26	73.38
240.494	77.38
240.728	67.38
240.961	68.38
241.195	79.38
241.429	79.38
241.662	66.38
241.896	74.38
242.13	74.38
242.363	76.38
242.597	71.38
242.83	66.38
243.064	77.38
243.298	70.38
243.531	68.38
243.765	83.38
243.998	63.38
244.232	82.38
244.465	59.38
244.699	76.38
244.932	66.38
245.166	69.38
245.399	73.38
245.633	74.38
245.866	88.38
246.099	73.38
246.333	79.38
246.566	72.38
246.8	65.38
247.033	74.38
247.266	58.38
247.5	59.38
247.733	74.38
247.966	73.38
248.2	83.38
248.433	67.38
248.666	78.38
248.899	65.38
249.133	80.38
249.366	85.38
249.599	79.38
249.832	99.38
250.066	74.38
250.299	74.38
250.532	74.38
250.765	67.38
250.998	90.38
251.231	79.38
251.465	72.38
251.698	83.38
251.931	92.38
252.164	87.38
252.397	100.38
252.63	82.38
252.863	87.38
253.096	78.38
253.329	79.38
253.562	78.38
253.795	82.38
254.028	90.38
254.261	70.38
254.494	80.38
254.727	65.38
254.96	81.38
255.193	88.38
255.426	66.38
255.659	69.38
255.892	80.38
256.124	62.38
256.357	75.38
256.59	97.38
256.823	71.38
257.056	79.38
257.289	77.38
257.521	89.38
257.754	75.38
257.987	67.38
258.22	74.38
258.452	75.38
258.685	69.38
258.918	82.38
259.151	78.38
259.383	80.38
259.616	72.38
259.849	81.38
260.081	63.38
260.314	75.38
260.547	67.38
260.779	74.38
261.012	87.38
261.244	81.38
261.477	93.38
261.71	79.38
261.942	89.38
262.175	76.38
262.407	67.38
262.64	81.38
262.872	82.38
263.105	85.38
263.337	86.38
263.57	84.38
263.802	74.38
264.035	84.38
264.267	82.38
264.499	77.38
264.732	82.38
264.964	74.38
265.197	91.38
265.429	67.38
265.661	73.38
265.894	68.38
266.126	85.38
266.358	75.38
266.591	78.38
266.823	76.38
267.055	81.38
267.287	94.38
267.52	71.38
267.752	79.38
267.984	71.38
268.216	67.38
268.448	83.38
268.681	72.38
268.913	93.38
269.145	80.38
269.377	81.38
269.609	81.38
269.841	85.38
270.073	83.38
270.306	77.38
270.538	82.38
270.77	90.38
271.002	75.38
271.234	79.38
271.466	79.38
271.698	87.38
271.93	85.38
272.162	75.38
272.394	89.38
272.626	79.38
272.858	74.38
273.09	88.38
273.322	90.38
273.553	73.38
273.785	84.38
274.017	96.38
274.249	72.38
274.481	87.38
274.713	71.38
274.945	77.38
275.176	88.38
275.408	85.38
275.64	71.38
275.872	86.38
276.104	87.38
276.335	74.38
276.567	75.38
276.799	80.38
277.031	85.38
277.262	81.38
277.494	84.38
277.726	91.38
277.957	81.38
278.189	82.38
278.421	79.38
278.652	86.38
278.884	85.38
279.115	89.38
279.347	80.38
279.579	81.38
279.81	89.38
280.042	83.38
280.273	76.38
280.505	79.38
280.736	90.38
280.968	68.38
281.199	81.38
281.431	78.38
281.662	96.38
281.894	83.38
282.125	79.38
282.356	86.38
282.588	77.38
282.819	94.38
283.051	78.38
283.282	76.38
283.513	93.38
283.745	91.38
283.976	79.38
284.207	84.38
284.439	107.38
284.67	76.38
284.901	85.38
285.132	73.38
285.364	68.38
285.595	73.38
285.826	72.38
286.057	79.38
286.288	75.38
286.52	87.38
286.751	89.38
286.982	76.38
287.213	95.38
287.444	76.38
287.675	101.38
287.906	85.38
288.138	91.38
288.369	86.38
288.6	82.38
288.831	91.38
289.062	81.38
289.293	79.38
289.524	70.38
289.755	73.38
289.986	79.38
290.217	91.38
290.448	84.38
290.679	87.38
290.91	82.38
291.141	86.38
291.371	74.38
291.602	90.38
291.833	88.38
292.064	74.38
292.295	97.38
292.526	87.38
292.757	93.38
292.987	77.38
293.218	84.38
293.449	84.38
293.68	72.38
293.91	86.38
294.141	78.38
294.372	73.38
294.603	99.38
294.833	85.38
295.064	76.38
295.295	82.38
295.525	75.38
295.756	79.38
295.987	98.38
296.217	76.38
296.448	95.38
296.679	71.38
296.909	83.38
297.14	86.38
297.37	85.38
297.601	76.38
297.831	89.38
298.062	78.38
298.292	76.38
298.523	81.38
298.753	77.38
298.984	89.38
299.214	93.38
299.445	79.38
299.675	82.38
299.905	97.38
300.136	86.38
300.366	69.38
300.597	82.38
300.827	73.38
301.057	65.38
301.288	74.38
301.518	87.38
301.748	75.38
301.979	101.38
302.209	86.38
302.439	89.38
302.669	89.38
302.9	94.38
303.13	83.38
303.36	84.38
303.59	87.38
303.82	81.38
304.051	86.38
304.281	71.38
304.511	76.38
304.741	85.38
304.971	87.38
305.201	82.38
305.431	89.38
305.661	77.38
305.891	75.38
306.121	83.38
306.352	81.38
306.582	84.38
306.812	85.38
307.042	89.38
307.272	83.38
307.502	77.38
307.731	75.38
307.961	69.38
308.191	86.38
308.421	71.38
308.651	79.38
308.881	87.38
309.111	100.38
309.341	94.38
309.571	102.38
309.8	88.38
310.03	71.38
310.26	101.38
310.49	76.38
310.72	85.38
310.949	84.38
311.179	70.38
311.409	74.38
311.639	77.38
311.868	73.38
312.098	82.38
312.328	92.38
312.557	98.38
312.787	89.38
313.017	84.38
313.246	89.38
313.476	85.38
313.706	90.38
313.935	73.38
314.165	89.38
314.394	91.38
314.624	81.38
314.853	87.38
315.083	86.38
315.312	79.38
315.542	72.38
315.771	72.38
316.001	83.38
316.23	96.38
316.46	91.38
316.689	71.38
316.919	91.38
317.148	102.38
317.377	96.38
317.607	74.38
317.836	103.38
318.065	85.38
318.295	86.38
318.524	84.38
318.753	78.38
318.983	65.38
319.212	89.38
319.441	78.38
319.67	93.38
319.9	90.38
320.129	88.38
320.358	70.38
320.587	81.38
320.816	79.38
321.046	74.38
321.275	93.38
321.504	81.38
321.733	84.38
321.962	83.38
322.191	87.38
322.42	81.38
322.649	98.38
322.878	89.38
323.108	83.38
323.337	81.38
323.566	82.38
323.795	94.38
324.024	83.38
324.253	82.38
324.482	79.38
324.71	78.38
324.939	81.38
325.168	84.38
325.397	86.38
325.626	93.38
325.855	67.38
326.084	74.38
326.313	90.38
326.542	74.38
326.77	82.38
326.999	90.38
327.228	81.38
327.457	92.38
327.686	78.38
327.914	77.38
328.143	88.38
328.372	82.38
328.6	76.38
328.829	90.38
329.058	86.38
329.287	78.38
329.515	93.38
329.744	85.38
329.972	78.38
330.201	90.38
330.43	80.38
330.658	95.38
330.887	69.38
331.115	75.38
331.344	91.38
331.572	86.38
331.801	81.38
332.03	84.38
332.258	98.38
332.486	65.38
332.715	74.38
332.943	75.38
333.172	84.38
333.4	94.38
333.629	83.38
333.857	75.38
334.085	88.38
334.314	104.38
334.542	92.38
334.771	84.38
334.999	85.38
335.227	80.38
335.455	88.38
335.684	87.38
335.912	79.38
336.14	81.38
336.369	73.38
336.597	73.38
336.825	86.38
337.053	74.38
337.281	86.38
337.51	81.38
337.738	70.38
337.966	73.38
338.194	91.38
338.422	73.38
338.65	81.38
338.878	79.38
339.106	86.38
339.334	101.38
339.562	97.38
339.79	91.38
340.018	79.38
340.246	83.38
340.474	80.38
340.702	76.38
340.93	86.38
341.158	93.38
341.386	73.38
341.614	74.38
341.842	84.38
342.07	75.38
342.298	79.38
342.526	101.38
342.754	74.38
342.981	84.38
343.209	81.38
343.437	89.38
343.665	101.38
343.893	88.38
344.12	101.38
344.348	83.38
344.576	99.38
344.804	81.38
345.031	89.38
345.259	80.38
345.487	76.38
345.714	89.38
345.942	89.38
346.17	86.38
346.397	82.38
346.625	67.38
346.853	81.38
347.08	94.38
347.308	87.38
347.535	78.38
347.763	77.38
347.99	83.38
348.218	82.38
348.445	68.38
348.673	83.38
348.9	79.38
349.128	83.38
349.355	99.38
349.583	80.38
349.81	85.38
350.037	93.38
350.265	85.38
350.492	98.38
350.72	85.38
350.947	89.38
351.174	88.38
351.402	75.38
351.629	79.38
351.856	89.38
352.083	70.38
352.311	84.38
352.538	68.38
352.765	93.38
352.992	90.38
353.22	80.38
353.447	94.38
353.674	102.38
353.901	91.38
354.128	81.38
354.355	83.38
354.583	99.38
354.81	71.38
355.037	83.38
355.264	75.38
355.491	71.38
355.718	88.38
355.945	73.38
356.172	85.38
356.399	86.38
356.626	89.38
356.853	77.38
357.08	95.38
357.307	71.38
357.534	80.38
357.761	94.38
357.988	89.38
358.215	105.38
358.441	113.38
358.668	81.38
358.895	75.38
359.122	91.38
359.349	85.38
359.576	87.38
359.802	75.38
360.029	81.38
360.256	89.38
360.483	94.38
360.709	77.38
360.936	91.38
361.163	76.38
361.39	81.38
361.616	84.38
361.843	85.38
362.07	75.38
362.296	84.38
362.523	75.38
362.749	89.38
362.976	98.38
363.203	106.38
363.429	88.38
363.656	87.38
363.882	90.38
364.109	101.38
364.335	107.38
364.562	95.38
364.788	102.38
365.015	81.38
365.241	85.38
365.468	83.38
365.694	90.38
365.92	81.38
366.147	87.38
366.373	82.38
366.599	82.38
366.826	82.38
367.052	87.38
367.278	82.38
367.505	90.38
367.731	80.38
367.957	73.38
368.184	76.38
368.41	82.38
368.636	88.38
368.862	70.38
369.089	82.38
369.315	81.38
369.541	93.38
369.767	84.38
369.993	77.38
370.219	77.38
370.445	77.38
370.672	79.38
370.898	78.38
371.124	86.38
371.35	82.38
371.576	97.38
371.802	90.38
372.028	89.38
372.254	74.38
372.48	79.38
372.706	70.38
372.932	81.38
373.158	83.38
373.384	86.38
373.61	105.38
373.835	89.38
374.061	95.38
374.287	83.38
374.513	81.38
374.739	81.38
374.965	86.38
375.191	81.38
375.416	92.38
375.642	89.38
375.868	90.38
376.094	79.38
376.319	81.38
376.545	67.38
376.771	85.38
376.997	92.38
377.222	81.38
377.448	95.38
377.674	81.38
377.899	75.38
378.125	87.38
378.35	86.38
378.576	75.38
378.802	81.38
379.027	79.38
379.253	78.38
379.478	83.38
379.704	80.38
379.929	76.38
380.155	75.38
380.38	87.38
380.606	73.38
380.831	76.38
381.057	85.38
381.282	94.38
381.507	90.38
381.733	88.38
381.958	96.38
382.184	101.38
382.409	82.38
382.634	88.38
382.86	90.38
383.085	75.38
383.31	79.38
383.535	83.38
383.761	94.38
383.986	83.38
384.211	82.38
384.436	80.38
384.662	79.38
384.887	79.38
385.112	80.38
385.337	96.38
385.562	101.38
385.787	81.38
386.013	93.38
386.238	88.38
386.463	88.38
386.688	97.38
386.913	87.38
387.138	81.38
387.363	93.38
387.588	94.38
387.813	88.38
388.038	87.38
388.263	93.38
388.488	81.38
388.713	88.38
388.938	88.38
389.163	85.38
389.387	81.38
389.612	107.38
389.837	86.38
390.062	72.38
390.287	82.38
390.512	73.38
390.736	93.38
390.961	72.38
391.186	81.38
391.411	74.38
391.636	83.38
391.86	76.38
392.085	96.38
392.31	84.38
392.534	93.38
392.759	98.38
392.984	93.38
393.208	166.38
393.433	209.38
393.658	163.38
393.882	104.38
394.107	89.38
394.331	95.38
394.556	101.38
394.78	83.38
395.005	77.38
395.229	73.38
395.454	90.38
395.678	79.38
395.903	96.38
396.127	98.38
396.352	118.38
396.576	122.38
396.801	152.38
397.025	170.38
397.249	112.38
397.474	108.38
397.698	88.38
397.922	95.38
398.147	85.38
398.371	78.38
398.595	69.38
398.82	80.38
399.044	76.38
399.268	78.38
399.492	75.38
399.717	97.38
399.941	90.38
400.165	90.38
400.389	73.38
400.613	100.38
400.837	85.38
401.062	90.38
401.286	83.38
401.51	75.38
401.734	79.38
401.958	87.38
402.182	79.38
402.406	74.38
402.63	74.38
402.854	78.38
403.078	87.38
403.302	89.38
403.526	69.38
403.75	71.38
403.974	81.38
404.198	93.38
404.422	97.38
404.645	90.38
404.869	85.38
405.093	77.38
405.317	66.38
405.541	77.38
405.765	72.38
405.988	93.38
406.212	98.38
406.436	93.38
406.66	86.38
406.883	88.38
407.107	89.38
407.331	81.38
407.555	76.38
407.778	78.38
408.002	90.38
408.226	81.38
408.449	81.38
408.673	75.38
408.896	81.38
409.12	71.38
409.344	87.38
409.567	93.38
409.791	79.38
410.014	79.38
410.238	88.38
410.461	89.38
410.685	84.38
410.908	87.38
411.132	96.38
411.355	82.38
411.578	81.38
411.802	88.38
412.025	94.38
412.249	81.38
412.472	65.38
412.695	90.38
412.919	87.38
413.142	73.38
413.365	77.38
413.589	80.38
413.812	82.38
414.035	87.38
414.258	78.38
414.482	91.38
414.705	86.38
414.928	85.38
415.151	90.38
415.374	85.38
415.597	68.38
415.821	83.38
416.044	85.38
416.267	84.38
416.49	85.38
416.713	72.38
416.936	76.38
417.159	90.38
417.382	81.38
417.605	81.38
417.828	86.38
418.051	85.38
418.274	75.38
418.497	79.38
418.72	81.38
418.943	74.38
419.166	99.38
419.389	95.38
419.611	85.38
419.834	79.38
420.057	79.38
420.28	98.38
420.503	78.38
420.726	73.38
420.948	103.38
421.171	88.38
421.394	89.38
421.617	93.38
421.839	91.38
422.062	103.38
422.285	137.38
422.507	191.38
422.73	273.38
422.953	258.38
423.175	138.38
423.398	101.38
423.621	89.38
423.843	88.38
424.066	73.38
424.288	95.38
424.511	84.38
424.733	85.38
424.956	105.38
425.178	98.38
425.401	90.38
425.623	94.38
425.846	87.38
426.068	97.38
426.291	79.38
426.513	78.38
426.735	89.38
426.958	90.38
427.18	92.38
427.402	86.38
427.625	100.38
427.847	87.38
428.069	85.38
428.292	97.38
428.514	122.38
428.736	104.38
428.958	115.38
429.181	111.38
429.403	82.38
429.625	94.38
429.847	91.38
430.069	120.38
430.292	135.38
430.514	129.38
430.736	112.38
430.958	107.38
431.18	86.38
431.402	76.38
431.624	98.38
431.846	97.38
432.068	102.38
432.29	95.38
432.512	78.38
432.734	86.38
432.956	100.38
433.178	77.38
433.4	82.38
433.622	86.38
433.844	75.38
434.066	75.38
434.287	77.38
434.509	72.38
434.731	75.38
434.953	92.38
435.175	98.38
435.397	98.38
435.618	76.38
435.84	66.38
436.062	77.38
436.284	67.38
436.505	86.38
436.727	74.38
436.949	81.38
437.17	85.38
437.392	73.38
437.614	85.38
437.835	73.38
438.057	66.38
438.278	75.38
438.5	89.38
438.721	95.38
438.943	87.38
439.165	82.38
439.386	92.38
439.608	94.38
439.829	80.38
440.05	81.38
440.272	89.38
440.493	80.38
440.715	83.38
440.936	90.38
441.158	93.38
441.379	76.38
441.6	81.38
441.822	82.38
442.043	81.38
442.264	99.38
442.486	94.38
442.707	130.38
442.928	92.38
443.149	102.38
443.371	115.38
443.592	138.38
443.813	151.38
444.034	80.38
444.255	87.38
444.476	91.38
444.698	82.38
444.919	95.38
445.14	162.38
445.361	161.38
445.582	186.38
445.803	152.38
446.024	99.38
446.245	102.38
446.466	93.38
446.687	93.38
446.908	89.38
447.129	81.38
447.35	91.38
447.571	71.38
447.792	68.38
448.013	77.38
448.234	73.38
448.455	89.38
448.675	90.38
448.896	96.38
449.117	83.38
449.338	75.38
449.559	78.38
449.779	77.38
450	83.38
450.221	90.38
450.442	79.38
450.662	89.38
450.883	83.38
451.104	69.38
451.324	88.38
451.545	91.38
451.766	78.38
451.986	93.38
452.207	82.38
452.428	80.38
452.648	97.38
452.869	81.38
453.089	87.38
453.31	101.38
453.53	95.38
453.751	81.38
453.971	93.38
454.192	77.38
454.412	75.38
454.633	76.38
454.853	93.38
455.073	98.38
455.294	87.38
455.514	87.38
455.734	77.38
455.955	90.38
456.175	91.38
456.395	82.38
456.616	78.38
456.836	82.38
457.056	82.38
457.276	76.38
457.497	80.38
457.717	88.38
457.937	98.38
458.157	98.38
458.377	113.38
458.598	104.38
458.818	99.38
459.038	84.38
459.258	97.38
459.478	75.38
459.698	71.38
459.918	82.38
460.138	90.38
460.358	85.38
460.578	102.38
460.798	92.38
461.018	101.38
461.238	93.38
461.458	88.38
461.678	87.38
461.898	86.38
462.118	72.38
462.338	88.38
462.558	76.38
462.777	76.38
462.997	81.38
463.217	85.38
463.437	79.38
463.657	74.38
463.876	101.38
464.096	79.38
464.316	81.38
464.536	86.38
464.755	93.38
464.975	79.38
465.195	92.38
465.414	82.38
465.634	86.38
465.854	80.38
466.073	80.38
466.293	82.38
466.512	79.38
466.732	79.38
466.951	91.38
467.171	81.38
467.391	83.38
467.61	101.38
467.829	93.38
468.049	82.38
468.268	85.38
468.488	93.38
468.707	79.38
468.927	71.38
469.146	87.38
469.365	90.38
469.585	75.38
469.804	89.38
470.023	81.38
470.243	71.38
470.462	91.38
470.681	77.38
470.901	83.38
471.12	86.38
471.339	94.38
471.558	76.38
471.777	78.38
471.997	81.38
472.216	80.38
472.435	82.38
472.654	93.38
472.873	71.38
473.092	78.38
473.311	85.38
473.53	80.38
473.749	89.38
473.968	91.38
474.187	95.38
474.406	79.38
474.625	80.38
474.844	83.38
475.063	81.38
475.282	86.38
475.501	86.38
475.72	86.38
475.939	81.38
476.158	85.38
476.377	83.38
476.596	82.38
476.814	76.38
477.033	75.38
477.252	83.38
477.471	86.38
477.69	76.38
477.908	70.38
478.127	85.38
478.346	84.38
478.564	70.38
478.783	79.38
479.002	98.38
479.22	81.38
479.439	87.38
479.658	89.38
479.876	76.38
480.095	94.38
480.313	84.38
480.532	83.38
480.751	97.38
480.969	92.38
481.188	91.38
481.406	105.38
481.624	85.38
481.843	81.38
482.061	85.38
482.28	83.38
482.498	77.38
482.717	71.38
482.935	82.38
483.153	83.38
483.372	95.38
483.59	79.38
483.808	88.38
484.027	87.38
484.245	79.38
484.463	72.38
484.681	90.38
484.9	85.38
485.118	85.38
485.336	91.38
485.554	91.38
485.772	80.38
485.99	97.38
486.209	91.38
486.427	85.38
486.645	78.38
486.863	88.38
487.081	97.38
487.299	83.38
487.517	85.38
487.735	104.38
487.953	125.38
488.171	112.38
488.389	96.38
488.607	87.38
488.825	89.38
489.043	83.38
489.261	93.38
489.479	87.38
489.696	85.38
489.914	87.38
490.132	88.38
490.35	94.38
490.568	88.38
490.786	80.38
491.003	98.38
491.221	105.38
491.439	90.38
491.657	79.38
491.874	93.38
492.092	62.38
492.31	89.38
492.527	89.38
492.745	87.38
492.963	90.38
493.18	92.38
493.398	89.38
493.615	90.38
493.833	86.38
494.05	85.38
494.268	91.38
494.485	82.38
494.703	79.38
494.92	88.38
495.138	65.38
495.355	81.38
495.573	94.38
495.79	86.38
496.008	66.38
496.225	91.38
496.442	94.38
496.66	90.38
496.877	68.38
497.094	91.38
497.312	89.38
497.529	86.38
497.746	84.38
497.963	81.38
498.181	84.38
498.398	95.38
498.615	79.38
498.832	86.38
499.049	85.38
499.267	90.38
499.484	92.38
499.701	93.38
499.918	80.38
500.135	92.38
500.352	81.38
500.569	83.38
500.786	105.38
501.003	86.38
501.22	88.38
501.437	100.38
501.654	96.38
501.871	95.38
502.088	90.38
502.305	105.38
502.522	85.38
502.739	87.38
502.956	80.38
503.172	85.38
503.389	84.38
503.606	89.38
503.823	93.38
504.04	92.38
504.256	101.38
504.473	98.38
504.69	79.38
504.907	95.38
505.123	70.38
505.34	89.38
505.557	85.38
505.773	90.38
505.99	97.38
506.207	90.38
506.423	97.38
506.64	104.38
506.856	87.38
507.073	85.38
507.289	93.38
507.506	84.38
507.722	79.38
507.939	83.38
508.155	90.38
508.372	91.38
508.588	100.38
508.805	89.38
509.021	82.38
509.238	72.38
509.454	76.38
509.67	63.38
509.887	88.38
510.103	87.38
510.319	73.38
510.536	90.38
510.752	90.38
510.968	72.38
511.184	81.38
511.401	85.38
511.617	92.38
511.833	87.38
512.049	89.38
512.265	97.38
512.481	94.38
512.698	84.38
512.914	99.38
513.13	95.38
513.346	94.38
513.562	89.38
513.778	83.38
513.994	86.38
514.21	86.38
514.426	87.38
514.642	98.38
514.858	78.38
515.074	82.38
515.29	91.38
515.506	84.38
515.721	84.38
515.937	87.38
516.153	78.38
516.369	97.38
516.585	97.38
516.801	74.38
517.016	93.38
517.232	83.38
517.448	96.38
517.664	89.38
517.879	83.38
518.095	81.38
518.311	96.38
518.527	89.38
518.742	96.38
518.958	106.38
