Data from 237_1_HRD10591_00001.txt Node
Date: Mon Jan 19 14:10:30 EST 2026
User: Yrep
Spectrometer: HR+D1059
Trigger mode: 1
Integration Time (sec): 1.000000E-1
Scans to average: 1
Electric dark correction enabled: true
Nonlinearity correction enabled: false
Boxcar width: 0
XAxis mode: Wavelengths
Number of Pixels in Spectrum: 2048
>>>>>Begin Spectral Data<<<<<
223.165	-31.62
223.4	-31.62
223.635	-31.62
223.869	-5.62
224.104	-21.62
224.338	-5.62
224.573	-15.62
224.808	-30.62
225.042	-8.62
225.277	2.38
225.511	-2.62
225.746	-2.62
225.98	14.38
226.215	15.38
226.449	10.38
226.683	26.38
226.918	28.38
227.152	27.38
227.387	25.38
227.621	44.38
227.856	41.38
228.09	45.38
228.324	62.38
228.559	63.38
228.793	65.38
229.027	51.38
229.262	51.38
229.496	74.38
229.73	73.38
229.964	76.38
230.199	69.38
230.433	67.38
230.667	73.38
230.901	76.38
231.136	72.38
231.37	80.38
231.604	85.38
231.838	66.38
232.072	74.38
232.306	90.38
232.541	74.38
232.775	69.38
233.009	90.38
233.243	76.38
233.477	90.38
233.711	98.38
233.945	80.38
234.179	67.38
234.413	89.38
234.647	78.38
234.881	68.38
235.115	71.38
235.349	73.38
235.583	76.38
235.817	72.38
236.051	79.38
236.285	67.38
236.519	69.38
236.753	73.38
236.987	78.38
237.221	71.38
237.455	76.38
237.689	81.38
237.922	66.38
238.156	76.38
238.39	84.38
238.624	87.38
238.858	72.38
239.091	71.38
239.325	73.38
239.559	73.38
239.793	75.38
240.027	79.38
240.26	60.38
240.494	67.38
240.728	78.38
240.961	81.38
241.195	58.38
241.429	73.38
241.662	69.38
241.896	70.38
242.13	67.38
242.363	73.38
242.597	81.38
242.83	86.38
243.064	62.38
243.298	88.38
243.531	85.38
243.765	75.38
243.998	68.38
244.232	71.38
244.465	88.38
244.699	63.38
244.932	66.38
245.166	70.38
245.399	81.38
245.633	79.38
245.866	61.38
246.099	73.38
246.333	78.38
246.566	82.38
246.8	90.38
247.033	79.38
247.266	78.38
247.5	71.38
247.733	85.38
247.966	74.38
248.2	66.38
248.433	75.38
248.666	63.38
248.899	78.38
249.133	72.38
249.366	88.38
249.599	86.38
249.832	70.38
250.066	65.38
250.299	76.38
250.532	82.38
250.765	76.38
250.998	67.38
251.231	91.38
251.465	63.38
251.698	74.38
251.931	87.38
252.164	78.38
252.397	78.38
252.63	79.38
252.863	75.38
253.096	91.38
253.329	78.38
253.562	73.38
253.795	82.38
254.028	70.38
254.261	77.38
254.494	82.38
254.727	91.38
254.96	73.38
255.193	81.38
255.426	69.38
255.659	75.38
255.892	82.38
256.124	76.38
256.357	83.38
256.59	73.38
256.823	88.38
257.056	85.38
257.289	80.38
257.521	64.38
257.754	73.38
257.987	78.38
258.22	71.38
258.452	86.38
258.685	84.38
258.918	74.38
259.151	79.38
259.383	89.38
259.616	63.38
259.849	75.38
260.081	77.38
260.314	79.38
260.547	87.38
260.779	84.38
261.012	74.38
261.244	73.38
261.477	77.38
261.71	86.38
261.942	86.38
262.175	70.38
262.407	79.38
262.64	89.38
262.872	81.38
263.105	67.38
263.337	90.38
263.57	70.38
263.802	76.38
264.035	67.38
264.267	83.38
264.499	76.38
264.732	80.38
264.964	83.38
265.197	71.38
265.429	82.38
265.661	87.38
265.894	64.38
266.126	73.38
266.358	96.38
266.591	86.38
266.823	77.38
267.055	90.38
267.287	66.38
267.52	79.38
267.752	71.38
267.984	71.38
268.216	90.38
268.448	91.38
268.681	83.38
268.913	81.38
269.145	92.38
269.377	76.38
269.609	82.38
269.841	72.38
270.073	84.38
270.306	82.38
270.538	71.38
270.77	74.38
271.002	86.38
271.234	78.38
271.466	85.38
271.698	86.38
271.93	78.38
272.162	90.38
272.394	71.38
272.626	74.38
272.858	77.38
273.09	85.38
273.322	82.38
273.553	77.38
273.785	75.38
274.017	85.38
274.249	85.38
274.481	77.38
274.713	86.38
274.945	86.38
275.176	73.38
275.408	98.38
275.64	81.38
275.872	78.38
276.104	87.38
276.335	82.38
276.567	86.38
276.799	69.38
277.031	75.38
277.262	71.38
277.494	80.38
277.726	102.38
277.957	89.38
278.189	82.38
278.421	75.38
278.652	85.38
278.884	79.38
279.115	86.38
279.347	79.38
279.579	91.38
279.81	86.38
280.042	87.38
280.273	89.38
280.505	90.38
280.736	78.38
280.968	77.38
281.199	90.38
281.431	78.38
281.662	74.38
281.894	93.38
282.125	87.38
282.356	80.38
282.588	67.38
282.819	75.38
283.051	92.38
283.282	81.38
283.513	70.38
283.745	88.38
283.976	82.38
284.207	86.38
284.439	97.38
284.67	85.38
284.901	82.38
285.132	76.38
285.364	82.38
285.595	96.38
285.826	87.38
286.057	81.38
286.288	80.38
286.52	88.38
286.751	87.38
286.982	87.38
287.213	75.38
287.444	74.38
287.675	80.38
287.906	89.38
288.138	83.38
288.369	81.38
288.6	91.38
288.831	81.38
289.062	92.38
289.293	81.38
289.524	89.38
289.755	77.38
289.986	75.38
290.217	76.38
290.448	87.38
290.679	91.38
290.91	68.38
291.141	75.38
291.371	75.38
291.602	88.38
291.833	81.38
292.064	82.38
292.295	80.38
292.526	73.38
292.757	91.38
292.987	77.38
293.218	86.38
293.449	87.38
293.68	86.38
293.91	92.38
294.141	86.38
294.372	68.38
294.603	70.38
294.833	71.38
295.064	85.38
295.295	85.38
295.525	79.38
295.756	69.38
295.987	71.38
296.217	75.38
296.448	83.38
296.679	90.38
296.909	85.38
297.14	83.38
297.37	89.38
297.601	72.38
297.831	87.38
298.062	85.38
298.292	83.38
298.523	82.38
298.753	76.38
298.984	85.38
299.214	96.38
299.445	86.38
299.675	87.38
299.905	87.38
300.136	89.38
300.366	76.38
300.597	97.38
300.827	106.38
301.057	82.38
301.288	80.38
301.518	92.38
301.748	79.38
301.979	110.38
302.209	94.38
302.439	84.38
302.669	92.38
302.9	85.38
303.13	85.38
303.36	91.38
303.59	79.38
303.82	78.38
304.051	79.38
304.281	78.38
304.511	75.38
304.741	79.38
304.971	87.38
305.201	91.38
305.431	86.38
305.661	94.38
305.891	83.38
306.121	72.38
306.352	85.38
306.582	62.38
306.812	77.38
307.042	71.38
307.272	75.38
307.502	72.38
307.731	79.38
307.961	93.38
308.191	73.38
308.421	83.38
308.651	90.38
308.881	81.38
309.111	91.38
309.341	110.38
309.571	110.38
309.8	79.38
310.03	93.38
310.26	73.38
310.49	80.38
310.72	77.38
310.949	96.38
311.179	93.38
311.409	83.38
311.639	79.38
311.868	85.38
312.098	82.38
312.328	94.38
312.557	83.38
312.787	74.38
313.017	83.38
313.246	95.38
313.476	82.38
313.706	72.38
313.935	82.38
314.165	88.38
314.394	79.38
314.624	86.38
314.853	84.38
315.083	90.38
315.312	89.38
315.542	83.38
315.771	94.38
316.001	103.38
316.23	87.38
316.46	89.38
316.689	82.38
316.919	75.38
317.148	96.38
317.377	83.38
317.607	89.38
317.836	86.38
318.065	93.38
318.295	101.38
318.524	101.38
318.753	92.38
318.983	84.38
319.212	85.38
319.441	82.38
319.67	85.38
319.9	84.38
320.129	76.38
320.358	88.38
320.587	91.38
320.816	86.38
321.046	79.38
321.275	94.38
321.504	81.38
321.733	89.38
321.962	82.38
322.191	107.38
322.42	87.38
322.649	85.38
322.878	82.38
323.108	75.38
323.337	96.38
323.566	67.38
323.795	79.38
324.024	89.38
324.253	80.38
324.482	85.38
324.71	93.38
324.939	91.38
325.168	91.38
325.397	79.38
325.626	84.38
325.855	83.38
326.084	81.38
326.313	91.38
326.542	91.38
326.77	87.38
326.999	87.38
327.228	91.38
327.457	78.38
327.686	97.38
327.914	93.38
328.143	83.38
328.372	87.38
328.6	95.38
328.829	87.38
329.058	89.38
329.287	80.38
329.515	96.38
329.744	91.38
329.972	85.38
330.201	98.38
330.43	84.38
330.658	85.38
330.887	105.38
331.115	91.38
331.344	80.38
331.572	89.38
331.801	73.38
332.03	66.38
332.258	79.38
332.486	77.38
332.715	74.38
332.943	85.38
333.172	77.38
333.4	87.38
333.629	79.38
333.857	85.38
334.085	84.38
334.314	91.38
334.542	86.38
334.771	84.38
334.999	84.38
335.227	88.38
335.455	89.38
335.684	95.38
335.912	86.38
336.14	95.38
336.369	100.38
336.597	88.38
336.825	83.38
337.053	99.38
337.281	83.38
337.51	80.38
337.738	76.38
337.966	88.38
338.194	75.38
338.422	94.38
338.65	82.38
338.878	85.38
339.106	94.38
339.334	83.38
339.562	79.38
339.79	86.38
340.018	72.38
340.246	75.38
340.474	79.38
340.702	86.38
340.93	75.38
341.158	81.38
341.386	79.38
341.614	83.38
341.842	93.38
342.07	85.38
342.298	86.38
342.526	80.38
342.754	90.38
342.981	83.38
343.209	77.38
343.437	84.38
343.665	82.38
343.893	94.38
344.12	96.38
344.348	93.38
344.576	85.38
344.804	91.38
345.031	88.38
345.259	95.38
345.487	95.38
345.714	90.38
345.942	83.38
346.17	98.38
346.397	75.38
346.625	75.38
346.853	89.38
347.08	83.38
347.308	91.38
347.535	89.38
347.763	101.38
347.99	87.38
348.218	82.38
348.445	83.38
348.673	81.38
348.9	85.38
349.128	77.38
349.355	102.38
349.583	71.38
349.81	83.38
350.037	89.38
350.265	89.38
350.492	86.38
350.72	98.38
350.947	69.38
351.174	84.38
351.402	73.38
351.629	78.38
351.856	98.38
352.083	81.38
352.311	84.38
352.538	82.38
352.765	89.38
352.992	93.38
353.22	83.38
353.447	88.38
353.674	76.38
353.901	94.38
354.128	78.38
354.355	80.38
354.583	84.38
354.81	89.38
355.037	84.38
355.264	84.38
355.491	81.38
355.718	83.38
355.945	76.38
356.172	88.38
356.399	95.38
356.626	96.38
356.853	87.38
357.08	95.38
357.307	91.38
357.534	78.38
357.761	89.38
357.988	97.38
358.215	97.38
358.441	88.38
358.668	100.38
358.895	78.38
359.122	88.38
359.349	78.38
359.576	85.38
359.802	93.38
360.029	78.38
360.256	83.38
360.483	82.38
360.709	69.38
360.936	75.38
361.163	95.38
361.39	83.38
361.616	96.38
361.843	89.38
362.07	86.38
362.296	96.38
362.523	100.38
362.749	106.38
362.976	118.38
363.203	119.38
363.429	102.38
363.656	97.38
363.882	104.38
364.109	122.38
364.335	136.38
364.562	135.38
364.788	107.38
365.015	89.38
365.241	89.38
365.468	106.38
365.694	90.38
365.92	90.38
366.147	89.38
366.373	73.38
366.599	81.38
366.826	90.38
367.052	90.38
367.278	101.38
367.505	86.38
367.731	98.38
367.957	86.38
368.184	100.38
368.41	98.38
368.636	88.38
368.862	85.38
369.089	85.38
369.315	83.38
369.541	84.38
369.767	81.38
369.993	75.38
370.219	80.38
370.445	86.38
370.672	102.38
370.898	90.38
371.124	90.38
371.35	90.38
371.576	85.38
371.802	81.38
372.028	91.38
372.254	89.38
372.48	92.38
372.706	92.38
372.932	91.38
373.158	82.38
373.384	91.38
373.61	98.38
373.835	107.38
374.061	99.38
374.287	89.38
374.513	104.38
374.739	88.38
374.965	102.38
375.191	98.38
375.416	95.38
375.642	90.38
375.868	94.38
376.094	96.38
376.319	100.38
376.545	88.38
376.771	83.38
376.997	79.38
377.222	93.38
377.448	78.38
377.674	82.38
377.899	71.38
378.125	65.38
378.35	91.38
378.576	81.38
378.802	76.38
379.027	95.38
379.253	90.38
379.478	80.38
379.704	94.38
379.929	88.38
380.155	83.38
380.38	87.38
380.606	92.38
380.831	97.38
381.057	73.38
381.282	83.38
381.507	98.38
381.733	98.38
381.958	79.38
382.184	103.38
382.409	97.38
382.634	104.38
382.86	87.38
383.085	95.38
383.31	97.38
383.535	102.38
383.761	98.38
383.986	99.38
384.211	91.38
384.436	95.38
384.662	89.38
384.887	89.38
385.112	104.38
385.337	77.38
385.562	85.38
385.787	87.38
386.013	103.38
386.238	103.38
386.463	91.38
386.688	105.38
386.913	98.38
387.138	80.38
387.363	90.38
387.588	104.38
387.813	96.38
388.038	97.38
388.263	90.38
388.488	87.38
388.713	99.38
388.938	90.38
389.163	92.38
389.387	75.38
389.612	86.38
389.837	75.38
390.062	81.38
390.287	105.38
390.512	89.38
390.736	86.38
390.961	90.38
391.186	85.38
391.411	72.38
391.636	86.38
391.86	87.38
392.085	96.38
392.31	113.38
392.534	115.38
392.759	121.38
392.984	162.38
393.208	257.38
393.433	340.38
393.658	257.38
393.882	136.38
394.107	124.38
394.331	117.38
394.556	109.38
394.78	94.38
395.005	97.38
395.229	114.38
395.454	115.38
395.678	104.38
395.903	117.38
396.127	136.38
396.352	153.38
396.576	191.38
396.801	235.38
397.025	267.38
397.249	178.38
397.474	123.38
397.698	111.38
397.922	104.38
398.147	89.38
398.371	81.38
398.595	91.38
398.82	80.38
399.044	84.38
399.268	87.38
399.492	87.38
399.717	96.38
399.941	88.38
400.165	97.38
400.389	72.38
400.613	81.38
400.837	85.38
401.062	71.38
401.286	93.38
401.51	90.38
401.734	81.38
401.958	94.38
402.182	96.38
402.406	91.38
402.63	100.38
402.854	90.38
403.078	89.38
403.302	76.38
403.526	81.38
403.75	88.38
403.974	83.38
404.198	82.38
404.422	103.38
404.645	116.38
404.869	101.38
405.093	97.38
405.317	83.38
405.541	79.38
405.765	93.38
405.988	80.38
406.212	83.38
406.436	76.38
406.66	83.38
406.883	90.38
407.107	85.38
407.331	72.38
407.555	93.38
407.778	109.38
408.002	100.38
408.226	96.38
408.449	86.38
408.673	75.38
408.896	93.38
409.12	82.38
409.344	108.38
409.567	103.38
409.791	90.38
410.014	97.38
410.238	97.38
410.461	88.38
410.685	85.38
410.908	93.38
411.132	76.38
411.355	85.38
411.578	87.38
411.802	87.38
412.025	91.38
412.249	85.38
412.472	71.38
412.695	85.38
412.919	91.38
413.142	90.38
413.365	84.38
413.589	85.38
413.812	90.38
414.035	87.38
414.258	82.38
414.482	93.38
414.705	81.38
414.928	98.38
415.151	80.38
415.374	73.38
415.597	88.38
415.821	86.38
416.044	86.38
416.267	92.38
416.49	96.38
416.713	79.38
416.936	83.38
417.159	89.38
417.382	84.38
417.605	83.38
417.828	88.38
418.051	80.38
418.274	96.38
418.497	88.38
418.72	80.38
418.943	70.38
419.166	87.38
419.389	90.38
419.611	104.38
419.834	100.38
420.057	84.38
420.28	70.38
420.503	90.38
420.726	97.38
420.948	83.38
421.171	89.38
421.394	107.38
421.617	121.38
421.839	129.38
422.062	123.38
422.285	155.38
422.507	230.38
422.73	296.38
422.953	297.38
423.175	207.38
423.398	139.38
423.621	118.38
423.843	115.38
424.066	95.38
424.288	103.38
424.511	94.38
424.733	87.38
424.956	99.38
425.178	99.38
425.401	94.38
425.623	105.38
425.846	99.38
426.068	88.38
426.291	85.38
426.513	87.38
426.735	89.38
426.958	90.38
427.18	88.38
427.402	83.38
427.625	89.38
427.847	89.38
428.069	86.38
428.292	120.38
428.514	144.38
428.736	110.38
428.958	121.38
429.181	120.38
429.403	97.38
429.625	82.38
429.847	123.38
430.069	160.38
430.292	175.38
430.514	177.38
430.736	133.38
430.958	141.38
431.18	98.38
431.402	88.38
431.624	117.38
431.846	123.38
432.068	138.38
432.29	110.38
432.512	97.38
432.734	81.38
432.956	82.38
433.178	75.38
433.4	72.38
433.622	92.38
433.844	79.38
434.066	98.38
434.287	88.38
434.509	73.38
434.731	74.38
434.953	83.38
435.175	85.38
435.397	86.38
435.618	88.38
435.84	98.38
436.062	95.38
436.284	93.38
436.505	91.38
436.727	80.38
436.949	86.38
437.17	94.38
437.392	82.38
437.614	81.38
437.835	83.38
438.057	87.38
438.278	107.38
438.5	99.38
438.721	99.38
438.943	86.38
439.165	85.38
439.386	82.38
439.608	87.38
439.829	76.38
440.05	89.38
440.272	79.38
440.493	77.38
440.715	91.38
440.936	102.38
441.158	85.38
441.379	76.38
441.6	101.38
441.822	81.38
442.043	93.38
442.264	113.38
442.486	140.38
442.707	175.38
442.928	130.38
443.149	109.38
443.371	139.38
443.592	250.38
443.813	209.38
444.034	113.38
444.255	90.38
444.476	85.38
444.698	93.38
444.919	89.38
445.14	177.38
445.361	203.38
445.582	297.38
445.803	266.38
446.024	127.38
446.245	101.38
446.466	92.38
446.687	88.38
446.908	79.38
447.129	81.38
447.35	89.38
447.571	86.38
447.792	75.38
448.013	82.38
448.234	78.38
448.455	81.38
448.675	76.38
448.896	90.38
449.117	87.38
449.338	77.38
449.559	86.38
449.779	95.38
450	102.38
450.221	85.38
450.442	79.38
450.662	79.38
450.883	83.38
451.104	83.38
451.324	81.38
451.545	66.38
451.766	75.38
451.986	88.38
452.207	82.38
452.428	83.38
452.648	87.38
452.869	99.38
453.089	84.38
453.31	113.38
453.53	112.38
453.751	104.38
453.971	91.38
454.192	89.38
454.412	81.38
454.633	81.38
454.853	75.38
455.073	86.38
455.294	94.38
455.514	90.38
455.734	85.38
455.955	94.38
456.175	75.38
456.395	98.38
456.616	82.38
456.836	86.38
457.056	83.38
457.276	89.38
457.497	88.38
457.717	83.38
457.937	130.38
458.157	129.38
458.377	130.38
458.598	125.38
458.818	130.38
459.038	89.38
459.258	100.38
459.478	97.38
459.698	90.38
459.918	86.38
460.138	86.38
460.358	94.38
460.578	104.38
460.798	104.38
461.018	98.38
461.238	99.38
461.458	90.38
461.678	81.38
461.898	89.38
462.118	72.38
462.338	82.38
462.558	73.38
462.777	73.38
462.997	70.38
463.217	85.38
463.437	85.38
463.657	76.38
463.876	77.38
464.096	81.38
464.316	84.38
464.536	71.38
464.755	89.38
464.975	83.38
465.195	87.38
465.414	71.38
465.634	86.38
465.854	91.38
466.073	97.38
466.293	70.38
466.512	88.38
466.732	87.38
466.951	89.38
467.171	88.38
467.391	73.38
467.61	77.38
467.829	81.38
468.049	89.38
468.268	93.38
468.488	93.38
468.707	92.38
468.927	89.38
469.146	75.38
469.365	82.38
469.585	87.38
469.804	100.38
470.023	69.38
470.243	85.38
470.462	73.38
470.681	89.38
470.901	94.38
471.12	67.38
471.339	88.38
471.558	93.38
471.777	83.38
471.997	79.38
472.216	66.38
472.435	75.38
472.654	80.38
472.873	94.38
473.092	90.38
473.311	90.38
473.53	98.38
473.749	83.38
473.968	94.38
474.187	84.38
474.406	92.38
474.625	69.38
474.844	87.38
475.063	81.38
475.282	96.38
475.501	85.38
475.72	86.38
475.939	98.38
476.158	83.38
476.377	94.38
476.596	100.38
476.814	85.38
477.033	90.38
477.252	78.38
477.471	89.38
477.69	85.38
477.908	93.38
478.127	86.38
478.346	86.38
478.564	100.38
478.783	86.38
479.002	65.38
479.22	101.38
479.439	79.38
479.658	81.38
479.876	76.38
480.095	99.38
480.313	92.38
480.532	72.38
480.751	90.38
480.969	82.38
481.188	84.38
481.406	95.38
481.624	81.38
481.843	93.38
482.061	94.38
482.28	100.38
482.498	81.38
482.717	96.38
482.935	86.38
483.153	86.38
483.372	81.38
483.59	94.38
483.808	86.38
484.027	93.38
484.245	94.38
484.463	77.38
484.681	87.38
484.9	102.38
485.118	98.38
485.336	90.38
485.554	74.38
485.772	73.38
485.99	74.38
486.209	93.38
486.427	92.38
486.645	82.38
486.863	102.38
487.081	81.38
487.299	100.38
487.517	118.38
487.735	101.38
487.953	185.38
488.171	153.38
488.389	103.38
488.607	95.38
488.825	83.38
489.043	93.38
489.261	86.38
489.479	88.38
489.696	93.38
489.914	87.38
490.132	90.38
490.35	94.38
490.568	88.38
490.786	102.38
491.003	85.38
491.221	96.38
491.439	84.38
491.657	81.38
491.874	96.38
492.092	75.38
492.31	82.38
492.527	89.38
492.745	101.38
492.963	98.38
493.18	91.38
493.398	93.38
493.615	77.38
493.833	94.38
494.05	94.38
494.268	76.38
494.485	88.38
494.703	89.38
494.92	73.38
495.138	88.38
495.355	83.38
495.573	82.38
495.79	95.38
496.008	89.38
496.225	76.38
496.442	91.38
496.66	93.38
496.877	85.38
497.094	96.38
497.312	96.38
497.529	92.38
497.746	99.38
497.963	83.38
498.181	89.38
498.398	110.38
498.615	88.38
498.832	79.38
499.049	85.38
499.267	103.38
499.484	90.38
499.701	97.38
499.918	101.38
500.135	105.38
500.352	100.38
500.569	72.38
500.786	91.38
501.003	81.38
501.22	92.38
501.437	89.38
501.654	107.38
501.871	90.38
502.088	93.38
502.305	97.38
502.522	89.38
502.739	92.38
502.956	87.38
503.172	93.38
503.389	81.38
503.606	81.38
503.823	86.38
504.04	104.38
504.256	143.38
504.473	145.38
504.69	90.38
504.907	105.38
505.123	88.38
505.34	87.38
505.557	102.38
505.773	95.38
505.99	86.38
506.207	90.38
506.423	93.38
506.64	90.38
506.856	86.38
507.073	82.38
507.289	76.38
507.506	90.38
507.722	84.38
507.939	94.38
508.155	99.38
508.372	79.38
508.588	87.38
508.805	85.38
509.021	86.38
509.238	82.38
509.454	99.38
509.67	81.38
509.887	106.38
510.103	94.38
510.319	75.38
510.536	94.38
510.752	90.38
510.968	89.38
511.184	93.38
511.401	96.38
511.617	83.38
511.833	99.38
512.049	101.38
512.265	87.38
512.481	83.38
512.698	85.38
512.914	96.38
513.13	97.38
513.346	91.38
513.562	89.38
513.778	90.38
513.994	98.38
514.21	78.38
514.426	83.38
514.642	93.38
514.858	93.38
515.074	96.38
515.29	85.38
515.506	99.38
515.721	81.38
515.937	90.38
516.153	93.38
516.369	86.38
516.585	84.38
516.801	94.38
517.016	99.38
517.232	90.38
517.448	106.38
517.664	95.38
517.879	83.38
518.095	87.38
