Data from 237_1_HRD10591_00040.txt Node
Date: Mon Jan 19 14:10:49 EST 2026
User: Yrep
Spectrometer: HR+D1059
Trigger mode: 1
Integration Time (sec): 1.000000E-1
Scans to average: 1
Electric dark correction enabled: true
Nonlinearity correction enabled: false
Boxcar width: 0
XAxis mode: Wavelengths
Number of Pixels in Spectrum: 2048
>>>>>Begin Spectral Data<<<<<
223.165	-17.88
223.4	-17.88
223.635	-17.88
223.869	-23.88
224.104	-10.88
224.338	-14.88
224.573	-21.88
224.808	-4.88
225.042	-3.88
225.277	-20.88
225.511	-2.88
225.746	13.12
225.98	2.12
226.215	17.12
226.449	14.12
226.683	25.12
226.918	30.12
227.152	20.12
227.387	39.12
227.621	35.12
227.856	53.12
228.09	60.12
228.324	43.12
228.559	57.12
228.793	48.12
229.027	71.12
229.262	69.12
229.496	67.12
229.73	69.12
229.964	69.12
230.199	74.12
230.433	87.12
230.667	79.12
230.901	73.12
231.136	75.12
231.37	74.12
231.604	85.12
231.838	85.12
232.072	87.12
232.306	87.12
232.541	73.12
232.775	77.12
233.009	89.12
233.243	88.12
233.477	73.12
233.711	97.12
233.945	84.12
234.179	82.12
234.413	84.12
234.647	89.12
234.881	79.12
235.115	75.12
235.349	82.12
235.583	77.12
235.817	82.12
236.051	80.12
236.285	77.12
236.519	76.12
236.753	90.12
236.987	86.12
237.221	87.12
237.455	71.12
237.689	74.12
237.922	79.12
238.156	78.12
238.39	71.12
238.624	71.12
238.858	92.12
239.091	87.12
239.325	71.12
239.559	88.12
239.793	83.12
240.027	80.12
240.26	89.12
240.494	71.12
240.728	88.12
240.961	83.12
241.195	86.12
241.429	78.12
241.662	76.12
241.896	74.12
242.13	72.12
242.363	71.12
242.597	78.12
242.83	89.12
243.064	70.12
243.298	67.12
243.531	81.12
243.765	79.12
243.998	74.12
244.232	73.12
244.465	79.12
244.699	85.12
244.932	78.12
245.166	85.12
245.399	99.12
245.633	89.12
245.866	91.12
246.099	71.12
246.333	82.12
246.566	68.12
246.8	72.12
247.033	90.12
247.266	86.12
247.5	77.12
247.733	79.12
247.966	63.12
248.2	71.12
248.433	72.12
248.666	82.12
248.899	77.12
249.133	81.12
249.366	86.12
249.599	85.12
249.832	75.12
250.066	89.12
250.299	85.12
250.532	73.12
250.765	81.12
250.998	71.12
251.231	85.12
251.465	73.12
251.698	76.12
251.931	87.12
252.164	84.12
252.397	78.12
252.63	86.12
252.863	85.12
253.096	89.12
253.329	78.12
253.562	73.12
253.795	79.12
254.028	91.12
254.261	84.12
254.494	95.12
254.727	81.12
254.96	79.12
255.193	88.12
255.426	85.12
255.659	87.12
255.892	82.12
256.124	93.12
256.357	87.12
256.59	82.12
256.823	92.12
257.056	85.12
257.289	70.12
257.521	87.12
257.754	85.12
257.987	85.12
258.22	70.12
258.452	89.12
258.685	69.12
258.918	84.12
259.151	83.12
259.383	89.12
259.616	89.12
259.849	82.12
260.081	76.12
260.314	91.12
260.547	87.12
260.779	80.12
261.012	87.12
261.244	65.12
261.477	94.12
261.71	94.12
261.942	82.12
262.175	69.12
262.407	71.12
262.64	94.12
262.872	71.12
263.105	76.12
263.337	85.12
263.57	61.12
263.802	74.12
264.035	70.12
264.267	89.12
264.499	91.12
264.732	89.12
264.964	79.12
265.197	87.12
265.429	85.12
265.661	77.12
265.894	77.12
266.126	71.12
266.358	82.12
266.591	94.12
266.823	76.12
267.055	86.12
267.287	79.12
267.52	75.12
267.752	79.12
267.984	88.12
268.216	63.12
268.448	79.12
268.681	73.12
268.913	76.12
269.145	91.12
269.377	98.12
269.609	89.12
269.841	85.12
270.073	80.12
270.306	75.12
270.538	89.12
270.77	86.12
271.002	89.12
271.234	87.12
271.466	90.12
271.698	94.12
271.93	91.12
272.162	86.12
272.394	82.12
272.626	86.12
272.858	82.12
273.09	84.12
273.322	84.12
273.553	86.12
273.785	79.12
274.017	89.12
274.249	89.12
274.481	74.12
274.713	78.12
274.945	73.12
275.176	91.12
275.408	94.12
275.64	97.12
275.872	88.12
276.104	105.12
276.335	95.12
276.567	93.12
276.799	94.12
277.031	88.12
277.262	78.12
277.494	83.12
277.726	85.12
277.957	85.12
278.189	90.12
278.421	83.12
278.652	94.12
278.884	85.12
279.115	86.12
279.347	82.12
279.579	93.12
279.81	87.12
280.042	86.12
280.273	95.12
280.505	86.12
280.736	92.12
280.968	93.12
281.199	97.12
281.431	79.12
281.662	88.12
281.894	96.12
282.125	89.12
282.356	83.12
282.588	70.12
282.819	75.12
283.051	86.12
283.282	80.12
283.513	88.12
283.745	84.12
283.976	81.12
284.207	70.12
284.439	79.12
284.67	85.12
284.901	80.12
285.132	92.12
285.364	99.12
285.595	94.12
285.826	99.12
286.057	99.12
286.288	79.12
286.52	75.12
286.751	79.12
286.982	86.12
287.213	77.12
287.444	85.12
287.675	99.12
287.906	99.12
288.138	87.12
288.369	86.12
288.6	85.12
288.831	94.12
289.062	75.12
289.293	81.12
289.524	91.12
289.755	79.12
289.986	78.12
290.217	102.12
290.448	79.12
290.679	87.12
290.91	109.12
291.141	101.12
291.371	83.12
291.602	90.12
291.833	74.12
292.064	90.12
292.295	101.12
292.526	101.12
292.757	92.12
292.987	95.12
293.218	93.12
293.449	95.12
293.68	79.12
293.91	86.12
294.141	84.12
294.372	78.12
294.603	89.12
294.833	88.12
295.064	83.12
295.295	83.12
295.525	99.12
295.756	93.12
295.987	86.12
296.217	96.12
296.448	87.12
296.679	90.12
296.909	87.12
297.14	98.12
297.37	87.12
297.601	74.12
297.831	82.12
298.062	83.12
298.292	86.12
298.523	103.12
298.753	82.12
298.984	97.12
299.214	85.12
299.445	94.12
299.675	94.12
299.905	86.12
300.136	103.12
300.366	79.12
300.597	81.12
300.827	90.12
301.057	97.12
301.288	69.12
301.518	88.12
301.748	93.12
301.979	95.12
302.209	85.12
302.439	85.12
302.669	84.12
302.9	81.12
303.13	104.12
303.36	82.12
303.59	101.12
303.82	85.12
304.051	85.12
304.281	86.12
304.511	81.12
304.741	104.12
304.971	78.12
305.201	90.12
305.431	83.12
305.661	83.12
305.891	78.12
306.121	99.12
306.352	101.12
306.582	87.12
306.812	77.12
307.042	89.12
307.272	91.12
307.502	89.12
307.731	100.12
307.961	102.12
308.191	84.12
308.421	99.12
308.651	95.12
308.881	104.12
309.111	85.12
309.341	86.12
309.571	84.12
309.8	94.12
310.03	87.12
310.26	88.12
310.49	87.12
310.72	93.12
310.949	93.12
311.179	86.12
311.409	91.12
311.639	80.12
311.868	89.12
312.098	92.12
312.328	74.12
312.557	102.12
312.787	77.12
313.017	97.12
313.246	68.12
313.476	95.12
313.706	91.12
313.935	87.12
314.165	93.12
314.394	77.12
314.624	95.12
314.853	98.12
315.083	83.12
315.312	83.12
315.542	85.12
315.771	103.12
316.001	86.12
316.23	97.12
316.46	74.12
316.689	88.12
316.919	80.12
317.148	81.12
317.377	85.12
317.607	107.12
317.836	81.12
318.065	100.12
318.295	89.12
318.524	79.12
318.753	98.12
318.983	83.12
319.212	99.12
319.441	80.12
319.67	91.12
319.9	82.12
320.129	76.12
320.358	91.12
320.587	78.12
320.816	95.12
321.046	100.12
321.275	87.12
321.504	76.12
321.733	88.12
321.962	75.12
322.191	94.12
322.42	77.12
322.649	95.12
322.878	78.12
323.108	86.12
323.337	93.12
323.566	89.12
323.795	88.12
324.024	85.12
324.253	71.12
324.482	67.12
324.71	75.12
324.939	85.12
325.168	97.12
325.397	91.12
325.626	73.12
325.855	94.12
326.084	89.12
326.313	89.12
326.542	70.12
326.77	71.12
326.999	82.12
327.228	92.12
327.457	76.12
327.686	104.12
327.914	89.12
328.143	101.12
328.372	95.12
328.6	87.12
328.829	88.12
329.058	77.12
329.287	96.12
329.515	95.12
329.744	79.12
329.972	89.12
330.201	78.12
330.43	79.12
330.658	82.12
330.887	89.12
331.115	97.12
331.344	95.12
331.572	102.12
331.801	98.12
332.03	73.12
332.258	101.12
332.486	89.12
332.715	76.12
332.943	100.12
333.172	89.12
333.4	90.12
333.629	90.12
333.857	91.12
334.085	87.12
334.314	89.12
334.542	87.12
334.771	99.12
334.999	95.12
335.227	92.12
335.455	99.12
335.684	85.12
335.912	81.12
336.14	80.12
336.369	87.12
336.597	83.12
336.825	84.12
337.053	84.12
337.281	88.12
337.51	82.12
337.738	91.12
337.966	77.12
338.194	90.12
338.422	70.12
338.65	98.12
338.878	70.12
339.106	97.12
339.334	79.12
339.562	84.12
339.79	86.12
340.018	84.12
340.246	71.12
340.474	84.12
340.702	94.12
340.93	85.12
341.158	85.12
341.386	93.12
341.614	100.12
341.842	97.12
342.07	88.12
342.298	91.12
342.526	85.12
342.754	102.12
342.981	84.12
343.209	86.12
343.437	87.12
343.665	86.12
343.893	85.12
344.12	87.12
344.348	94.12
344.576	89.12
344.804	89.12
345.031	87.12
345.259	75.12
345.487	80.12
345.714	84.12
345.942	85.12
346.17	94.12
346.397	63.12
346.625	80.12
346.853	90.12
347.08	85.12
347.308	96.12
347.535	101.12
347.763	67.12
347.99	79.12
348.218	78.12
348.445	90.12
348.673	80.12
348.9	75.12
349.128	86.12
349.355	87.12
349.583	98.12
349.81	99.12
350.037	82.12
350.265	91.12
350.492	103.12
350.72	89.12
350.947	86.12
351.174	93.12
351.402	84.12
351.629	91.12
351.856	72.12
352.083	98.12
352.311	85.12
352.538	79.12
352.765	93.12
352.992	101.12
353.22	93.12
353.447	86.12
353.674	96.12
353.901	80.12
354.128	73.12
354.355	82.12
354.583	77.12
354.81	94.12
355.037	97.12
355.264	93.12
355.491	85.12
355.718	92.12
355.945	85.12
356.172	91.12
356.399	81.12
356.626	86.12
356.853	93.12
357.08	85.12
357.307	82.12
357.534	85.12
357.761	88.12
357.988	86.12
358.215	77.12
358.441	86.12
358.668	86.12
358.895	81.12
359.122	97.12
359.349	92.12
359.576	91.12
359.802	75.12
360.029	76.12
360.256	92.12
360.483	77.12
360.709	84.12
360.936	89.12
361.163	89.12
361.39	96.12
361.616	81.12
361.843	83.12
362.07	95.12
362.296	94.12
362.523	92.12
362.749	79.12
362.976	108.12
363.203	83.12
363.429	83.12
363.656	82.12
363.882	80.12
364.109	87.12
364.335	98.12
364.562	92.12
364.788	93.12
365.015	82.12
365.241	90.12
365.468	81.12
365.694	90.12
365.92	86.12
366.147	84.12
366.373	78.12
366.599	93.12
366.826	95.12
367.052	86.12
367.278	92.12
367.505	86.12
367.731	85.12
367.957	87.12
368.184	88.12
368.41	98.12
368.636	93.12
368.862	85.12
369.089	79.12
369.315	90.12
369.541	78.12
369.767	87.12
369.993	86.12
370.219	91.12
370.445	96.12
370.672	81.12
370.898	87.12
371.124	85.12
371.35	88.12
371.576	88.12
371.802	85.12
372.028	87.12
372.254	78.12
372.48	79.12
372.706	88.12
372.932	94.12
373.158	92.12
373.384	98.12
373.61	97.12
373.835	90.12
374.061	84.12
374.287	91.12
374.513	87.12
374.739	93.12
374.965	86.12
375.191	85.12
375.416	86.12
375.642	73.12
375.868	92.12
376.094	91.12
376.319	77.12
376.545	95.12
376.771	89.12
376.997	96.12
377.222	92.12
377.448	91.12
377.674	81.12
377.899	89.12
378.125	82.12
378.35	87.12
378.576	94.12
378.802	80.12
379.027	82.12
379.253	84.12
379.478	100.12
379.704	92.12
379.929	76.12
380.155	98.12
380.38	90.12
380.606	89.12
380.831	95.12
381.057	73.12
381.282	81.12
381.507	80.12
381.733	85.12
381.958	97.12
382.184	107.12
382.409	77.12
382.634	85.12
382.86	71.12
383.085	83.12
383.31	81.12
383.535	85.12
383.761	61.12
383.986	89.12
384.211	80.12
384.436	84.12
384.662	83.12
384.887	81.12
385.112	87.12
385.337	82.12
385.562	85.12
385.787	89.12
386.013	79.12
386.238	87.12
386.463	89.12
386.688	89.12
386.913	78.12
387.138	92.12
387.363	72.12
387.588	92.12
387.813	93.12
388.038	92.12
388.263	85.12
388.488	81.12
388.713	94.12
388.938	97.12
389.163	87.12
389.387	80.12
389.612	76.12
389.837	88.12
390.062	93.12
390.287	90.12
390.512	98.12
390.736	85.12
390.961	75.12
391.186	84.12
391.411	81.12
391.636	87.12
391.86	89.12
392.085	81.12
392.31	86.12
392.534	93.12
392.759	98.12
392.984	101.12
393.208	144.12
393.433	171.12
393.658	146.12
393.882	107.12
394.107	90.12
394.331	100.12
394.556	105.12
394.78	71.12
395.005	91.12
395.229	71.12
395.454	76.12
395.678	76.12
395.903	103.12
396.127	95.12
396.352	91.12
396.576	109.12
396.801	146.12
397.025	138.12
397.249	95.12
397.474	87.12
397.698	100.12
397.922	85.12
398.147	80.12
398.371	87.12
398.595	92.12
398.82	83.12
399.044	78.12
399.268	73.12
399.492	89.12
399.717	79.12
399.941	83.12
400.165	85.12
400.389	85.12
400.613	87.12
400.837	86.12
401.062	80.12
401.286	100.12
401.51	83.12
401.734	101.12
401.958	73.12
402.182	87.12
402.406	93.12
402.63	78.12
402.854	84.12
403.078	83.12
403.302	104.12
403.526	77.12
403.75	88.12
403.974	78.12
404.198	85.12
404.422	63.12
404.645	94.12
404.869	97.12
405.093	82.12
405.317	99.12
405.541	84.12
405.765	85.12
405.988	86.12
406.212	89.12
406.436	81.12
406.66	83.12
406.883	75.12
407.107	79.12
407.331	84.12
407.555	75.12
407.778	91.12
408.002	88.12
408.226	92.12
408.449	93.12
408.673	95.12
408.896	69.12
409.12	79.12
409.344	91.12
409.567	89.12
409.791	71.12
410.014	87.12
410.238	99.12
410.461	86.12
410.685	79.12
410.908	97.12
411.132	77.12
411.355	74.12
411.578	77.12
411.802	86.12
412.025	86.12
412.249	80.12
412.472	89.12
412.695	83.12
412.919	76.12
413.142	85.12
413.365	85.12
413.589	81.12
413.812	93.12
414.035	81.12
414.258	81.12
414.482	83.12
414.705	74.12
414.928	88.12
415.151	88.12
415.374	91.12
415.597	99.12
415.821	86.12
416.044	102.12
416.267	86.12
416.49	83.12
416.713	91.12
416.936	80.12
417.159	83.12
417.382	89.12
417.605	73.12
417.828	91.12
418.051	76.12
418.274	90.12
418.497	81.12
418.72	86.12
418.943	74.12
419.166	81.12
419.389	66.12
419.611	83.12
419.834	79.12
420.057	91.12
420.28	85.12
420.503	73.12
420.726	100.12
420.948	86.12
421.171	75.12
421.394	87.12
421.617	76.12
421.839	88.12
422.062	85.12
422.285	102.12
422.507	121.12
422.73	163.12
422.953	156.12
423.175	116.12
423.398	99.12
423.621	89.12
423.843	92.12
424.066	90.12
424.288	76.12
424.511	83.12
424.733	80.12
424.956	102.12
425.178	89.12
425.401	84.12
425.623	74.12
425.846	81.12
426.068	79.12
426.291	100.12
426.513	96.12
426.735	86.12
426.958	72.12
427.18	78.12
427.402	87.12
427.625	103.12
427.847	84.12
428.069	82.12
428.292	94.12
428.514	99.12
428.736	75.12
428.958	91.12
429.181	100.12
429.403	81.12
429.625	78.12
429.847	93.12
430.069	95.12
430.292	110.12
430.514	110.12
430.736	93.12
430.958	98.12
431.18	93.12
431.402	91.12
431.624	85.12
431.846	96.12
432.068	100.12
432.29	95.12
432.512	94.12
432.734	80.12
432.956	97.12
433.178	80.12
433.4	90.12
433.622	84.12
433.844	72.12
434.066	92.12
434.287	74.12
434.509	87.12
434.731	69.12
434.953	88.12
435.175	96.12
435.397	85.12
435.618	83.12
435.84	101.12
436.062	85.12
436.284	89.12
436.505	79.12
436.727	88.12
436.949	73.12
437.17	80.12
437.392	78.12
437.614	82.12
437.835	85.12
438.057	86.12
438.278	81.12
438.5	94.12
438.721	87.12
438.943	78.12
439.165	94.12
439.386	79.12
439.608	79.12
439.829	86.12
440.05	97.12
440.272	65.12
440.493	77.12
440.715	91.12
440.936	77.12
441.158	98.12
441.379	91.12
441.6	76.12
441.822	85.12
442.043	78.12
442.264	77.12
442.486	98.12
442.707	93.12
442.928	95.12
443.149	88.12
443.371	113.12
443.592	111.12
443.813	105.12
444.034	90.12
444.255	84.12
444.476	77.12
444.698	82.12
444.919	96.12
445.14	148.12
445.361	127.12
445.582	117.12
445.803	106.12
446.024	91.12
446.245	86.12
446.466	99.12
446.687	89.12
446.908	90.12
447.129	79.12
447.35	78.12
447.571	88.12
447.792	78.12
448.013	71.12
448.234	79.12
448.455	93.12
448.675	79.12
448.896	78.12
449.117	93.12
449.338	78.12
449.559	94.12
449.779	94.12
450	93.12
450.221	83.12
450.442	83.12
450.662	77.12
450.883	86.12
451.104	90.12
451.324	80.12
451.545	73.12
451.766	89.12
451.986	85.12
452.207	90.12
452.428	87.12
452.648	89.12
452.869	99.12
453.089	80.12
453.31	75.12
453.53	87.12
453.751	95.12
453.971	91.12
454.192	81.12
454.412	76.12
454.633	78.12
454.853	84.12
455.073	98.12
455.294	85.12
455.514	90.12
455.734	72.12
455.955	73.12
456.175	87.12
456.395	89.12
456.616	83.12
456.836	82.12
457.056	85.12
457.276	76.12
457.497	81.12
457.717	76.12
457.937	77.12
458.157	83.12
458.377	91.12
458.598	88.12
458.818	90.12
459.038	87.12
459.258	85.12
459.478	82.12
459.698	78.12
459.918	79.12
460.138	87.12
460.358	89.12
460.578	82.12
460.798	101.12
461.018	80.12
461.238	77.12
461.458	89.12
461.678	75.12
461.898	86.12
462.118	94.12
462.338	79.12
462.558	87.12
462.777	84.12
462.997	72.12
463.217	74.12
463.437	94.12
463.657	83.12
463.876	71.12
464.096	105.12
464.316	81.12
464.536	85.12
464.755	82.12
464.975	87.12
465.195	65.12
465.414	78.12
465.634	82.12
465.854	77.12
466.073	87.12
466.293	87.12
466.512	84.12
466.732	82.12
466.951	92.12
467.171	86.12
467.391	87.12
467.61	80.12
467.829	80.12
468.049	71.12
468.268	79.12
468.488	84.12
468.707	92.12
468.927	88.12
469.146	91.12
469.365	84.12
469.585	100.12
469.804	88.12
470.023	85.12
470.243	97.12
470.462	76.12
470.681	83.12
470.901	83.12
471.12	80.12
471.339	89.12
471.558	80.12
471.777	87.12
471.997	78.12
472.216	84.12
472.435	72.12
472.654	85.12
472.873	100.12
473.092	78.12
473.311	85.12
473.53	76.12
473.749	80.12
473.968	99.12
474.187	102.12
474.406	81.12
474.625	96.12
474.844	83.12
475.063	83.12
475.282	91.12
475.501	85.12
475.72	78.12
475.939	79.12
476.158	79.12
476.377	91.12
476.596	82.12
476.814	91.12
477.033	105.12
477.252	94.12
477.471	91.12
477.69	84.12
477.908	81.12
478.127	89.12
478.346	70.12
478.564	94.12
478.783	78.12
479.002	98.12
479.22	75.12
479.439	69.12
479.658	79.12
479.876	68.12
480.095	82.12
480.313	83.12
480.532	91.12
480.751	85.12
480.969	75.12
481.188	80.12
481.406	81.12
481.624	86.12
481.843	94.12
482.061	70.12
482.28	85.12
482.498	79.12
482.717	70.12
482.935	76.12
483.153	76.12
483.372	80.12
483.59	81.12
483.808	90.12
484.027	73.12
484.245	71.12
484.463	77.12
484.681	93.12
484.9	85.12
485.118	86.12
485.336	78.12
485.554	79.12
485.772	77.12
485.99	85.12
486.209	84.12
486.427	93.12
486.645	88.12
486.863	79.12
487.081	79.12
487.299	77.12
487.517	96.12
487.735	82.12
487.953	96.12
488.171	92.12
488.389	81.12
488.607	93.12
488.825	86.12
489.043	80.12
489.261	102.12
489.479	91.12
489.696	79.12
489.914	59.12
490.132	88.12
490.35	81.12
490.568	99.12
490.786	84.12
491.003	61.12
491.221	93.12
491.439	88.12
491.657	79.12
491.874	97.12
492.092	83.12
492.31	79.12
492.527	74.12
492.745	78.12
492.963	99.12
493.18	89.12
493.398	89.12
493.615	82.12
493.833	78.12
494.05	100.12
494.268	79.12
494.485	71.12
494.703	70.12
494.92	87.12
495.138	85.12
495.355	90.12
495.573	87.12
495.79	80.12
496.008	87.12
496.225	78.12
496.442	85.12
496.66	103.12
496.877	90.12
497.094	80.12
497.312	81.12
497.529	81.12
497.746	76.12
497.963	66.12
498.181	95.12
498.398	90.12
498.615	85.12
498.832	88.12
499.049	79.12
499.267	89.12
499.484	83.12
499.701	96.12
499.918	83.12
500.135	74.12
500.352	73.12
500.569	89.12
500.786	76.12
501.003	83.12
501.22	92.12
501.437	83.12
501.654	83.12
501.871	84.12
502.088	76.12
502.305	89.12
502.522	78.12
502.739	68.12
502.956	86.12
503.172	101.12
503.389	85.12
503.606	72.12
503.823	83.12
504.04	83.12
504.256	85.12
504.473	89.12
504.69	93.12
504.907	88.12
505.123	93.12
505.34	87.12
505.557	74.12
505.773	87.12
505.99	83.12
506.207	86.12
506.423	86.12
506.64	92.12
506.856	77.12
507.073	89.12
507.289	98.12
507.506	91.12
507.722	87.12
507.939	80.12
508.155	77.12
508.372	64.12
508.588	77.12
508.805	85.12
509.021	83.12
509.238	78.12
509.454	78.12
509.67	78.12
509.887	87.12
510.103	84.12
510.319	98.12
510.536	82.12
510.752	78.12
510.968	94.12
511.184	99.12
511.401	79.12
511.617	103.12
511.833	93.12
512.049	91.12
512.265	72.12
512.481	65.12
512.698	91.12
512.914	79.12
513.13	80.12
513.346	69.12
513.562	83.12
513.778	90.12
513.994	90.12
514.21	101.12
514.426	80.12
514.642	75.12
514.858	92.12
515.074	89.12
515.29	88.12
515.506	87.12
515.721	75.12
515.937	96.12
516.153	83.12
516.369	86.12
516.585	88.12
516.801	86.12
517.016	92.12
517.232	78.12
517.448	73.12
517.664	88.12
517.879	86.12
518.095	74.12
518.311	75.12
518.527	94.12
518.742	91.12
518.958	96.12
519.173	108.12
