Data from 237_1_HRD10591_00008.txt Node
Date: Mon Jan 19 14:10:33 EST 2026
User: Yrep
Spectrometer: HR+D1059
Trigger mode: 1
Integration Time (sec): 1.000000E-1
Scans to average: 1
Electric dark correction enabled: true
Nonlinearity correction enabled: false
Boxcar width: 0
XAxis mode: Wavelengths
Number of Pixels in Spectrum: 2048
>>>>>Begin Spectral Data<<<<<
223.165	-6.06
223.4	-6.06
223.635	-6.06
223.869	-24.06
224.104	-13.06
224.338	-25.06
224.573	-31.06
224.808	-11.06
225.042	-16.06
225.277	-10.06
225.511	-18.06
225.746	8.94
225.98	7.94
226.215	25.94
226.449	14.94
226.683	31.94
226.918	37.94
227.152	26.94
227.387	37.94
227.621	32.94
227.856	47.94
228.09	46.94
228.324	47.94
228.559	50.94
228.793	42.94
229.027	54.94
229.262	58.94
229.496	54.94
229.73	77.94
229.964	69.94
230.199	61.94
230.433	70.94
230.667	68.94
230.901	68.94
231.136	71.94
231.37	75.94
231.604	79.94
231.838	78.94
232.072	60.94
232.306	85.94
232.541	76.94
232.775	81.94
233.009	83.94
233.243	76.94
233.477	65.94
233.711	80.94
233.945	73.94
234.179	68.94
234.413	80.94
234.647	63.94
234.881	67.94
235.115	93.94
235.349	80.94
235.583	72.94
235.817	59.94
236.051	75.94
236.285	62.94
236.519	74.94
236.753	80.94
236.987	78.94
237.221	78.94
237.455	68.94
237.689	70.94
237.922	72.94
238.156	65.94
238.39	62.94
238.624	76.94
238.858	80.94
239.091	62.94
239.325	58.94
239.559	62.94
239.793	67.94
240.027	79.94
240.26	76.94
240.494	81.94
240.728	70.94
240.961	71.94
241.195	70.94
241.429	80.94
241.662	89.94
241.896	74.94
242.13	67.94
242.363	69.94
242.597	68.94
242.83	75.94
243.064	84.94
243.298	63.94
243.531	66.94
243.765	67.94
243.998	71.94
244.232	69.94
244.465	68.94
244.699	65.94
244.932	71.94
245.166	72.94
245.399	68.94
245.633	71.94
245.866	80.94
246.099	84.94
246.333	72.94
246.566	63.94
246.8	72.94
247.033	72.94
247.266	86.94
247.5	86.94
247.733	74.94
247.966	73.94
248.2	79.94
248.433	88.94
248.666	68.94
248.899	75.94
249.133	80.94
249.366	74.94
249.599	70.94
249.832	72.94
250.066	74.94
250.299	75.94
250.532	74.94
250.765	87.94
250.998	56.94
251.231	66.94
251.465	67.94
251.698	65.94
251.931	85.94
252.164	86.94
252.397	81.94
252.63	78.94
252.863	70.94
253.096	86.94
253.329	74.94
253.562	83.94
253.795	65.94
254.028	71.94
254.261	80.94
254.494	73.94
254.727	71.94
254.96	76.94
255.193	71.94
255.426	55.94
255.659	68.94
255.892	73.94
256.124	85.94
256.357	89.94
256.59	79.94
256.823	80.94
257.056	71.94
257.289	74.94
257.521	82.94
257.754	56.94
257.987	82.94
258.22	84.94
258.452	85.94
258.685	79.94
258.918	86.94
259.151	74.94
259.383	73.94
259.616	78.94
259.849	83.94
260.081	80.94
260.314	69.94
260.547	71.94
260.779	63.94
261.012	72.94
261.244	80.94
261.477	70.94
261.71	76.94
261.942	86.94
262.175	73.94
262.407	67.94
262.64	90.94
262.872	82.94
263.105	79.94
263.337	75.94
263.57	84.94
263.802	85.94
264.035	72.94
264.267	79.94
264.499	81.94
264.732	90.94
264.964	88.94
265.197	90.94
265.429	74.94
265.661	80.94
265.894	64.94
266.126	80.94
266.358	80.94
266.591	62.94
266.823	75.94
267.055	78.94
267.287	84.94
267.52	73.94
267.752	83.94
267.984	73.94
268.216	89.94
268.448	86.94
268.681	89.94
268.913	76.94
269.145	86.94
269.377	92.94
269.609	81.94
269.841	67.94
270.073	90.94
270.306	85.94
270.538	84.94
270.77	74.94
271.002	82.94
271.234	85.94
271.466	82.94
271.698	74.94
271.93	83.94
272.162	78.94
272.394	69.94
272.626	83.94
272.858	73.94
273.09	82.94
273.322	88.94
273.553	66.94
273.785	81.94
274.017	72.94
274.249	86.94
274.481	78.94
274.713	73.94
274.945	89.94
275.176	61.94
275.408	77.94
275.64	73.94
275.872	75.94
276.104	81.94
276.335	69.94
276.567	72.94
276.799	79.94
277.031	85.94
277.262	76.94
277.494	68.94
277.726	75.94
277.957	78.94
278.189	73.94
278.421	77.94
278.652	80.94
278.884	76.94
279.115	96.94
279.347	94.94
279.579	91.94
279.81	88.94
280.042	66.94
280.273	71.94
280.505	83.94
280.736	86.94
280.968	83.94
281.199	83.94
281.431	94.94
281.662	78.94
281.894	80.94
282.125	88.94
282.356	84.94
282.588	73.94
282.819	84.94
283.051	87.94
283.282	64.94
283.513	76.94
283.745	89.94
283.976	102.94
284.207	74.94
284.439	84.94
284.67	87.94
284.901	73.94
285.132	91.94
285.364	86.94
285.595	86.94
285.826	81.94
286.057	80.94
286.288	95.94
286.52	82.94
286.751	78.94
286.982	82.94
287.213	82.94
287.444	81.94
287.675	83.94
287.906	92.94
288.138	86.94
288.369	88.94
288.6	92.94
288.831	88.94
289.062	79.94
289.293	80.94
289.524	85.94
289.755	81.94
289.986	94.94
290.217	81.94
290.448	96.94
290.679	81.94
290.91	69.94
291.141	74.94
291.371	83.94
291.602	77.94
291.833	78.94
292.064	74.94
292.295	75.94
292.526	94.94
292.757	90.94
292.987	81.94
293.218	90.94
293.449	70.94
293.68	74.94
293.91	77.94
294.141	84.94
294.372	82.94
294.603	74.94
294.833	73.94
295.064	95.94
295.295	65.94
295.525	71.94
295.756	86.94
295.987	85.94
296.217	81.94
296.448	88.94
296.679	82.94
296.909	82.94
297.14	88.94
297.37	77.94
297.601	82.94
297.831	89.94
298.062	81.94
298.292	83.94
298.523	88.94
298.753	73.94
298.984	88.94
299.214	86.94
299.445	87.94
299.675	76.94
299.905	96.94
300.136	86.94
300.366	102.94
300.597	89.94
300.827	98.94
301.057	91.94
301.288	86.94
301.518	80.94
301.748	92.94
301.979	83.94
302.209	100.94
302.439	92.94
302.669	81.94
302.9	87.94
303.13	87.94
303.36	84.94
303.59	78.94
303.82	78.94
304.051	78.94
304.281	94.94
304.511	101.94
304.741	67.94
304.971	82.94
305.201	86.94
305.431	78.94
305.661	86.94
305.891	76.94
306.121	89.94
306.352	90.94
306.582	75.94
306.812	89.94
307.042	86.94
307.272	88.94
307.502	87.94
307.731	88.94
307.961	92.94
308.191	87.94
308.421	68.94
308.651	87.94
308.881	94.94
309.111	92.94
309.341	88.94
309.571	89.94
309.8	71.94
310.03	101.94
310.26	80.94
310.49	78.94
310.72	79.94
310.949	79.94
311.179	84.94
311.409	84.94
311.639	71.94
311.868	79.94
312.098	74.94
312.328	77.94
312.557	98.94
312.787	76.94
313.017	87.94
313.246	84.94
313.476	79.94
313.706	92.94
313.935	81.94
314.165	90.94
314.394	80.94
314.624	74.94
314.853	90.94
315.083	88.94
315.312	88.94
315.542	77.94
315.771	94.94
316.001	90.94
316.23	72.94
316.46	80.94
316.689	71.94
316.919	84.94
317.148	73.94
317.377	74.94
317.607	76.94
317.836	96.94
318.065	92.94
318.295	89.94
318.524	84.94
318.753	89.94
318.983	83.94
319.212	87.94
319.441	98.94
319.67	87.94
319.9	101.94
320.129	77.94
320.358	89.94
320.587	80.94
320.816	94.94
321.046	85.94
321.275	90.94
321.504	93.94
321.733	105.94
321.962	96.94
322.191	85.94
322.42	96.94
322.649	104.94
322.878	92.94
323.108	70.94
323.337	87.94
323.566	90.94
323.795	69.94
324.024	78.94
324.253	92.94
324.482	82.94
324.71	78.94
324.939	98.94
325.168	79.94
325.397	87.94
325.626	81.94
325.855	79.94
326.084	74.94
326.313	73.94
326.542	92.94
326.77	90.94
326.999	95.94
327.228	76.94
327.457	78.94
327.686	81.94
327.914	97.94
328.143	78.94
328.372	78.94
328.6	85.94
328.829	72.94
329.058	82.94
329.287	77.94
329.515	90.94
329.744	85.94
329.972	81.94
330.201	94.94
330.43	100.94
330.658	69.94
330.887	88.94
331.115	81.94
331.344	84.94
331.572	86.94
331.801	89.94
332.03	97.94
332.258	95.94
332.486	61.94
332.715	81.94
332.943	84.94
333.172	82.94
333.4	81.94
333.629	79.94
333.857	87.94
334.085	84.94
334.314	95.94
334.542	101.94
334.771	92.94
334.999	86.94
335.227	86.94
335.455	92.94
335.684	93.94
335.912	95.94
336.14	109.94
336.369	99.94
336.597	89.94
336.825	92.94
337.053	92.94
337.281	82.94
337.51	98.94
337.738	97.94
337.966	93.94
338.194	79.94
338.422	94.94
338.65	92.94
338.878	82.94
339.106	79.94
339.334	94.94
339.562	76.94
339.79	82.94
340.018	89.94
340.246	79.94
340.474	84.94
340.702	89.94
340.93	88.94
341.158	93.94
341.386	89.94
341.614	84.94
341.842	92.94
342.07	73.94
342.298	93.94
342.526	65.94
342.754	82.94
342.981	86.94
343.209	82.94
343.437	93.94
343.665	82.94
343.893	84.94
344.12	99.94
344.348	94.94
344.576	81.94
344.804	86.94
345.031	83.94
345.259	87.94
345.487	89.94
345.714	87.94
345.942	84.94
346.17	87.94
346.397	85.94
346.625	82.94
346.853	80.94
347.08	88.94
347.308	100.94
347.535	89.94
347.763	97.94
347.99	89.94
348.218	81.94
348.445	87.94
348.673	97.94
348.9	93.94
349.128	82.94
349.355	84.94
349.583	73.94
349.81	74.94
350.037	81.94
350.265	81.94
350.492	79.94
350.72	88.94
350.947	88.94
351.174	78.94
351.402	89.94
351.629	85.94
351.856	85.94
352.083	86.94
352.311	80.94
352.538	96.94
352.765	72.94
352.992	99.94
353.22	94.94
353.447	87.94
353.674	88.94
353.901	82.94
354.128	84.94
354.355	80.94
354.583	82.94
354.81	98.94
355.037	94.94
355.264	93.94
355.491	92.94
355.718	82.94
355.945	96.94
356.172	90.94
356.399	91.94
356.626	72.94
356.853	100.94
357.08	100.94
357.307	79.94
357.534	92.94
357.761	106.94
357.988	83.94
358.215	96.94
358.441	96.94
358.668	102.94
358.895	87.94
359.122	83.94
359.349	93.94
359.576	93.94
359.802	81.94
360.029	77.94
360.256	82.94
360.483	89.94
360.709	79.94
360.936	91.94
361.163	94.94
361.39	88.94
361.616	82.94
361.843	94.94
362.07	108.94
362.296	112.94
362.523	128.94
362.749	128.94
362.976	149.94
363.203	157.94
363.429	135.94
363.656	111.94
363.882	124.94
364.109	138.94
364.335	176.94
364.562	185.94
364.788	136.94
365.015	94.94
365.241	92.94
365.468	92.94
365.694	102.94
365.92	96.94
366.147	85.94
366.373	100.94
366.599	71.94
366.826	92.94
367.052	91.94
367.278	85.94
367.505	89.94
367.731	86.94
367.957	93.94
368.184	92.94
368.41	86.94
368.636	93.94
368.862	73.94
369.089	71.94
369.315	88.94
369.541	89.94
369.767	92.94
369.993	89.94
370.219	89.94
370.445	75.94
370.672	93.94
370.898	77.94
371.124	80.94
371.35	80.94
371.576	89.94
371.802	89.94
372.028	88.94
372.254	101.94
372.48	83.94
372.706	76.94
372.932	95.94
373.158	89.94
373.384	103.94
373.61	106.94
373.835	117.94
374.061	103.94
374.287	92.94
374.513	103.94
374.739	86.94
374.965	93.94
375.191	109.94
375.416	88.94
375.642	91.94
375.868	92.94
376.094	99.94
376.319	74.94
376.545	88.94
376.771	99.94
376.997	90.94
377.222	95.94
377.448	100.94
377.674	89.94
377.899	99.94
378.125	79.94
378.35	73.94
378.576	74.94
378.802	96.94
379.027	102.94
379.253	97.94
379.478	74.94
379.704	89.94
379.929	92.94
380.155	80.94
380.38	84.94
380.606	83.94
380.831	77.94
381.057	86.94
381.282	91.94
381.507	104.94
381.733	93.94
381.958	96.94
382.184	100.94
382.409	98.94
382.634	108.94
382.86	92.94
383.085	100.94
383.31	89.94
383.535	119.94
383.761	108.94
383.986	85.94
384.211	89.94
384.436	88.94
384.662	84.94
384.887	78.94
385.112	82.94
385.337	84.94
385.562	94.94
385.787	99.94
386.013	87.94
386.238	101.94
386.463	86.94
386.688	104.94
386.913	97.94
387.138	87.94
387.363	94.94
387.588	97.94
387.813	101.94
388.038	94.94
388.263	100.94
388.488	105.94
388.713	85.94
388.938	71.94
389.163	92.94
389.387	91.94
389.612	90.94
389.837	103.94
390.062	96.94
390.287	89.94
390.512	102.94
390.736	85.94
390.961	102.94
391.186	84.94
391.411	101.94
391.636	101.94
391.86	101.94
392.085	99.94
392.31	114.94
392.534	117.94
392.759	156.94
392.984	210.94
393.208	308.94
393.433	419.94
393.658	318.94
393.882	183.94
394.107	118.94
394.331	120.94
394.556	137.94
394.78	126.94
395.005	119.94
395.229	111.94
395.454	118.94
395.678	111.94
395.903	142.94
396.127	156.94
396.352	167.94
396.576	222.94
396.801	302.94
397.025	350.94
397.249	212.94
397.474	166.94
397.698	126.94
397.922	122.94
398.147	114.94
398.371	96.94
398.595	92.94
398.82	79.94
399.044	82.94
399.268	92.94
399.492	82.94
399.717	92.94
399.941	78.94
400.165	88.94
400.389	94.94
400.613	88.94
400.837	81.94
401.062	95.94
401.286	85.94
401.51	83.94
401.734	86.94
401.958	104.94
402.182	85.94
402.406	95.94
402.63	88.94
402.854	94.94
403.078	93.94
403.302	95.94
403.526	95.94
403.75	90.94
403.974	89.94
404.198	101.94
404.422	140.94
404.645	146.94
404.869	121.94
405.093	98.94
405.317	85.94
405.541	83.94
405.765	92.94
405.988	93.94
406.212	83.94
406.436	85.94
406.66	88.94
406.883	78.94
407.107	84.94
407.331	95.94
407.555	101.94
407.778	123.94
408.002	123.94
408.226	77.94
408.449	80.94
408.673	100.94
408.896	93.94
409.12	98.94
409.344	102.94
409.567	116.94
409.791	124.94
410.014	116.94
410.238	116.94
410.461	90.94
410.685	100.94
410.908	100.94
411.132	104.94
411.355	93.94
411.578	94.94
411.802	94.94
412.025	85.94
412.249	86.94
412.472	92.94
412.695	90.94
412.919	92.94
413.142	82.94
413.365	93.94
413.589	81.94
413.812	89.94
414.035	94.94
414.258	88.94
414.482	87.94
414.705	81.94
414.928	90.94
415.151	105.94
415.374	83.94
415.597	80.94
415.821	90.94
416.044	85.94
416.267	88.94
416.49	93.94
416.713	90.94
416.936	90.94
417.159	69.94
417.382	82.94
417.605	81.94
417.828	74.94
418.051	78.94
418.274	85.94
418.497	67.94
418.72	88.94
418.943	96.94
419.166	80.94
419.389	101.94
419.611	93.94
419.834	89.94
420.057	94.94
420.28	101.94
420.503	90.94
420.726	88.94
420.948	97.94
421.171	100.94
421.394	111.94
421.617	144.94
421.839	158.94
422.062	194.94
422.285	278.94
422.507	437.94
422.73	579.94
422.953	548.94
423.175	324.94
423.398	196.94
423.621	152.94
423.843	130.94
424.066	127.94
424.288	115.94
424.511	111.94
424.733	95.94
424.956	80.94
425.178	90.94
425.401	100.94
425.623	103.94
425.846	78.94
426.068	86.94
426.291	83.94
426.513	87.94
426.735	98.94
426.958	91.94
427.18	99.94
427.402	84.94
427.625	76.94
427.847	88.94
428.069	112.94
428.292	174.94
428.514	179.94
428.736	133.94
428.958	174.94
429.181	167.94
429.403	112.94
429.625	103.94
429.847	161.94
430.069	236.94
430.292	256.94
430.514	253.94
430.736	179.94
430.958	173.94
431.18	129.94
431.402	98.94
431.624	119.94
431.846	152.94
432.068	180.94
432.29	113.94
432.512	88.94
432.734	91.94
432.956	81.94
433.178	89.94
433.4	87.94
433.622	89.94
433.844	75.94
434.066	81.94
434.287	77.94
434.509	88.94
434.731	77.94
434.953	79.94
435.175	84.94
435.397	110.94
435.618	100.94
435.84	97.94
436.062	100.94
436.284	93.94
436.505	80.94
436.727	86.94
436.949	81.94
437.17	88.94
437.392	84.94
437.614	93.94
437.835	97.94
438.057	82.94
438.278	91.94
438.5	82.94
438.721	90.94
438.943	92.94
439.165	78.94
439.386	100.94
439.608	90.94
439.829	76.94
440.05	93.94
440.272	96.94
440.493	87.94
440.715	100.94
440.936	85.94
441.158	90.94
441.379	88.94
441.6	85.94
441.822	86.94
442.043	103.94
442.264	120.94
442.486	190.94
442.707	245.94
442.928	174.94
443.149	154.94
443.371	222.94
443.592	379.94
443.813	326.94
444.034	137.94
444.255	98.94
444.476	103.94
444.698	98.94
444.919	104.94
445.14	194.94
445.361	283.94
445.582	473.94
445.803	395.94
446.024	156.94
446.245	117.94
446.466	89.94
446.687	81.94
446.908	92.94
447.129	86.94
447.35	77.94
447.571	84.94
447.792	77.94
448.013	90.94
448.234	97.94
448.455	79.94
448.675	66.94
448.896	83.94
449.117	78.94
449.338	95.94
449.559	78.94
449.779	74.94
450	82.94
450.221	74.94
450.442	74.94
450.662	90.94
450.883	86.94
451.104	79.94
451.324	75.94
451.545	68.94
451.766	72.94
451.986	71.94
452.207	73.94
452.428	79.94
452.648	97.94
452.869	120.94
453.089	108.94
453.31	93.94
453.53	94.94
453.751	93.94
453.971	82.94
454.192	84.94
454.412	83.94
454.633	81.94
454.853	75.94
455.073	88.94
455.294	86.94
455.514	98.94
455.734	89.94
455.955	92.94
456.175	78.94
456.395	73.94
456.616	84.94
456.836	89.94
457.056	104.94
457.276	93.94
457.497	89.94
457.717	96.94
457.937	140.94
458.157	169.94
458.377	167.94
458.598	168.94
458.818	186.94
459.038	131.94
459.258	93.94
459.478	84.94
459.698	80.94
459.918	68.94
460.138	97.94
460.358	91.94
460.578	101.94
460.798	154.94
461.018	148.94
461.238	86.94
461.458	88.94
461.678	88.94
461.898	81.94
462.118	94.94
462.338	80.94
462.558	84.94
462.777	102.94
462.997	82.94
463.217	82.94
463.437	86.94
463.657	78.94
463.876	87.94
464.096	83.94
464.316	67.94
464.536	92.94
464.755	90.94
464.975	96.94
465.195	91.94
465.414	94.94
465.634	82.94
465.854	90.94
466.073	85.94
466.293	70.94
466.512	87.94
466.732	92.94
466.951	92.94
467.171	89.94
467.391	90.94
467.61	74.94
467.829	82.94
468.049	81.94
468.268	81.94
468.488	85.94
468.707	95.94
468.927	98.94
469.146	74.94
469.365	90.94
469.585	76.94
469.804	75.94
470.023	88.94
470.243	93.94
470.462	96.94
470.681	80.94
470.901	73.94
471.12	77.94
471.339	80.94
471.558	78.94
471.777	80.94
471.997	81.94
472.216	74.94
472.435	91.94
472.654	93.94
472.873	80.94
473.092	89.94
473.311	76.94
473.53	78.94
473.749	86.94
473.968	87.94
474.187	78.94
474.406	78.94
474.625	99.94
474.844	94.94
475.063	77.94
475.282	94.94
475.501	91.94
475.72	86.94
475.939	77.94
476.158	78.94
476.377	83.94
476.596	76.94
476.814	86.94
477.033	84.94
477.252	83.94
477.471	88.94
477.69	80.94
477.908	87.94
478.127	83.94
478.346	87.94
478.564	92.94
478.783	73.94
479.002	69.94
479.22	79.94
479.439	80.94
479.658	79.94
479.876	89.94
480.095	85.94
480.313	89.94
480.532	84.94
480.751	78.94
480.969	99.94
481.188	98.94
481.406	101.94
481.624	90.94
481.843	71.94
482.061	82.94
482.28	84.94
482.498	96.94
482.717	72.94
482.935	81.94
483.153	100.94
483.372	87.94
483.59	89.94
483.808	84.94
484.027	63.94
484.245	85.94
484.463	90.94
484.681	91.94
484.9	100.94
485.118	96.94
485.336	76.94
485.554	88.94
485.772	78.94
485.99	93.94
486.209	73.94
486.427	89.94
486.645	92.94
486.863	98.94
487.081	111.94
487.299	96.94
487.517	105.94
487.735	159.94
487.953	276.94
488.171	226.94
488.389	121.94
488.607	96.94
488.825	98.94
489.043	97.94
489.261	84.94
489.479	79.94
489.696	86.94
489.914	72.94
490.132	86.94
490.35	97.94
490.568	98.94
490.786	90.94
491.003	94.94
491.221	99.94
491.439	96.94
491.657	84.94
491.874	93.94
492.092	89.94
492.31	88.94
492.527	95.94
492.745	86.94
492.963	88.94
493.18	81.94
493.398	98.94
493.615	88.94
493.833	90.94
494.05	91.94
494.268	99.94
494.485	89.94
494.703	97.94
494.92	89.94
495.138	96.94
495.355	95.94
495.573	97.94
495.79	86.94
496.008	85.94
496.225	95.94
496.442	95.94
496.66	95.94
496.877	79.94
497.094	93.94
497.312	85.94
497.529	90.94
497.746	82.94
497.963	89.94
498.181	90.94
498.398	89.94
498.615	95.94
498.832	87.94
499.049	95.94
499.267	97.94
499.484	90.94
499.701	79.94
499.918	104.94
500.135	97.94
500.352	92.94
500.569	85.94
500.786	101.94
501.003	78.94
501.22	81.94
501.437	79.94
501.654	91.94
501.871	90.94
502.088	68.94
502.305	89.94
502.522	90.94
502.739	103.94
502.956	78.94
503.172	84.94
503.389	72.94
503.606	90.94
503.823	102.94
504.04	125.94
504.256	185.94
504.473	180.94
504.69	109.94
504.907	87.94
505.123	96.94
505.34	81.94
505.557	85.94
505.773	68.94
505.99	83.94
506.207	86.94
506.423	82.94
506.64	81.94
506.856	86.94
507.073	102.94
507.289	94.94
507.506	78.94
507.722	71.94
507.939	84.94
508.155	79.94
508.372	91.94
508.588	87.94
508.805	98.94
509.021	96.94
509.238	97.94
509.454	100.94
509.67	85.94
509.887	84.94
510.103	82.94
510.319	101.94
510.536	89.94
510.752	86.94
510.968	93.94
511.184	86.94
511.401	84.94
511.617	85.94
511.833	97.94
512.049	85.94
512.265	98.94
512.481	92.94
512.698	94.94
512.914	98.94
513.13	80.94
513.346	86.94
513.562	81.94
513.778	75.94
513.994	89.94
514.21	79.94
514.426	77.94
514.642	79.94
514.858	89.94
515.074	92.94
515.29	82.94
515.506	99.94
515.721	93.94
515.937	103.94
516.153	94.94
516.369	80.94
516.585	103.94
516.801	85.94
517.016	106.94
517.232	101.94
517.448	88.94
