Data from 237_1_HRD10591_00010.txt Node
Date: Mon Jan 19 14:10:34 EST 2026
User: Yrep
Spectrometer: HR+D1059
Trigger mode: 1
Integration Time (sec): 1.000000E-1
Scans to average: 1
Electric dark correction enabled: true
Nonlinearity correction enabled: false
Boxcar width: 0
XAxis mode: Wavelengths
Number of Pixels in Spectrum: 2048
>>>>>Begin Spectral Data<<<<<
223.165	-14.12
223.4	-14.12
223.635	-14.12
223.869	-18.12
224.104	-25.12
224.338	-15.12
224.573	-22.12
224.808	-16.12
225.042	-0.12
225.277	3.88
225.511	1.88
225.746	-1.12
225.98	11.88
226.215	9.88
226.449	9.88
226.683	18.88
226.918	23.88
227.152	31.88
227.387	49.88
227.621	38.88
227.856	55.88
228.09	38.88
228.324	36.88
228.559	62.88
228.793	65.88
229.027	71.88
229.262	65.88
229.496	58.88
229.73	69.88
229.964	58.88
230.199	59.88
230.433	70.88
230.667	85.88
230.901	81.88
231.136	79.88
231.37	67.88
231.604	71.88
231.838	75.88
232.072	79.88
232.306	75.88
232.541	71.88
232.775	79.88
233.009	75.88
233.243	68.88
233.477	83.88
233.711	79.88
233.945	85.88
234.179	81.88
234.413	82.88
234.647	89.88
234.881	87.88
235.115	79.88
235.349	55.88
235.583	67.88
235.817	75.88
236.051	79.88
236.285	82.88
236.519	72.88
236.753	87.88
236.987	75.88
237.221	67.88
237.455	82.88
237.689	65.88
237.922	75.88
238.156	73.88
238.39	78.88
238.624	65.88
238.858	68.88
239.091	72.88
239.325	81.88
239.559	75.88
239.793	65.88
240.027	87.88
240.26	77.88
240.494	71.88
240.728	70.88
240.961	75.88
241.195	79.88
241.429	71.88
241.662	74.88
241.896	71.88
242.13	75.88
242.363	72.88
242.597	81.88
242.83	72.88
243.064	64.88
243.298	81.88
243.531	65.88
243.765	70.88
243.998	78.88
244.232	67.88
244.465	77.88
244.699	70.88
244.932	73.88
245.166	72.88
245.399	71.88
245.633	93.88
245.866	81.88
246.099	72.88
246.333	83.88
246.566	73.88
246.8	81.88
247.033	82.88
247.266	79.88
247.5	79.88
247.733	69.88
247.966	81.88
248.2	70.88
248.433	75.88
248.666	74.88
248.899	83.88
249.133	81.88
249.366	73.88
249.599	69.88
249.832	81.88
250.066	83.88
250.299	72.88
250.532	84.88
250.765	84.88
250.998	76.88
251.231	76.88
251.465	87.88
251.698	70.88
251.931	71.88
252.164	54.88
252.397	77.88
252.63	81.88
252.863	73.88
253.096	81.88
253.329	84.88
253.562	80.88
253.795	77.88
254.028	77.88
254.261	82.88
254.494	91.88
254.727	73.88
254.96	85.88
255.193	82.88
255.426	76.88
255.659	74.88
255.892	89.88
256.124	87.88
256.357	67.88
256.59	79.88
256.823	89.88
257.056	94.88
257.289	85.88
257.521	67.88
257.754	77.88
257.987	74.88
258.22	84.88
258.452	65.88
258.685	62.88
258.918	69.88
259.151	63.88
259.383	89.88
259.616	86.88
259.849	80.88
260.081	77.88
260.314	72.88
260.547	70.88
260.779	69.88
261.012	95.88
261.244	78.88
261.477	84.88
261.71	86.88
261.942	76.88
262.175	73.88
262.407	96.88
262.64	73.88
262.872	68.88
263.105	71.88
263.337	82.88
263.57	81.88
263.802	83.88
264.035	96.88
264.267	78.88
264.499	82.88
264.732	69.88
264.964	71.88
265.197	76.88
265.429	81.88
265.661	86.88
265.894	75.88
266.126	82.88
266.358	74.88
266.591	67.88
266.823	81.88
267.055	84.88
267.287	74.88
267.52	76.88
267.752	84.88
267.984	71.88
268.216	85.88
268.448	81.88
268.681	73.88
268.913	81.88
269.145	89.88
269.377	78.88
269.609	73.88
269.841	83.88
270.073	68.88
270.306	77.88
270.538	83.88
270.77	89.88
271.002	85.88
271.234	73.88
271.466	57.88
271.698	79.88
271.93	79.88
272.162	79.88
272.394	88.88
272.626	95.88
272.858	79.88
273.09	80.88
273.322	94.88
273.553	86.88
273.785	81.88
274.017	78.88
274.249	85.88
274.481	73.88
274.713	83.88
274.945	79.88
275.176	78.88
275.408	83.88
275.64	61.88
275.872	83.88
276.104	74.88
276.335	89.88
276.567	81.88
276.799	91.88
277.031	81.88
277.262	96.88
277.494	91.88
277.726	79.88
277.957	81.88
278.189	93.88
278.421	73.88
278.652	89.88
278.884	88.88
279.115	86.88
279.347	75.88
279.579	93.88
279.81	74.88
280.042	68.88
280.273	81.88
280.505	77.88
280.736	88.88
280.968	93.88
281.199	81.88
281.431	90.88
281.662	94.88
281.894	77.88
282.125	89.88
282.356	79.88
282.588	88.88
282.819	89.88
283.051	81.88
283.282	88.88
283.513	94.88
283.745	91.88
283.976	93.88
284.207	79.88
284.439	79.88
284.67	84.88
284.901	96.88
285.132	93.88
285.364	69.88
285.595	69.88
285.826	91.88
286.057	94.88
286.288	75.88
286.52	75.88
286.751	86.88
286.982	81.88
287.213	87.88
287.444	92.88
287.675	91.88
287.906	81.88
288.138	83.88
288.369	82.88
288.6	81.88
288.831	86.88
289.062	88.88
289.293	86.88
289.524	80.88
289.755	85.88
289.986	93.88
290.217	85.88
290.448	98.88
290.679	77.88
290.91	91.88
291.141	72.88
291.371	92.88
291.602	85.88
291.833	86.88
292.064	60.88
292.295	83.88
292.526	77.88
292.757	76.88
292.987	83.88
293.218	83.88
293.449	90.88
293.68	82.88
293.91	87.88
294.141	103.88
294.372	80.88
294.603	96.88
294.833	71.88
295.064	81.88
295.295	79.88
295.525	82.88
295.756	107.88
295.987	92.88
296.217	84.88
296.448	89.88
296.679	94.88
296.909	83.88
297.14	90.88
297.37	89.88
297.601	89.88
297.831	86.88
298.062	87.88
298.292	91.88
298.523	74.88
298.753	77.88
298.984	80.88
299.214	93.88
299.445	83.88
299.675	89.88
299.905	104.88
300.136	80.88
300.366	75.88
300.597	88.88
300.827	72.88
301.057	83.88
301.288	76.88
301.518	93.88
301.748	78.88
301.979	79.88
302.209	76.88
302.439	75.88
302.669	69.88
302.9	81.88
303.13	84.88
303.36	85.88
303.59	87.88
303.82	68.88
304.051	79.88
304.281	95.88
304.511	91.88
304.741	96.88
304.971	91.88
305.201	71.88
305.431	82.88
305.661	79.88
305.891	82.88
306.121	83.88
306.352	89.88
306.582	80.88
306.812	85.88
307.042	86.88
307.272	79.88
307.502	84.88
307.731	89.88
307.961	73.88
308.191	86.88
308.421	95.88
308.651	81.88
308.881	69.88
309.111	88.88
309.341	99.88
309.571	95.88
309.8	76.88
310.03	78.88
310.26	74.88
310.49	80.88
310.72	74.88
310.949	98.88
311.179	81.88
311.409	82.88
311.639	77.88
311.868	77.88
312.098	76.88
312.328	68.88
312.557	91.88
312.787	83.88
313.017	78.88
313.246	63.88
313.476	79.88
313.706	79.88
313.935	83.88
314.165	89.88
314.394	70.88
314.624	89.88
314.853	99.88
315.083	96.88
315.312	89.88
315.542	86.88
315.771	76.88
316.001	80.88
316.23	82.88
316.46	71.88
316.689	80.88
316.919	72.88
317.148	88.88
317.377	90.88
317.607	65.88
317.836	77.88
318.065	84.88
318.295	75.88
318.524	83.88
318.753	79.88
318.983	86.88
319.212	88.88
319.441	88.88
319.67	82.88
319.9	71.88
320.129	73.88
320.358	89.88
320.587	96.88
320.816	91.88
321.046	74.88
321.275	91.88
321.504	84.88
321.733	75.88
321.962	86.88
322.191	84.88
322.42	84.88
322.649	91.88
322.878	84.88
323.108	101.88
323.337	99.88
323.566	84.88
323.795	79.88
324.024	85.88
324.253	86.88
324.482	83.88
324.71	74.88
324.939	70.88
325.168	67.88
325.397	79.88
325.626	90.88
325.855	86.88
326.084	83.88
326.313	73.88
326.542	81.88
326.77	97.88
326.999	97.88
327.228	72.88
327.457	77.88
327.686	100.88
327.914	92.88
328.143	90.88
328.372	85.88
328.6	88.88
328.829	85.88
329.058	88.88
329.287	84.88
329.515	73.88
329.744	87.88
329.972	78.88
330.201	95.88
330.43	88.88
330.658	82.88
330.887	81.88
331.115	81.88
331.344	76.88
331.572	97.88
331.801	88.88
332.03	78.88
332.258	75.88
332.486	69.88
332.715	93.88
332.943	91.88
333.172	85.88
333.4	90.88
333.629	83.88
333.857	78.88
334.085	90.88
334.314	78.88
334.542	82.88
334.771	83.88
334.999	95.88
335.227	82.88
335.455	84.88
335.684	93.88
335.912	87.88
336.14	91.88
336.369	87.88
336.597	81.88
336.825	78.88
337.053	83.88
337.281	90.88
337.51	72.88
337.738	81.88
337.966	87.88
338.194	80.88
338.422	73.88
338.65	85.88
338.878	69.88
339.106	83.88
339.334	79.88
339.562	95.88
339.79	86.88
340.018	81.88
340.246	73.88
340.474	70.88
340.702	74.88
340.93	94.88
341.158	86.88
341.386	72.88
341.614	85.88
341.842	85.88
342.07	87.88
342.298	90.88
342.526	73.88
342.754	79.88
342.981	79.88
343.209	88.88
343.437	88.88
343.665	84.88
343.893	97.88
344.12	92.88
344.348	99.88
344.576	84.88
344.804	72.88
345.031	82.88
345.259	90.88
345.487	73.88
345.714	73.88
345.942	82.88
346.17	89.88
346.397	93.88
346.625	82.88
346.853	66.88
347.08	80.88
347.308	93.88
347.535	86.88
347.763	90.88
347.99	98.88
348.218	82.88
348.445	91.88
348.673	93.88
348.9	81.88
349.128	81.88
349.355	86.88
349.583	86.88
349.81	91.88
350.037	74.88
350.265	82.88
350.492	79.88
350.72	79.88
350.947	84.88
351.174	91.88
351.402	91.88
351.629	76.88
351.856	74.88
352.083	94.88
352.311	83.88
352.538	83.88
352.765	89.88
352.992	79.88
353.22	93.88
353.447	90.88
353.674	75.88
353.901	89.88
354.128	69.88
354.355	85.88
354.583	80.88
354.81	79.88
355.037	88.88
355.264	75.88
355.491	95.88
355.718	71.88
355.945	97.88
356.172	83.88
356.399	79.88
356.626	83.88
356.853	87.88
357.08	90.88
357.307	80.88
357.534	91.88
357.761	87.88
357.988	90.88
358.215	79.88
358.441	81.88
358.668	81.88
358.895	95.88
359.122	90.88
359.349	85.88
359.576	91.88
359.802	79.88
360.029	88.88
360.256	85.88
360.483	63.88
360.709	94.88
360.936	88.88
361.163	85.88
361.39	87.88
361.616	93.88
361.843	90.88
362.07	87.88
362.296	86.88
362.523	90.88
362.749	90.88
362.976	94.88
363.203	97.88
363.429	92.88
363.656	82.88
363.882	83.88
364.109	99.88
364.335	107.88
364.562	111.88
364.788	91.88
365.015	84.88
365.241	88.88
365.468	79.88
365.694	85.88
365.92	76.88
366.147	87.88
366.373	79.88
366.599	90.88
366.826	87.88
367.052	82.88
367.278	103.88
367.505	85.88
367.731	70.88
367.957	85.88
368.184	77.88
368.41	76.88
368.636	81.88
368.862	93.88
369.089	81.88
369.315	75.88
369.541	76.88
369.767	65.88
369.993	85.88
370.219	72.88
370.445	95.88
370.672	91.88
370.898	101.88
371.124	79.88
371.35	79.88
371.576	90.88
371.802	77.88
372.028	88.88
372.254	91.88
372.48	90.88
372.706	83.88
372.932	89.88
373.158	97.88
373.384	81.88
373.61	90.88
373.835	76.88
374.061	87.88
374.287	89.88
374.513	73.88
374.739	86.88
374.965	88.88
375.191	74.88
375.416	95.88
375.642	90.88
375.868	90.88
376.094	83.88
376.319	76.88
376.545	94.88
376.771	86.88
376.997	70.88
377.222	86.88
377.448	92.88
377.674	86.88
377.899	77.88
378.125	88.88
378.35	82.88
378.576	88.88
378.802	98.88
379.027	84.88
379.253	102.88
379.478	81.88
379.704	75.88
379.929	93.88
380.155	87.88
380.38	87.88
380.606	68.88
380.831	89.88
381.057	83.88
381.282	95.88
381.507	73.88
381.733	89.88
381.958	89.88
382.184	89.88
382.409	82.88
382.634	87.88
382.86	92.88
383.085	93.88
383.31	74.88
383.535	97.88
383.761	89.88
383.986	93.88
384.211	86.88
384.436	85.88
384.662	80.88
384.887	85.88
385.112	75.88
385.337	89.88
385.562	83.88
385.787	88.88
386.013	93.88
386.238	72.88
386.463	71.88
386.688	102.88
386.913	79.88
387.138	89.88
387.363	103.88
387.588	89.88
387.813	101.88
388.038	98.88
388.263	89.88
388.488	92.88
388.713	103.88
388.938	85.88
389.163	95.88
389.387	97.88
389.612	83.88
389.837	106.88
390.062	76.88
390.287	86.88
390.512	87.88
390.736	93.88
390.961	93.88
391.186	92.88
391.411	93.88
391.636	96.88
391.86	81.88
392.085	94.88
392.31	85.88
392.534	88.88
392.759	98.88
392.984	117.88
393.208	182.88
393.433	252.88
393.658	181.88
393.882	97.88
394.107	103.88
394.331	105.88
394.556	87.88
394.78	115.88
395.005	90.88
395.229	96.88
395.454	82.88
395.678	92.88
395.903	117.88
396.127	97.88
396.352	125.88
396.576	128.88
396.801	146.88
397.025	203.88
397.249	121.88
397.474	117.88
397.698	80.88
397.922	80.88
398.147	88.88
398.371	97.88
398.595	77.88
398.82	81.88
399.044	90.88
399.268	93.88
399.492	81.88
399.717	99.88
399.941	83.88
400.165	81.88
400.389	87.88
400.613	70.88
400.837	84.88
401.062	99.88
401.286	83.88
401.51	66.88
401.734	90.88
401.958	74.88
402.182	87.88
402.406	76.88
402.63	91.88
402.854	85.88
403.078	97.88
403.302	75.88
403.526	84.88
403.75	86.88
403.974	93.88
404.198	86.88
404.422	107.88
404.645	114.88
404.869	112.88
405.093	93.88
405.317	88.88
405.541	86.88
405.765	93.88
405.988	86.88
406.212	95.88
406.436	96.88
406.66	84.88
406.883	92.88
407.107	90.88
407.331	93.88
407.555	83.88
407.778	89.88
408.002	93.88
408.226	88.88
408.449	82.88
408.673	91.88
408.896	78.88
409.12	94.88
409.344	86.88
409.567	88.88
409.791	84.88
410.014	89.88
410.238	87.88
410.461	89.88
410.685	86.88
410.908	87.88
411.132	87.88
411.355	87.88
411.578	82.88
411.802	89.88
412.025	77.88
412.249	81.88
412.472	87.88
412.695	77.88
412.919	82.88
413.142	102.88
413.365	86.88
413.589	74.88
413.812	89.88
414.035	85.88
414.258	75.88
414.482	91.88
414.705	85.88
414.928	101.88
415.151	88.88
415.374	82.88
415.597	88.88
415.821	69.88
416.044	94.88
416.267	83.88
416.49	96.88
416.713	86.88
416.936	72.88
417.159	91.88
417.382	95.88
417.605	89.88
417.828	92.88
418.051	81.88
418.274	74.88
418.497	81.88
418.72	90.88
418.943	91.88
419.166	98.88
419.389	87.88
419.611	80.88
419.834	84.88
420.057	88.88
420.28	93.88
420.503	89.88
420.726	75.88
420.948	81.88
421.171	84.88
421.394	95.88
421.617	99.88
421.839	101.88
422.062	104.88
422.285	144.88
422.507	203.88
422.73	311.88
422.953	289.88
423.175	147.88
423.398	102.88
423.621	94.88
423.843	80.88
424.066	96.88
424.288	86.88
424.511	83.88
424.733	90.88
424.956	78.88
425.178	98.88
425.401	81.88
425.623	85.88
425.846	79.88
426.068	90.88
426.291	89.88
426.513	77.88
426.735	97.88
426.958	81.88
427.18	96.88
427.402	85.88
427.625	96.88
427.847	87.88
428.069	93.88
428.292	112.88
428.514	126.88
428.736	99.88
428.958	95.88
429.181	128.88
429.403	93.88
429.625	83.88
429.847	104.88
430.069	139.88
430.292	150.88
430.514	140.88
430.736	119.88
430.958	128.88
431.18	89.88
431.402	89.88
431.624	89.88
431.846	110.88
432.068	106.88
432.29	74.88
432.512	86.88
432.734	88.88
432.956	75.88
433.178	83.88
433.4	87.88
433.622	87.88
433.844	81.88
434.066	85.88
434.287	82.88
434.509	87.88
434.731	81.88
434.953	73.88
435.175	75.88
435.397	84.88
435.618	87.88
435.84	95.88
436.062	82.88
436.284	83.88
436.505	90.88
436.727	78.88
436.949	85.88
437.17	77.88
437.392	82.88
437.614	91.88
437.835	86.88
438.057	86.88
438.278	73.88
438.5	81.88
438.721	89.88
438.943	83.88
439.165	79.88
439.386	82.88
439.608	79.88
439.829	78.88
440.05	89.88
440.272	88.88
440.493	73.88
440.715	91.88
440.936	89.88
441.158	100.88
441.379	85.88
441.6	81.88
441.822	88.88
442.043	86.88
442.264	86.88
442.486	98.88
442.707	138.88
442.928	104.88
443.149	90.88
443.371	121.88
443.592	181.88
443.813	162.88
444.034	89.88
444.255	92.88
444.476	94.88
444.698	101.88
444.919	83.88
445.14	149.88
445.361	187.88
445.582	232.88
445.803	181.88
446.024	110.88
446.245	97.88
446.466	79.88
446.687	75.88
446.908	81.88
447.129	75.88
447.35	81.88
447.571	89.88
447.792	79.88
448.013	80.88
448.234	82.88
448.455	72.88
448.675	102.88
448.896	102.88
449.117	79.88
449.338	74.88
449.559	80.88
449.779	78.88
450	90.88
450.221	68.88
450.442	89.88
450.662	76.88
450.883	71.88
451.104	81.88
451.324	75.88
451.545	91.88
451.766	74.88
451.986	70.88
452.207	87.88
452.428	83.88
452.648	76.88
452.869	92.88
453.089	91.88
453.31	85.88
453.53	93.88
453.751	72.88
453.971	83.88
454.192	81.88
454.412	74.88
454.633	85.88
454.853	90.88
455.073	83.88
455.294	88.88
455.514	81.88
455.734	87.88
455.955	70.88
456.175	89.88
456.395	85.88
456.616	82.88
456.836	81.88
457.056	75.88
457.276	73.88
457.497	89.88
457.717	87.88
457.937	103.88
458.157	120.88
458.377	96.88
458.598	103.88
458.818	107.88
459.038	84.88
459.258	76.88
459.478	83.88
459.698	73.88
459.918	97.88
460.138	92.88
460.358	67.88
460.578	95.88
460.798	111.88
461.018	111.88
461.238	95.88
461.458	76.88
461.678	89.88
461.898	73.88
462.118	83.88
462.338	89.88
462.558	86.88
462.777	84.88
462.997	70.88
463.217	88.88
463.437	74.88
463.657	80.88
463.876	79.88
464.096	84.88
464.316	71.88
464.536	90.88
464.755	78.88
464.975	70.88
465.195	94.88
465.414	77.88
465.634	75.88
465.854	96.88
466.073	83.88
466.293	79.88
466.512	80.88
466.732	79.88
466.951	93.88
467.171	80.88
467.391	82.88
467.61	86.88
467.829	82.88
468.049	72.88
468.268	94.88
468.488	93.88
468.707	85.88
468.927	93.88
469.146	77.88
469.365	85.88
469.585	82.88
469.804	86.88
470.023	73.88
470.243	75.88
470.462	75.88
470.681	98.88
470.901	94.88
471.12	98.88
471.339	85.88
471.558	83.88
471.777	89.88
471.997	66.88
472.216	69.88
472.435	81.88
472.654	90.88
472.873	101.88
473.092	83.88
473.311	61.88
473.53	81.88
473.749	98.88
473.968	94.88
474.187	88.88
474.406	85.88
474.625	73.88
474.844	96.88
475.063	85.88
475.282	81.88
475.501	73.88
475.72	89.88
475.939	85.88
476.158	81.88
476.377	84.88
476.596	85.88
476.814	79.88
477.033	70.88
477.252	68.88
477.471	90.88
477.69	86.88
477.908	85.88
478.127	96.88
478.346	83.88
478.564	81.88
478.783	86.88
479.002	91.88
479.22	79.88
479.439	88.88
479.658	87.88
479.876	71.88
480.095	74.88
480.313	91.88
480.532	82.88
480.751	87.88
480.969	89.88
481.188	79.88
481.406	98.88
481.624	87.88
481.843	104.88
482.061	74.88
482.28	81.88
482.498	87.88
482.717	92.88
482.935	81.88
483.153	102.88
483.372	77.88
483.59	87.88
483.808	86.88
484.027	90.88
484.245	94.88
484.463	89.88
484.681	95.88
484.9	75.88
485.118	87.88
485.336	86.88
485.554	81.88
485.772	83.88
485.99	77.88
486.209	77.88
486.427	81.88
486.645	94.88
486.863	82.88
487.081	89.88
487.299	99.88
487.517	97.88
487.735	99.88
487.953	130.88
488.171	114.88
488.389	101.88
488.607	103.88
488.825	99.88
489.043	90.88
489.261	81.88
489.479	84.88
489.696	83.88
489.914	78.88
490.132	86.88
490.35	76.88
490.568	88.88
490.786	88.88
491.003	61.88
491.221	74.88
491.439	85.88
491.657	89.88
491.874	96.88
492.092	82.88
492.31	72.88
492.527	93.88
492.745	101.88
492.963	85.88
493.18	73.88
493.398	79.88
493.615	85.88
493.833	84.88
494.05	81.88
494.268	73.88
494.485	90.88
494.703	84.88
494.92	80.88
495.138	97.88
495.355	79.88
495.573	70.88
495.79	89.88
496.008	99.88
496.225	87.88
496.442	87.88
496.66	88.88
496.877	91.88
497.094	88.88
497.312	78.88
497.529	68.88
497.746	82.88
497.963	93.88
498.181	89.88
498.398	87.88
498.615	103.88
498.832	89.88
499.049	90.88
499.267	86.88
499.484	81.88
499.701	99.88
499.918	86.88
500.135	92.88
500.352	85.88
500.569	77.88
500.786	100.88
501.003	80.88
501.22	93.88
501.437	97.88
501.654	112.88
501.871	82.88
502.088	84.88
502.305	93.88
502.522	92.88
502.739	88.88
502.956	89.88
503.172	81.88
503.389	95.88
503.606	103.88
503.823	94.88
504.04	91.88
504.256	114.88
504.473	102.88
504.69	90.88
504.907	86.88
505.123	72.88
505.34	79.88
505.557	96.88
505.773	96.88
505.99	76.88
506.207	85.88
506.423	89.88
506.64	88.88
506.856	97.88
507.073	69.88
507.289	98.88
507.506	96.88
507.722	81.88
507.939	72.88
508.155	94.88
508.372	89.88
508.588	79.88
508.805	83.88
509.021	80.88
509.238	86.88
509.454	91.88
509.67	88.88
509.887	68.88
510.103	75.88
510.319	90.88
510.536	91.88
510.752	90.88
510.968	85.88
511.184	83.88
511.401	71.88
511.617	97.88
511.833	79.88
512.049	76.88
512.265	88.88
512.481	71.88
512.698	82.88
512.914	107.88
513.13	89.88
513.346	75.88
513.562	79.88
513.778	88.88
513.994	91.88
514.21	76.88
514.426	87.88
514.642	79.88
514.858	83.88
515.074	75.88
515.29	93.88
515.506	89.88
515.721	91.88
515.937	90.88
516.153	75.88
516.369	90.88
516.585	81.88
516.801	79.88
517.016	85.88
517.232	89.88
517.448	100.88
517.664	102.88
517.879	89.88
518.095	91.88
518.311	88.88
518.527	101.88
518.742	87.88
518.958	118.88
