Data from 237_1_HRD10591_00045.txt Node
Date: Mon Jan 19 14:10:52 EST 2026
User: Yrep
Spectrometer: HR+D1059
Trigger mode: 1
Integration Time (sec): 1.000000E-1
Scans to average: 1
Electric dark correction enabled: true
Nonlinearity correction enabled: false
Boxcar width: 0
XAxis mode: Wavelengths
Number of Pixels in Spectrum: 2048
>>>>>Begin Spectral Data<<<<<
223.165	-26.62
223.4	-26.62
223.635	-26.62
223.869	-25.62
224.104	-21.62
224.338	0.38
224.573	-8.62
224.808	-12.62
225.042	-16.62
225.277	4.38
225.511	-0.62
225.746	9.38
225.98	-10.62
226.215	12.38
226.449	5.38
226.683	17.38
226.918	31.38
227.152	42.38
227.387	39.38
227.621	45.38
227.856	55.38
228.09	56.38
228.324	42.38
228.559	53.38
228.793	71.38
229.027	43.38
229.262	67.38
229.496	75.38
229.73	49.38
229.964	84.38
230.199	63.38
230.433	73.38
230.667	81.38
230.901	63.38
231.136	65.38
231.37	63.38
231.604	75.38
231.838	83.38
232.072	62.38
232.306	77.38
232.541	85.38
232.775	89.38
233.009	72.38
233.243	66.38
233.477	76.38
233.711	90.38
233.945	102.38
234.179	81.38
234.413	75.38
234.647	82.38
234.881	89.38
235.115	74.38
235.349	73.38
235.583	74.38
235.817	75.38
236.051	73.38
236.285	64.38
236.519	75.38
236.753	76.38
236.987	70.38
237.221	75.38
237.455	73.38
237.689	82.38
237.922	83.38
238.156	70.38
238.39	71.38
238.624	79.38
238.858	74.38
239.091	75.38
239.325	74.38
239.559	63.38
239.793	64.38
240.027	90.38
240.26	74.38
240.494	89.38
240.728	64.38
240.961	76.38
241.195	73.38
241.429	70.38
241.662	79.38
241.896	75.38
242.13	72.38
242.363	75.38
242.597	95.38
242.83	74.38
243.064	65.38
243.298	65.38
243.531	65.38
243.765	83.38
243.998	76.38
244.232	92.38
244.465	71.38
244.699	75.38
244.932	61.38
245.166	71.38
245.399	66.38
245.633	61.38
245.866	81.38
246.099	84.38
246.333	73.38
246.566	73.38
246.8	87.38
247.033	75.38
247.266	76.38
247.5	79.38
247.733	82.38
247.966	72.38
248.2	78.38
248.433	82.38
248.666	71.38
248.899	80.38
249.133	71.38
249.366	79.38
249.599	67.38
249.832	71.38
250.066	71.38
250.299	88.38
250.532	84.38
250.765	98.38
250.998	79.38
251.231	69.38
251.465	84.38
251.698	93.38
251.931	81.38
252.164	73.38
252.397	77.38
252.63	82.38
252.863	75.38
253.096	83.38
253.329	75.38
253.562	87.38
253.795	76.38
254.028	84.38
254.261	77.38
254.494	74.38
254.727	71.38
254.96	87.38
255.193	82.38
255.426	81.38
255.659	85.38
255.892	101.38
256.124	80.38
256.357	78.38
256.59	63.38
256.823	79.38
257.056	73.38
257.289	82.38
257.521	82.38
257.754	75.38
257.987	85.38
258.22	80.38
258.452	72.38
258.685	73.38
258.918	81.38
259.151	75.38
259.383	77.38
259.616	76.38
259.849	81.38
260.081	81.38
260.314	81.38
260.547	68.38
260.779	71.38
261.012	79.38
261.244	72.38
261.477	93.38
261.71	75.38
261.942	79.38
262.175	81.38
262.407	73.38
262.64	80.38
262.872	85.38
263.105	85.38
263.337	85.38
263.57	78.38
263.802	76.38
264.035	75.38
264.267	79.38
264.499	88.38
264.732	78.38
264.964	95.38
265.197	82.38
265.429	78.38
265.661	85.38
265.894	85.38
266.126	77.38
266.358	67.38
266.591	86.38
266.823	79.38
267.055	76.38
267.287	67.38
267.52	94.38
267.752	79.38
267.984	69.38
268.216	85.38
268.448	83.38
268.681	75.38
268.913	77.38
269.145	88.38
269.377	83.38
269.609	71.38
269.841	78.38
270.073	88.38
270.306	79.38
270.538	68.38
270.77	90.38
271.002	79.38
271.234	78.38
271.466	91.38
271.698	77.38
271.93	93.38
272.162	81.38
272.394	67.38
272.626	77.38
272.858	77.38
273.09	71.38
273.322	86.38
273.553	67.38
273.785	83.38
274.017	78.38
274.249	76.38
274.481	74.38
274.713	74.38
274.945	88.38
275.176	93.38
275.408	82.38
275.64	68.38
275.872	87.38
276.104	96.38
276.335	85.38
276.567	77.38
276.799	84.38
277.031	73.38
277.262	81.38
277.494	72.38
277.726	74.38
277.957	63.38
278.189	71.38
278.421	81.38
278.652	89.38
278.884	101.38
279.115	87.38
279.347	75.38
279.579	71.38
279.81	85.38
280.042	73.38
280.273	71.38
280.505	71.38
280.736	72.38
280.968	87.38
281.199	91.38
281.431	82.38
281.662	82.38
281.894	79.38
282.125	93.38
282.356	101.38
282.588	81.38
282.819	86.38
283.051	86.38
283.282	73.38
283.513	84.38
283.745	91.38
283.976	63.38
284.207	77.38
284.439	88.38
284.67	75.38
284.901	83.38
285.132	81.38
285.364	88.38
285.595	77.38
285.826	82.38
286.057	83.38
286.288	69.38
286.52	79.38
286.751	72.38
286.982	83.38
287.213	90.38
287.444	89.38
287.675	80.38
287.906	91.38
288.138	91.38
288.369	85.38
288.6	91.38
288.831	83.38
289.062	76.38
289.293	83.38
289.524	73.38
289.755	69.38
289.986	90.38
290.217	76.38
290.448	85.38
290.679	84.38
290.91	102.38
291.141	80.38
291.371	98.38
291.602	99.38
291.833	90.38
292.064	80.38
292.295	82.38
292.526	88.38
292.757	72.38
292.987	89.38
293.218	86.38
293.449	87.38
293.68	83.38
293.91	87.38
294.141	81.38
294.372	92.38
294.603	79.38
294.833	91.38
295.064	76.38
295.295	93.38
295.525	89.38
295.756	90.38
295.987	94.38
296.217	86.38
296.448	81.38
296.679	86.38
296.909	79.38
297.14	82.38
297.37	93.38
297.601	97.38
297.831	80.38
298.062	87.38
298.292	88.38
298.523	78.38
298.753	83.38
298.984	101.38
299.214	66.38
299.445	85.38
299.675	93.38
299.905	89.38
300.136	86.38
300.366	81.38
300.597	79.38
300.827	93.38
301.057	74.38
301.288	79.38
301.518	86.38
301.748	91.38
301.979	102.38
302.209	84.38
302.439	97.38
302.669	77.38
302.9	78.38
303.13	86.38
303.36	80.38
303.59	88.38
303.82	90.38
304.051	80.38
304.281	95.38
304.511	108.38
304.741	83.38
304.971	85.38
305.201	82.38
305.431	89.38
305.661	97.38
305.891	81.38
306.121	86.38
306.352	85.38
306.582	86.38
306.812	80.38
307.042	85.38
307.272	79.38
307.502	75.38
307.731	78.38
307.961	74.38
308.191	74.38
308.421	85.38
308.651	86.38
308.881	93.38
309.111	88.38
309.341	84.38
309.571	81.38
309.8	74.38
310.03	90.38
310.26	91.38
310.49	106.38
310.72	98.38
310.949	85.38
311.179	95.38
311.409	90.38
311.639	90.38
311.868	73.38
312.098	101.38
312.328	83.38
312.557	81.38
312.787	72.38
313.017	86.38
313.246	89.38
313.476	70.38
313.706	77.38
313.935	73.38
314.165	88.38
314.394	85.38
314.624	82.38
314.853	81.38
315.083	85.38
315.312	79.38
315.542	87.38
315.771	82.38
316.001	77.38
316.23	84.38
316.46	97.38
316.689	95.38
316.919	83.38
317.148	97.38
317.377	87.38
317.607	75.38
317.836	78.38
318.065	73.38
318.295	72.38
318.524	82.38
318.753	78.38
318.983	81.38
319.212	81.38
319.441	83.38
319.67	80.38
319.9	81.38
320.129	69.38
320.358	89.38
320.587	95.38
320.816	90.38
321.046	88.38
321.275	79.38
321.504	81.38
321.733	99.38
321.962	70.38
322.191	82.38
322.42	83.38
322.649	81.38
322.878	82.38
323.108	81.38
323.337	82.38
323.566	81.38
323.795	77.38
324.024	74.38
324.253	70.38
324.482	71.38
324.71	82.38
324.939	91.38
325.168	81.38
325.397	87.38
325.626	83.38
325.855	79.38
326.084	71.38
326.313	81.38
326.542	92.38
326.77	105.38
326.999	80.38
327.228	71.38
327.457	99.38
327.686	98.38
327.914	67.38
328.143	74.38
328.372	82.38
328.6	83.38
328.829	74.38
329.058	83.38
329.287	74.38
329.515	96.38
329.744	85.38
329.972	75.38
330.201	85.38
330.43	88.38
330.658	77.38
330.887	81.38
331.115	100.38
331.344	84.38
331.572	64.38
331.801	76.38
332.03	76.38
332.258	80.38
332.486	82.38
332.715	63.38
332.943	81.38
333.172	82.38
333.4	82.38
333.629	90.38
333.857	71.38
334.085	82.38
334.314	88.38
334.542	77.38
334.771	80.38
334.999	91.38
335.227	93.38
335.455	86.38
335.684	90.38
335.912	97.38
336.14	92.38
336.369	78.38
336.597	85.38
336.825	84.38
337.053	87.38
337.281	88.38
337.51	94.38
337.738	93.38
337.966	78.38
338.194	86.38
338.422	90.38
338.65	90.38
338.878	84.38
339.106	75.38
339.334	77.38
339.562	81.38
339.79	79.38
340.018	76.38
340.246	89.38
340.474	84.38
340.702	79.38
340.93	71.38
341.158	85.38
341.386	86.38
341.614	81.38
341.842	73.38
342.07	88.38
342.298	83.38
342.526	91.38
342.754	79.38
342.981	80.38
343.209	69.38
343.437	78.38
343.665	89.38
343.893	87.38
344.12	66.38
344.348	83.38
344.576	87.38
344.804	81.38
345.031	88.38
345.259	88.38
345.487	73.38
345.714	75.38
345.942	84.38
346.17	72.38
346.397	85.38
346.625	83.38
346.853	87.38
347.08	72.38
347.308	68.38
347.535	89.38
347.763	83.38
347.99	71.38
348.218	83.38
348.445	97.38
348.673	94.38
348.9	67.38
349.128	68.38
349.355	72.38
349.583	69.38
349.81	90.38
350.037	90.38
350.265	78.38
350.492	70.38
350.72	86.38
350.947	73.38
351.174	71.38
351.402	71.38
351.629	82.38
351.856	89.38
352.083	90.38
352.311	77.38
352.538	87.38
352.765	76.38
352.992	89.38
353.22	93.38
353.447	82.38
353.674	70.38
353.901	88.38
354.128	76.38
354.355	88.38
354.583	89.38
354.81	76.38
355.037	79.38
355.264	69.38
355.491	83.38
355.718	70.38
355.945	87.38
356.172	88.38
356.399	85.38
356.626	83.38
356.853	79.38
357.08	76.38
357.307	82.38
357.534	69.38
357.761	102.38
357.988	95.38
358.215	92.38
358.441	81.38
358.668	88.38
358.895	81.38
359.122	98.38
359.349	82.38
359.576	76.38
359.802	70.38
360.029	81.38
360.256	92.38
360.483	93.38
360.709	91.38
360.936	85.38
361.163	83.38
361.39	87.38
361.616	75.38
361.843	78.38
362.07	81.38
362.296	96.38
362.523	90.38
362.749	93.38
362.976	67.38
363.203	84.38
363.429	81.38
363.656	86.38
363.882	73.38
364.109	81.38
364.335	90.38
364.562	104.38
364.788	89.38
365.015	81.38
365.241	75.38
365.468	84.38
365.694	89.38
365.92	93.38
366.147	81.38
366.373	97.38
366.599	90.38
366.826	84.38
367.052	94.38
367.278	90.38
367.505	75.38
367.731	61.38
367.957	81.38
368.184	74.38
368.41	85.38
368.636	76.38
368.862	77.38
369.089	74.38
369.315	75.38
369.541	75.38
369.767	81.38
369.993	70.38
370.219	75.38
370.445	81.38
370.672	84.38
370.898	98.38
371.124	69.38
371.35	67.38
371.576	90.38
371.802	89.38
372.028	83.38
372.254	84.38
372.48	88.38
372.706	80.38
372.932	89.38
373.158	91.38
373.384	97.38
373.61	97.38
373.835	92.38
374.061	82.38
374.287	91.38
374.513	98.38
374.739	87.38
374.965	81.38
375.191	86.38
375.416	86.38
375.642	99.38
375.868	74.38
376.094	87.38
376.319	87.38
376.545	91.38
376.771	90.38
376.997	90.38
377.222	81.38
377.448	79.38
377.674	90.38
377.899	69.38
378.125	96.38
378.35	75.38
378.576	88.38
378.802	86.38
379.027	85.38
379.253	88.38
379.478	81.38
379.704	74.38
379.929	82.38
380.155	81.38
380.38	84.38
380.606	81.38
380.831	73.38
381.057	75.38
381.282	71.38
381.507	73.38
381.733	77.38
381.958	81.38
382.184	85.38
382.409	89.38
382.634	87.38
382.86	87.38
383.085	83.38
383.31	84.38
383.535	81.38
383.761	89.38
383.986	73.38
384.211	88.38
384.436	96.38
384.662	76.38
384.887	76.38
385.112	84.38
385.337	74.38
385.562	85.38
385.787	80.38
386.013	73.38
386.238	90.38
386.463	68.38
386.688	75.38
386.913	80.38
387.138	81.38
387.363	75.38
387.588	95.38
387.813	80.38
388.038	81.38
388.263	83.38
388.488	73.38
388.713	83.38
388.938	83.38
389.163	91.38
389.387	82.38
389.612	86.38
389.837	95.38
390.062	97.38
390.287	82.38
390.512	71.38
390.736	77.38
390.961	74.38
391.186	81.38
391.411	79.38
391.636	87.38
391.86	87.38
392.085	78.38
392.31	86.38
392.534	91.38
392.759	92.38
392.984	90.38
393.208	122.38
393.433	144.38
393.658	127.38
393.882	93.38
394.107	96.38
394.331	83.38
394.556	90.38
394.78	72.38
395.005	86.38
395.229	74.38
395.454	100.38
395.678	82.38
395.903	88.38
396.127	98.38
396.352	100.38
396.576	100.38
396.801	119.38
397.025	137.38
397.249	86.38
397.474	95.38
397.698	91.38
397.922	70.38
398.147	80.38
398.371	93.38
398.595	86.38
398.82	81.38
399.044	87.38
399.268	81.38
399.492	74.38
399.717	75.38
399.941	87.38
400.165	72.38
400.389	79.38
400.613	80.38
400.837	73.38
401.062	74.38
401.286	88.38
401.51	66.38
401.734	89.38
401.958	91.38
402.182	71.38
402.406	94.38
402.63	88.38
402.854	94.38
403.078	76.38
403.302	84.38
403.526	90.38
403.75	82.38
403.974	76.38
404.198	79.38
404.422	103.38
404.645	110.38
404.869	97.38
405.093	83.38
405.317	65.38
405.541	91.38
405.765	89.38
405.988	91.38
406.212	84.38
406.436	82.38
406.66	82.38
406.883	78.38
407.107	74.38
407.331	77.38
407.555	89.38
407.778	83.38
408.002	81.38
408.226	69.38
408.449	84.38
408.673	85.38
408.896	70.38
409.12	61.38
409.344	82.38
409.567	79.38
409.791	82.38
410.014	74.38
410.238	90.38
410.461	86.38
410.685	85.38
410.908	85.38
411.132	92.38
411.355	75.38
411.578	88.38
411.802	66.38
412.025	73.38
412.249	72.38
412.472	95.38
412.695	71.38
412.919	71.38
413.142	75.38
413.365	73.38
413.589	83.38
413.812	88.38
414.035	64.38
414.258	76.38
414.482	83.38
414.705	69.38
414.928	67.38
415.151	81.38
415.374	87.38
415.597	74.38
415.821	86.38
416.044	81.38
416.267	64.38
416.49	80.38
416.713	85.38
416.936	70.38
417.159	73.38
417.382	77.38
417.605	83.38
417.828	62.38
418.051	71.38
418.274	81.38
418.497	90.38
418.72	72.38
418.943	85.38
419.166	85.38
419.389	89.38
419.611	85.38
419.834	85.38
420.057	78.38
420.28	87.38
420.503	86.38
420.726	78.38
420.948	63.38
421.171	89.38
421.394	74.38
421.617	94.38
421.839	93.38
422.062	109.38
422.285	118.38
422.507	157.38
422.73	197.38
422.953	189.38
423.175	120.38
423.398	106.38
423.621	77.38
423.843	84.38
424.066	65.38
424.288	99.38
424.511	82.38
424.733	67.38
424.956	78.38
425.178	91.38
425.401	82.38
425.623	90.38
425.846	80.38
426.068	80.38
426.291	93.38
426.513	72.38
426.735	68.38
426.958	92.38
427.18	78.38
427.402	80.38
427.625	67.38
427.847	91.38
428.069	82.38
428.292	103.38
428.514	109.38
428.736	85.38
428.958	98.38
429.181	108.38
429.403	89.38
429.625	96.38
429.847	87.38
430.069	106.38
430.292	112.38
430.514	103.38
430.736	86.38
430.958	100.38
431.18	79.38
431.402	75.38
431.624	83.38
431.846	93.38
432.068	99.38
432.29	83.38
432.512	89.38
432.734	87.38
432.956	79.38
433.178	88.38
433.4	82.38
433.622	68.38
433.844	93.38
434.066	74.38
434.287	79.38
434.509	85.38
434.731	77.38
434.953	82.38
435.175	78.38
435.397	82.38
435.618	81.38
435.84	84.38
436.062	79.38
436.284	93.38
436.505	85.38
436.727	77.38
436.949	81.38
437.17	79.38
437.392	81.38
437.614	78.38
437.835	79.38
438.057	80.38
438.278	84.38
438.5	93.38
438.721	69.38
438.943	77.38
439.165	75.38
439.386	75.38
439.608	80.38
439.829	67.38
440.05	74.38
440.272	79.38
440.493	85.38
440.715	87.38
440.936	81.38
441.158	86.38
441.379	87.38
441.6	75.38
441.822	72.38
442.043	86.38
442.264	93.38
442.486	96.38
442.707	108.38
442.928	90.38
443.149	96.38
443.371	114.38
443.592	152.38
443.813	141.38
444.034	82.38
444.255	75.38
444.476	95.38
444.698	86.38
444.919	83.38
445.14	175.38
445.361	159.38
445.582	173.38
445.803	144.38
446.024	104.38
446.245	89.38
446.466	87.38
446.687	78.38
446.908	86.38
447.129	64.38
447.35	81.38
447.571	81.38
447.792	87.38
448.013	72.38
448.234	75.38
448.455	84.38
448.675	84.38
448.896	84.38
449.117	70.38
449.338	71.38
449.559	82.38
449.779	82.38
450	82.38
450.221	84.38
450.442	79.38
450.662	87.38
450.883	81.38
451.104	86.38
451.324	81.38
451.545	80.38
451.766	88.38
451.986	77.38
452.207	78.38
452.428	89.38
452.648	89.38
452.869	89.38
453.089	80.38
453.31	76.38
453.53	81.38
453.751	79.38
453.971	82.38
454.192	72.38
454.412	81.38
454.633	82.38
454.853	71.38
455.073	77.38
455.294	81.38
455.514	86.38
455.734	88.38
455.955	78.38
456.175	73.38
456.395	79.38
456.616	80.38
456.836	70.38
457.056	83.38
457.276	77.38
457.497	73.38
457.717	89.38
457.937	82.38
458.157	99.38
458.377	92.38
458.598	74.38
458.818	102.38
459.038	82.38
459.258	84.38
459.478	75.38
459.698	65.38
459.918	87.38
460.138	85.38
460.358	87.38
460.578	104.38
460.798	84.38
461.018	75.38
461.238	88.38
461.458	63.38
461.678	79.38
461.898	76.38
462.118	81.38
462.338	84.38
462.558	86.38
462.777	91.38
462.997	72.38
463.217	100.38
463.437	82.38
463.657	76.38
463.876	70.38
464.096	79.38
464.316	91.38
464.536	83.38
464.755	87.38
464.975	80.38
465.195	81.38
465.414	78.38
465.634	80.38
465.854	106.38
466.073	95.38
466.293	82.38
466.512	83.38
466.732	81.38
466.951	69.38
467.171	80.38
467.391	70.38
467.61	67.38
467.829	69.38
468.049	85.38
468.268	78.38
468.488	78.38
468.707	83.38
468.927	84.38
469.146	83.38
469.365	61.38
469.585	86.38
469.804	84.38
470.023	76.38
470.243	82.38
470.462	81.38
470.681	93.38
470.901	83.38
471.12	80.38
471.339	86.38
471.558	86.38
471.777	83.38
471.997	69.38
472.216	72.38
472.435	83.38
472.654	84.38
472.873	71.38
473.092	78.38
473.311	83.38
473.53	85.38
473.749	82.38
473.968	87.38
474.187	74.38
474.406	88.38
474.625	82.38
474.844	70.38
475.063	75.38
475.282	81.38
475.501	87.38
475.72	98.38
475.939	79.38
476.158	87.38
476.377	82.38
476.596	63.38
476.814	67.38
477.033	72.38
477.252	72.38
477.471	73.38
477.69	89.38
477.908	80.38
478.127	76.38
478.346	69.38
478.564	93.38
478.783	75.38
479.002	85.38
479.22	68.38
479.439	96.38
479.658	87.38
479.876	69.38
480.095	100.38
480.313	96.38
480.532	79.38
480.751	77.38
480.969	86.38
481.188	93.38
481.406	88.38
481.624	80.38
481.843	86.38
482.061	72.38
482.28	82.38
482.498	77.38
482.717	90.38
482.935	79.38
483.153	85.38
483.372	79.38
483.59	63.38
483.808	82.38
484.027	87.38
484.245	87.38
484.463	79.38
484.681	82.38
484.9	83.38
485.118	81.38
485.336	82.38
485.554	89.38
485.772	68.38
485.99	79.38
486.209	83.38
486.427	69.38
486.645	88.38
486.863	97.38
487.081	80.38
487.299	87.38
487.517	89.38
487.735	93.38
487.953	106.38
488.171	102.38
488.389	97.38
488.607	88.38
488.825	82.38
489.043	89.38
489.261	86.38
489.479	71.38
489.696	85.38
489.914	73.38
490.132	94.38
490.35	74.38
490.568	80.38
490.786	81.38
491.003	84.38
491.221	80.38
491.439	72.38
491.657	72.38
491.874	89.38
492.092	84.38
492.31	71.38
492.527	72.38
492.745	95.38
492.963	81.38
493.18	90.38
493.398	87.38
493.615	72.38
493.833	93.38
494.05	94.38
494.268	92.38
494.485	97.38
494.703	93.38
494.92	78.38
495.138	88.38
495.355	75.38
495.573	73.38
495.79	81.38
496.008	97.38
496.225	101.38
496.442	90.38
496.66	85.38
496.877	86.38
497.094	96.38
497.312	75.38
497.529	79.38
497.746	88.38
497.963	91.38
498.181	79.38
498.398	84.38
498.615	89.38
498.832	78.38
499.049	73.38
499.267	86.38
499.484	97.38
499.701	71.38
499.918	79.38
500.135	86.38
500.352	78.38
500.569	83.38
500.786	86.38
501.003	97.38
501.22	97.38
501.437	94.38
501.654	92.38
501.871	77.38
502.088	78.38
502.305	76.38
502.522	98.38
502.739	90.38
502.956	85.38
503.172	84.38
503.389	76.38
503.606	84.38
503.823	79.38
504.04	93.38
504.256	105.38
504.473	101.38
504.69	82.38
504.907	90.38
505.123	85.38
505.34	80.38
505.557	73.38
505.773	85.38
505.99	91.38
506.207	87.38
506.423	78.38
506.64	97.38
506.856	79.38
507.073	86.38
507.289	69.38
507.506	83.38
507.722	87.38
507.939	85.38
508.155	88.38
508.372	73.38
508.588	72.38
508.805	84.38
509.021	81.38
509.238	99.38
509.454	82.38
509.67	105.38
509.887	91.38
510.103	95.38
510.319	85.38
510.536	80.38
510.752	91.38
510.968	81.38
511.184	78.38
511.401	81.38
511.617	76.38
511.833	75.38
512.049	85.38
512.265	97.38
512.481	91.38
512.698	81.38
512.914	65.38
513.13	71.38
513.346	77.38
513.562	80.38
513.778	96.38
513.994	82.38
514.21	84.38
514.426	75.38
514.642	83.38
514.858	94.38
515.074	82.38
515.29	95.38
515.506	75.38
515.721	98.38
515.937	95.38
516.153	91.38
516.369	89.38
516.585	86.38
516.801	79.38
517.016	81.38
517.232	85.38
517.448	83.38
517.664	85.38
517.879	80.38
518.095	91.38
518.311	77.38
518.527	78.38
518.742	89.38
518.958	88.38
519.173	104.38
519.389	88.38
519.605	78.38
