Data from 237_1_HRD10591_00024.txt Node
Date: Mon Jan 19 14:10:41 EST 2026
User: Yrep
Spectrometer: HR+D1059
Trigger mode: 1
Integration Time (sec): 1.000000E-1
Scans to average: 1
Electric dark correction enabled: true
Nonlinearity correction enabled: false
Boxcar width: 0
XAxis mode: Wavelengths
Number of Pixels in Spectrum: 2048
>>>>>Begin Spectral Data<<<<<
223.165	-14.06
223.4	-14.06
223.635	-14.06
223.869	-26.06
224.104	-29.06
224.338	-25.06
224.573	-4.06
224.808	-12.06
225.042	2.94
225.277	4.94
225.511	3.94
225.746	-5.06
225.98	4.94
226.215	18.94
226.449	15.94
226.683	24.94
226.918	26.94
227.152	11.94
227.387	36.94
227.621	46.94
227.856	55.94
228.09	53.94
228.324	63.94
228.559	56.94
228.793	69.94
229.027	64.94
229.262	64.94
229.496	61.94
229.73	69.94
229.964	80.94
230.199	79.94
230.433	85.94
230.667	91.94
230.901	83.94
231.136	82.94
231.37	80.94
231.604	82.94
231.838	78.94
232.072	77.94
232.306	79.94
232.541	82.94
232.775	87.94
233.009	87.94
233.243	85.94
233.477	99.94
233.711	90.94
233.945	72.94
234.179	85.94
234.413	88.94
234.647	75.94
234.881	85.94
235.115	69.94
235.349	77.94
235.583	85.94
235.817	91.94
236.051	79.94
236.285	83.94
236.519	69.94
236.753	78.94
236.987	71.94
237.221	80.94
237.455	85.94
237.689	79.94
237.922	79.94
238.156	75.94
238.39	79.94
238.624	81.94
238.858	78.94
239.091	72.94
239.325	79.94
239.559	86.94
239.793	79.94
240.027	77.94
240.26	74.94
240.494	83.94
240.728	86.94
240.961	65.94
241.195	79.94
241.429	80.94
241.662	75.94
241.896	79.94
242.13	73.94
242.363	75.94
242.597	78.94
242.83	71.94
243.064	63.94
243.298	72.94
243.531	78.94
243.765	75.94
243.998	73.94
244.232	78.94
244.465	90.94
244.699	79.94
244.932	83.94
245.166	74.94
245.399	79.94
245.633	78.94
245.866	81.94
246.099	78.94
246.333	69.94
246.566	74.94
246.8	84.94
247.033	82.94
247.266	68.94
247.5	76.94
247.733	74.94
247.966	73.94
248.2	86.94
248.433	83.94
248.666	67.94
248.899	75.94
249.133	83.94
249.366	79.94
249.599	84.94
249.832	67.94
250.066	79.94
250.299	69.94
250.532	81.94
250.765	76.94
250.998	71.94
251.231	84.94
251.465	85.94
251.698	83.94
251.931	76.94
252.164	83.94
252.397	78.94
252.63	69.94
252.863	82.94
253.096	77.94
253.329	79.94
253.562	83.94
253.795	75.94
254.028	89.94
254.261	81.94
254.494	91.94
254.727	81.94
254.96	72.94
255.193	93.94
255.426	90.94
255.659	84.94
255.892	83.94
256.124	75.94
256.357	77.94
256.59	80.94
256.823	66.94
257.056	99.94
257.289	84.94
257.521	85.94
257.754	84.94
257.987	73.94
258.22	81.94
258.452	75.94
258.685	77.94
258.918	87.94
259.151	89.94
259.383	95.94
259.616	84.94
259.849	74.94
260.081	90.94
260.314	88.94
260.547	83.94
260.779	85.94
261.012	86.94
261.244	82.94
261.477	98.94
261.71	98.94
261.942	83.94
262.175	86.94
262.407	87.94
262.64	75.94
262.872	95.94
263.105	74.94
263.337	75.94
263.57	88.94
263.802	91.94
264.035	83.94
264.267	77.94
264.499	83.94
264.732	89.94
264.964	80.94
265.197	74.94
265.429	81.94
265.661	93.94
265.894	78.94
266.126	75.94
266.358	69.94
266.591	77.94
266.823	80.94
267.055	85.94
267.287	70.94
267.52	70.94
267.752	91.94
267.984	62.94
268.216	83.94
268.448	81.94
268.681	85.94
268.913	77.94
269.145	90.94
269.377	85.94
269.609	89.94
269.841	86.94
270.073	93.94
270.306	77.94
270.538	84.94
270.77	65.94
271.002	91.94
271.234	74.94
271.466	82.94
271.698	83.94
271.93	70.94
272.162	91.94
272.394	99.94
272.626	80.94
272.858	77.94
273.09	69.94
273.322	78.94
273.553	81.94
273.785	86.94
274.017	82.94
274.249	91.94
274.481	91.94
274.713	97.94
274.945	82.94
275.176	64.94
275.408	98.94
275.64	84.94
275.872	80.94
276.104	68.94
276.335	93.94
276.567	85.94
276.799	93.94
277.031	88.94
277.262	75.94
277.494	83.94
277.726	86.94
277.957	75.94
278.189	86.94
278.421	76.94
278.652	73.94
278.884	85.94
279.115	86.94
279.347	70.94
279.579	84.94
279.81	71.94
280.042	83.94
280.273	85.94
280.505	81.94
280.736	77.94
280.968	73.94
281.199	81.94
281.431	77.94
281.662	88.94
281.894	81.94
282.125	73.94
282.356	77.94
282.588	93.94
282.819	77.94
283.051	82.94
283.282	74.94
283.513	92.94
283.745	87.94
283.976	80.94
284.207	81.94
284.439	91.94
284.67	85.94
284.901	82.94
285.132	76.94
285.364	83.94
285.595	83.94
285.826	79.94
286.057	92.94
286.288	102.94
286.52	87.94
286.751	73.94
286.982	83.94
287.213	93.94
287.444	83.94
287.675	79.94
287.906	86.94
288.138	89.94
288.369	86.94
288.6	89.94
288.831	89.94
289.062	96.94
289.293	68.94
289.524	86.94
289.755	80.94
289.986	83.94
290.217	75.94
290.448	85.94
290.679	81.94
290.91	98.94
291.141	95.94
291.371	82.94
291.602	91.94
291.833	84.94
292.064	85.94
292.295	87.94
292.526	87.94
292.757	95.94
292.987	80.94
293.218	97.94
293.449	81.94
293.68	86.94
293.91	99.94
294.141	84.94
294.372	94.94
294.603	80.94
294.833	91.94
295.064	92.94
295.295	90.94
295.525	77.94
295.756	78.94
295.987	89.94
296.217	83.94
296.448	82.94
296.679	94.94
296.909	97.94
297.14	94.94
297.37	94.94
297.601	88.94
297.831	86.94
298.062	72.94
298.292	80.94
298.523	86.94
298.753	77.94
298.984	97.94
299.214	85.94
299.445	84.94
299.675	89.94
299.905	93.94
300.136	89.94
300.366	83.94
300.597	94.94
300.827	85.94
301.057	85.94
301.288	92.94
301.518	86.94
301.748	83.94
301.979	103.94
302.209	86.94
302.439	108.94
302.669	94.94
302.9	95.94
303.13	96.94
303.36	89.94
303.59	82.94
303.82	92.94
304.051	83.94
304.281	93.94
304.511	78.94
304.741	89.94
304.971	86.94
305.201	87.94
305.431	90.94
305.661	87.94
305.891	89.94
306.121	87.94
306.352	75.94
306.582	88.94
306.812	99.94
307.042	89.94
307.272	86.94
307.502	99.94
307.731	83.94
307.961	96.94
308.191	84.94
308.421	96.94
308.651	82.94
308.881	90.94
309.111	91.94
309.341	102.94
309.571	99.94
309.8	89.94
310.03	87.94
310.26	99.94
310.49	89.94
310.72	81.94
310.949	75.94
311.179	89.94
311.409	92.94
311.639	83.94
311.868	97.94
312.098	85.94
312.328	77.94
312.557	79.94
312.787	86.94
313.017	87.94
313.246	92.94
313.476	90.94
313.706	89.94
313.935	94.94
314.165	96.94
314.394	91.94
314.624	89.94
314.853	93.94
315.083	82.94
315.312	92.94
315.542	88.94
315.771	94.94
316.001	86.94
316.23	97.94
316.46	91.94
316.689	91.94
316.919	75.94
317.148	76.94
317.377	96.94
317.607	91.94
317.836	97.94
318.065	97.94
318.295	89.94
318.524	100.94
318.753	78.94
318.983	83.94
319.212	80.94
319.441	79.94
319.67	89.94
319.9	91.94
320.129	91.94
320.358	102.94
320.587	97.94
320.816	82.94
321.046	83.94
321.275	104.94
321.504	91.94
321.733	92.94
321.962	91.94
322.191	92.94
322.42	79.94
322.649	79.94
322.878	92.94
323.108	79.94
323.337	80.94
323.566	80.94
323.795	80.94
324.024	84.94
324.253	94.94
324.482	78.94
324.71	77.94
324.939	99.94
325.168	105.94
325.397	91.94
325.626	90.94
325.855	84.94
326.084	87.94
326.313	83.94
326.542	85.94
326.77	85.94
326.999	92.94
327.228	83.94
327.457	90.94
327.686	87.94
327.914	89.94
328.143	86.94
328.372	88.94
328.6	96.94
328.829	81.94
329.058	86.94
329.287	82.94
329.515	86.94
329.744	89.94
329.972	89.94
330.201	106.94
330.43	90.94
330.658	79.94
330.887	93.94
331.115	85.94
331.344	82.94
331.572	89.94
331.801	68.94
332.03	78.94
332.258	90.94
332.486	86.94
332.715	89.94
332.943	85.94
333.172	86.94
333.4	77.94
333.629	84.94
333.857	85.94
334.085	90.94
334.314	102.94
334.542	83.94
334.771	101.94
334.999	105.94
335.227	97.94
335.455	84.94
335.684	74.94
335.912	90.94
336.14	103.94
336.369	96.94
336.597	95.94
336.825	101.94
337.053	105.94
337.281	94.94
337.51	94.94
337.738	82.94
337.966	85.94
338.194	90.94
338.422	101.94
338.65	97.94
338.878	90.94
339.106	88.94
339.334	93.94
339.562	93.94
339.79	75.94
340.018	83.94
340.246	86.94
340.474	94.94
340.702	77.94
340.93	95.94
341.158	99.94
341.386	85.94
341.614	98.94
341.842	93.94
342.07	96.94
342.298	92.94
342.526	86.94
342.754	80.94
342.981	101.94
343.209	82.94
343.437	94.94
343.665	87.94
343.893	97.94
344.12	96.94
344.348	96.94
344.576	94.94
344.804	84.94
345.031	82.94
345.259	90.94
345.487	78.94
345.714	85.94
345.942	85.94
346.17	99.94
346.397	80.94
346.625	97.94
346.853	82.94
347.08	86.94
347.308	99.94
347.535	100.94
347.763	93.94
347.99	94.94
348.218	93.94
348.445	91.94
348.673	93.94
348.9	91.94
349.128	94.94
349.355	92.94
349.583	86.94
349.81	97.94
350.037	85.94
350.265	82.94
350.492	90.94
350.72	91.94
350.947	103.94
351.174	92.94
351.402	81.94
351.629	86.94
351.856	94.94
352.083	93.94
352.311	83.94
352.538	84.94
352.765	75.94
352.992	93.94
353.22	90.94
353.447	87.94
353.674	85.94
353.901	86.94
354.128	87.94
354.355	94.94
354.583	94.94
354.81	90.94
355.037	93.94
355.264	85.94
355.491	78.94
355.718	97.94
355.945	97.94
356.172	93.94
356.399	102.94
356.626	83.94
356.853	86.94
357.08	93.94
357.307	80.94
357.534	86.94
357.761	91.94
357.988	104.94
358.215	106.94
358.441	98.94
358.668	90.94
358.895	91.94
359.122	87.94
359.349	105.94
359.576	86.94
359.802	89.94
360.029	97.94
360.256	96.94
360.483	99.94
360.709	91.94
360.936	99.94
361.163	100.94
361.39	93.94
361.616	96.94
361.843	94.94
362.07	100.94
362.296	99.94
362.523	75.94
362.749	97.94
362.976	96.94
363.203	117.94
363.429	108.94
363.656	91.94
363.882	84.94
364.109	83.94
364.335	110.94
364.562	126.94
364.788	101.94
365.015	89.94
365.241	77.94
365.468	92.94
365.694	77.94
365.92	79.94
366.147	90.94
366.373	83.94
366.599	84.94
366.826	93.94
367.052	93.94
367.278	90.94
367.505	80.94
367.731	97.94
367.957	89.94
368.184	80.94
368.41	90.94
368.636	85.94
368.862	92.94
369.089	98.94
369.315	77.94
369.541	89.94
369.767	104.94
369.993	89.94
370.219	89.94
370.445	86.94
370.672	106.94
370.898	89.94
371.124	86.94
371.35	89.94
371.576	87.94
371.802	90.94
372.028	96.94
372.254	89.94
372.48	92.94
372.706	98.94
372.932	99.94
373.158	102.94
373.384	101.94
373.61	113.94
373.835	102.94
374.061	86.94
374.287	101.94
374.513	77.94
374.739	101.94
374.965	101.94
375.191	102.94
375.416	94.94
375.642	100.94
375.868	96.94
376.094	97.94
376.319	89.94
376.545	81.94
376.771	93.94
376.997	89.94
377.222	88.94
377.448	93.94
377.674	93.94
377.899	85.94
378.125	91.94
378.35	80.94
378.576	94.94
378.802	79.94
379.027	91.94
379.253	80.94
379.478	87.94
379.704	97.94
379.929	81.94
380.155	89.94
380.38	86.94
380.606	71.94
380.831	77.94
381.057	103.94
381.282	93.94
381.507	91.94
381.733	93.94
381.958	99.94
382.184	96.94
382.409	87.94
382.634	100.94
382.86	108.94
383.085	103.94
383.31	106.94
383.535	95.94
383.761	94.94
383.986	99.94
384.211	85.94
384.436	90.94
384.662	89.94
384.887	87.94
385.112	100.94
385.337	85.94
385.562	76.94
385.787	83.94
386.013	98.94
386.238	106.94
386.463	77.94
386.688	107.94
386.913	93.94
387.138	92.94
387.363	96.94
387.588	94.94
387.813	97.94
388.038	77.94
388.263	93.94
388.488	96.94
388.713	105.94
388.938	93.94
389.163	92.94
389.387	84.94
389.612	83.94
389.837	93.94
390.062	69.94
390.287	93.94
390.512	87.94
390.736	78.94
390.961	91.94
391.186	85.94
391.411	89.94
391.636	94.94
391.86	90.94
392.085	84.94
392.31	101.94
392.534	105.94
392.759	109.94
392.984	143.94
393.208	185.94
393.433	249.94
393.658	219.94
393.882	115.94
394.107	98.94
394.331	111.94
394.556	110.94
394.78	106.94
395.005	93.94
395.229	97.94
395.454	80.94
395.678	106.94
395.903	117.94
396.127	103.94
396.352	142.94
396.576	145.94
396.801	172.94
397.025	230.94
397.249	147.94
397.474	121.94
397.698	94.94
397.922	85.94
398.147	97.94
398.371	85.94
398.595	97.94
398.82	87.94
399.044	100.94
399.268	90.94
399.492	89.94
399.717	104.94
399.941	87.94
400.165	89.94
400.389	96.94
400.613	84.94
400.837	90.94
401.062	92.94
401.286	73.94
401.51	84.94
401.734	71.94
401.958	101.94
402.182	89.94
402.406	83.94
402.63	90.94
402.854	89.94
403.078	96.94
403.302	102.94
403.526	94.94
403.75	94.94
403.974	95.94
404.198	96.94
404.422	88.94
404.645	108.94
404.869	93.94
405.093	86.94
405.317	97.94
405.541	86.94
405.765	84.94
405.988	70.94
406.212	95.94
406.436	83.94
406.66	79.94
406.883	79.94
407.107	89.94
407.331	98.94
407.555	87.94
407.778	92.94
408.002	102.94
408.226	78.94
408.449	85.94
408.673	94.94
408.896	77.94
409.12	89.94
409.344	101.94
409.567	97.94
409.791	101.94
410.014	81.94
410.238	89.94
410.461	87.94
410.685	76.94
410.908	81.94
411.132	100.94
411.355	97.94
411.578	79.94
411.802	88.94
412.025	89.94
412.249	93.94
412.472	97.94
412.695	87.94
412.919	98.94
413.142	83.94
413.365	78.94
413.589	84.94
413.812	65.94
414.035	86.94
414.258	95.94
414.482	93.94
414.705	94.94
414.928	90.94
415.151	87.94
415.374	87.94
415.597	94.94
415.821	79.94
416.044	67.94
416.267	82.94
416.49	85.94
416.713	86.94
416.936	87.94
417.159	76.94
417.382	102.94
417.605	94.94
417.828	101.94
418.051	82.94
418.274	92.94
418.497	88.94
418.72	91.94
418.943	85.94
419.166	92.94
419.389	89.94
419.611	99.94
419.834	93.94
420.057	86.94
420.28	93.94
420.503	80.94
420.726	79.94
420.948	89.94
421.171	87.94
421.394	101.94
421.617	122.94
421.839	111.94
422.062	99.94
422.285	131.94
422.507	215.94
422.73	325.94
422.953	301.94
423.175	165.94
423.398	106.94
423.621	117.94
423.843	101.94
424.066	104.94
424.288	94.94
424.511	99.94
424.733	94.94
424.956	92.94
425.178	90.94
425.401	96.94
425.623	74.94
425.846	97.94
426.068	84.94
426.291	104.94
426.513	81.94
426.735	86.94
426.958	95.94
427.18	97.94
427.402	95.94
427.625	93.94
427.847	85.94
428.069	94.94
428.292	105.94
428.514	122.94
428.736	97.94
428.958	113.94
429.181	118.94
429.403	100.94
429.625	100.94
429.847	103.94
430.069	127.94
430.292	159.94
430.514	162.94
430.736	114.94
430.958	108.94
431.18	95.94
431.402	91.94
431.624	109.94
431.846	98.94
432.068	118.94
432.29	89.94
432.512	94.94
432.734	97.94
432.956	105.94
433.178	104.94
433.4	93.94
433.622	86.94
433.844	85.94
434.066	95.94
434.287	87.94
434.509	76.94
434.731	75.94
434.953	86.94
435.175	86.94
435.397	88.94
435.618	84.94
435.84	86.94
436.062	85.94
436.284	89.94
436.505	65.94
436.727	91.94
436.949	101.94
437.17	88.94
437.392	94.94
437.614	89.94
437.835	79.94
438.057	98.94
438.278	98.94
438.5	97.94
438.721	80.94
438.943	97.94
439.165	82.94
439.386	98.94
439.608	88.94
439.829	89.94
440.05	92.94
440.272	85.94
440.493	90.94
440.715	93.94
440.936	91.94
441.158	94.94
441.379	98.94
441.6	93.94
441.822	90.94
442.043	79.94
442.264	97.94
442.486	110.94
442.707	134.94
442.928	114.94
443.149	117.94
443.371	127.94
443.592	198.94
443.813	168.94
444.034	97.94
444.255	92.94
444.476	91.94
444.698	99.94
444.919	85.94
445.14	149.94
445.361	158.94
445.582	206.94
445.803	195.94
446.024	110.94
446.245	91.94
446.466	81.94
446.687	85.94
446.908	97.94
447.129	86.94
447.35	81.94
447.571	89.94
447.792	80.94
448.013	76.94
448.234	91.94
448.455	100.94
448.675	99.94
448.896	75.94
449.117	84.94
449.338	91.94
449.559	87.94
449.779	93.94
450	84.94
450.221	92.94
450.442	79.94
450.662	83.94
450.883	85.94
451.104	79.94
451.324	92.94
451.545	91.94
451.766	93.94
451.986	91.94
452.207	93.94
452.428	75.94
452.648	93.94
452.869	104.94
453.089	88.94
453.31	92.94
453.53	97.94
453.751	106.94
453.971	88.94
454.192	90.94
454.412	93.94
454.633	77.94
454.853	78.94
455.073	93.94
455.294	99.94
455.514	97.94
455.734	93.94
455.955	96.94
456.175	92.94
456.395	83.94
456.616	97.94
456.836	93.94
457.056	87.94
457.276	99.94
457.497	86.94
457.717	85.94
457.937	107.94
458.157	93.94
458.377	114.94
458.598	102.94
458.818	82.94
459.038	84.94
459.258	90.94
459.478	94.94
459.698	102.94
459.918	78.94
460.138	90.94
460.358	81.94
460.578	92.94
460.798	109.94
461.018	109.94
461.238	102.94
461.458	99.94
461.678	97.94
461.898	89.94
462.118	90.94
462.338	84.94
462.558	90.94
462.777	89.94
462.997	90.94
463.217	76.94
463.437	85.94
463.657	86.94
463.876	92.94
464.096	87.94
464.316	78.94
464.536	76.94
464.755	88.94
464.975	92.94
465.195	92.94
465.414	90.94
465.634	87.94
465.854	83.94
466.073	85.94
466.293	96.94
466.512	83.94
466.732	97.94
466.951	78.94
467.171	86.94
467.391	83.94
467.61	76.94
467.829	91.94
468.049	91.94
468.268	92.94
468.488	89.94
468.707	83.94
468.927	90.94
469.146	97.94
469.365	79.94
469.585	75.94
469.804	97.94
470.023	100.94
470.243	84.94
470.462	83.94
470.681	78.94
470.901	91.94
471.12	82.94
471.339	96.94
471.558	91.94
471.777	98.94
471.997	97.94
472.216	86.94
472.435	77.94
472.654	94.94
472.873	101.94
473.092	84.94
473.311	87.94
473.53	86.94
473.749	95.94
473.968	91.94
474.187	99.94
474.406	96.94
474.625	84.94
474.844	96.94
475.063	94.94
475.282	82.94
475.501	97.94
475.72	105.94
475.939	84.94
476.158	86.94
476.377	100.94
476.596	95.94
476.814	80.94
477.033	89.94
477.252	90.94
477.471	102.94
477.69	91.94
477.908	83.94
478.127	84.94
478.346	86.94
478.564	77.94
478.783	85.94
479.002	81.94
479.22	97.94
479.439	93.94
479.658	77.94
479.876	92.94
480.095	97.94
480.313	93.94
480.532	101.94
480.751	87.94
480.969	84.94
481.188	87.94
481.406	98.94
481.624	87.94
481.843	75.94
482.061	94.94
482.28	84.94
482.498	97.94
482.717	83.94
482.935	116.94
483.153	108.94
483.372	91.94
483.59	103.94
483.808	102.94
484.027	85.94
484.245	108.94
484.463	96.94
484.681	98.94
484.9	98.94
485.118	91.94
485.336	85.94
485.554	97.94
485.772	92.94
485.99	95.94
486.209	93.94
486.427	100.94
486.645	97.94
486.863	90.94
487.081	85.94
487.299	79.94
487.517	101.94
487.735	115.94
487.953	145.94
488.171	131.94
488.389	105.94
488.607	87.94
488.825	89.94
489.043	103.94
489.261	106.94
489.479	96.94
489.696	95.94
489.914	91.94
490.132	86.94
490.35	101.94
490.568	92.94
490.786	94.94
491.003	93.94
491.221	101.94
491.439	99.94
491.657	93.94
491.874	87.94
492.092	98.94
492.31	94.94
492.527	80.94
492.745	97.94
492.963	94.94
493.18	92.94
493.398	80.94
493.615	89.94
493.833	86.94
494.05	74.94
494.268	84.94
494.485	93.94
494.703	89.94
494.92	93.94
495.138	100.94
495.355	83.94
495.573	88.94
495.79	117.94
496.008	101.94
496.225	97.94
496.442	105.94
496.66	81.94
496.877	89.94
497.094	89.94
497.312	100.94
497.529	96.94
497.746	105.94
497.963	94.94
498.181	91.94
498.398	101.94
498.615	96.94
498.832	99.94
499.049	91.94
499.267	86.94
499.484	87.94
499.701	89.94
499.918	86.94
500.135	98.94
500.352	99.94
500.569	84.94
500.786	97.94
501.003	87.94
501.22	90.94
501.437	98.94
501.654	102.94
501.871	87.94
502.088	81.94
502.305	98.94
502.522	107.94
502.739	89.94
502.956	91.94
503.172	98.94
503.389	88.94
503.606	100.94
503.823	118.94
504.04	105.94
504.256	129.94
504.473	121.94
504.69	99.94
504.907	80.94
505.123	85.94
505.34	84.94
505.557	84.94
505.773	88.94
505.99	98.94
506.207	82.94
506.423	101.94
506.64	104.94
506.856	85.94
507.073	95.94
507.289	101.94
507.506	100.94
507.722	89.94
507.939	87.94
508.155	86.94
508.372	101.94
508.588	95.94
508.805	97.94
509.021	90.94
509.238	86.94
509.454	95.94
509.67	93.94
509.887	97.94
510.103	78.94
510.319	81.94
510.536	99.94
510.752	98.94
510.968	97.94
511.184	96.94
511.401	90.94
511.617	87.94
511.833	93.94
512.049	87.94
512.265	97.94
512.481	91.94
512.698	91.94
512.914	93.94
513.13	91.94
513.346	99.94
513.562	85.94
513.778	89.94
513.994	98.94
514.21	90.94
514.426	92.94
514.642	90.94
514.858	93.94
515.074	93.94
515.29	95.94
515.506	100.94
515.721	96.94
515.937	93.94
516.153	86.94
516.369	90.94
516.585	88.94
516.801	93.94
517.016	102.94
517.232	79.94
517.448	83.94
517.664	93.94
517.879	104.94
