Data from 237_1_HRD10591_00049.txt Node
Date: Mon Jan 19 14:10:54 EST 2026
User: Yrep
Spectrometer: HR+D1059
Trigger mode: 1
Integration Time (sec): 1.000000E-1
Scans to average: 1
Electric dark correction enabled: true
Nonlinearity correction enabled: false
Boxcar width: 0
XAxis mode: Wavelengths
Number of Pixels in Spectrum: 2048
>>>>>Begin Spectral Data<<<<<
223.165	-16.38
223.4	-16.38
223.635	-16.38
223.869	-19.38
224.104	-32.38
224.338	-22.38
224.573	-7.38
224.808	-20.38
225.042	-20.38
225.277	4.62
225.511	-0.38
225.746	8.62
225.98	10.62
226.215	20.62
226.449	21.62
226.683	32.62
226.918	21.62
227.152	18.62
227.387	39.62
227.621	34.62
227.856	42.62
228.09	44.62
228.324	49.62
228.559	53.62
228.793	53.62
229.027	57.62
229.262	58.62
229.496	72.62
229.73	73.62
229.964	76.62
230.199	71.62
230.433	72.62
230.667	75.62
230.901	74.62
231.136	75.62
231.37	77.62
231.604	80.62
231.838	78.62
232.072	83.62
232.306	66.62
232.541	78.62
232.775	98.62
233.009	74.62
233.243	81.62
233.477	85.62
233.711	78.62
233.945	53.62
234.179	69.62
234.413	84.62
234.647	73.62
234.881	72.62
235.115	71.62
235.349	95.62
235.583	77.62
235.817	87.62
236.051	80.62
236.285	88.62
236.519	80.62
236.753	70.62
236.987	86.62
237.221	83.62
237.455	68.62
237.689	79.62
237.922	67.62
238.156	72.62
238.39	70.62
238.624	84.62
238.858	75.62
239.091	73.62
239.325	76.62
239.559	74.62
239.793	65.62
240.027	78.62
240.26	67.62
240.494	77.62
240.728	81.62
240.961	89.62
241.195	82.62
241.429	83.62
241.662	82.62
241.896	83.62
242.13	67.62
242.363	67.62
242.597	66.62
242.83	82.62
243.064	78.62
243.298	78.62
243.531	82.62
243.765	83.62
243.998	64.62
244.232	77.62
244.465	84.62
244.699	81.62
244.932	55.62
245.166	65.62
245.399	70.62
245.633	85.62
245.866	77.62
246.099	70.62
246.333	82.62
246.566	90.62
246.8	80.62
247.033	90.62
247.266	76.62
247.5	59.62
247.733	85.62
247.966	87.62
248.2	80.62
248.433	78.62
248.666	77.62
248.899	83.62
249.133	75.62
249.366	75.62
249.599	78.62
249.832	81.62
250.066	88.62
250.299	83.62
250.532	78.62
250.765	85.62
250.998	75.62
251.231	58.62
251.465	82.62
251.698	79.62
251.931	85.62
252.164	83.62
252.397	71.62
252.63	73.62
252.863	93.62
253.096	82.62
253.329	79.62
253.562	81.62
253.795	86.62
254.028	74.62
254.261	82.62
254.494	81.62
254.727	91.62
254.96	87.62
255.193	82.62
255.426	103.62
255.659	80.62
255.892	95.62
256.124	77.62
256.357	84.62
256.59	77.62
256.823	76.62
257.056	89.62
257.289	80.62
257.521	84.62
257.754	69.62
257.987	84.62
258.22	76.62
258.452	88.62
258.685	95.62
258.918	86.62
259.151	88.62
259.383	69.62
259.616	79.62
259.849	91.62
260.081	79.62
260.314	75.62
260.547	76.62
260.779	75.62
261.012	78.62
261.244	93.62
261.477	68.62
261.71	92.62
261.942	78.62
262.175	69.62
262.407	70.62
262.64	78.62
262.872	79.62
263.105	89.62
263.337	102.62
263.57	91.62
263.802	73.62
264.035	76.62
264.267	80.62
264.499	74.62
264.732	83.62
264.964	85.62
265.197	71.62
265.429	95.62
265.661	70.62
265.894	84.62
266.126	80.62
266.358	84.62
266.591	83.62
266.823	76.62
267.055	92.62
267.287	81.62
267.52	81.62
267.752	69.62
267.984	73.62
268.216	78.62
268.448	68.62
268.681	75.62
268.913	89.62
269.145	93.62
269.377	98.62
269.609	80.62
269.841	71.62
270.073	84.62
270.306	83.62
270.538	83.62
270.77	91.62
271.002	89.62
271.234	85.62
271.466	89.62
271.698	81.62
271.93	89.62
272.162	89.62
272.394	75.62
272.626	87.62
272.858	82.62
273.09	88.62
273.322	79.62
273.553	79.62
273.785	89.62
274.017	77.62
274.249	90.62
274.481	69.62
274.713	67.62
274.945	75.62
275.176	97.62
275.408	91.62
275.64	88.62
275.872	81.62
276.104	83.62
276.335	81.62
276.567	90.62
276.799	78.62
277.031	85.62
277.262	71.62
277.494	82.62
277.726	66.62
277.957	76.62
278.189	79.62
278.421	83.62
278.652	89.62
278.884	91.62
279.115	86.62
279.347	81.62
279.579	92.62
279.81	86.62
280.042	87.62
280.273	80.62
280.505	84.62
280.736	89.62
280.968	88.62
281.199	90.62
281.431	87.62
281.662	84.62
281.894	83.62
282.125	72.62
282.356	83.62
282.588	81.62
282.819	78.62
283.051	79.62
283.282	72.62
283.513	77.62
283.745	84.62
283.976	86.62
284.207	78.62
284.439	91.62
284.67	68.62
284.901	77.62
285.132	78.62
285.364	79.62
285.595	88.62
285.826	97.62
286.057	69.62
286.288	84.62
286.52	85.62
286.751	77.62
286.982	69.62
287.213	90.62
287.444	82.62
287.675	90.62
287.906	89.62
288.138	91.62
288.369	91.62
288.6	92.62
288.831	73.62
289.062	78.62
289.293	74.62
289.524	97.62
289.755	75.62
289.986	81.62
290.217	86.62
290.448	81.62
290.679	83.62
290.91	84.62
291.141	83.62
291.371	97.62
291.602	88.62
291.833	82.62
292.064	61.62
292.295	69.62
292.526	81.62
292.757	69.62
292.987	69.62
293.218	92.62
293.449	91.62
293.68	75.62
293.91	93.62
294.141	81.62
294.372	96.62
294.603	78.62
294.833	92.62
295.064	77.62
295.295	86.62
295.525	87.62
295.756	90.62
295.987	88.62
296.217	80.62
296.448	92.62
296.679	81.62
296.909	95.62
297.14	81.62
297.37	83.62
297.601	95.62
297.831	83.62
298.062	96.62
298.292	78.62
298.523	73.62
298.753	83.62
298.984	84.62
299.214	92.62
299.445	68.62
299.675	93.62
299.905	98.62
300.136	71.62
300.366	95.62
300.597	83.62
300.827	83.62
301.057	80.62
301.288	100.62
301.518	88.62
301.748	81.62
301.979	105.62
302.209	87.62
302.439	83.62
302.669	70.62
302.9	88.62
303.13	83.62
303.36	92.62
303.59	75.62
303.82	82.62
304.051	72.62
304.281	81.62
304.511	86.62
304.741	90.62
304.971	85.62
305.201	75.62
305.431	89.62
305.661	73.62
305.891	83.62
306.121	91.62
306.352	84.62
306.582	100.62
306.812	90.62
307.042	96.62
307.272	96.62
307.502	76.62
307.731	88.62
307.961	75.62
308.191	83.62
308.421	89.62
308.651	73.62
308.881	86.62
309.111	81.62
309.341	95.62
309.571	89.62
309.8	84.62
310.03	83.62
310.26	84.62
310.49	95.62
310.72	94.62
310.949	81.62
311.179	74.62
311.409	89.62
311.639	71.62
311.868	80.62
312.098	89.62
312.328	92.62
312.557	95.62
312.787	81.62
313.017	90.62
313.246	93.62
313.476	66.62
313.706	81.62
313.935	74.62
314.165	85.62
314.394	88.62
314.624	89.62
314.853	101.62
315.083	89.62
315.312	69.62
315.542	89.62
315.771	83.62
316.001	76.62
316.23	79.62
316.46	87.62
316.689	77.62
316.919	83.62
317.148	96.62
317.377	88.62
317.607	95.62
317.836	72.62
318.065	65.62
318.295	82.62
318.524	95.62
318.753	89.62
318.983	68.62
319.212	85.62
319.441	83.62
319.67	85.62
319.9	78.62
320.129	80.62
320.358	81.62
320.587	101.62
320.816	67.62
321.046	82.62
321.275	85.62
321.504	83.62
321.733	84.62
321.962	85.62
322.191	76.62
322.42	89.62
322.649	83.62
322.878	80.62
323.108	88.62
323.337	102.62
323.566	75.62
323.795	82.62
324.024	101.62
324.253	98.62
324.482	77.62
324.71	95.62
324.939	99.62
325.168	84.62
325.397	91.62
325.626	85.62
325.855	74.62
326.084	81.62
326.313	80.62
326.542	91.62
326.77	80.62
326.999	87.62
327.228	86.62
327.457	90.62
327.686	77.62
327.914	115.62
328.143	87.62
328.372	71.62
328.6	85.62
328.829	83.62
329.058	72.62
329.287	77.62
329.515	85.62
329.744	81.62
329.972	77.62
330.201	70.62
330.43	94.62
330.658	92.62
330.887	64.62
331.115	92.62
331.344	81.62
331.572	71.62
331.801	85.62
332.03	85.62
332.258	75.62
332.486	73.62
332.715	84.62
332.943	86.62
333.172	83.62
333.4	87.62
333.629	97.62
333.857	84.62
334.085	84.62
334.314	87.62
334.542	88.62
334.771	93.62
334.999	89.62
335.227	99.62
335.455	76.62
335.684	80.62
335.912	84.62
336.14	87.62
336.369	95.62
336.597	97.62
336.825	95.62
337.053	74.62
337.281	81.62
337.51	93.62
337.738	78.62
337.966	91.62
338.194	78.62
338.422	83.62
338.65	94.62
338.878	86.62
339.106	84.62
339.334	89.62
339.562	93.62
339.79	89.62
340.018	86.62
340.246	103.62
340.474	81.62
340.702	89.62
340.93	69.62
341.158	76.62
341.386	83.62
341.614	82.62
341.842	96.62
342.07	89.62
342.298	96.62
342.526	84.62
342.754	82.62
342.981	80.62
343.209	97.62
343.437	107.62
343.665	78.62
343.893	85.62
344.12	97.62
344.348	84.62
344.576	83.62
344.804	82.62
345.031	85.62
345.259	91.62
345.487	91.62
345.714	101.62
345.942	79.62
346.17	87.62
346.397	71.62
346.625	84.62
346.853	87.62
347.08	78.62
347.308	65.62
347.535	93.62
347.763	89.62
347.99	83.62
348.218	99.62
348.445	95.62
348.673	82.62
348.9	97.62
349.128	77.62
349.355	86.62
349.583	79.62
349.81	85.62
350.037	63.62
350.265	95.62
350.492	86.62
350.72	74.62
350.947	87.62
351.174	92.62
351.402	78.62
351.629	77.62
351.856	82.62
352.083	90.62
352.311	84.62
352.538	92.62
352.765	90.62
352.992	89.62
353.22	82.62
353.447	93.62
353.674	88.62
353.901	80.62
354.128	76.62
354.355	83.62
354.583	74.62
354.81	85.62
355.037	84.62
355.264	83.62
355.491	91.62
355.718	85.62
355.945	89.62
356.172	91.62
356.399	74.62
356.626	86.62
356.853	89.62
357.08	96.62
357.307	89.62
357.534	91.62
357.761	86.62
357.988	89.62
358.215	78.62
358.441	95.62
358.668	81.62
358.895	88.62
359.122	90.62
359.349	77.62
359.576	79.62
359.802	77.62
360.029	79.62
360.256	85.62
360.483	83.62
360.709	93.62
360.936	77.62
361.163	97.62
361.39	75.62
361.616	76.62
361.843	82.62
362.07	86.62
362.296	95.62
362.523	95.62
362.749	94.62
362.976	86.62
363.203	99.62
363.429	84.62
363.656	77.62
363.882	96.62
364.109	82.62
364.335	96.62
364.562	88.62
364.788	91.62
365.015	95.62
365.241	89.62
365.468	92.62
365.694	76.62
365.92	76.62
366.147	75.62
366.373	85.62
366.599	79.62
366.826	85.62
367.052	89.62
367.278	88.62
367.505	90.62
367.731	79.62
367.957	77.62
368.184	86.62
368.41	95.62
368.636	82.62
368.862	85.62
369.089	72.62
369.315	77.62
369.541	62.62
369.767	80.62
369.993	89.62
370.219	87.62
370.445	73.62
370.672	72.62
370.898	77.62
371.124	79.62
371.35	71.62
371.576	95.62
371.802	79.62
372.028	82.62
372.254	83.62
372.48	84.62
372.706	83.62
372.932	83.62
373.158	92.62
373.384	91.62
373.61	83.62
373.835	86.62
374.061	74.62
374.287	87.62
374.513	85.62
374.739	82.62
374.965	81.62
375.191	77.62
375.416	86.62
375.642	89.62
375.868	85.62
376.094	82.62
376.319	69.62
376.545	73.62
376.771	79.62
376.997	92.62
377.222	94.62
377.448	98.62
377.674	87.62
377.899	87.62
378.125	82.62
378.35	99.62
378.576	95.62
378.802	76.62
379.027	81.62
379.253	85.62
379.478	77.62
379.704	87.62
379.929	91.62
380.155	93.62
380.38	81.62
380.606	80.62
380.831	81.62
381.057	86.62
381.282	81.62
381.507	88.62
381.733	95.62
381.958	81.62
382.184	86.62
382.409	80.62
382.634	90.62
382.86	72.62
383.085	83.62
383.31	89.62
383.535	93.62
383.761	97.62
383.986	91.62
384.211	92.62
384.436	79.62
384.662	77.62
384.887	84.62
385.112	87.62
385.337	89.62
385.562	78.62
385.787	81.62
386.013	83.62
386.238	83.62
386.463	86.62
386.688	80.62
386.913	82.62
387.138	88.62
387.363	88.62
387.588	77.62
387.813	90.62
388.038	88.62
388.263	89.62
388.488	78.62
388.713	88.62
388.938	77.62
389.163	96.62
389.387	83.62
389.612	94.62
389.837	76.62
390.062	85.62
390.287	79.62
390.512	91.62
390.736	83.62
390.961	87.62
391.186	83.62
391.411	87.62
391.636	80.62
391.86	94.62
392.085	88.62
392.31	96.62
392.534	89.62
392.759	95.62
392.984	85.62
393.208	109.62
393.433	143.62
393.658	116.62
393.882	75.62
394.107	102.62
394.331	77.62
394.556	88.62
394.78	89.62
395.005	83.62
395.229	82.62
395.454	78.62
395.678	91.62
395.903	96.62
396.127	97.62
396.352	99.62
396.576	99.62
396.801	110.62
397.025	117.62
397.249	108.62
397.474	95.62
397.698	69.62
397.922	84.62
398.147	73.62
398.371	76.62
398.595	78.62
398.82	91.62
399.044	73.62
399.268	77.62
399.492	85.62
399.717	82.62
399.941	78.62
400.165	81.62
400.389	80.62
400.613	80.62
400.837	78.62
401.062	70.62
401.286	92.62
401.51	97.62
401.734	75.62
401.958	84.62
402.182	79.62
402.406	66.62
402.63	61.62
402.854	83.62
403.078	65.62
403.302	75.62
403.526	99.62
403.75	83.62
403.974	83.62
404.198	75.62
404.422	91.62
404.645	89.62
404.869	93.62
405.093	81.62
405.317	89.62
405.541	78.62
405.765	88.62
405.988	85.62
406.212	86.62
406.436	83.62
406.66	88.62
406.883	85.62
407.107	83.62
407.331	89.62
407.555	90.62
407.778	93.62
408.002	84.62
408.226	79.62
408.449	90.62
408.673	90.62
408.896	97.62
409.12	73.62
409.344	91.62
409.567	79.62
409.791	91.62
410.014	83.62
410.238	83.62
410.461	74.62
410.685	79.62
410.908	85.62
411.132	80.62
411.355	77.62
411.578	86.62
411.802	74.62
412.025	94.62
412.249	81.62
412.472	75.62
412.695	83.62
412.919	87.62
413.142	91.62
413.365	77.62
413.589	80.62
413.812	79.62
414.035	91.62
414.258	74.62
414.482	83.62
414.705	81.62
414.928	83.62
415.151	82.62
415.374	74.62
415.597	74.62
415.821	67.62
416.044	90.62
416.267	75.62
416.49	75.62
416.713	85.62
416.936	96.62
417.159	95.62
417.382	96.62
417.605	102.62
417.828	75.62
418.051	85.62
418.274	88.62
418.497	84.62
418.72	93.62
418.943	94.62
419.166	83.62
419.389	81.62
419.611	83.62
419.834	95.62
420.057	91.62
420.28	75.62
420.503	80.62
420.726	80.62
420.948	95.62
421.171	84.62
421.394	90.62
421.617	86.62
421.839	80.62
422.062	80.62
422.285	91.62
422.507	112.62
422.73	132.62
422.953	144.62
423.175	97.62
423.398	84.62
423.621	76.62
423.843	94.62
424.066	73.62
424.288	69.62
424.511	85.62
424.733	98.62
424.956	91.62
425.178	89.62
425.401	75.62
425.623	83.62
425.846	71.62
426.068	86.62
426.291	89.62
426.513	87.62
426.735	73.62
426.958	88.62
427.18	72.62
427.402	80.62
427.625	77.62
427.847	83.62
428.069	89.62
428.292	93.62
428.514	91.62
428.736	101.62
428.958	91.62
429.181	99.62
429.403	83.62
429.625	85.62
429.847	87.62
430.069	96.62
430.292	109.62
430.514	103.62
430.736	83.62
430.958	90.62
431.18	83.62
431.402	86.62
431.624	95.62
431.846	88.62
432.068	100.62
432.29	73.62
432.512	84.62
432.734	88.62
432.956	78.62
433.178	82.62
433.4	89.62
433.622	87.62
433.844	68.62
434.066	77.62
434.287	89.62
434.509	75.62
434.731	89.62
434.953	76.62
435.175	68.62
435.397	92.62
435.618	78.62
435.84	88.62
436.062	84.62
436.284	81.62
436.505	78.62
436.727	89.62
436.949	78.62
437.17	70.62
437.392	81.62
437.614	67.62
437.835	80.62
438.057	83.62
438.278	77.62
438.5	87.62
438.721	72.62
438.943	92.62
439.165	85.62
439.386	88.62
439.608	95.62
439.829	95.62
440.05	85.62
440.272	76.62
440.493	75.62
440.715	70.62
440.936	77.62
441.158	84.62
441.379	67.62
441.6	66.62
441.822	80.62
442.043	74.62
442.264	90.62
442.486	93.62
442.707	114.62
442.928	99.62
443.149	91.62
443.371	95.62
443.592	101.62
443.813	99.62
444.034	85.62
444.255	82.62
444.476	85.62
444.698	90.62
444.919	85.62
445.14	189.62
445.361	143.62
445.582	116.62
445.803	99.62
446.024	86.62
446.245	91.62
446.466	82.62
446.687	87.62
446.908	74.62
447.129	86.62
447.35	91.62
447.571	94.62
447.792	89.62
448.013	77.62
448.234	85.62
448.455	78.62
448.675	85.62
448.896	87.62
449.117	90.62
449.338	79.62
449.559	77.62
449.779	85.62
450	88.62
450.221	92.62
450.442	92.62
450.662	82.62
450.883	88.62
451.104	87.62
451.324	87.62
451.545	78.62
451.766	80.62
451.986	91.62
452.207	75.62
452.428	80.62
452.648	81.62
452.869	88.62
453.089	92.62
453.31	83.62
453.53	89.62
453.751	87.62
453.971	83.62
454.192	82.62
454.412	82.62
454.633	78.62
454.853	84.62
455.073	93.62
455.294	80.62
455.514	65.62
455.734	83.62
455.955	83.62
456.175	89.62
456.395	84.62
456.616	89.62
456.836	87.62
457.056	87.62
457.276	81.62
457.497	84.62
457.717	86.62
457.937	75.62
458.157	102.62
458.377	88.62
458.598	83.62
458.818	92.62
459.038	88.62
459.258	95.62
459.478	80.62
459.698	94.62
459.918	82.62
460.138	72.62
460.358	78.62
460.578	90.62
460.798	96.62
461.018	94.62
461.238	92.62
461.458	89.62
461.678	105.62
461.898	70.62
462.118	77.62
462.338	65.62
462.558	86.62
462.777	82.62
462.997	96.62
463.217	74.62
463.437	93.62
463.657	79.62
463.876	87.62
464.096	73.62
464.316	72.62
464.536	87.62
464.755	99.62
464.975	88.62
465.195	84.62
465.414	76.62
465.634	83.62
465.854	77.62
466.073	85.62
466.293	89.62
466.512	74.62
466.732	67.62
466.951	85.62
467.171	85.62
467.391	78.62
467.61	79.62
467.829	85.62
468.049	81.62
468.268	84.62
468.488	83.62
468.707	81.62
468.927	96.62
469.146	83.62
469.365	79.62
469.585	75.62
469.804	84.62
470.023	75.62
470.243	67.62
470.462	87.62
470.681	87.62
470.901	85.62
471.12	85.62
471.339	83.62
471.558	82.62
471.777	80.62
471.997	82.62
472.216	75.62
472.435	98.62
472.654	85.62
472.873	87.62
473.092	82.62
473.311	84.62
473.53	97.62
473.749	92.62
473.968	74.62
474.187	76.62
474.406	102.62
474.625	79.62
474.844	89.62
475.063	80.62
475.282	88.62
475.501	91.62
475.72	79.62
475.939	79.62
476.158	83.62
476.377	83.62
476.596	88.62
476.814	74.62
477.033	93.62
477.252	83.62
477.471	85.62
477.69	84.62
477.908	76.62
478.127	87.62
478.346	60.62
478.564	75.62
478.783	88.62
479.002	98.62
479.22	76.62
479.439	86.62
479.658	89.62
479.876	91.62
480.095	71.62
480.313	88.62
480.532	65.62
480.751	98.62
480.969	87.62
481.188	83.62
481.406	80.62
481.624	78.62
481.843	78.62
482.061	81.62
482.28	80.62
482.498	90.62
482.717	68.62
482.935	98.62
483.153	93.62
483.372	89.62
483.59	81.62
483.808	98.62
484.027	78.62
484.245	76.62
484.463	80.62
484.681	102.62
484.9	87.62
485.118	85.62
485.336	91.62
485.554	80.62
485.772	94.62
485.99	72.62
486.209	69.62
486.427	83.62
486.645	79.62
486.863	93.62
487.081	83.62
487.299	63.62
487.517	81.62
487.735	82.62
487.953	83.62
488.171	92.62
488.389	94.62
488.607	82.62
488.825	91.62
489.043	84.62
489.261	95.62
489.479	87.62
489.696	90.62
489.914	84.62
490.132	69.62
490.35	76.62
490.568	86.62
490.786	81.62
491.003	81.62
491.221	68.62
491.439	95.62
491.657	113.62
491.874	98.62
492.092	89.62
492.31	89.62
492.527	92.62
492.745	79.62
492.963	85.62
493.18	90.62
493.398	72.62
493.615	90.62
493.833	79.62
494.05	95.62
494.268	84.62
494.485	92.62
494.703	75.62
494.92	85.62
495.138	89.62
495.355	86.62
495.573	84.62
495.79	78.62
496.008	86.62
496.225	98.62
496.442	77.62
496.66	83.62
496.877	78.62
497.094	91.62
497.312	85.62
497.529	87.62
497.746	87.62
497.963	79.62
498.181	87.62
498.398	77.62
498.615	92.62
498.832	81.62
499.049	82.62
499.267	81.62
499.484	88.62
499.701	96.62
499.918	95.62
500.135	82.62
500.352	89.62
500.569	92.62
500.786	91.62
501.003	100.62
501.22	91.62
501.437	78.62
501.654	65.62
501.871	81.62
502.088	74.62
502.305	80.62
502.522	83.62
502.739	76.62
502.956	65.62
503.172	74.62
503.389	83.62
503.606	84.62
503.823	91.62
504.04	89.62
504.256	97.62
504.473	87.62
504.69	96.62
504.907	89.62
505.123	89.62
505.34	81.62
505.557	74.62
505.773	81.62
505.99	84.62
506.207	92.62
506.423	79.62
506.64	73.62
506.856	78.62
507.073	80.62
507.289	78.62
507.506	89.62
507.722	80.62
507.939	88.62
508.155	90.62
508.372	84.62
508.588	85.62
508.805	93.62
509.021	86.62
509.238	87.62
509.454	68.62
509.67	87.62
509.887	83.62
510.103	106.62
510.319	89.62
510.536	92.62
510.752	92.62
510.968	84.62
511.184	82.62
511.401	69.62
511.617	91.62
511.833	77.62
512.049	77.62
512.265	96.62
512.481	75.62
512.698	83.62
512.914	96.62
513.13	77.62
513.346	78.62
513.562	71.62
513.778	77.62
513.994	86.62
514.21	83.62
514.426	93.62
514.642	80.62
514.858	76.62
515.074	71.62
515.29	91.62
515.506	97.62
515.721	87.62
515.937	87.62
516.153	78.62
516.369	83.62
516.585	93.62
516.801	81.62
517.016	83.62
517.232	83.62
517.448	84.62
517.664	75.62
517.879	82.62
518.095	79.62
518.311	84.62
518.527	90.62
518.742	86.62
518.958	83.62
519.173	93.62
519.389	93.62
519.605	90.62
519.82	89.62
