Data from 237_1_HRD10591_00017.txt Node
Date: Mon Jan 19 14:10:38 EST 2026
User: Yrep
Spectrometer: HR+D1059
Trigger mode: 1
Integration Time (sec): 1.000000E-1
Scans to average: 1
Electric dark correction enabled: true
Nonlinearity correction enabled: false
Boxcar width: 0
XAxis mode: Wavelengths
Number of Pixels in Spectrum: 2048
>>>>>Begin Spectral Data<<<<<
223.165	-9.5
223.4	-9.5
223.635	-9.5
223.869	-11.5
224.104	-26.5
224.338	-7.5
224.573	-19.5
224.808	-23.5
225.042	1.5
225.277	-10.5
225.511	4.5
225.746	7.5
225.98	1.5
226.215	5.5
226.449	1.5
226.683	29.5
226.918	16.5
227.152	40.5
227.387	25.5
227.621	24.5
227.856	44.5
228.09	38.5
228.324	41.5
228.559	51.5
228.793	40.5
229.027	70.5
229.262	64.5
229.496	64.5
229.73	76.5
229.964	72.5
230.199	80.5
230.433	74.5
230.667	63.5
230.901	70.5
231.136	65.5
231.37	72.5
231.604	67.5
231.838	74.5
232.072	80.5
232.306	80.5
232.541	74.5
232.775	84.5
233.009	72.5
233.243	88.5
233.477	72.5
233.711	84.5
233.945	76.5
234.179	71.5
234.413	83.5
234.647	86.5
234.881	80.5
235.115	74.5
235.349	76.5
235.583	72.5
235.817	82.5
236.051	73.5
236.285	78.5
236.519	72.5
236.753	74.5
236.987	69.5
237.221	86.5
237.455	75.5
237.689	80.5
237.922	71.5
238.156	70.5
238.39	74.5
238.624	68.5
238.858	71.5
239.091	74.5
239.325	74.5
239.559	79.5
239.793	70.5
240.027	80.5
240.26	78.5
240.494	78.5
240.728	95.5
240.961	67.5
241.195	75.5
241.429	84.5
241.662	84.5
241.896	79.5
242.13	60.5
242.363	90.5
242.597	84.5
242.83	87.5
243.064	69.5
243.298	60.5
243.531	78.5
243.765	81.5
243.998	72.5
244.232	79.5
244.465	73.5
244.699	82.5
244.932	76.5
245.166	76.5
245.399	78.5
245.633	58.5
245.866	80.5
246.099	73.5
246.333	85.5
246.566	71.5
246.8	73.5
247.033	74.5
247.266	81.5
247.5	73.5
247.733	80.5
247.966	75.5
248.2	80.5
248.433	71.5
248.666	66.5
248.899	88.5
249.133	77.5
249.366	84.5
249.599	90.5
249.832	60.5
250.066	92.5
250.299	76.5
250.532	80.5
250.765	77.5
250.998	76.5
251.231	73.5
251.465	79.5
251.698	75.5
251.931	71.5
252.164	81.5
252.397	63.5
252.63	81.5
252.863	68.5
253.096	82.5
253.329	76.5
253.562	72.5
253.795	89.5
254.028	78.5
254.261	65.5
254.494	74.5
254.727	79.5
254.96	86.5
255.193	84.5
255.426	78.5
255.659	79.5
255.892	88.5
256.124	76.5
256.357	80.5
256.59	69.5
256.823	73.5
257.056	87.5
257.289	94.5
257.521	72.5
257.754	91.5
257.987	60.5
258.22	79.5
258.452	63.5
258.685	76.5
258.918	84.5
259.151	80.5
259.383	76.5
259.616	73.5
259.849	75.5
260.081	81.5
260.314	86.5
260.547	72.5
260.779	94.5
261.012	74.5
261.244	70.5
261.477	93.5
261.71	79.5
261.942	79.5
262.175	90.5
262.407	69.5
262.64	82.5
262.872	75.5
263.105	79.5
263.337	94.5
263.57	78.5
263.802	92.5
264.035	77.5
264.267	85.5
264.499	92.5
264.732	74.5
264.964	82.5
265.197	74.5
265.429	91.5
265.661	79.5
265.894	85.5
266.126	85.5
266.358	87.5
266.591	78.5
266.823	81.5
267.055	75.5
267.287	98.5
267.52	80.5
267.752	73.5
267.984	79.5
268.216	80.5
268.448	84.5
268.681	80.5
268.913	80.5
269.145	72.5
269.377	74.5
269.609	72.5
269.841	84.5
270.073	73.5
270.306	79.5
270.538	76.5
270.77	83.5
271.002	72.5
271.234	75.5
271.466	86.5
271.698	80.5
271.93	75.5
272.162	81.5
272.394	85.5
272.626	79.5
272.858	59.5
273.09	81.5
273.322	71.5
273.553	92.5
273.785	73.5
274.017	66.5
274.249	83.5
274.481	87.5
274.713	76.5
274.945	76.5
275.176	60.5
275.408	77.5
275.64	74.5
275.872	81.5
276.104	79.5
276.335	88.5
276.567	88.5
276.799	77.5
277.031	68.5
277.262	88.5
277.494	76.5
277.726	95.5
277.957	83.5
278.189	77.5
278.421	65.5
278.652	84.5
278.884	75.5
279.115	88.5
279.347	78.5
279.579	88.5
279.81	76.5
280.042	85.5
280.273	77.5
280.505	82.5
280.736	92.5
280.968	72.5
281.199	85.5
281.431	84.5
281.662	66.5
281.894	74.5
282.125	81.5
282.356	70.5
282.588	70.5
282.819	80.5
283.051	80.5
283.282	82.5
283.513	98.5
283.745	88.5
283.976	78.5
284.207	96.5
284.439	84.5
284.67	84.5
284.901	90.5
285.132	97.5
285.364	92.5
285.595	85.5
285.826	84.5
286.057	107.5
286.288	82.5
286.52	93.5
286.751	88.5
286.982	78.5
287.213	78.5
287.444	87.5
287.675	86.5
287.906	86.5
288.138	78.5
288.369	74.5
288.6	82.5
288.831	81.5
289.062	89.5
289.293	81.5
289.524	80.5
289.755	81.5
289.986	75.5
290.217	92.5
290.448	75.5
290.679	86.5
290.91	79.5
291.141	76.5
291.371	82.5
291.602	78.5
291.833	85.5
292.064	73.5
292.295	86.5
292.526	87.5
292.757	86.5
292.987	97.5
293.218	83.5
293.449	84.5
293.68	73.5
293.91	80.5
294.141	79.5
294.372	86.5
294.603	91.5
294.833	94.5
295.064	88.5
295.295	80.5
295.525	84.5
295.756	79.5
295.987	85.5
296.217	77.5
296.448	77.5
296.679	82.5
296.909	73.5
297.14	97.5
297.37	82.5
297.601	88.5
297.831	69.5
298.062	83.5
298.292	84.5
298.523	94.5
298.753	81.5
298.984	90.5
299.214	74.5
299.445	73.5
299.675	79.5
299.905	78.5
300.136	84.5
300.366	89.5
300.597	82.5
300.827	82.5
301.057	73.5
301.288	79.5
301.518	80.5
301.748	87.5
301.979	93.5
302.209	82.5
302.439	85.5
302.669	82.5
302.9	79.5
303.13	88.5
303.36	85.5
303.59	91.5
303.82	97.5
304.051	76.5
304.281	88.5
304.511	81.5
304.741	88.5
304.971	86.5
305.201	93.5
305.431	82.5
305.661	88.5
305.891	89.5
306.121	82.5
306.352	78.5
306.582	89.5
306.812	83.5
307.042	72.5
307.272	87.5
307.502	85.5
307.731	84.5
307.961	81.5
308.191	81.5
308.421	78.5
308.651	76.5
308.881	98.5
309.111	88.5
309.341	85.5
309.571	75.5
309.8	73.5
310.03	86.5
310.26	72.5
310.49	75.5
310.72	75.5
310.949	78.5
311.179	79.5
311.409	78.5
311.639	85.5
311.868	98.5
312.098	91.5
312.328	82.5
312.557	96.5
312.787	85.5
313.017	98.5
313.246	81.5
313.476	74.5
313.706	81.5
313.935	91.5
314.165	85.5
314.394	76.5
314.624	76.5
314.853	86.5
315.083	85.5
315.312	74.5
315.542	86.5
315.771	64.5
316.001	88.5
316.23	85.5
316.46	96.5
316.689	90.5
316.919	91.5
317.148	76.5
317.377	79.5
317.607	88.5
317.836	84.5
318.065	80.5
318.295	86.5
318.524	81.5
318.753	84.5
318.983	80.5
319.212	102.5
319.441	72.5
319.67	81.5
319.9	89.5
320.129	89.5
320.358	81.5
320.587	96.5
320.816	89.5
321.046	85.5
321.275	78.5
321.504	86.5
321.733	77.5
321.962	73.5
322.191	81.5
322.42	87.5
322.649	78.5
322.878	85.5
323.108	88.5
323.337	92.5
323.566	85.5
323.795	80.5
324.024	85.5
324.253	86.5
324.482	77.5
324.71	90.5
324.939	93.5
325.168	86.5
325.397	84.5
325.626	70.5
325.855	80.5
326.084	83.5
326.313	94.5
326.542	83.5
326.77	80.5
326.999	84.5
327.228	80.5
327.457	80.5
327.686	96.5
327.914	90.5
328.143	95.5
328.372	90.5
328.6	90.5
328.829	92.5
329.058	92.5
329.287	80.5
329.515	79.5
329.744	92.5
329.972	83.5
330.201	88.5
330.43	81.5
330.658	98.5
330.887	88.5
331.115	80.5
331.344	80.5
331.572	88.5
331.801	77.5
332.03	77.5
332.258	79.5
332.486	75.5
332.715	92.5
332.943	82.5
333.172	92.5
333.4	80.5
333.629	71.5
333.857	94.5
334.085	87.5
334.314	85.5
334.542	82.5
334.771	80.5
334.999	83.5
335.227	84.5
335.455	87.5
335.684	84.5
335.912	99.5
336.14	86.5
336.369	92.5
336.597	98.5
336.825	73.5
337.053	72.5
337.281	86.5
337.51	89.5
337.738	82.5
337.966	88.5
338.194	91.5
338.422	79.5
338.65	82.5
338.878	86.5
339.106	91.5
339.334	86.5
339.562	107.5
339.79	89.5
340.018	80.5
340.246	90.5
340.474	81.5
340.702	85.5
340.93	96.5
341.158	88.5
341.386	84.5
341.614	93.5
341.842	76.5
342.07	86.5
342.298	102.5
342.526	76.5
342.754	83.5
342.981	83.5
343.209	70.5
343.437	94.5
343.665	99.5
343.893	82.5
344.12	85.5
344.348	83.5
344.576	67.5
344.804	77.5
345.031	87.5
345.259	86.5
345.487	95.5
345.714	84.5
345.942	95.5
346.17	89.5
346.397	87.5
346.625	84.5
346.853	90.5
347.08	70.5
347.308	72.5
347.535	81.5
347.763	86.5
347.99	71.5
348.218	80.5
348.445	82.5
348.673	81.5
348.9	81.5
349.128	80.5
349.355	66.5
349.583	93.5
349.81	92.5
350.037	86.5
350.265	91.5
350.492	84.5
350.72	74.5
350.947	82.5
351.174	96.5
351.402	82.5
351.629	103.5
351.856	90.5
352.083	83.5
352.311	79.5
352.538	84.5
352.765	81.5
352.992	102.5
353.22	88.5
353.447	77.5
353.674	84.5
353.901	79.5
354.128	80.5
354.355	87.5
354.583	97.5
354.81	86.5
355.037	89.5
355.264	92.5
355.491	83.5
355.718	83.5
355.945	86.5
356.172	75.5
356.399	88.5
356.626	85.5
356.853	80.5
357.08	88.5
357.307	90.5
357.534	81.5
357.761	111.5
357.988	92.5
358.215	80.5
358.441	86.5
358.668	88.5
358.895	86.5
359.122	82.5
359.349	82.5
359.576	77.5
359.802	85.5
360.029	85.5
360.256	80.5
360.483	80.5
360.709	94.5
360.936	80.5
361.163	92.5
361.39	84.5
361.616	87.5
361.843	90.5
362.07	97.5
362.296	87.5
362.523	100.5
362.749	94.5
362.976	102.5
363.203	106.5
363.429	95.5
363.656	89.5
363.882	88.5
364.109	93.5
364.335	87.5
364.562	101.5
364.788	103.5
365.015	85.5
365.241	81.5
365.468	80.5
365.694	88.5
365.92	87.5
366.147	78.5
366.373	86.5
366.599	87.5
366.826	72.5
367.052	78.5
367.278	78.5
367.505	84.5
367.731	88.5
367.957	88.5
368.184	90.5
368.41	82.5
368.636	85.5
368.862	77.5
369.089	89.5
369.315	84.5
369.541	58.5
369.767	97.5
369.993	97.5
370.219	101.5
370.445	92.5
370.672	100.5
370.898	90.5
371.124	88.5
371.35	85.5
371.576	76.5
371.802	94.5
372.028	89.5
372.254	100.5
372.48	96.5
372.706	81.5
372.932	90.5
373.158	93.5
373.384	89.5
373.61	93.5
373.835	84.5
374.061	96.5
374.287	90.5
374.513	94.5
374.739	96.5
374.965	92.5
375.191	93.5
375.416	92.5
375.642	72.5
375.868	87.5
376.094	92.5
376.319	95.5
376.545	76.5
376.771	87.5
376.997	91.5
377.222	82.5
377.448	86.5
377.674	73.5
377.899	83.5
378.125	76.5
378.35	95.5
378.576	79.5
378.802	82.5
379.027	77.5
379.253	89.5
379.478	85.5
379.704	72.5
379.929	88.5
380.155	78.5
380.38	101.5
380.606	94.5
380.831	85.5
381.057	81.5
381.282	78.5
381.507	99.5
381.733	82.5
381.958	89.5
382.184	89.5
382.409	92.5
382.634	95.5
382.86	88.5
383.085	85.5
383.31	85.5
383.535	94.5
383.761	102.5
383.986	102.5
384.211	85.5
384.436	88.5
384.662	88.5
384.887	80.5
385.112	81.5
385.337	90.5
385.562	73.5
385.787	106.5
386.013	90.5
386.238	89.5
386.463	89.5
386.688	99.5
386.913	104.5
387.138	86.5
387.363	82.5
387.588	92.5
387.813	89.5
388.038	90.5
388.263	78.5
388.488	75.5
388.713	94.5
388.938	94.5
389.163	84.5
389.387	97.5
389.612	92.5
389.837	85.5
390.062	93.5
390.287	82.5
390.512	94.5
390.736	106.5
390.961	84.5
391.186	88.5
391.411	83.5
391.636	81.5
391.86	75.5
392.085	85.5
392.31	90.5
392.534	92.5
392.759	96.5
392.984	134.5
393.208	170.5
393.433	213.5
393.658	167.5
393.882	106.5
394.107	99.5
394.331	92.5
394.556	96.5
394.78	86.5
395.005	95.5
395.229	101.5
395.454	101.5
395.678	84.5
395.903	96.5
396.127	96.5
396.352	99.5
396.576	108.5
396.801	148.5
397.025	176.5
397.249	113.5
397.474	93.5
397.698	95.5
397.922	92.5
398.147	82.5
398.371	83.5
398.595	70.5
398.82	70.5
399.044	84.5
399.268	88.5
399.492	75.5
399.717	78.5
399.941	90.5
400.165	79.5
400.389	84.5
400.613	88.5
400.837	77.5
401.062	76.5
401.286	78.5
401.51	78.5
401.734	74.5
401.958	72.5
402.182	90.5
402.406	98.5
402.63	87.5
402.854	94.5
403.078	82.5
403.302	77.5
403.526	73.5
403.75	78.5
403.974	84.5
404.198	87.5
404.422	86.5
404.645	91.5
404.869	86.5
405.093	87.5
405.317	73.5
405.541	96.5
405.765	79.5
405.988	77.5
406.212	89.5
406.436	90.5
406.66	89.5
406.883	97.5
407.107	68.5
407.331	80.5
407.555	80.5
407.778	101.5
408.002	101.5
408.226	72.5
408.449	86.5
408.673	82.5
408.896	81.5
409.12	77.5
409.344	74.5
409.567	81.5
409.791	90.5
410.014	85.5
410.238	76.5
410.461	92.5
410.685	88.5
410.908	85.5
411.132	93.5
411.355	92.5
411.578	84.5
411.802	80.5
412.025	83.5
412.249	78.5
412.472	74.5
412.695	74.5
412.919	100.5
413.142	88.5
413.365	95.5
413.589	83.5
413.812	90.5
414.035	78.5
414.258	80.5
414.482	76.5
414.705	86.5
414.928	80.5
415.151	90.5
415.374	83.5
415.597	100.5
415.821	92.5
416.044	74.5
416.267	83.5
416.49	73.5
416.713	77.5
416.936	82.5
417.159	82.5
417.382	88.5
417.605	77.5
417.828	90.5
418.051	83.5
418.274	90.5
418.497	75.5
418.72	71.5
418.943	70.5
419.166	95.5
419.389	75.5
419.611	93.5
419.834	72.5
420.057	86.5
420.28	89.5
420.503	96.5
420.726	80.5
420.948	85.5
421.171	84.5
421.394	90.5
421.617	91.5
421.839	109.5
422.062	104.5
422.285	100.5
422.507	182.5
422.73	248.5
422.953	245.5
423.175	158.5
423.398	112.5
423.621	90.5
423.843	90.5
424.066	99.5
424.288	90.5
424.511	101.5
424.733	85.5
424.956	85.5
425.178	79.5
425.401	76.5
425.623	86.5
425.846	79.5
426.068	94.5
426.291	78.5
426.513	77.5
426.735	84.5
426.958	84.5
427.18	84.5
427.402	92.5
427.625	80.5
427.847	80.5
428.069	87.5
428.292	108.5
428.514	114.5
428.736	81.5
428.958	94.5
429.181	106.5
429.403	90.5
429.625	96.5
429.847	99.5
430.069	130.5
430.292	131.5
430.514	104.5
430.736	111.5
430.958	108.5
431.18	93.5
431.402	87.5
431.624	100.5
431.846	102.5
432.068	99.5
432.29	99.5
432.512	82.5
432.734	78.5
432.956	81.5
433.178	78.5
433.4	99.5
433.622	83.5
433.844	86.5
434.066	82.5
434.287	82.5
434.509	70.5
434.731	73.5
434.953	76.5
435.175	77.5
435.397	86.5
435.618	97.5
435.84	90.5
436.062	83.5
436.284	98.5
436.505	86.5
436.727	81.5
436.949	88.5
437.17	62.5
437.392	79.5
437.614	72.5
437.835	76.5
438.057	77.5
438.278	87.5
438.5	88.5
438.721	80.5
438.943	79.5
439.165	74.5
439.386	96.5
439.608	75.5
439.829	72.5
440.05	86.5
440.272	77.5
440.493	82.5
440.715	85.5
440.936	64.5
441.158	85.5
441.379	86.5
441.6	70.5
441.822	88.5
442.043	81.5
442.264	87.5
442.486	94.5
442.707	110.5
442.928	101.5
443.149	97.5
443.371	109.5
443.592	159.5
443.813	124.5
444.034	89.5
444.255	70.5
444.476	83.5
444.698	72.5
444.919	78.5
445.14	166.5
445.361	143.5
445.582	184.5
445.803	168.5
446.024	108.5
446.245	82.5
446.466	102.5
446.687	95.5
446.908	76.5
447.129	88.5
447.35	73.5
447.571	87.5
447.792	91.5
448.013	69.5
448.234	84.5
448.455	86.5
448.675	84.5
448.896	62.5
449.117	84.5
449.338	78.5
449.559	88.5
449.779	81.5
450	99.5
450.221	84.5
450.442	83.5
450.662	70.5
450.883	73.5
451.104	82.5
451.324	76.5
451.545	80.5
451.766	92.5
451.986	81.5
452.207	86.5
452.428	84.5
452.648	98.5
452.869	104.5
453.089	78.5
453.31	77.5
453.53	89.5
453.751	84.5
453.971	90.5
454.192	81.5
454.412	77.5
454.633	89.5
454.853	76.5
455.073	86.5
455.294	82.5
455.514	77.5
455.734	78.5
455.955	88.5
456.175	78.5
456.395	75.5
456.616	68.5
456.836	72.5
457.056	84.5
457.276	87.5
457.497	75.5
457.717	92.5
457.937	86.5
458.157	90.5
458.377	81.5
458.598	84.5
458.818	95.5
459.038	88.5
459.258	84.5
459.478	90.5
459.698	77.5
459.918	78.5
460.138	82.5
460.358	83.5
460.578	90.5
460.798	100.5
461.018	96.5
461.238	70.5
461.458	86.5
461.678	91.5
461.898	82.5
462.118	87.5
462.338	70.5
462.558	91.5
462.777	72.5
462.997	78.5
463.217	84.5
463.437	84.5
463.657	77.5
463.876	84.5
464.096	84.5
464.316	81.5
464.536	87.5
464.755	79.5
464.975	84.5
465.195	82.5
465.414	78.5
465.634	82.5
465.854	79.5
466.073	81.5
466.293	78.5
466.512	80.5
466.732	86.5
466.951	90.5
467.171	84.5
467.391	82.5
467.61	86.5
467.829	84.5
468.049	87.5
468.268	96.5
468.488	85.5
468.707	78.5
468.927	87.5
469.146	83.5
469.365	84.5
469.585	81.5
469.804	86.5
470.023	86.5
470.243	90.5
470.462	84.5
470.681	81.5
470.901	71.5
471.12	64.5
471.339	76.5
471.558	71.5
471.777	82.5
471.997	74.5
472.216	82.5
472.435	97.5
472.654	82.5
472.873	85.5
473.092	81.5
473.311	83.5
473.53	83.5
473.749	78.5
473.968	88.5
474.187	104.5
474.406	76.5
474.625	83.5
474.844	76.5
475.063	86.5
475.282	84.5
475.501	85.5
475.72	82.5
475.939	78.5
476.158	76.5
476.377	87.5
476.596	89.5
476.814	86.5
477.033	78.5
477.252	84.5
477.471	80.5
477.69	82.5
477.908	85.5
478.127	88.5
478.346	74.5
478.564	86.5
478.783	86.5
479.002	84.5
479.22	77.5
479.439	79.5
479.658	75.5
479.876	68.5
480.095	81.5
480.313	82.5
480.532	84.5
480.751	81.5
480.969	89.5
481.188	92.5
481.406	80.5
481.624	75.5
481.843	89.5
482.061	95.5
482.28	92.5
482.498	85.5
482.717	73.5
482.935	92.5
483.153	74.5
483.372	72.5
483.59	89.5
483.808	85.5
484.027	82.5
484.245	84.5
484.463	87.5
484.681	85.5
484.9	90.5
485.118	82.5
485.336	78.5
485.554	74.5
485.772	82.5
485.99	77.5
486.209	86.5
486.427	81.5
486.645	94.5
486.863	90.5
487.081	78.5
487.299	89.5
487.517	88.5
487.735	100.5
487.953	121.5
488.171	112.5
488.389	83.5
488.607	82.5
488.825	74.5
489.043	93.5
489.261	80.5
489.479	90.5
489.696	84.5
489.914	89.5
490.132	84.5
490.35	85.5
490.568	80.5
490.786	76.5
491.003	58.5
491.221	73.5
491.439	89.5
491.657	102.5
491.874	94.5
492.092	96.5
492.31	84.5
492.527	78.5
492.745	89.5
492.963	95.5
493.18	82.5
493.398	88.5
493.615	84.5
493.833	89.5
494.05	80.5
494.268	89.5
494.485	73.5
494.703	86.5
494.92	91.5
495.138	96.5
495.355	97.5
495.573	92.5
495.79	84.5
496.008	81.5
496.225	97.5
496.442	89.5
496.66	84.5
496.877	83.5
497.094	83.5
497.312	87.5
497.529	88.5
497.746	87.5
497.963	85.5
498.181	92.5
498.398	93.5
498.615	84.5
498.832	68.5
499.049	90.5
499.267	71.5
499.484	87.5
499.701	84.5
499.918	92.5
500.135	97.5
500.352	81.5
500.569	88.5
500.786	90.5
501.003	83.5
501.22	84.5
501.437	73.5
501.654	76.5
501.871	86.5
502.088	77.5
502.305	78.5
502.522	74.5
502.739	78.5
502.956	84.5
503.172	93.5
503.389	73.5
503.606	94.5
503.823	90.5
504.04	84.5
504.256	106.5
504.473	99.5
504.69	79.5
504.907	79.5
505.123	88.5
505.34	74.5
505.557	74.5
505.773	104.5
505.99	93.5
506.207	79.5
506.423	84.5
506.64	98.5
506.856	89.5
507.073	86.5
507.289	78.5
507.506	84.5
507.722	82.5
507.939	86.5
508.155	99.5
508.372	84.5
508.588	82.5
508.805	77.5
509.021	82.5
509.238	80.5
509.454	96.5
509.67	84.5
509.887	74.5
510.103	68.5
510.319	85.5
510.536	78.5
510.752	77.5
510.968	82.5
511.184	87.5
511.401	72.5
511.617	81.5
511.833	81.5
512.049	82.5
512.265	114.5
512.481	98.5
512.698	90.5
512.914	93.5
513.13	77.5
513.346	76.5
513.562	89.5
513.778	71.5
513.994	88.5
514.21	87.5
514.426	80.5
514.642	97.5
514.858	84.5
515.074	90.5
515.29	80.5
515.506	88.5
515.721	75.5
515.937	95.5
516.153	91.5
516.369	73.5
516.585	76.5
516.801	86.5
517.016	75.5
517.232	84.5
517.448	98.5
517.664	83.5
517.879	83.5
518.095	91.5
518.311	86.5
518.527	98.5
518.742	88.5
518.958	108.5
519.173	115.5
519.389	103.5
519.605	101.5
519.82	91.5
520.036	94.5
520.251	100.5
520.467	78.5
520.682	90.5
520.898	95.5
521.113	85.5
521.329	82.5
521.544	84.5
521.76	86.5
521.975	74.5
522.19	89.5
522.406	71.5
522.621	89.5
522.836	95.5
523.052	84.5
523.267	74.5
523.482	80.5
523.698	83.5
523.913	73.5
524.128	83.5
524.343	85.5
524.559	78.5
524.774	80.5
524.989	72.5
525.204	97.5
525.419	112.5
525.634	84.5
525.849	100.5
526.064	99.5
526.28	133.5
526.495	200.5
526.71	200.5
526.925	136.5
527.14	174.5
527.355	172.5
527.57	102.5
527.785	90.5
527.999	87.5
528.214	79.5
528.429	81.5
528.644	84.5
528.859	73.5
529.074	88.5
529.289	101.5
529.503	86.5
529.718	92.5
529.933	85.5
530.148	85.5
530.363	85.5
530.577	80.5
530.792	96.5
531.007	95.5
531.221	85.5
531.436	87.5
531.651	90.5
531.865	91.5
532.08	94.5
532.295	94.5
532.509	92.5
532.724	83.5
532.938	102.5
533.153	90.5
533.367	81.5
533.582	97.5
533.796	95.5
534.011	96.5
534.225	90.5
534.44	66.5
534.654	100.5
534.868	93.5
535.083	115.5
535.297	128.5
535.511	96.5
535.726	100.5
535.94	96.5
536.154	90.5
536.369	85.5
536.583	101.5
536.797	106.5
537.011	113.5
537.225	98.5
537.44	85.5
537.654	104.5
537.868	99.5
538.082	97.5
538.296	88.5
538.51	101.5
538.724	88.5
538.938	84.5
539.153	96.5
539.367	95.5
