Data from 237_1_HRD10591_00003.txt Node
Date: Mon Jan 19 14:10:31 EST 2026
User: Yrep
Spectrometer: HR+D1059
Trigger mode: 1
Integration Time (sec): 1.000000E-1
Scans to average: 1
Electric dark correction enabled: true
Nonlinearity correction enabled: false
Boxcar width: 0
XAxis mode: Wavelengths
Number of Pixels in Spectrum: 2048
>>>>>Begin Spectral Data<<<<<
223.165	-10.69
223.4	-10.69
223.635	-10.69
223.869	-13.69
224.104	-26.69
224.338	-22.69
224.573	-8.69
224.808	-19.69
225.042	-1.69
225.277	5.31
225.511	-5.69
225.746	3.31
225.98	7.31
226.215	19.31
226.449	6.31
226.683	22.31
226.918	19.31
227.152	26.31
227.387	32.31
227.621	44.31
227.856	42.31
228.09	50.31
228.324	54.31
228.559	70.31
228.793	69.31
229.027	63.31
229.262	68.31
229.496	72.31
229.73	73.31
229.964	76.31
230.199	79.31
230.433	73.31
230.667	66.31
230.901	84.31
231.136	63.31
231.37	71.31
231.604	82.31
231.838	83.31
232.072	98.31
232.306	83.31
232.541	90.31
232.775	87.31
233.009	75.31
233.243	82.31
233.477	77.31
233.711	96.31
233.945	85.31
234.179	92.31
234.413	79.31
234.647	79.31
234.881	84.31
235.115	90.31
235.349	85.31
235.583	78.31
235.817	73.31
236.051	77.31
236.285	79.31
236.519	81.31
236.753	86.31
236.987	87.31
237.221	84.31
237.455	86.31
237.689	86.31
237.922	61.31
238.156	62.31
238.39	80.31
238.624	78.31
238.858	91.31
239.091	78.31
239.325	77.31
239.559	81.31
239.793	83.31
240.027	77.31
240.26	80.31
240.494	85.31
240.728	77.31
240.961	85.31
241.195	75.31
241.429	86.31
241.662	83.31
241.896	79.31
242.13	88.31
242.363	92.31
242.597	75.31
242.83	73.31
243.064	78.31
243.298	92.31
243.531	80.31
243.765	65.31
243.998	72.31
244.232	92.31
244.465	85.31
244.699	67.31
244.932	78.31
245.166	74.31
245.399	88.31
245.633	84.31
245.866	65.31
246.099	76.31
246.333	70.31
246.566	78.31
246.8	92.31
247.033	86.31
247.266	92.31
247.5	84.31
247.733	88.31
247.966	79.31
248.2	79.31
248.433	70.31
248.666	73.31
248.899	88.31
249.133	77.31
249.366	77.31
249.599	79.31
249.832	94.31
250.066	99.31
250.299	72.31
250.532	84.31
250.765	78.31
250.998	87.31
251.231	79.31
251.465	84.31
251.698	79.31
251.931	88.31
252.164	100.31
252.397	71.31
252.63	84.31
252.863	78.31
253.096	87.31
253.329	89.31
253.562	87.31
253.795	66.31
254.028	78.31
254.261	78.31
254.494	81.31
254.727	85.31
254.96	89.31
255.193	74.31
255.426	85.31
255.659	80.31
255.892	78.31
256.124	81.31
256.357	84.31
256.59	84.31
256.823	78.31
257.056	84.31
257.289	90.31
257.521	71.31
257.754	90.31
257.987	90.31
258.22	103.31
258.452	95.31
258.685	83.31
258.918	70.31
259.151	96.31
259.383	88.31
259.616	72.31
259.849	94.31
260.081	96.31
260.314	86.31
260.547	104.31
260.779	81.31
261.012	70.31
261.244	85.31
261.477	94.31
261.71	86.31
261.942	83.31
262.175	106.31
262.407	86.31
262.64	81.31
262.872	86.31
263.105	65.31
263.337	86.31
263.57	72.31
263.802	90.31
264.035	79.31
264.267	82.31
264.499	74.31
264.732	86.31
264.964	91.31
265.197	83.31
265.429	73.31
265.661	79.31
265.894	93.31
266.126	89.31
266.358	91.31
266.591	92.31
266.823	88.31
267.055	90.31
267.287	103.31
267.52	98.31
267.752	86.31
267.984	92.31
268.216	68.31
268.448	82.31
268.681	95.31
268.913	88.31
269.145	92.31
269.377	98.31
269.609	91.31
269.841	82.31
270.073	86.31
270.306	93.31
270.538	78.31
270.77	90.31
271.002	78.31
271.234	79.31
271.466	87.31
271.698	89.31
271.93	94.31
272.162	86.31
272.394	91.31
272.626	79.31
272.858	93.31
273.09	86.31
273.322	95.31
273.553	88.31
273.785	88.31
274.017	82.31
274.249	79.31
274.481	89.31
274.713	78.31
274.945	75.31
275.176	77.31
275.408	95.31
275.64	87.31
275.872	93.31
276.104	110.31
276.335	84.31
276.567	91.31
276.799	79.31
277.031	81.31
277.262	91.31
277.494	95.31
277.726	90.31
277.957	77.31
278.189	90.31
278.421	100.31
278.652	90.31
278.884	79.31
279.115	98.31
279.347	107.31
279.579	95.31
279.81	78.31
280.042	84.31
280.273	95.31
280.505	87.31
280.736	91.31
280.968	94.31
281.199	85.31
281.431	83.31
281.662	84.31
281.894	97.31
282.125	88.31
282.356	67.31
282.588	80.31
282.819	79.31
283.051	95.31
283.282	93.31
283.513	111.31
283.745	86.31
283.976	77.31
284.207	89.31
284.439	82.31
284.67	84.31
284.901	84.31
285.132	101.31
285.364	96.31
285.595	74.31
285.826	84.31
286.057	80.31
286.288	87.31
286.52	90.31
286.751	73.31
286.982	94.31
287.213	78.31
287.444	88.31
287.675	90.31
287.906	91.31
288.138	90.31
288.369	90.31
288.6	92.31
288.831	85.31
289.062	100.31
289.293	70.31
289.524	75.31
289.755	84.31
289.986	95.31
290.217	92.31
290.448	88.31
290.679	82.31
290.91	86.31
291.141	94.31
291.371	88.31
291.602	94.31
291.833	83.31
292.064	96.31
292.295	88.31
292.526	73.31
292.757	56.31
292.987	89.31
293.218	79.31
293.449	88.31
293.68	97.31
293.91	114.31
294.141	98.31
294.372	79.31
294.603	84.31
294.833	76.31
295.064	94.31
295.295	76.31
295.525	88.31
295.756	92.31
295.987	87.31
296.217	100.31
296.448	97.31
296.679	107.31
296.909	99.31
297.14	87.31
297.37	90.31
297.601	80.31
297.831	98.31
298.062	87.31
298.292	93.31
298.523	81.31
298.753	102.31
298.984	93.31
299.214	100.31
299.445	92.31
299.675	100.31
299.905	107.31
300.136	90.31
300.366	100.31
300.597	90.31
300.827	98.31
301.057	78.31
301.288	99.31
301.518	86.31
301.748	99.31
301.979	108.31
302.209	104.31
302.439	86.31
302.669	89.31
302.9	77.31
303.13	77.31
303.36	101.31
303.59	90.31
303.82	85.31
304.051	95.31
304.281	94.31
304.511	86.31
304.741	95.31
304.971	86.31
305.201	96.31
305.431	91.31
305.661	84.31
305.891	97.31
306.121	95.31
306.352	81.31
306.582	108.31
306.812	101.31
307.042	92.31
307.272	98.31
307.502	88.31
307.731	98.31
307.961	86.31
308.191	95.31
308.421	106.31
308.651	81.31
308.881	91.31
309.111	100.31
309.341	93.31
309.571	107.31
309.8	98.31
310.03	73.31
310.26	79.31
310.49	95.31
310.72	94.31
310.949	91.31
311.179	89.31
311.409	87.31
311.639	92.31
311.868	80.31
312.098	98.31
312.328	94.31
312.557	79.31
312.787	83.31
313.017	86.31
313.246	92.31
313.476	92.31
313.706	92.31
313.935	96.31
314.165	91.31
314.394	98.31
314.624	99.31
314.853	96.31
315.083	85.31
315.312	88.31
315.542	97.31
315.771	90.31
316.001	89.31
316.23	100.31
316.46	104.31
316.689	86.31
316.919	90.31
317.148	82.31
317.377	83.31
317.607	86.31
317.836	88.31
318.065	84.31
318.295	77.31
318.524	106.31
318.753	100.31
318.983	104.31
319.212	95.31
319.441	91.31
319.67	83.31
319.9	98.31
320.129	91.31
320.358	92.31
320.587	93.31
320.816	95.31
321.046	100.31
321.275	85.31
321.504	88.31
321.733	95.31
321.962	101.31
322.191	102.31
322.42	94.31
322.649	90.31
322.878	103.31
323.108	94.31
323.337	90.31
323.566	94.31
323.795	78.31
324.024	82.31
324.253	87.31
324.482	79.31
324.71	90.31
324.939	99.31
325.168	97.31
325.397	82.31
325.626	85.31
325.855	97.31
326.084	96.31
326.313	80.31
326.542	82.31
326.77	93.31
326.999	91.31
327.228	105.31
327.457	91.31
327.686	81.31
327.914	86.31
328.143	96.31
328.372	98.31
328.6	92.31
328.829	96.31
329.058	100.31
329.287	85.31
329.515	94.31
329.744	81.31
329.972	85.31
330.201	98.31
330.43	107.31
330.658	90.31
330.887	100.31
331.115	87.31
331.344	88.31
331.572	99.31
331.801	94.31
332.03	90.31
332.258	82.31
332.486	80.31
332.715	84.31
332.943	91.31
333.172	88.31
333.4	89.31
333.629	93.31
333.857	81.31
334.085	91.31
334.314	85.31
334.542	87.31
334.771	107.31
334.999	107.31
335.227	100.31
335.455	87.31
335.684	83.31
335.912	104.31
336.14	111.31
336.369	104.31
336.597	91.31
336.825	102.31
337.053	84.31
337.281	99.31
337.51	80.31
337.738	104.31
337.966	91.31
338.194	104.31
338.422	103.31
338.65	80.31
338.878	94.31
339.106	107.31
339.334	92.31
339.562	100.31
339.79	90.31
340.018	96.31
340.246	85.31
340.474	90.31
340.702	98.31
340.93	101.31
341.158	98.31
341.386	83.31
341.614	92.31
341.842	73.31
342.07	86.31
342.298	102.31
342.526	100.31
342.754	79.31
342.981	105.31
343.209	86.31
343.437	99.31
343.665	95.31
343.893	94.31
344.12	105.31
344.348	102.31
344.576	93.31
344.804	98.31
345.031	87.31
345.259	93.31
345.487	86.31
345.714	89.31
345.942	98.31
346.17	86.31
346.397	85.31
346.625	102.31
346.853	91.31
347.08	77.31
347.308	94.31
347.535	102.31
347.763	99.31
347.99	90.31
348.218	91.31
348.445	89.31
348.673	103.31
348.9	106.31
349.128	98.31
349.355	95.31
349.583	79.31
349.81	91.31
350.037	90.31
350.265	90.31
350.492	98.31
350.72	81.31
350.947	100.31
351.174	99.31
351.402	98.31
351.629	101.31
351.856	93.31
352.083	86.31
352.311	87.31
352.538	94.31
352.765	103.31
352.992	102.31
353.22	97.31
353.447	80.31
353.674	94.31
353.901	96.31
354.128	100.31
354.355	98.31
354.583	84.31
354.81	93.31
355.037	88.31
355.264	93.31
355.491	85.31
355.718	93.31
355.945	87.31
356.172	88.31
356.399	94.31
356.626	95.31
356.853	99.31
357.08	105.31
357.307	86.31
357.534	102.31
357.761	98.31
357.988	107.31
358.215	109.31
358.441	105.31
358.668	104.31
358.895	94.31
359.122	109.31
359.349	89.31
359.576	88.31
359.802	91.31
360.029	98.31
360.256	92.31
360.483	88.31
360.709	94.31
360.936	107.31
361.163	102.31
361.39	100.31
361.616	81.31
361.843	95.31
362.07	98.31
362.296	97.31
362.523	110.31
362.749	128.31
362.976	146.31
363.203	129.31
363.429	130.31
363.656	114.31
363.882	110.31
364.109	142.31
364.335	149.31
364.562	161.31
364.788	127.31
365.015	101.31
365.241	107.31
365.468	98.31
365.694	92.31
365.92	91.31
366.147	88.31
366.373	99.31
366.599	78.31
366.826	100.31
367.052	86.31
367.278	97.31
367.505	110.31
367.731	94.31
367.957	104.31
368.184	96.31
368.41	94.31
368.636	98.31
368.862	96.31
369.089	99.31
369.315	89.31
369.541	95.31
369.767	85.31
369.993	99.31
370.219	95.31
370.445	95.31
370.672	101.31
370.898	102.31
371.124	96.31
371.35	101.31
371.576	98.31
371.802	90.31
372.028	118.31
372.254	100.31
372.48	86.31
372.706	100.31
372.932	93.31
373.158	106.31
373.384	114.31
373.61	124.31
373.835	110.31
374.061	100.31
374.287	95.31
374.513	105.31
374.739	94.31
374.965	93.31
375.191	108.31
375.416	93.31
375.642	101.31
375.868	99.31
376.094	107.31
376.319	98.31
376.545	109.31
376.771	112.31
376.997	105.31
377.222	90.31
377.448	91.31
377.674	98.31
377.899	98.31
378.125	91.31
378.35	84.31
378.576	99.31
378.802	96.31
379.027	98.31
379.253	100.31
379.478	101.31
379.704	97.31
379.929	95.31
380.155	95.31
380.38	98.31
380.606	94.31
380.831	100.31
381.057	105.31
381.282	97.31
381.507	101.31
381.733	100.31
381.958	103.31
382.184	108.31
382.409	103.31
382.634	103.31
382.86	117.31
383.085	104.31
383.31	96.31
383.535	104.31
383.761	103.31
383.986	104.31
384.211	107.31
384.436	104.31
384.662	85.31
384.887	103.31
385.112	84.31
385.337	100.31
385.562	93.31
385.787	115.31
386.013	109.31
386.238	107.31
386.463	96.31
386.688	109.31
386.913	114.31
387.138	103.31
387.363	97.31
387.588	129.31
387.813	118.31
388.038	108.31
388.263	118.31
388.488	110.31
388.713	106.31
388.938	106.31
389.163	99.31
389.387	101.31
389.612	110.31
389.837	101.31
390.062	110.31
390.287	93.31
390.512	101.31
390.736	103.31
390.961	109.31
391.186	100.31
391.411	98.31
391.636	92.31
391.86	98.31
392.085	103.31
392.31	107.31
392.534	114.31
392.759	128.31
392.984	195.31
393.208	304.31
393.433	431.31
393.658	333.31
393.882	175.31
394.107	132.31
394.331	130.31
394.556	135.31
394.78	130.31
395.005	109.31
395.229	120.31
395.454	98.31
395.678	125.31
395.903	138.31
396.127	167.31
396.352	183.31
396.576	205.31
396.801	326.31
397.025	351.31
397.249	207.31
397.474	140.31
397.698	134.31
397.922	98.31
398.147	108.31
398.371	108.31
398.595	96.31
398.82	95.31
399.044	95.31
399.268	108.31
399.492	92.31
399.717	116.31
399.941	94.31
400.165	114.31
400.389	80.31
400.613	87.31
400.837	100.31
401.062	99.31
401.286	106.31
401.51	100.31
401.734	93.31
401.958	90.31
402.182	98.31
402.406	107.31
402.63	100.31
402.854	91.31
403.078	110.31
403.302	94.31
403.526	101.31
403.75	103.31
403.974	87.31
404.198	100.31
404.422	149.31
404.645	150.31
404.869	126.31
405.093	116.31
405.317	93.31
405.541	100.31
405.765	90.31
405.988	106.31
406.212	98.31
406.436	103.31
406.66	107.31
406.883	98.31
407.107	101.31
407.331	103.31
407.555	121.31
407.778	100.31
408.002	123.31
408.226	111.31
408.449	92.31
408.673	91.31
408.896	99.31
409.12	86.31
409.344	123.31
409.567	113.31
409.791	117.31
410.014	121.31
410.238	118.31
410.461	106.31
410.685	88.31
410.908	96.31
411.132	100.31
411.355	111.31
411.578	103.31
411.802	103.31
412.025	108.31
412.249	108.31
412.472	92.31
412.695	99.31
412.919	99.31
413.142	105.31
413.365	100.31
413.589	103.31
413.812	87.31
414.035	100.31
414.258	92.31
414.482	96.31
414.705	102.31
414.928	106.31
415.151	73.31
415.374	110.31
415.597	84.31
415.821	96.31
416.044	101.31
416.267	100.31
416.49	86.31
416.713	94.31
416.936	104.31
417.159	90.31
417.382	98.31
417.605	93.31
417.828	90.31
418.051	84.31
418.274	92.31
418.497	100.31
418.72	86.31
418.943	102.31
419.166	86.31
419.389	104.31
419.611	94.31
419.834	114.31
420.057	103.31
420.28	105.31
420.503	102.31
420.726	103.31
420.948	105.31
421.171	118.31
421.394	123.31
421.617	137.31
421.839	149.31
422.062	165.31
422.285	227.31
422.507	351.31
422.73	493.31
422.953	452.31
423.175	296.31
423.398	196.31
423.621	157.31
423.843	123.31
424.066	119.31
424.288	139.31
424.511	109.31
424.733	99.31
424.956	86.31
425.178	111.31
425.401	102.31
425.623	93.31
425.846	118.31
426.068	101.31
426.291	95.31
426.513	118.31
426.735	109.31
426.958	100.31
427.18	103.31
427.402	102.31
427.625	102.31
427.847	108.31
428.069	100.31
428.292	162.31
428.514	163.31
428.736	143.31
428.958	151.31
429.181	173.31
429.403	118.31
429.625	118.31
429.847	139.31
430.069	215.31
430.292	231.31
430.514	218.31
430.736	169.31
430.958	182.31
431.18	116.31
431.402	98.31
431.624	109.31
431.846	142.31
432.068	171.31
432.29	115.31
432.512	96.31
432.734	92.31
432.956	99.31
433.178	102.31
433.4	103.31
433.622	89.31
433.844	86.31
434.066	90.31
434.287	88.31
434.509	94.31
434.731	81.31
434.953	87.31
435.175	87.31
435.397	99.31
435.618	103.31
435.84	103.31
436.062	101.31
436.284	97.31
436.505	83.31
436.727	83.31
436.949	101.31
437.17	87.31
437.392	98.31
437.614	104.31
437.835	96.31
438.057	96.31
438.278	88.31
438.5	102.31
438.721	101.31
438.943	98.31
439.165	87.31
439.386	90.31
439.608	88.31
439.829	75.31
440.05	79.31
440.272	95.31
440.493	95.31
440.715	115.31
440.936	92.31
441.158	89.31
441.379	104.31
441.6	100.31
441.822	106.31
442.043	115.31
442.264	133.31
442.486	159.31
442.707	235.31
442.928	164.31
443.149	130.31
443.371	191.31
443.592	330.31
443.813	314.31
444.034	148.31
444.255	104.31
444.476	111.31
444.698	95.31
444.919	109.31
445.14	201.31
445.361	270.31
445.582	429.31
445.803	348.31
446.024	165.31
446.245	127.31
446.466	93.31
446.687	86.31
446.908	95.31
447.129	93.31
447.35	86.31
447.571	99.31
447.792	92.31
448.013	92.31
448.234	103.31
448.455	79.31
448.675	111.31
448.896	94.31
449.117	88.31
449.338	80.31
449.559	94.31
449.779	94.31
450	93.31
450.221	88.31
450.442	102.31
450.662	89.31
450.883	91.31
451.104	105.31
451.324	80.31
451.545	93.31
451.766	90.31
451.986	99.31
452.207	88.31
452.428	98.31
452.648	105.31
452.869	126.31
453.089	106.31
453.31	101.31
453.53	124.31
453.751	104.31
453.971	94.31
454.192	88.31
454.412	83.31
454.633	103.31
454.853	94.31
455.073	84.31
455.294	96.31
455.514	98.31
455.734	99.31
455.955	91.31
456.175	92.31
456.395	108.31
456.616	108.31
456.836	92.31
457.056	104.31
457.276	91.31
457.497	90.31
457.717	92.31
457.937	132.31
458.157	153.31
458.377	144.31
458.598	158.31
458.818	161.31
459.038	109.31
459.258	100.31
459.478	97.31
459.698	87.31
459.918	98.31
460.138	99.31
460.358	117.31
460.578	107.31
460.798	144.31
461.018	137.31
461.238	106.31
461.458	69.31
461.678	83.31
461.898	96.31
462.118	84.31
462.338	92.31
462.558	94.31
462.777	96.31
462.997	97.31
463.217	94.31
463.437	95.31
463.657	83.31
463.876	85.31
464.096	94.31
464.316	86.31
464.536	92.31
464.755	91.31
464.975	86.31
465.195	89.31
465.414	102.31
465.634	98.31
465.854	99.31
466.073	94.31
466.293	98.31
466.512	87.31
466.732	98.31
466.951	88.31
467.171	90.31
467.391	76.31
467.61	90.31
467.829	83.31
468.049	86.31
468.268	94.31
468.488	98.31
468.707	98.31
468.927	89.31
469.146	92.31
469.365	78.31
469.585	90.31
469.804	78.31
470.023	84.31
470.243	106.31
470.462	103.31
470.681	98.31
470.901	98.31
471.12	95.31
471.339	91.31
471.558	94.31
471.777	95.31
471.997	97.31
472.216	107.31
472.435	95.31
472.654	115.31
472.873	98.31
473.092	89.31
473.311	86.31
473.53	106.31
473.749	100.31
473.968	103.31
474.187	95.31
474.406	112.31
474.625	98.31
474.844	89.31
475.063	80.31
475.282	90.31
475.501	100.31
475.72	108.31
475.939	106.31
476.158	95.31
476.377	88.31
476.596	92.31
476.814	100.31
477.033	92.31
477.252	98.31
477.471	86.31
477.69	90.31
477.908	93.31
478.127	98.31
478.346	106.31
478.564	95.31
478.783	97.31
479.002	96.31
479.22	84.31
479.439	100.31
479.658	99.31
479.876	98.31
480.095	100.31
480.313	96.31
480.532	87.31
480.751	79.31
480.969	95.31
481.188	93.31
481.406	97.31
481.624	99.31
481.843	94.31
482.061	106.31
482.28	87.31
482.498	100.31
482.717	103.31
482.935	118.31
483.153	106.31
483.372	96.31
483.59	90.31
483.808	101.31
484.027	100.31
484.245	108.31
484.463	101.31
484.681	89.31
484.9	92.31
485.118	102.31
485.336	92.31
485.554	101.31
485.772	91.31
485.99	100.31
486.209	92.31
486.427	79.31
486.645	109.31
486.863	90.31
487.081	113.31
487.299	116.31
487.517	126.31
487.735	142.31
487.953	220.31
488.171	187.31
488.389	118.31
488.607	95.31
488.825	107.31
489.043	98.31
489.261	100.31
489.479	91.31
489.696	101.31
489.914	102.31
490.132	96.31
490.35	101.31
490.568	87.31
490.786	98.31
491.003	96.31
491.221	108.31
491.439	105.31
491.657	92.31
491.874	98.31
492.092	99.31
492.31	101.31
492.527	95.31
492.745	101.31
492.963	114.31
493.18	105.31
493.398	92.31
493.615	90.31
493.833	103.31
494.05	100.31
494.268	95.31
494.485	94.31
494.703	98.31
494.92	89.31
495.138	91.31
495.355	92.31
495.573	99.31
495.79	106.31
496.008	108.31
496.225	99.31
496.442	109.31
496.66	97.31
496.877	107.31
497.094	115.31
497.312	95.31
497.529	101.31
497.746	103.31
497.963	86.31
498.181	109.31
498.398	126.31
498.615	115.31
498.832	101.31
499.049	99.31
499.267	103.31
499.484	108.31
499.701	100.31
499.918	106.31
500.135	106.31
500.352	103.31
500.569	95.31
500.786	114.31
501.003	97.31
501.22	100.31
501.437	93.31
501.654	112.31
501.871	95.31
502.088	119.31
502.305	96.31
502.522	101.31
502.739	114.31
502.956	113.31
503.172	88.31
503.389	98.31
503.606	106.31
503.823	118.31
504.04	109.31
504.256	172.31
504.473	179.31
504.69	126.31
504.907	107.31
505.123	100.31
505.34	95.31
505.557	108.31
505.773	97.31
505.99	102.31
506.207	96.31
506.423	88.31
506.64	93.31
506.856	94.31
507.073	101.31
507.289	104.31
507.506	94.31
507.722	102.31
507.939	87.31
508.155	110.31
508.372	110.31
508.588	99.31
508.805	100.31
509.021	93.31
509.238	101.31
509.454	101.31
509.67	94.31
509.887	108.31
510.103	100.31
510.319	107.31
510.536	94.31
510.752	98.31
510.968	100.31
511.184	92.31
511.401	112.31
511.617	94.31
511.833	87.31
512.049	97.31
512.265	98.31
512.481	100.31
512.698	106.31
512.914	105.31
513.13	86.31
513.346	81.31
513.562	107.31
513.778	110.31
513.994	115.31
