Data from 237_1_HRD10591_00038.txt Node
Date: Mon Jan 19 14:10:48 EST 2026
User: Yrep
Spectrometer: HR+D1059
Trigger mode: 1
Integration Time (sec): 1.000000E-1
Scans to average: 1
Electric dark correction enabled: true
Nonlinearity correction enabled: false
Boxcar width: 0
XAxis mode: Wavelengths
Number of Pixels in Spectrum: 2048
>>>>>Begin Spectral Data<<<<<
223.165	-14.12
223.4	-14.12
223.635	-14.12
223.869	-24.12
224.104	-35.12
224.338	-21.12
224.573	-23.12
224.808	-7.12
225.042	-1.12
225.277	4.88
225.511	-3.12
225.746	1.88
225.98	4.88
226.215	11.88
226.449	18.88
226.683	24.88
226.918	12.88
227.152	48.88
227.387	23.88
227.621	35.88
227.856	51.88
228.09	58.88
228.324	50.88
228.559	59.88
228.793	63.88
229.027	58.88
229.262	75.88
229.496	73.88
229.73	59.88
229.964	71.88
230.199	89.88
230.433	69.88
230.667	63.88
230.901	91.88
231.136	73.88
231.37	80.88
231.604	86.88
231.838	95.88
232.072	83.88
232.306	97.88
232.541	83.88
232.775	86.88
233.009	80.88
233.243	87.88
233.477	79.88
233.711	76.88
233.945	87.88
234.179	63.88
234.413	71.88
234.647	80.88
234.881	80.88
235.115	85.88
235.349	89.88
235.583	99.88
235.817	87.88
236.051	72.88
236.285	84.88
236.519	82.88
236.753	80.88
236.987	81.88
237.221	72.88
237.455	65.88
237.689	68.88
237.922	75.88
238.156	81.88
238.39	87.88
238.624	78.88
238.858	78.88
239.091	77.88
239.325	75.88
239.559	86.88
239.793	80.88
240.027	80.88
240.26	64.88
240.494	73.88
240.728	68.88
240.961	73.88
241.195	87.88
241.429	77.88
241.662	81.88
241.896	85.88
242.13	62.88
242.363	73.88
242.597	72.88
242.83	75.88
243.064	83.88
243.298	92.88
243.531	77.88
243.765	76.88
243.998	75.88
244.232	71.88
244.465	67.88
244.699	87.88
244.932	81.88
245.166	86.88
245.399	88.88
245.633	79.88
245.866	89.88
246.099	88.88
246.333	83.88
246.566	83.88
246.8	87.88
247.033	69.88
247.266	65.88
247.5	96.88
247.733	82.88
247.966	80.88
248.2	83.88
248.433	77.88
248.666	85.88
248.899	76.88
249.133	84.88
249.366	99.88
249.599	80.88
249.832	92.88
250.066	80.88
250.299	80.88
250.532	82.88
250.765	90.88
250.998	81.88
251.231	89.88
251.465	76.88
251.698	92.88
251.931	66.88
252.164	71.88
252.397	78.88
252.63	67.88
252.863	83.88
253.096	84.88
253.329	75.88
253.562	71.88
253.795	101.88
254.028	82.88
254.261	94.88
254.494	83.88
254.727	92.88
254.96	80.88
255.193	78.88
255.426	77.88
255.659	84.88
255.892	77.88
256.124	102.88
256.357	73.88
256.59	73.88
256.823	76.88
257.056	75.88
257.289	84.88
257.521	70.88
257.754	82.88
257.987	83.88
258.22	71.88
258.452	76.88
258.685	79.88
258.918	81.88
259.151	87.88
259.383	77.88
259.616	66.88
259.849	71.88
260.081	79.88
260.314	73.88
260.547	71.88
260.779	88.88
261.012	72.88
261.244	69.88
261.477	95.88
261.71	86.88
261.942	74.88
262.175	76.88
262.407	83.88
262.64	76.88
262.872	87.88
263.105	82.88
263.337	92.88
263.57	84.88
263.802	72.88
264.035	74.88
264.267	66.88
264.499	81.88
264.732	78.88
264.964	77.88
265.197	90.88
265.429	82.88
265.661	90.88
265.894	82.88
266.126	92.88
266.358	73.88
266.591	76.88
266.823	76.88
267.055	88.88
267.287	77.88
267.52	85.88
267.752	84.88
267.984	83.88
268.216	82.88
268.448	69.88
268.681	99.88
268.913	79.88
269.145	73.88
269.377	85.88
269.609	83.88
269.841	80.88
270.073	78.88
270.306	79.88
270.538	88.88
270.77	97.88
271.002	97.88
271.234	85.88
271.466	83.88
271.698	97.88
271.93	79.88
272.162	95.88
272.394	87.88
272.626	95.88
272.858	75.88
273.09	62.88
273.322	87.88
273.553	91.88
273.785	99.88
274.017	92.88
274.249	87.88
274.481	87.88
274.713	87.88
274.945	100.88
275.176	76.88
275.408	92.88
275.64	76.88
275.872	83.88
276.104	83.88
276.335	76.88
276.567	85.88
276.799	83.88
277.031	91.88
277.262	77.88
277.494	81.88
277.726	96.88
277.957	88.88
278.189	73.88
278.421	64.88
278.652	88.88
278.884	79.88
279.115	86.88
279.347	96.88
279.579	82.88
279.81	81.88
280.042	78.88
280.273	73.88
280.505	74.88
280.736	74.88
280.968	77.88
281.199	73.88
281.431	79.88
281.662	84.88
281.894	75.88
282.125	88.88
282.356	81.88
282.588	85.88
282.819	80.88
283.051	80.88
283.282	82.88
283.513	84.88
283.745	82.88
283.976	88.88
284.207	83.88
284.439	87.88
284.67	99.88
284.901	88.88
285.132	85.88
285.364	85.88
285.595	96.88
285.826	84.88
286.057	78.88
286.288	83.88
286.52	95.88
286.751	73.88
286.982	87.88
287.213	80.88
287.444	80.88
287.675	80.88
287.906	87.88
288.138	72.88
288.369	72.88
288.6	83.88
288.831	86.88
289.062	85.88
289.293	83.88
289.524	87.88
289.755	74.88
289.986	76.88
290.217	80.88
290.448	87.88
290.679	85.88
290.91	83.88
291.141	86.88
291.371	88.88
291.602	81.88
291.833	83.88
292.064	99.88
292.295	89.88
292.526	82.88
292.757	85.88
292.987	90.88
293.218	90.88
293.449	85.88
293.68	87.88
293.91	89.88
294.141	89.88
294.372	101.88
294.603	95.88
294.833	78.88
295.064	84.88
295.295	89.88
295.525	100.88
295.756	100.88
295.987	89.88
296.217	93.88
296.448	81.88
296.679	85.88
296.909	84.88
297.14	86.88
297.37	91.88
297.601	77.88
297.831	92.88
298.062	95.88
298.292	90.88
298.523	85.88
298.753	86.88
298.984	92.88
299.214	87.88
299.445	85.88
299.675	85.88
299.905	104.88
300.136	95.88
300.366	82.88
300.597	85.88
300.827	87.88
301.057	83.88
301.288	89.88
301.518	95.88
301.748	87.88
301.979	105.88
302.209	92.88
302.439	84.88
302.669	86.88
302.9	101.88
303.13	73.88
303.36	79.88
303.59	80.88
303.82	86.88
304.051	88.88
304.281	91.88
304.511	89.88
304.741	85.88
304.971	87.88
305.201	93.88
305.431	87.88
305.661	95.88
305.891	102.88
306.121	90.88
306.352	79.88
306.582	91.88
306.812	90.88
307.042	93.88
307.272	84.88
307.502	83.88
307.731	92.88
307.961	73.88
308.191	84.88
308.421	91.88
308.651	100.88
308.881	82.88
309.111	91.88
309.341	93.88
309.571	98.88
309.8	101.88
310.03	66.88
310.26	92.88
310.49	88.88
310.72	88.88
310.949	88.88
311.179	81.88
311.409	83.88
311.639	96.88
311.868	86.88
312.098	75.88
312.328	93.88
312.557	104.88
312.787	96.88
313.017	71.88
313.246	89.88
313.476	101.88
313.706	89.88
313.935	79.88
314.165	80.88
314.394	87.88
314.624	93.88
314.853	93.88
315.083	87.88
315.312	75.88
315.542	89.88
315.771	84.88
316.001	89.88
316.23	80.88
316.46	87.88
316.689	94.88
316.919	83.88
317.148	97.88
317.377	101.88
317.607	94.88
317.836	106.88
318.065	97.88
318.295	82.88
318.524	91.88
318.753	88.88
318.983	93.88
319.212	91.88
319.441	70.88
319.67	93.88
319.9	79.88
320.129	92.88
320.358	76.88
320.587	81.88
320.816	88.88
321.046	87.88
321.275	93.88
321.504	85.88
321.733	91.88
321.962	96.88
322.191	69.88
322.42	83.88
322.649	96.88
322.878	77.88
323.108	87.88
323.337	85.88
323.566	88.88
323.795	92.88
324.024	101.88
324.253	80.88
324.482	73.88
324.71	74.88
324.939	90.88
325.168	89.88
325.397	85.88
325.626	98.88
325.855	78.88
326.084	85.88
326.313	88.88
326.542	99.88
326.77	89.88
326.999	90.88
327.228	98.88
327.457	86.88
327.686	88.88
327.914	81.88
328.143	89.88
328.372	83.88
328.6	93.88
328.829	96.88
329.058	77.88
329.287	87.88
329.515	86.88
329.744	93.88
329.972	94.88
330.201	90.88
330.43	101.88
330.658	95.88
330.887	93.88
331.115	93.88
331.344	90.88
331.572	98.88
331.801	84.88
332.03	90.88
332.258	95.88
332.486	99.88
332.715	92.88
332.943	83.88
333.172	75.88
333.4	76.88
333.629	90.88
333.857	89.88
334.085	76.88
334.314	81.88
334.542	74.88
334.771	90.88
334.999	92.88
335.227	86.88
335.455	81.88
335.684	88.88
335.912	94.88
336.14	101.88
336.369	100.88
336.597	98.88
336.825	84.88
337.053	86.88
337.281	86.88
337.51	86.88
337.738	88.88
337.966	100.88
338.194	93.88
338.422	101.88
338.65	93.88
338.878	95.88
339.106	82.88
339.334	95.88
339.562	95.88
339.79	92.88
340.018	88.88
340.246	95.88
340.474	83.88
340.702	87.88
340.93	94.88
341.158	74.88
341.386	74.88
341.614	87.88
341.842	78.88
342.07	71.88
342.298	83.88
342.526	83.88
342.754	83.88
342.981	76.88
343.209	70.88
343.437	96.88
343.665	81.88
343.893	90.88
344.12	99.88
344.348	100.88
344.576	90.88
344.804	93.88
345.031	85.88
345.259	82.88
345.487	80.88
345.714	86.88
345.942	85.88
346.17	85.88
346.397	84.88
346.625	95.88
346.853	85.88
347.08	78.88
347.308	90.88
347.535	98.88
347.763	97.88
347.99	86.88
348.218	85.88
348.445	82.88
348.673	91.88
348.9	81.88
349.128	83.88
349.355	89.88
349.583	84.88
349.81	97.88
350.037	95.88
350.265	101.88
350.492	88.88
350.72	90.88
350.947	100.88
351.174	91.88
351.402	77.88
351.629	94.88
351.856	97.88
352.083	104.88
352.311	83.88
352.538	83.88
352.765	96.88
352.992	103.88
353.22	79.88
353.447	94.88
353.674	87.88
353.901	95.88
354.128	89.88
354.355	91.88
354.583	83.88
354.81	94.88
355.037	91.88
355.264	90.88
355.491	82.88
355.718	83.88
355.945	103.88
356.172	85.88
356.399	95.88
356.626	94.88
356.853	99.88
357.08	85.88
357.307	74.88
357.534	91.88
357.761	87.88
357.988	93.88
358.215	105.88
358.441	99.88
358.668	91.88
358.895	84.88
359.122	75.88
359.349	92.88
359.576	83.88
359.802	77.88
360.029	88.88
360.256	87.88
360.483	85.88
360.709	83.88
360.936	85.88
361.163	85.88
361.39	100.88
361.616	83.88
361.843	89.88
362.07	85.88
362.296	91.88
362.523	87.88
362.749	83.88
362.976	95.88
363.203	121.88
363.429	98.88
363.656	95.88
363.882	76.88
364.109	115.88
364.335	115.88
364.562	121.88
364.788	102.88
365.015	93.88
365.241	77.88
365.468	79.88
365.694	92.88
365.92	84.88
366.147	73.88
366.373	77.88
366.599	83.88
366.826	91.88
367.052	84.88
367.278	87.88
367.505	80.88
367.731	95.88
367.957	99.88
368.184	91.88
368.41	86.88
368.636	83.88
368.862	91.88
369.089	85.88
369.315	96.88
369.541	105.88
369.767	91.88
369.993	91.88
370.219	88.88
370.445	93.88
370.672	92.88
370.898	96.88
371.124	78.88
371.35	75.88
371.576	87.88
371.802	97.88
372.028	83.88
372.254	89.88
372.48	80.88
372.706	90.88
372.932	84.88
373.158	84.88
373.384	102.88
373.61	111.88
373.835	101.88
374.061	91.88
374.287	83.88
374.513	85.88
374.739	89.88
374.965	90.88
375.191	88.88
375.416	102.88
375.642	92.88
375.868	99.88
376.094	92.88
376.319	77.88
376.545	88.88
376.771	93.88
376.997	90.88
377.222	94.88
377.448	106.88
377.674	59.88
377.899	77.88
378.125	73.88
378.35	83.88
378.576	96.88
378.802	74.88
379.027	74.88
379.253	88.88
379.478	84.88
379.704	92.88
379.929	95.88
380.155	90.88
380.38	79.88
380.606	80.88
380.831	81.88
381.057	86.88
381.282	84.88
381.507	91.88
381.733	87.88
381.958	81.88
382.184	88.88
382.409	91.88
382.634	89.88
382.86	84.88
383.085	83.88
383.31	96.88
383.535	97.88
383.761	78.88
383.986	99.88
384.211	90.88
384.436	93.88
384.662	99.88
384.887	85.88
385.112	80.88
385.337	83.88
385.562	77.88
385.787	89.88
386.013	109.88
386.238	104.88
386.463	92.88
386.688	89.88
386.913	89.88
387.138	87.88
387.363	97.88
387.588	80.88
387.813	100.88
388.038	83.88
388.263	106.88
388.488	89.88
388.713	87.88
388.938	86.88
389.163	83.88
389.387	92.88
389.612	88.88
389.837	93.88
390.062	89.88
390.287	90.88
390.512	82.88
390.736	91.88
390.961	82.88
391.186	76.88
391.411	91.88
391.636	88.88
391.86	98.88
392.085	91.88
392.31	101.88
392.534	96.88
392.759	108.88
392.984	132.88
393.208	188.88
393.433	276.88
393.658	209.88
393.882	123.88
394.107	99.88
394.331	122.88
394.556	117.88
394.78	97.88
395.005	88.88
395.229	82.88
395.454	79.88
395.678	91.88
395.903	114.88
396.127	124.88
396.352	132.88
396.576	138.88
396.801	205.88
397.025	226.88
397.249	136.88
397.474	112.88
397.698	97.88
397.922	91.88
398.147	81.88
398.371	99.88
398.595	94.88
398.82	97.88
399.044	97.88
399.268	74.88
399.492	90.88
399.717	87.88
399.941	88.88
400.165	78.88
400.389	81.88
400.613	79.88
400.837	85.88
401.062	84.88
401.286	78.88
401.51	78.88
401.734	89.88
401.958	77.88
402.182	70.88
402.406	76.88
402.63	94.88
402.854	80.88
403.078	91.88
403.302	87.88
403.526	97.88
403.75	102.88
403.974	86.88
404.198	99.88
404.422	94.88
404.645	100.88
404.869	98.88
405.093	95.88
405.317	69.88
405.541	100.88
405.765	76.88
405.988	71.88
406.212	88.88
406.436	95.88
406.66	69.88
406.883	85.88
407.107	79.88
407.331	83.88
407.555	91.88
407.778	95.88
408.002	96.88
408.226	84.88
408.449	82.88
408.673	69.88
408.896	83.88
409.12	85.88
409.344	88.88
409.567	75.88
409.791	97.88
410.014	100.88
410.238	92.88
410.461	92.88
410.685	100.88
410.908	99.88
411.132	95.88
411.355	86.88
411.578	88.88
411.802	74.88
412.025	78.88
412.249	81.88
412.472	76.88
412.695	69.88
412.919	95.88
413.142	92.88
413.365	89.88
413.589	87.88
413.812	68.88
414.035	75.88
414.258	91.88
414.482	82.88
414.705	89.88
414.928	75.88
415.151	86.88
415.374	73.88
415.597	84.88
415.821	75.88
416.044	74.88
416.267	77.88
416.49	103.88
416.713	87.88
416.936	72.88
417.159	81.88
417.382	83.88
417.605	99.88
417.828	81.88
418.051	81.88
418.274	67.88
418.497	84.88
418.72	91.88
418.943	89.88
419.166	96.88
419.389	83.88
419.611	85.88
419.834	84.88
420.057	104.88
420.28	93.88
420.503	84.88
420.726	85.88
420.948	91.88
421.171	110.88
421.394	105.88
421.617	96.88
421.839	90.88
422.062	110.88
422.285	148.88
422.507	235.88
422.73	325.88
422.953	313.88
423.175	155.88
423.398	112.88
423.621	99.88
423.843	101.88
424.066	96.88
424.288	87.88
424.511	91.88
424.733	101.88
424.956	78.88
425.178	85.88
425.401	96.88
425.623	83.88
425.846	85.88
426.068	69.88
426.291	95.88
426.513	82.88
426.735	85.88
426.958	92.88
427.18	88.88
427.402	74.88
427.625	74.88
427.847	87.88
428.069	94.88
428.292	123.88
428.514	116.88
428.736	96.88
428.958	115.88
429.181	123.88
429.403	84.88
429.625	81.88
429.847	121.88
430.069	129.88
430.292	167.88
430.514	155.88
430.736	140.88
430.958	120.88
431.18	92.88
431.402	93.88
431.624	93.88
431.846	101.88
432.068	131.88
432.29	92.88
432.512	87.88
432.734	80.88
432.956	83.88
433.178	84.88
433.4	74.88
433.622	88.88
433.844	73.88
434.066	73.88
434.287	80.88
434.509	86.88
434.731	76.88
434.953	81.88
435.175	73.88
435.397	100.88
435.618	79.88
435.84	92.88
436.062	77.88
436.284	84.88
436.505	79.88
436.727	85.88
436.949	100.88
437.17	86.88
437.392	89.88
437.614	84.88
437.835	68.88
438.057	74.88
438.278	78.88
438.5	84.88
438.721	94.88
438.943	81.88
439.165	85.88
439.386	83.88
439.608	92.88
439.829	82.88
440.05	106.88
440.272	81.88
440.493	84.88
440.715	92.88
440.936	83.88
441.158	102.88
441.379	95.88
441.6	86.88
441.822	92.88
442.043	92.88
442.264	94.88
442.486	117.88
442.707	152.88
442.928	130.88
443.149	103.88
443.371	135.88
443.592	205.88
443.813	172.88
444.034	111.88
444.255	83.88
444.476	80.88
444.698	87.88
444.919	87.88
445.14	154.88
445.361	172.88
445.582	239.88
445.803	196.88
446.024	101.88
446.245	89.88
446.466	92.88
446.687	78.88
446.908	96.88
447.129	83.88
447.35	94.88
447.571	77.88
447.792	73.88
448.013	78.88
448.234	93.88
448.455	77.88
448.675	78.88
448.896	81.88
449.117	78.88
449.338	97.88
449.559	99.88
449.779	68.88
450	75.88
450.221	78.88
450.442	87.88
450.662	91.88
450.883	88.88
451.104	89.88
451.324	87.88
451.545	87.88
451.766	91.88
451.986	85.88
452.207	84.88
452.428	75.88
452.648	93.88
452.869	98.88
453.089	83.88
453.31	93.88
453.53	90.88
453.751	97.88
453.971	77.88
454.192	76.88
454.412	83.88
454.633	93.88
454.853	86.88
455.073	84.88
455.294	98.88
455.514	87.88
455.734	84.88
455.955	83.88
456.175	85.88
456.395	87.88
456.616	89.88
456.836	85.88
457.056	92.88
457.276	104.88
457.497	75.88
457.717	91.88
457.937	97.88
458.157	112.88
458.377	103.88
458.598	108.88
458.818	106.88
459.038	98.88
459.258	81.88
459.478	81.88
459.698	77.88
459.918	81.88
460.138	84.88
460.358	84.88
460.578	98.88
460.798	103.88
461.018	103.88
461.238	101.88
461.458	84.88
461.678	78.88
461.898	89.88
462.118	86.88
462.338	96.88
462.558	83.88
462.777	75.88
462.997	77.88
463.217	89.88
463.437	62.88
463.657	85.88
463.876	76.88
464.096	73.88
464.316	69.88
464.536	80.88
464.755	80.88
464.975	90.88
465.195	87.88
465.414	80.88
465.634	101.88
465.854	85.88
466.073	68.88
466.293	92.88
466.512	93.88
466.732	83.88
466.951	81.88
467.171	91.88
467.391	91.88
467.61	85.88
467.829	91.88
468.049	87.88
468.268	71.88
468.488	72.88
468.707	90.88
468.927	82.88
469.146	87.88
469.365	88.88
469.585	99.88
469.804	66.88
470.023	81.88
470.243	77.88
470.462	81.88
470.681	77.88
470.901	99.88
471.12	97.88
471.339	91.88
471.558	87.88
471.777	77.88
471.997	97.88
472.216	95.88
472.435	86.88
472.654	103.88
472.873	83.88
473.092	92.88
473.311	77.88
473.53	92.88
473.749	94.88
473.968	90.88
474.187	81.88
474.406	76.88
474.625	88.88
474.844	85.88
475.063	89.88
475.282	90.88
475.501	81.88
475.72	102.88
475.939	87.88
476.158	95.88
476.377	81.88
476.596	83.88
476.814	97.88
477.033	80.88
477.252	85.88
477.471	80.88
477.69	85.88
477.908	76.88
478.127	89.88
478.346	92.88
478.564	86.88
478.783	95.88
479.002	81.88
479.22	94.88
479.439	75.88
479.658	87.88
479.876	86.88
480.095	84.88
480.313	67.88
480.532	95.88
480.751	82.88
480.969	86.88
481.188	81.88
481.406	83.88
481.624	81.88
481.843	87.88
482.061	83.88
482.28	92.88
482.498	89.88
482.717	92.88
482.935	95.88
483.153	81.88
483.372	87.88
483.59	87.88
483.808	88.88
484.027	98.88
484.245	85.88
484.463	90.88
484.681	105.88
484.9	77.88
485.118	88.88
485.336	99.88
485.554	94.88
485.772	79.88
485.99	94.88
486.209	92.88
486.427	91.88
486.645	101.88
486.863	80.88
487.081	90.88
487.299	86.88
487.517	76.88
487.735	90.88
487.953	125.88
488.171	123.88
488.389	97.88
488.607	81.88
488.825	91.88
489.043	88.88
489.261	90.88
489.479	84.88
489.696	81.88
489.914	91.88
490.132	77.88
490.35	81.88
490.568	79.88
490.786	92.88
491.003	91.88
491.221	94.88
491.439	112.88
491.657	84.88
491.874	77.88
492.092	83.88
492.31	83.88
492.527	91.88
492.745	80.88
492.963	87.88
493.18	95.88
493.398	82.88
493.615	85.88
493.833	84.88
494.05	96.88
494.268	78.88
494.485	95.88
494.703	90.88
494.92	85.88
495.138	100.88
495.355	72.88
495.573	93.88
495.79	95.88
496.008	83.88
496.225	83.88
496.442	77.88
496.66	86.88
496.877	78.88
497.094	90.88
497.312	86.88
497.529	90.88
497.746	86.88
497.963	63.88
498.181	84.88
498.398	101.88
498.615	97.88
498.832	92.88
499.049	92.88
499.267	102.88
499.484	84.88
499.701	90.88
499.918	94.88
500.135	100.88
500.352	82.88
500.569	84.88
500.786	80.88
501.003	102.88
501.22	91.88
501.437	90.88
501.654	84.88
501.871	88.88
502.088	87.88
502.305	81.88
502.522	89.88
502.739	103.88
502.956	90.88
503.172	93.88
503.389	81.88
503.606	85.88
503.823	81.88
504.04	108.88
504.256	120.88
504.473	117.88
504.69	100.88
504.907	83.88
505.123	85.88
505.34	77.88
505.557	85.88
505.773	75.88
505.99	78.88
506.207	95.88
506.423	85.88
506.64	84.88
506.856	87.88
507.073	77.88
507.289	85.88
507.506	91.88
507.722	80.88
507.939	79.88
508.155	87.88
508.372	84.88
508.588	97.88
508.805	90.88
509.021	83.88
509.238	91.88
509.454	80.88
509.67	95.88
509.887	88.88
510.103	84.88
510.319	85.88
510.536	100.88
510.752	80.88
510.968	89.88
511.184	91.88
511.401	81.88
511.617	96.88
511.833	87.88
512.049	91.88
512.265	88.88
512.481	83.88
512.698	78.88
512.914	89.88
513.13	97.88
513.346	87.88
513.562	83.88
513.778	105.88
513.994	97.88
514.21	80.88
514.426	85.88
514.642	87.88
514.858	99.88
515.074	77.88
515.29	90.88
515.506	88.88
515.721	101.88
515.937	81.88
516.153	91.88
516.369	89.88
516.585	91.88
516.801	111.88
517.016	85.88
517.232	90.88
517.448	103.88
517.664	85.88
517.879	80.88
518.095	80.88
518.311	103.88
