Data from 237_1_HRD10591_00047.txt Node
Date: Mon Jan 19 14:10:53 EST 2026
User: Yrep
Spectrometer: HR+D1059
Trigger mode: 1
Integration Time (sec): 1.000000E-1
Scans to average: 1
Electric dark correction enabled: true
Nonlinearity correction enabled: false
Boxcar width: 0
XAxis mode: Wavelengths
Number of Pixels in Spectrum: 2048
>>>>>Begin Spectral Data<<<<<
223.165	-4.44
223.4	-4.44
223.635	-4.44
223.869	-22.44
224.104	-23.44
224.338	-16.44
224.573	-16.44
224.808	-19.44
225.042	11.56
225.277	-11.44
225.511	-10.44
225.746	-7.44
225.98	15.56
226.215	5.56
226.449	13.56
226.683	12.56
226.918	28.56
227.152	44.56
227.387	45.56
227.621	31.56
227.856	37.56
228.09	54.56
228.324	51.56
228.559	69.56
228.793	63.56
229.027	62.56
229.262	61.56
229.496	65.56
229.73	69.56
229.964	86.56
230.199	61.56
230.433	75.56
230.667	76.56
230.901	71.56
231.136	75.56
231.37	84.56
231.604	77.56
231.838	81.56
232.072	76.56
232.306	75.56
232.541	91.56
232.775	94.56
233.009	83.56
233.243	69.56
233.477	90.56
233.711	87.56
233.945	91.56
234.179	84.56
234.413	73.56
234.647	91.56
234.881	88.56
235.115	82.56
235.349	78.56
235.583	86.56
235.817	91.56
236.051	94.56
236.285	70.56
236.519	80.56
236.753	86.56
236.987	73.56
237.221	68.56
237.455	82.56
237.689	80.56
237.922	83.56
238.156	84.56
238.39	71.56
238.624	68.56
238.858	79.56
239.091	74.56
239.325	76.56
239.559	74.56
239.793	80.56
240.027	84.56
240.26	67.56
240.494	78.56
240.728	72.56
240.961	70.56
241.195	85.56
241.429	81.56
241.662	86.56
241.896	85.56
242.13	72.56
242.363	76.56
242.597	74.56
242.83	73.56
243.064	80.56
243.298	87.56
243.531	79.56
243.765	74.56
243.998	69.56
244.232	79.56
244.465	79.56
244.699	94.56
244.932	67.56
245.166	67.56
245.399	92.56
245.633	95.56
245.866	79.56
246.099	82.56
246.333	74.56
246.566	71.56
246.8	76.56
247.033	67.56
247.266	69.56
247.5	82.56
247.733	78.56
247.966	75.56
248.2	83.56
248.433	90.56
248.666	64.56
248.899	67.56
249.133	65.56
249.366	87.56
249.599	71.56
249.832	89.56
250.066	76.56
250.299	79.56
250.532	84.56
250.765	79.56
250.998	74.56
251.231	90.56
251.465	88.56
251.698	86.56
251.931	78.56
252.164	80.56
252.397	78.56
252.63	69.56
252.863	68.56
253.096	73.56
253.329	69.56
253.562	82.56
253.795	87.56
254.028	81.56
254.261	75.56
254.494	77.56
254.727	94.56
254.96	79.56
255.193	79.56
255.426	78.56
255.659	72.56
255.892	79.56
256.124	80.56
256.357	79.56
256.59	85.56
256.823	70.56
257.056	66.56
257.289	87.56
257.521	84.56
257.754	94.56
257.987	83.56
258.22	84.56
258.452	93.56
258.685	80.56
258.918	76.56
259.151	83.56
259.383	88.56
259.616	81.56
259.849	81.56
260.081	83.56
260.314	74.56
260.547	83.56
260.779	85.56
261.012	89.56
261.244	83.56
261.477	85.56
261.71	86.56
261.942	89.56
262.175	76.56
262.407	97.56
262.64	89.56
262.872	88.56
263.105	69.56
263.337	99.56
263.57	77.56
263.802	76.56
264.035	86.56
264.267	85.56
264.499	85.56
264.732	97.56
264.964	89.56
265.197	93.56
265.429	94.56
265.661	78.56
265.894	75.56
266.126	77.56
266.358	82.56
266.591	84.56
266.823	88.56
267.055	74.56
267.287	102.56
267.52	85.56
267.752	90.56
267.984	80.56
268.216	79.56
268.448	93.56
268.681	84.56
268.913	84.56
269.145	89.56
269.377	72.56
269.609	69.56
269.841	72.56
270.073	85.56
270.306	79.56
270.538	79.56
270.77	91.56
271.002	86.56
271.234	90.56
271.466	86.56
271.698	89.56
271.93	82.56
272.162	89.56
272.394	77.56
272.626	98.56
272.858	89.56
273.09	87.56
273.322	76.56
273.553	87.56
273.785	84.56
274.017	75.56
274.249	78.56
274.481	86.56
274.713	81.56
274.945	73.56
275.176	88.56
275.408	76.56
275.64	81.56
275.872	97.56
276.104	83.56
276.335	73.56
276.567	76.56
276.799	79.56
277.031	70.56
277.262	84.56
277.494	75.56
277.726	83.56
277.957	83.56
278.189	75.56
278.421	81.56
278.652	81.56
278.884	95.56
279.115	97.56
279.347	90.56
279.579	84.56
279.81	68.56
280.042	92.56
280.273	91.56
280.505	90.56
280.736	92.56
280.968	77.56
281.199	87.56
281.431	72.56
281.662	89.56
281.894	80.56
282.125	79.56
282.356	74.56
282.588	91.56
282.819	73.56
283.051	76.56
283.282	74.56
283.513	89.56
283.745	77.56
283.976	83.56
284.207	83.56
284.439	81.56
284.67	89.56
284.901	84.56
285.132	68.56
285.364	87.56
285.595	83.56
285.826	88.56
286.057	79.56
286.288	94.56
286.52	83.56
286.751	86.56
286.982	79.56
287.213	84.56
287.444	85.56
287.675	73.56
287.906	79.56
288.138	68.56
288.369	94.56
288.6	67.56
288.831	76.56
289.062	107.56
289.293	84.56
289.524	81.56
289.755	84.56
289.986	75.56
290.217	81.56
290.448	98.56
290.679	79.56
290.91	91.56
291.141	71.56
291.371	79.56
291.602	79.56
291.833	86.56
292.064	97.56
292.295	81.56
292.526	86.56
292.757	93.56
292.987	83.56
293.218	97.56
293.449	79.56
293.68	84.56
293.91	80.56
294.141	88.56
294.372	87.56
294.603	82.56
294.833	76.56
295.064	74.56
295.295	78.56
295.525	89.56
295.756	93.56
295.987	85.56
296.217	79.56
296.448	87.56
296.679	86.56
296.909	101.56
297.14	90.56
297.37	85.56
297.601	88.56
297.831	91.56
298.062	81.56
298.292	86.56
298.523	83.56
298.753	86.56
298.984	85.56
299.214	77.56
299.445	87.56
299.675	95.56
299.905	89.56
300.136	79.56
300.366	81.56
300.597	77.56
300.827	99.56
301.057	97.56
301.288	91.56
301.518	91.56
301.748	88.56
301.979	106.56
302.209	96.56
302.439	101.56
302.669	86.56
302.9	80.56
303.13	86.56
303.36	102.56
303.59	83.56
303.82	91.56
304.051	73.56
304.281	79.56
304.511	97.56
304.741	78.56
304.971	90.56
305.201	87.56
305.431	90.56
305.661	94.56
305.891	85.56
306.121	96.56
306.352	79.56
306.582	81.56
306.812	93.56
307.042	88.56
307.272	85.56
307.502	85.56
307.731	94.56
307.961	101.56
308.191	74.56
308.421	74.56
308.651	84.56
308.881	85.56
309.111	102.56
309.341	91.56
309.571	93.56
309.8	99.56
310.03	84.56
310.26	97.56
310.49	91.56
310.72	83.56
310.949	87.56
311.179	83.56
311.409	83.56
311.639	84.56
311.868	89.56
312.098	91.56
312.328	81.56
312.557	81.56
312.787	89.56
313.017	80.56
313.246	78.56
313.476	90.56
313.706	84.56
313.935	85.56
314.165	71.56
314.394	85.56
314.624	76.56
314.853	77.56
315.083	83.56
315.312	81.56
315.542	84.56
315.771	101.56
316.001	87.56
316.23	93.56
316.46	88.56
316.689	87.56
316.919	81.56
317.148	78.56
317.377	85.56
317.607	92.56
317.836	89.56
318.065	85.56
318.295	87.56
318.524	82.56
318.753	90.56
318.983	74.56
319.212	79.56
319.441	94.56
319.67	83.56
319.9	77.56
320.129	86.56
320.358	103.56
320.587	86.56
320.816	67.56
321.046	84.56
321.275	83.56
321.504	88.56
321.733	78.56
321.962	78.56
322.191	80.56
322.42	87.56
322.649	89.56
322.878	86.56
323.108	103.56
323.337	84.56
323.566	105.56
323.795	87.56
324.024	75.56
324.253	80.56
324.482	87.56
324.71	79.56
324.939	79.56
325.168	89.56
325.397	81.56
325.626	93.56
325.855	103.56
326.084	81.56
326.313	83.56
326.542	77.56
326.77	84.56
326.999	79.56
327.228	90.56
327.457	87.56
327.686	98.56
327.914	86.56
328.143	89.56
328.372	79.56
328.6	100.56
328.829	86.56
329.058	88.56
329.287	76.56
329.515	72.56
329.744	78.56
329.972	100.56
330.201	94.56
330.43	101.56
330.658	89.56
330.887	73.56
331.115	87.56
331.344	82.56
331.572	89.56
331.801	83.56
332.03	92.56
332.258	82.56
332.486	88.56
332.715	82.56
332.943	83.56
333.172	92.56
333.4	73.56
333.629	77.56
333.857	77.56
334.085	79.56
334.314	91.56
334.542	86.56
334.771	89.56
334.999	75.56
335.227	94.56
335.455	92.56
335.684	87.56
335.912	79.56
336.14	86.56
336.369	81.56
336.597	87.56
336.825	99.56
337.053	90.56
337.281	77.56
337.51	95.56
337.738	93.56
337.966	97.56
338.194	84.56
338.422	88.56
338.65	76.56
338.878	77.56
339.106	80.56
339.334	89.56
339.562	88.56
339.79	92.56
340.018	101.56
340.246	75.56
340.474	87.56
340.702	85.56
340.93	91.56
341.158	92.56
341.386	93.56
341.614	116.56
341.842	96.56
342.07	85.56
342.298	86.56
342.526	85.56
342.754	91.56
342.981	84.56
343.209	80.56
343.437	81.56
343.665	92.56
343.893	90.56
344.12	90.56
344.348	98.56
344.576	75.56
344.804	72.56
345.031	91.56
345.259	89.56
345.487	100.56
345.714	93.56
345.942	80.56
346.17	93.56
346.397	78.56
346.625	92.56
346.853	88.56
347.08	89.56
347.308	101.56
347.535	88.56
347.763	90.56
347.99	87.56
348.218	79.56
348.445	78.56
348.673	79.56
348.9	91.56
349.128	92.56
349.355	75.56
349.583	76.56
349.81	90.56
350.037	82.56
350.265	86.56
350.492	85.56
350.72	91.56
350.947	76.56
351.174	95.56
351.402	79.56
351.629	75.56
351.856	88.56
352.083	83.56
352.311	89.56
352.538	78.56
352.765	87.56
352.992	107.56
353.22	87.56
353.447	89.56
353.674	88.56
353.901	85.56
354.128	86.56
354.355	82.56
354.583	89.56
354.81	88.56
355.037	93.56
355.264	92.56
355.491	90.56
355.718	83.56
355.945	91.56
356.172	85.56
356.399	85.56
356.626	92.56
356.853	87.56
357.08	84.56
357.307	91.56
357.534	89.56
357.761	89.56
357.988	87.56
358.215	74.56
358.441	87.56
358.668	86.56
358.895	101.56
359.122	83.56
359.349	85.56
359.576	90.56
359.802	85.56
360.029	86.56
360.256	94.56
360.483	83.56
360.709	67.56
360.936	76.56
361.163	94.56
361.39	83.56
361.616	71.56
361.843	89.56
362.07	85.56
362.296	88.56
362.523	80.56
362.749	86.56
362.976	91.56
363.203	98.56
363.429	91.56
363.656	90.56
363.882	88.56
364.109	86.56
364.335	104.56
364.562	110.56
364.788	95.56
365.015	80.56
365.241	89.56
365.468	83.56
365.694	97.56
365.92	79.56
366.147	88.56
366.373	73.56
366.599	83.56
366.826	75.56
367.052	89.56
367.278	85.56
367.505	71.56
367.731	90.56
367.957	80.56
368.184	76.56
368.41	101.56
368.636	77.56
368.862	87.56
369.089	86.56
369.315	76.56
369.541	90.56
369.767	87.56
369.993	83.56
370.219	78.56
370.445	86.56
370.672	86.56
370.898	85.56
371.124	74.56
371.35	75.56
371.576	82.56
371.802	91.56
372.028	84.56
372.254	90.56
372.48	79.56
372.706	97.56
372.932	87.56
373.158	85.56
373.384	88.56
373.61	113.56
373.835	97.56
374.061	94.56
374.287	89.56
374.513	81.56
374.739	85.56
374.965	77.56
375.191	90.56
375.416	93.56
375.642	87.56
375.868	91.56
376.094	84.56
376.319	100.56
376.545	95.56
376.771	79.56
376.997	77.56
377.222	99.56
377.448	86.56
377.674	89.56
377.899	103.56
378.125	102.56
378.35	88.56
378.576	83.56
378.802	94.56
379.027	92.56
379.253	90.56
379.478	91.56
379.704	83.56
379.929	85.56
380.155	88.56
380.38	85.56
380.606	78.56
380.831	87.56
381.057	97.56
381.282	93.56
381.507	74.56
381.733	95.56
381.958	99.56
382.184	89.56
382.409	88.56
382.634	92.56
382.86	82.56
383.085	83.56
383.31	98.56
383.535	89.56
383.761	100.56
383.986	97.56
384.211	94.56
384.436	81.56
384.662	77.56
384.887	92.56
385.112	87.56
385.337	84.56
385.562	99.56
385.787	96.56
386.013	93.56
386.238	89.56
386.463	90.56
386.688	99.56
386.913	83.56
387.138	63.56
387.363	88.56
387.588	90.56
387.813	92.56
388.038	85.56
388.263	78.56
388.488	85.56
388.713	85.56
388.938	89.56
389.163	79.56
389.387	86.56
389.612	85.56
389.837	84.56
390.062	90.56
390.287	82.56
390.512	98.56
390.736	89.56
390.961	87.56
391.186	78.56
391.411	77.56
391.636	83.56
391.86	85.56
392.085	94.56
392.31	85.56
392.534	89.56
392.759	101.56
392.984	107.56
393.208	140.56
393.433	159.56
393.658	140.56
393.882	101.56
394.107	108.56
394.331	90.56
394.556	108.56
394.78	87.56
395.005	85.56
395.229	86.56
395.454	85.56
395.678	89.56
395.903	101.56
396.127	95.56
396.352	119.56
396.576	125.56
396.801	141.56
397.025	148.56
397.249	114.56
397.474	92.56
397.698	88.56
397.922	89.56
398.147	67.56
398.371	89.56
398.595	91.56
398.82	89.56
399.044	99.56
399.268	82.56
399.492	93.56
399.717	81.56
399.941	94.56
400.165	92.56
400.389	88.56
400.613	95.56
400.837	81.56
401.062	77.56
401.286	78.56
401.51	78.56
401.734	88.56
401.958	83.56
402.182	83.56
402.406	73.56
402.63	86.56
402.854	94.56
403.078	85.56
403.302	85.56
403.526	86.56
403.75	97.56
403.974	87.56
404.198	84.56
404.422	101.56
404.645	104.56
404.869	94.56
405.093	93.56
405.317	81.56
405.541	85.56
405.765	74.56
405.988	95.56
406.212	99.56
406.436	97.56
406.66	96.56
406.883	83.56
407.107	89.56
407.331	77.56
407.555	106.56
407.778	85.56
408.002	99.56
408.226	82.56
408.449	92.56
408.673	78.56
408.896	83.56
409.12	83.56
409.344	88.56
409.567	71.56
409.791	64.56
410.014	94.56
410.238	80.56
410.461	76.56
410.685	79.56
410.908	76.56
411.132	87.56
411.355	85.56
411.578	90.56
411.802	81.56
412.025	84.56
412.249	103.56
412.472	86.56
412.695	77.56
412.919	82.56
413.142	78.56
413.365	96.56
413.589	86.56
413.812	62.56
414.035	94.56
414.258	83.56
414.482	92.56
414.705	87.56
414.928	86.56
415.151	83.56
415.374	89.56
415.597	93.56
415.821	93.56
416.044	89.56
416.267	98.56
416.49	72.56
416.713	92.56
416.936	80.56
417.159	90.56
417.382	87.56
417.605	86.56
417.828	86.56
418.051	77.56
418.274	75.56
418.497	90.56
418.72	82.56
418.943	89.56
419.166	87.56
419.389	83.56
419.611	90.56
419.834	90.56
420.057	101.56
420.28	97.56
420.503	87.56
420.726	67.56
420.948	79.56
421.171	89.56
421.394	93.56
421.617	93.56
421.839	86.56
422.062	90.56
422.285	102.56
422.507	146.56
422.73	205.56
422.953	183.56
423.175	110.56
423.398	93.56
423.621	85.56
423.843	93.56
424.066	94.56
424.288	91.56
424.511	80.56
424.733	90.56
424.956	93.56
425.178	78.56
425.401	94.56
425.623	83.56
425.846	91.56
426.068	77.56
426.291	69.56
426.513	83.56
426.735	94.56
426.958	84.56
427.18	105.56
427.402	89.56
427.625	82.56
427.847	92.56
428.069	97.56
428.292	98.56
428.514	103.56
428.736	98.56
428.958	103.56
429.181	104.56
429.403	91.56
429.625	105.56
429.847	95.56
430.069	102.56
430.292	131.56
430.514	110.56
430.736	111.56
430.958	104.56
431.18	91.56
431.402	80.56
431.624	88.56
431.846	95.56
432.068	106.56
432.29	81.56
432.512	94.56
432.734	83.56
432.956	79.56
433.178	77.56
433.4	88.56
433.622	90.56
433.844	92.56
434.066	89.56
434.287	79.56
434.509	84.56
434.731	92.56
434.953	87.56
435.175	75.56
435.397	102.56
435.618	94.56
435.84	86.56
436.062	100.56
436.284	76.56
436.505	100.56
436.727	79.56
436.949	70.56
437.17	74.56
437.392	85.56
437.614	87.56
437.835	86.56
438.057	82.56
438.278	70.56
438.5	97.56
438.721	102.56
438.943	85.56
439.165	83.56
439.386	99.56
439.608	87.56
439.829	95.56
440.05	97.56
440.272	82.56
440.493	97.56
440.715	77.56
440.936	83.56
441.158	82.56
441.379	94.56
441.6	72.56
441.822	82.56
442.043	93.56
442.264	88.56
442.486	84.56
442.707	112.56
442.928	98.56
443.149	86.56
443.371	115.56
443.592	151.56
443.813	121.56
444.034	92.56
444.255	82.56
444.476	86.56
444.698	93.56
444.919	89.56
445.14	178.56
445.361	151.56
445.582	175.56
445.803	149.56
446.024	114.56
446.245	93.56
446.466	89.56
446.687	70.56
446.908	82.56
447.129	94.56
447.35	86.56
447.571	95.56
447.792	82.56
448.013	85.56
448.234	99.56
448.455	86.56
448.675	84.56
448.896	90.56
449.117	79.56
449.338	94.56
449.559	82.56
449.779	88.56
450	83.56
450.221	77.56
450.442	94.56
450.662	78.56
450.883	81.56
451.104	103.56
451.324	95.56
451.545	77.56
451.766	96.56
451.986	76.56
452.207	85.56
452.428	92.56
452.648	90.56
452.869	101.56
453.089	93.56
453.31	81.56
453.53	101.56
453.751	96.56
453.971	79.56
454.192	93.56
454.412	89.56
454.633	85.56
454.853	75.56
455.073	108.56
455.294	95.56
455.514	93.56
455.734	80.56
455.955	81.56
456.175	81.56
456.395	79.56
456.616	77.56
456.836	78.56
457.056	97.56
457.276	92.56
457.497	77.56
457.717	91.56
457.937	103.56
458.157	96.56
458.377	85.56
458.598	89.56
458.818	100.56
459.038	78.56
459.258	92.56
459.478	77.56
459.698	83.56
459.918	79.56
460.138	92.56
460.358	82.56
460.578	92.56
460.798	105.56
461.018	90.56
461.238	89.56
461.458	79.56
461.678	86.56
461.898	82.56
462.118	75.56
462.338	80.56
462.558	83.56
462.777	71.56
462.997	81.56
463.217	80.56
463.437	85.56
463.657	79.56
463.876	90.56
464.096	91.56
464.316	88.56
464.536	91.56
464.755	77.56
464.975	74.56
465.195	71.56
465.414	88.56
465.634	88.56
465.854	91.56
466.073	92.56
466.293	91.56
466.512	87.56
466.732	66.56
466.951	81.56
467.171	101.56
467.391	102.56
467.61	92.56
467.829	80.56
468.049	85.56
468.268	66.56
468.488	78.56
468.707	94.56
468.927	75.56
469.146	83.56
469.365	73.56
469.585	82.56
469.804	87.56
470.023	71.56
470.243	90.56
470.462	87.56
470.681	77.56
470.901	88.56
471.12	69.56
471.339	81.56
471.558	71.56
471.777	86.56
471.997	98.56
472.216	82.56
472.435	83.56
472.654	93.56
472.873	85.56
473.092	83.56
473.311	94.56
473.53	83.56
473.749	93.56
473.968	91.56
474.187	98.56
474.406	73.56
474.625	79.56
474.844	90.56
475.063	83.56
475.282	87.56
475.501	85.56
475.72	92.56
475.939	82.56
476.158	79.56
476.377	82.56
476.596	96.56
476.814	79.56
477.033	87.56
477.252	94.56
477.471	97.56
477.69	86.56
477.908	89.56
478.127	89.56
478.346	84.56
478.564	85.56
478.783	79.56
479.002	72.56
479.22	97.56
479.439	87.56
479.658	74.56
479.876	69.56
480.095	86.56
480.313	91.56
480.532	98.56
480.751	72.56
480.969	78.56
481.188	87.56
481.406	97.56
481.624	91.56
481.843	94.56
482.061	74.56
482.28	65.56
482.498	93.56
482.717	80.56
482.935	85.56
483.153	110.56
483.372	88.56
483.59	86.56
483.808	97.56
484.027	98.56
484.245	99.56
484.463	91.56
484.681	84.56
484.9	90.56
485.118	97.56
485.336	85.56
485.554	88.56
485.772	86.56
485.99	75.56
486.209	92.56
486.427	91.56
486.645	99.56
486.863	88.56
487.081	101.56
487.299	76.56
487.517	98.56
487.735	93.56
487.953	110.56
488.171	94.56
488.389	92.56
488.607	80.56
488.825	82.56
489.043	96.56
489.261	89.56
489.479	89.56
489.696	99.56
489.914	78.56
490.132	94.56
490.35	91.56
490.568	80.56
490.786	89.56
491.003	75.56
491.221	86.56
491.439	99.56
491.657	86.56
491.874	91.56
492.092	91.56
492.31	90.56
492.527	89.56
492.745	92.56
492.963	79.56
493.18	78.56
493.398	103.56
493.615	78.56
493.833	88.56
494.05	84.56
494.268	79.56
494.485	83.56
494.703	98.56
494.92	87.56
495.138	94.56
495.355	94.56
495.573	100.56
495.79	97.56
496.008	99.56
496.225	90.56
496.442	91.56
496.66	82.56
496.877	100.56
497.094	95.56
497.312	102.56
497.529	89.56
497.746	90.56
497.963	83.56
498.181	97.56
498.398	99.56
498.615	99.56
498.832	92.56
499.049	95.56
499.267	106.56
499.484	91.56
499.701	87.56
499.918	90.56
500.135	93.56
500.352	81.56
500.569	74.56
500.786	91.56
501.003	101.56
501.22	87.56
501.437	78.56
501.654	99.56
501.871	86.56
502.088	89.56
502.305	93.56
502.522	107.56
502.739	87.56
502.956	91.56
503.172	87.56
503.389	91.56
503.606	88.56
503.823	86.56
504.04	106.56
504.256	90.56
504.473	90.56
504.69	85.56
504.907	96.56
505.123	78.56
505.34	87.56
505.557	89.56
505.773	87.56
505.99	94.56
506.207	79.56
506.423	97.56
506.64	88.56
506.856	72.56
507.073	90.56
507.289	93.56
507.506	83.56
507.722	82.56
507.939	87.56
508.155	70.56
508.372	93.56
508.588	98.56
508.805	81.56
509.021	78.56
509.238	79.56
509.454	89.56
509.67	89.56
509.887	82.56
510.103	78.56
510.319	94.56
510.536	86.56
510.752	88.56
510.968	86.56
511.184	94.56
511.401	93.56
511.617	94.56
511.833	79.56
512.049	98.56
512.265	84.56
512.481	86.56
512.698	85.56
512.914	90.56
513.13	93.56
513.346	92.56
513.562	65.56
513.778	77.56
513.994	88.56
514.21	92.56
514.426	81.56
514.642	89.56
514.858	88.56
515.074	92.56
515.29	87.56
515.506	87.56
515.721	87.56
515.937	102.56
516.153	80.56
516.369	93.56
516.585	72.56
516.801	83.56
517.016	94.56
517.232	80.56
517.448	98.56
517.664	90.56
517.879	81.56
518.095	94.56
518.311	94.56
518.527	103.56
518.742	87.56
518.958	101.56
