Data from 237_1_HRD10591_00020.txt Node
Date: Mon Jan 19 14:10:39 EST 2026
User: Yrep
Spectrometer: HR+D1059
Trigger mode: 1
Integration Time (sec): 1.000000E-1
Scans to average: 1
Electric dark correction enabled: true
Nonlinearity correction enabled: false
Boxcar width: 0
XAxis mode: Wavelengths
Number of Pixels in Spectrum: 2048
>>>>>Begin Spectral Data<<<<<
223.165	-39.44
223.4	-39.44
223.635	-39.44
223.869	-29.44
224.104	-18.44
224.338	-3.44
224.573	-15.44
224.808	-25.44
225.042	-23.44
225.277	5.56
225.511	0.56
225.746	9.56
225.98	18.56
226.215	18.56
226.449	13.56
226.683	18.56
226.918	38.56
227.152	31.56
227.387	35.56
227.621	30.56
227.856	41.56
228.09	48.56
228.324	41.56
228.559	51.56
228.793	68.56
229.027	67.56
229.262	62.56
229.496	64.56
229.73	59.56
229.964	67.56
230.199	58.56
230.433	75.56
230.667	65.56
230.901	80.56
231.136	77.56
231.37	76.56
231.604	85.56
231.838	77.56
232.072	87.56
232.306	82.56
232.541	78.56
232.775	89.56
233.009	76.56
233.243	86.56
233.477	78.56
233.711	64.56
233.945	67.56
234.179	83.56
234.413	74.56
234.647	75.56
234.881	73.56
235.115	69.56
235.349	74.56
235.583	72.56
235.817	89.56
236.051	62.56
236.285	84.56
236.519	79.56
236.753	72.56
236.987	81.56
237.221	89.56
237.455	70.56
237.689	68.56
237.922	71.56
238.156	67.56
238.39	57.56
238.624	74.56
238.858	80.56
239.091	78.56
239.325	58.56
239.559	70.56
239.793	70.56
240.027	72.56
240.26	71.56
240.494	77.56
240.728	79.56
240.961	83.56
241.195	81.56
241.429	84.56
241.662	80.56
241.896	77.56
242.13	64.56
242.363	76.56
242.597	77.56
242.83	66.56
243.064	68.56
243.298	75.56
243.531	82.56
243.765	73.56
243.998	88.56
244.232	77.56
244.465	77.56
244.699	82.56
244.932	58.56
245.166	76.56
245.399	76.56
245.633	56.56
245.866	84.56
246.099	58.56
246.333	84.56
246.566	78.56
246.8	73.56
247.033	85.56
247.266	79.56
247.5	74.56
247.733	72.56
247.966	74.56
248.2	86.56
248.433	80.56
248.666	66.56
248.899	84.56
249.133	88.56
249.366	74.56
249.599	85.56
249.832	78.56
250.066	74.56
250.299	75.56
250.532	82.56
250.765	86.56
250.998	88.56
251.231	69.56
251.465	82.56
251.698	66.56
251.931	83.56
252.164	78.56
252.397	68.56
252.63	75.56
252.863	69.56
253.096	63.56
253.329	82.56
253.562	74.56
253.795	74.56
254.028	71.56
254.261	95.56
254.494	70.56
254.727	77.56
254.96	85.56
255.193	90.56
255.426	84.56
255.659	84.56
255.892	78.56
256.124	77.56
256.357	92.56
256.59	90.56
256.823	76.56
257.056	79.56
257.289	70.56
257.521	80.56
257.754	80.56
257.987	88.56
258.22	79.56
258.452	90.56
258.685	78.56
258.918	77.56
259.151	83.56
259.383	79.56
259.616	76.56
259.849	92.56
260.081	73.56
260.314	70.56
260.547	78.56
260.779	70.56
261.012	84.56
261.244	69.56
261.477	73.56
261.71	70.56
261.942	68.56
262.175	88.56
262.407	75.56
262.64	74.56
262.872	72.56
263.105	80.56
263.337	76.56
263.57	85.56
263.802	70.56
264.035	67.56
264.267	86.56
264.499	88.56
264.732	84.56
264.964	87.56
265.197	74.56
265.429	95.56
265.661	74.56
265.894	74.56
266.126	86.56
266.358	76.56
266.591	72.56
266.823	72.56
267.055	78.56
267.287	82.56
267.52	82.56
267.752	95.56
267.984	73.56
268.216	76.56
268.448	76.56
268.681	93.56
268.913	96.56
269.145	74.56
269.377	80.56
269.609	76.56
269.841	85.56
270.073	89.56
270.306	80.56
270.538	74.56
270.77	76.56
271.002	75.56
271.234	77.56
271.466	89.56
271.698	86.56
271.93	84.56
272.162	85.56
272.394	95.56
272.626	84.56
272.858	92.56
273.09	85.56
273.322	89.56
273.553	81.56
273.785	81.56
274.017	83.56
274.249	79.56
274.481	80.56
274.713	74.56
274.945	83.56
275.176	84.56
275.408	79.56
275.64	75.56
275.872	87.56
276.104	73.56
276.335	81.56
276.567	76.56
276.799	83.56
277.031	93.56
277.262	65.56
277.494	86.56
277.726	78.56
277.957	89.56
278.189	98.56
278.421	69.56
278.652	101.56
278.884	88.56
279.115	85.56
279.347	91.56
279.579	88.56
279.81	78.56
280.042	78.56
280.273	82.56
280.505	83.56
280.736	88.56
280.968	76.56
281.199	82.56
281.431	71.56
281.662	68.56
281.894	82.56
282.125	89.56
282.356	89.56
282.588	79.56
282.819	88.56
283.051	92.56
283.282	87.56
283.513	80.56
283.745	86.56
283.976	92.56
284.207	85.56
284.439	86.56
284.67	77.56
284.901	95.56
285.132	80.56
285.364	73.56
285.595	84.56
285.826	88.56
286.057	66.56
286.288	78.56
286.52	85.56
286.751	74.56
286.982	82.56
287.213	97.56
287.444	100.56
287.675	83.56
287.906	82.56
288.138	78.56
288.369	100.56
288.6	72.56
288.831	89.56
289.062	100.56
289.293	86.56
289.524	84.56
289.755	61.56
289.986	82.56
290.217	84.56
290.448	72.56
290.679	80.56
290.91	92.56
291.141	86.56
291.371	73.56
291.602	82.56
291.833	78.56
292.064	93.56
292.295	83.56
292.526	81.56
292.757	82.56
292.987	89.56
293.218	77.56
293.449	87.56
293.68	73.56
293.91	76.56
294.141	88.56
294.372	76.56
294.603	69.56
294.833	73.56
295.064	81.56
295.295	92.56
295.525	66.56
295.756	90.56
295.987	86.56
296.217	82.56
296.448	71.56
296.679	78.56
296.909	70.56
297.14	70.56
297.37	79.56
297.601	76.56
297.831	88.56
298.062	92.56
298.292	93.56
298.523	90.56
298.753	82.56
298.984	97.56
299.214	81.56
299.445	70.56
299.675	81.56
299.905	83.56
300.136	72.56
300.366	102.56
300.597	85.56
300.827	87.56
301.057	78.56
301.288	87.56
301.518	82.56
301.748	93.56
301.979	86.56
302.209	80.56
302.439	82.56
302.669	81.56
302.9	96.56
303.13	83.56
303.36	82.56
303.59	72.56
303.82	92.56
304.051	96.56
304.281	83.56
304.511	86.56
304.741	84.56
304.971	88.56
305.201	85.56
305.431	83.56
305.661	78.56
305.891	89.56
306.121	92.56
306.352	87.56
306.582	72.56
306.812	83.56
307.042	86.56
307.272	87.56
307.502	92.56
307.731	73.56
307.961	80.56
308.191	87.56
308.421	84.56
308.651	97.56
308.881	79.56
309.111	72.56
309.341	80.56
309.571	86.56
309.8	84.56
310.03	84.56
310.26	89.56
310.49	94.56
310.72	79.56
310.949	84.56
311.179	80.56
311.409	97.56
311.639	74.56
311.868	80.56
312.098	88.56
312.328	75.56
312.557	82.56
312.787	89.56
313.017	81.56
313.246	83.56
313.476	77.56
313.706	88.56
313.935	77.56
314.165	72.56
314.394	82.56
314.624	94.56
314.853	70.56
315.083	82.56
315.312	80.56
315.542	69.56
315.771	73.56
316.001	75.56
316.23	71.56
316.46	70.56
316.689	81.56
316.919	92.56
317.148	78.56
317.377	75.56
317.607	89.56
317.836	84.56
318.065	82.56
318.295	87.56
318.524	79.56
318.753	72.56
318.983	72.56
319.212	78.56
319.441	74.56
319.67	84.56
319.9	64.56
320.129	82.56
320.358	70.56
320.587	82.56
320.816	71.56
321.046	80.56
321.275	90.56
321.504	97.56
321.733	84.56
321.962	86.56
322.191	84.56
322.42	93.56
322.649	70.56
322.878	78.56
323.108	72.56
323.337	77.56
323.566	78.56
323.795	91.56
324.024	91.56
324.253	90.56
324.482	75.56
324.71	77.56
324.939	89.56
325.168	92.56
325.397	95.56
325.626	89.56
325.855	78.56
326.084	93.56
326.313	86.56
326.542	69.56
326.77	86.56
326.999	83.56
327.228	83.56
327.457	72.56
327.686	70.56
327.914	79.56
328.143	92.56
328.372	81.56
328.6	78.56
328.829	65.56
329.058	69.56
329.287	92.56
329.515	84.56
329.744	74.56
329.972	79.56
330.201	70.56
330.43	87.56
330.658	83.56
330.887	88.56
331.115	88.56
331.344	78.56
331.572	70.56
331.801	78.56
332.03	79.56
332.258	84.56
332.486	71.56
332.715	89.56
332.943	84.56
333.172	86.56
333.4	77.56
333.629	76.56
333.857	82.56
334.085	84.56
334.314	76.56
334.542	76.56
334.771	62.56
334.999	92.56
335.227	67.56
335.455	89.56
335.684	86.56
335.912	85.56
336.14	90.56
336.369	71.56
336.597	84.56
336.825	71.56
337.053	75.56
337.281	73.56
337.51	78.56
337.738	84.56
337.966	77.56
338.194	77.56
338.422	88.56
338.65	76.56
338.878	81.56
339.106	77.56
339.334	96.56
339.562	74.56
339.79	81.56
340.018	78.56
340.246	79.56
340.474	78.56
340.702	73.56
340.93	68.56
341.158	77.56
341.386	76.56
341.614	89.56
341.842	84.56
342.07	79.56
342.298	72.56
342.526	80.56
342.754	80.56
342.981	86.56
343.209	93.56
343.437	77.56
343.665	77.56
343.893	90.56
344.12	78.56
344.348	88.56
344.576	82.56
344.804	93.56
345.031	95.56
345.259	77.56
345.487	83.56
345.714	77.56
345.942	73.56
346.17	98.56
346.397	88.56
346.625	80.56
346.853	82.56
347.08	79.56
347.308	81.56
347.535	59.56
347.763	89.56
347.99	80.56
348.218	86.56
348.445	79.56
348.673	88.56
348.9	83.56
349.128	84.56
349.355	97.56
349.583	60.56
349.81	77.56
350.037	74.56
350.265	82.56
350.492	82.56
350.72	65.56
350.947	78.56
351.174	88.56
351.402	76.56
351.629	76.56
351.856	80.56
352.083	84.56
352.311	74.56
352.538	82.56
352.765	93.56
352.992	85.56
353.22	99.56
353.447	81.56
353.674	67.56
353.901	87.56
354.128	85.56
354.355	76.56
354.583	81.56
354.81	85.56
355.037	93.56
355.264	70.56
355.491	63.56
355.718	76.56
355.945	80.56
356.172	90.56
356.399	74.56
356.626	89.56
356.853	84.56
357.08	78.56
357.307	83.56
357.534	80.56
357.761	85.56
357.988	72.56
358.215	73.56
358.441	75.56
358.668	68.56
358.895	78.56
359.122	86.56
359.349	68.56
359.576	72.56
359.802	53.56
360.029	84.56
360.256	74.56
360.483	86.56
360.709	72.56
360.936	80.56
361.163	80.56
361.39	87.56
361.616	79.56
361.843	68.56
362.07	85.56
362.296	78.56
362.523	78.56
362.749	71.56
362.976	84.56
363.203	83.56
363.429	75.56
363.656	88.56
363.882	84.56
364.109	82.56
364.335	88.56
364.562	84.56
364.788	95.56
365.015	88.56
365.241	76.56
365.468	92.56
365.694	81.56
365.92	89.56
366.147	82.56
366.373	78.56
366.599	76.56
366.826	80.56
367.052	86.56
367.278	66.56
367.505	79.56
367.731	80.56
367.957	86.56
368.184	81.56
368.41	70.56
368.636	78.56
368.862	87.56
369.089	78.56
369.315	89.56
369.541	84.56
369.767	71.56
369.993	81.56
370.219	68.56
370.445	80.56
370.672	66.56
370.898	85.56
371.124	86.56
371.35	80.56
371.576	91.56
371.802	78.56
372.028	90.56
372.254	91.56
372.48	85.56
372.706	85.56
372.932	72.56
373.158	85.56
373.384	80.56
373.61	88.56
373.835	86.56
374.061	85.56
374.287	65.56
374.513	81.56
374.739	80.56
374.965	82.56
375.191	85.56
375.416	84.56
375.642	88.56
375.868	93.56
376.094	94.56
376.319	77.56
376.545	76.56
376.771	90.56
376.997	75.56
377.222	78.56
377.448	77.56
377.674	74.56
377.899	81.56
378.125	83.56
378.35	84.56
378.576	78.56
378.802	70.56
379.027	79.56
379.253	84.56
379.478	74.56
379.704	98.56
379.929	74.56
380.155	84.56
380.38	77.56
380.606	80.56
380.831	86.56
381.057	87.56
381.282	73.56
381.507	84.56
381.733	88.56
381.958	81.56
382.184	76.56
382.409	86.56
382.634	82.56
382.86	84.56
383.085	89.56
383.31	84.56
383.535	87.56
383.761	90.56
383.986	80.56
384.211	78.56
384.436	75.56
384.662	88.56
384.887	78.56
385.112	87.56
385.337	85.56
385.562	84.56
385.787	84.56
386.013	83.56
386.238	89.56
386.463	85.56
386.688	83.56
386.913	74.56
387.138	73.56
387.363	90.56
387.588	88.56
387.813	81.56
388.038	82.56
388.263	77.56
388.488	83.56
388.713	73.56
388.938	80.56
389.163	96.56
389.387	75.56
389.612	77.56
389.837	85.56
390.062	75.56
390.287	78.56
390.512	90.56
390.736	69.56
390.961	76.56
391.186	81.56
391.411	74.56
391.636	87.56
391.86	90.56
392.085	89.56
392.31	77.56
392.534	93.56
392.759	83.56
392.984	98.56
393.208	79.56
393.433	132.56
393.658	128.56
393.882	81.56
394.107	88.56
394.331	88.56
394.556	79.56
394.78	70.56
395.005	87.56
395.229	74.56
395.454	80.56
395.678	90.56
395.903	73.56
396.127	82.56
396.352	80.56
396.576	98.56
396.801	121.56
397.025	123.56
397.249	80.56
397.474	86.56
397.698	75.56
397.922	94.56
398.147	75.56
398.371	74.56
398.595	66.56
398.82	80.56
399.044	87.56
399.268	86.56
399.492	91.56
399.717	86.56
399.941	82.56
400.165	78.56
400.389	80.56
400.613	74.56
400.837	82.56
401.062	90.56
401.286	75.56
401.51	79.56
401.734	93.56
401.958	85.56
402.182	77.56
402.406	75.56
402.63	72.56
402.854	82.56
403.078	79.56
403.302	66.56
403.526	86.56
403.75	77.56
403.974	94.56
404.198	69.56
404.422	94.56
404.645	68.56
404.869	71.56
405.093	83.56
405.317	68.56
405.541	78.56
405.765	80.56
405.988	84.56
406.212	94.56
406.436	85.56
406.66	98.56
406.883	78.56
407.107	72.56
407.331	74.56
407.555	82.56
407.778	92.56
408.002	82.56
408.226	77.56
408.449	76.56
408.673	80.56
408.896	74.56
409.12	81.56
409.344	80.56
409.567	92.56
409.791	70.56
410.014	70.56
410.238	74.56
410.461	88.56
410.685	81.56
410.908	87.56
411.132	87.56
411.355	75.56
411.578	85.56
411.802	94.56
412.025	74.56
412.249	93.56
412.472	82.56
412.695	84.56
412.919	70.56
413.142	72.56
413.365	69.56
413.589	81.56
413.812	84.56
414.035	83.56
414.258	94.56
414.482	80.56
414.705	80.56
414.928	91.56
415.151	76.56
415.374	78.56
415.597	84.56
415.821	74.56
416.044	88.56
416.267	92.56
416.49	91.56
416.713	82.56
416.936	89.56
417.159	71.56
417.382	86.56
417.605	94.56
417.828	71.56
418.051	73.56
418.274	80.56
418.497	86.56
418.72	69.56
418.943	71.56
419.166	87.56
419.389	83.56
419.611	79.56
419.834	85.56
420.057	90.56
420.28	73.56
420.503	84.56
420.726	83.56
420.948	84.56
421.171	74.56
421.394	88.56
421.617	89.56
421.839	75.56
422.062	92.56
422.285	110.56
422.507	126.56
422.73	154.56
422.953	161.56
423.175	101.56
423.398	101.56
423.621	70.56
423.843	80.56
424.066	80.56
424.288	81.56
424.511	96.56
424.733	92.56
424.956	77.56
425.178	90.56
425.401	78.56
425.623	74.56
425.846	76.56
426.068	85.56
426.291	72.56
426.513	80.56
426.735	75.56
426.958	82.56
427.18	74.56
427.402	75.56
427.625	83.56
427.847	86.56
428.069	85.56
428.292	88.56
428.514	85.56
428.736	89.56
428.958	87.56
429.181	87.56
429.403	83.56
429.625	89.56
429.847	95.56
430.069	89.56
430.292	110.56
430.514	100.56
430.736	89.56
430.958	93.56
431.18	85.56
431.402	73.56
431.624	84.56
431.846	71.56
432.068	97.56
432.29	71.56
432.512	86.56
432.734	75.56
432.956	74.56
433.178	82.56
433.4	79.56
433.622	85.56
433.844	90.56
434.066	84.56
434.287	83.56
434.509	74.56
434.731	88.56
434.953	101.56
435.175	86.56
435.397	83.56
435.618	87.56
435.84	82.56
436.062	73.56
436.284	81.56
436.505	79.56
436.727	65.56
436.949	80.56
437.17	91.56
437.392	80.56
437.614	76.56
437.835	81.56
438.057	88.56
438.278	81.56
438.5	66.56
438.721	73.56
438.943	80.56
439.165	84.56
439.386	78.56
439.608	85.56
439.829	79.56
440.05	88.56
440.272	77.56
440.493	73.56
440.715	98.56
440.936	74.56
441.158	74.56
441.379	87.56
441.6	81.56
441.822	86.56
442.043	90.56
442.264	87.56
442.486	79.56
442.707	105.56
442.928	83.56
443.149	94.56
443.371	98.56
443.592	117.56
443.813	102.56
444.034	75.56
444.255	84.56
444.476	73.56
444.698	80.56
444.919	85.56
445.14	144.56
445.361	131.56
445.582	116.56
445.803	122.56
446.024	110.56
446.245	90.56
446.466	70.56
446.687	65.56
446.908	79.56
447.129	93.56
447.35	82.56
447.571	88.56
447.792	74.56
448.013	80.56
448.234	74.56
448.455	97.56
448.675	89.56
448.896	78.56
449.117	69.56
449.338	95.56
449.559	71.56
449.779	86.56
450	88.56
450.221	82.56
450.442	77.56
450.662	92.56
450.883	84.56
451.104	86.56
451.324	75.56
451.545	76.56
451.766	62.56
451.986	68.56
452.207	72.56
452.428	80.56
452.648	79.56
452.869	95.56
453.089	71.56
453.31	81.56
453.53	85.56
453.751	69.56
453.971	92.56
454.192	92.56
454.412	79.56
454.633	88.56
454.853	89.56
455.073	69.56
455.294	78.56
455.514	95.56
455.734	85.56
455.955	80.56
456.175	56.56
456.395	72.56
456.616	70.56
456.836	77.56
457.056	77.56
457.276	85.56
457.497	81.56
457.717	77.56
457.937	99.56
458.157	102.56
458.377	84.56
458.598	73.56
458.818	92.56
459.038	84.56
459.258	68.56
459.478	86.56
459.698	83.56
459.918	81.56
460.138	84.56
460.358	79.56
460.578	82.56
460.798	83.56
461.018	83.56
461.238	90.56
461.458	85.56
461.678	84.56
461.898	80.56
462.118	77.56
462.338	73.56
462.558	86.56
462.777	78.56
462.997	80.56
463.217	70.56
463.437	58.56
463.657	97.56
463.876	70.56
464.096	68.56
464.316	85.56
464.536	72.56
464.755	89.56
464.975	86.56
465.195	78.56
465.414	79.56
465.634	67.56
465.854	77.56
466.073	81.56
466.293	80.56
466.512	85.56
466.732	94.56
466.951	79.56
467.171	87.56
467.391	80.56
467.61	78.56
467.829	81.56
468.049	56.56
468.268	73.56
468.488	75.56
468.707	53.56
468.927	87.56
469.146	75.56
469.365	68.56
469.585	84.56
469.804	93.56
470.023	87.56
470.243	82.56
470.462	81.56
470.681	78.56
470.901	91.56
471.12	71.56
471.339	77.56
471.558	76.56
471.777	70.56
471.997	90.56
472.216	82.56
472.435	88.56
472.654	82.56
472.873	90.56
473.092	81.56
473.311	78.56
473.53	74.56
473.749	80.56
473.968	81.56
474.187	69.56
474.406	76.56
474.625	76.56
474.844	87.56
475.063	66.56
475.282	78.56
475.501	87.56
475.72	95.56
475.939	80.56
476.158	74.56
476.377	74.56
476.596	83.56
476.814	81.56
477.033	96.56
477.252	74.56
477.471	78.56
477.69	89.56
477.908	62.56
478.127	74.56
478.346	80.56
478.564	77.56
478.783	80.56
479.002	80.56
479.22	58.56
479.439	78.56
479.658	86.56
479.876	79.56
480.095	69.56
480.313	83.56
480.532	86.56
480.751	93.56
480.969	85.56
481.188	81.56
481.406	80.56
481.624	84.56
481.843	68.56
482.061	74.56
482.28	92.56
482.498	74.56
482.717	87.56
482.935	76.56
483.153	74.56
483.372	78.56
483.59	76.56
483.808	80.56
484.027	80.56
484.245	82.56
484.463	65.56
484.681	85.56
484.9	86.56
485.118	74.56
485.336	81.56
485.554	75.56
485.772	89.56
485.99	99.56
486.209	82.56
486.427	82.56
486.645	91.56
486.863	82.56
487.081	91.56
487.299	92.56
487.517	82.56
487.735	70.56
487.953	101.56
488.171	101.56
488.389	82.56
488.607	80.56
488.825	87.56
489.043	80.56
489.261	96.56
489.479	76.56
489.696	100.56
489.914	71.56
490.132	80.56
490.35	84.56
490.568	99.56
490.786	97.56
491.003	78.56
491.221	80.56
491.439	69.56
491.657	78.56
491.874	93.56
492.092	82.56
492.31	92.56
492.527	90.56
492.745	95.56
492.963	95.56
493.18	94.56
493.398	78.56
493.615	90.56
493.833	87.56
494.05	93.56
494.268	96.56
494.485	80.56
494.703	76.56
494.92	81.56
495.138	72.56
495.355	90.56
495.573	76.56
495.79	80.56
496.008	82.56
496.225	88.56
496.442	76.56
496.66	88.56
496.877	76.56
497.094	81.56
497.312	73.56
497.529	69.56
497.746	89.56
497.963	76.56
498.181	75.56
498.398	75.56
498.615	84.56
498.832	87.56
499.049	76.56
499.267	95.56
499.484	80.56
499.701	87.56
499.918	94.56
500.135	93.56
500.352	78.56
500.569	89.56
500.786	93.56
501.003	101.56
501.22	86.56
501.437	88.56
501.654	89.56
501.871	86.56
502.088	84.56
502.305	77.56
502.522	77.56
502.739	71.56
502.956	88.56
503.172	74.56
503.389	86.56
503.606	79.56
503.823	84.56
504.04	90.56
504.256	87.56
504.473	83.56
504.69	88.56
504.907	81.56
505.123	90.56
505.34	91.56
505.557	64.56
505.773	73.56
505.99	96.56
506.207	79.56
506.423	85.56
506.64	81.56
506.856	74.56
507.073	87.56
507.289	80.56
507.506	81.56
507.722	72.56
507.939	64.56
508.155	80.56
508.372	82.56
508.588	77.56
508.805	80.56
509.021	76.56
509.238	88.56
509.454	95.56
509.67	79.56
509.887	76.56
510.103	88.56
510.319	97.56
510.536	76.56
510.752	80.56
510.968	88.56
511.184	88.56
511.401	87.56
511.617	79.56
511.833	88.56
512.049	86.56
512.265	80.56
512.481	87.56
512.698	88.56
512.914	74.56
513.13	78.56
513.346	78.56
513.562	73.56
513.778	91.56
513.994	82.56
514.21	80.56
514.426	84.56
514.642	82.56
514.858	83.56
515.074	77.56
515.29	80.56
515.506	67.56
515.721	89.56
515.937	85.56
516.153	92.56
516.369	82.56
516.585	93.56
516.801	85.56
517.016	75.56
517.232	78.56
517.448	89.56
517.664	85.56
517.879	87.56
518.095	86.56
518.311	88.56
518.527	81.56
518.742	86.56
518.958	101.56
519.173	92.56
519.389	77.56
519.605	79.56
519.82	74.56
