Data from 237_1_HRD10591_00005.txt Node
Date: Mon Jan 19 14:10:32 EST 2026
User: Yrep
Spectrometer: HR+D1059
Trigger mode: 1
Integration Time (sec): 1.000000E-1
Scans to average: 1
Electric dark correction enabled: true
Nonlinearity correction enabled: false
Boxcar width: 0
XAxis mode: Wavelengths
Number of Pixels in Spectrum: 2048
>>>>>Begin Spectral Data<<<<<
223.165	-21.69
223.4	-21.69
223.635	-21.69
223.869	-31.69
224.104	-20.69
224.338	-5.69
224.573	-23.69
224.808	-20.69
225.042	-2.69
225.277	-1.69
225.511	14.31
225.746	5.31
225.98	4.31
226.215	16.31
226.449	4.31
226.683	11.31
226.918	32.31
227.152	40.31
227.387	28.31
227.621	40.31
227.856	48.31
228.09	35.31
228.324	47.31
228.559	60.31
228.793	59.31
229.027	50.31
229.262	66.31
229.496	64.31
229.73	81.31
229.964	84.31
230.199	72.31
230.433	69.31
230.667	91.31
230.901	78.31
231.136	92.31
231.37	74.31
231.604	86.31
231.838	105.31
232.072	78.31
232.306	79.31
232.541	77.31
232.775	79.31
233.009	84.31
233.243	90.31
233.477	82.31
233.711	81.31
233.945	67.31
234.179	74.31
234.413	92.31
234.647	82.31
234.881	68.31
235.115	80.31
235.349	91.31
235.583	85.31
235.817	72.31
236.051	90.31
236.285	81.31
236.519	71.31
236.753	86.31
236.987	78.31
237.221	80.31
237.455	90.31
237.689	86.31
237.922	78.31
238.156	81.31
238.39	76.31
238.624	80.31
238.858	73.31
239.091	86.31
239.325	66.31
239.559	69.31
239.793	60.31
240.027	77.31
240.26	78.31
240.494	93.31
240.728	78.31
240.961	74.31
241.195	71.31
241.429	74.31
241.662	71.31
241.896	70.31
242.13	93.31
242.363	78.31
242.597	84.31
242.83	80.31
243.064	70.31
243.298	77.31
243.531	68.31
243.765	83.31
243.998	74.31
244.232	82.31
244.465	77.31
244.699	86.31
244.932	78.31
245.166	66.31
245.399	83.31
245.633	85.31
245.866	83.31
246.099	76.31
246.333	88.31
246.566	86.31
246.8	81.31
247.033	74.31
247.266	81.31
247.5	67.31
247.733	70.31
247.966	73.31
248.2	81.31
248.433	94.31
248.666	86.31
248.899	82.31
249.133	81.31
249.366	78.31
249.599	70.31
249.832	77.31
250.066	97.31
250.299	80.31
250.532	79.31
250.765	73.31
250.998	71.31
251.231	79.31
251.465	84.31
251.698	71.31
251.931	83.31
252.164	76.31
252.397	77.31
252.63	60.31
252.863	90.31
253.096	87.31
253.329	92.31
253.562	97.31
253.795	72.31
254.028	82.31
254.261	91.31
254.494	77.31
254.727	91.31
254.96	97.31
255.193	76.31
255.426	80.31
255.659	79.31
255.892	78.31
256.124	82.31
256.357	86.31
256.59	90.31
256.823	85.31
257.056	79.31
257.289	68.31
257.521	93.31
257.754	90.31
257.987	72.31
258.22	81.31
258.452	91.31
258.685	77.31
258.918	76.31
259.151	53.31
259.383	73.31
259.616	84.31
259.849	81.31
260.081	79.31
260.314	87.31
260.547	67.31
260.779	74.31
261.012	96.31
261.244	81.31
261.477	91.31
261.71	93.31
261.942	82.31
262.175	81.31
262.407	75.31
262.64	74.31
262.872	84.31
263.105	91.31
263.337	97.31
263.57	82.31
263.802	96.31
264.035	83.31
264.267	76.31
264.499	80.31
264.732	86.31
264.964	88.31
265.197	100.31
265.429	80.31
265.661	75.31
265.894	86.31
266.126	92.31
266.358	76.31
266.591	101.31
266.823	94.31
267.055	72.31
267.287	83.31
267.52	88.31
267.752	93.31
267.984	94.31
268.216	100.31
268.448	86.31
268.681	86.31
268.913	91.31
269.145	112.31
269.377	98.31
269.609	74.31
269.841	84.31
270.073	77.31
270.306	81.31
270.538	76.31
270.77	100.31
271.002	93.31
271.234	86.31
271.466	84.31
271.698	73.31
271.93	72.31
272.162	76.31
272.394	90.31
272.626	81.31
272.858	85.31
273.09	86.31
273.322	93.31
273.553	92.31
273.785	86.31
274.017	76.31
274.249	74.31
274.481	76.31
274.713	77.31
274.945	78.31
275.176	69.31
275.408	89.31
275.64	86.31
275.872	95.31
276.104	85.31
276.335	82.31
276.567	72.31
276.799	82.31
277.031	81.31
277.262	79.31
277.494	85.31
277.726	81.31
277.957	89.31
278.189	93.31
278.421	86.31
278.652	77.31
278.884	93.31
279.115	91.31
279.347	91.31
279.579	83.31
279.81	79.31
280.042	100.31
280.273	90.31
280.505	102.31
280.736	74.31
280.968	83.31
281.199	71.31
281.431	85.31
281.662	98.31
281.894	89.31
282.125	95.31
282.356	75.31
282.588	80.31
282.819	86.31
283.051	74.31
283.282	94.31
283.513	91.31
283.745	90.31
283.976	73.31
284.207	90.31
284.439	90.31
284.67	84.31
284.901	70.31
285.132	95.31
285.364	102.31
285.595	82.31
285.826	85.31
286.057	103.31
286.288	85.31
286.52	92.31
286.751	86.31
286.982	85.31
287.213	78.31
287.444	92.31
287.675	83.31
287.906	89.31
288.138	89.31
288.369	77.31
288.6	98.31
288.831	76.31
289.062	86.31
289.293	92.31
289.524	87.31
289.755	76.31
289.986	97.31
290.217	100.31
290.448	89.31
290.679	77.31
290.91	94.31
291.141	90.31
291.371	97.31
291.602	80.31
291.833	75.31
292.064	94.31
292.295	91.31
292.526	87.31
292.757	93.31
292.987	90.31
293.218	78.31
293.449	97.31
293.68	85.31
293.91	95.31
294.141	96.31
294.372	101.31
294.603	88.31
294.833	84.31
295.064	82.31
295.295	72.31
295.525	79.31
295.756	104.31
295.987	100.31
296.217	82.31
296.448	87.31
296.679	76.31
296.909	84.31
297.14	94.31
297.37	96.31
297.601	90.31
297.831	87.31
298.062	98.31
298.292	77.31
298.523	92.31
298.753	76.31
298.984	83.31
299.214	104.31
299.445	98.31
299.675	82.31
299.905	82.31
300.136	89.31
300.366	91.31
300.597	101.31
300.827	98.31
301.057	94.31
301.288	96.31
301.518	94.31
301.748	96.31
301.979	101.31
302.209	92.31
302.439	88.31
302.669	85.31
302.9	86.31
303.13	91.31
303.36	80.31
303.59	87.31
303.82	84.31
304.051	102.31
304.281	97.31
304.511	87.31
304.741	93.31
304.971	99.31
305.201	86.31
305.431	74.31
305.661	90.31
305.891	103.31
306.121	74.31
306.352	81.31
306.582	91.31
306.812	87.31
307.042	86.31
307.272	98.31
307.502	104.31
307.731	98.31
307.961	94.31
308.191	106.31
308.421	99.31
308.651	90.31
308.881	104.31
309.111	105.31
309.341	104.31
309.571	100.31
309.8	96.31
310.03	101.31
310.26	78.31
310.49	95.31
310.72	92.31
310.949	90.31
311.179	93.31
311.409	88.31
311.639	68.31
311.868	88.31
312.098	108.31
312.328	90.31
312.557	78.31
312.787	96.31
313.017	84.31
313.246	86.31
313.476	97.31
313.706	87.31
313.935	101.31
314.165	83.31
314.394	90.31
314.624	95.31
314.853	95.31
315.083	81.31
315.312	100.31
315.542	102.31
315.771	95.31
316.001	102.31
316.23	113.31
316.46	102.31
316.689	100.31
316.919	102.31
317.148	78.31
317.377	93.31
317.607	110.31
317.836	101.31
318.065	135.31
318.295	109.31
318.524	101.31
318.753	73.31
318.983	104.31
319.212	94.31
319.441	92.31
319.67	94.31
319.9	97.31
320.129	88.31
320.358	85.31
320.587	74.31
320.816	89.31
321.046	93.31
321.275	91.31
321.504	100.31
321.733	87.31
321.962	92.31
322.191	107.31
322.42	108.31
322.649	108.31
322.878	100.31
323.108	98.31
323.337	97.31
323.566	91.31
323.795	83.31
324.024	100.31
324.253	88.31
324.482	96.31
324.71	94.31
324.939	94.31
325.168	90.31
325.397	88.31
325.626	89.31
325.855	90.31
326.084	87.31
326.313	85.31
326.542	86.31
326.77	92.31
326.999	76.31
327.228	85.31
327.457	91.31
327.686	92.31
327.914	87.31
328.143	102.31
328.372	84.31
328.6	80.31
328.829	86.31
329.058	100.31
329.287	90.31
329.515	84.31
329.744	84.31
329.972	93.31
330.201	99.31
330.43	92.31
330.658	106.31
330.887	110.31
331.115	91.31
331.344	88.31
331.572	99.31
331.801	75.31
332.03	82.31
332.258	81.31
332.486	92.31
332.715	89.31
332.943	89.31
333.172	104.31
333.4	85.31
333.629	82.31
333.857	100.31
334.085	103.31
334.314	92.31
334.542	104.31
334.771	109.31
334.999	104.31
335.227	98.31
335.455	103.31
335.684	101.31
335.912	128.31
336.14	114.31
336.369	108.31
336.597	80.31
336.825	105.31
337.053	92.31
337.281	89.31
337.51	85.31
337.738	97.31
337.966	91.31
338.194	97.31
338.422	96.31
338.65	93.31
338.878	104.31
339.106	88.31
339.334	108.31
339.562	85.31
339.79	86.31
340.018	89.31
340.246	90.31
340.474	94.31
340.702	102.31
340.93	89.31
341.158	99.31
341.386	91.31
341.614	98.31
341.842	85.31
342.07	94.31
342.298	84.31
342.526	87.31
342.754	92.31
342.981	93.31
343.209	79.31
343.437	102.31
343.665	105.31
343.893	86.31
344.12	114.31
344.348	118.31
344.576	93.31
344.804	88.31
345.031	88.31
345.259	88.31
345.487	96.31
345.714	101.31
345.942	102.31
346.17	94.31
346.397	97.31
346.625	82.31
346.853	81.31
347.08	85.31
347.308	99.31
347.535	95.31
347.763	87.31
347.99	91.31
348.218	88.31
348.445	92.31
348.673	102.31
348.9	96.31
349.128	91.31
349.355	87.31
349.583	100.31
349.81	82.31
350.037	92.31
350.265	86.31
350.492	94.31
350.72	97.31
350.947	77.31
351.174	90.31
351.402	96.31
351.629	85.31
351.856	76.31
352.083	88.31
352.311	98.31
352.538	78.31
352.765	86.31
352.992	97.31
353.22	96.31
353.447	85.31
353.674	89.31
353.901	83.31
354.128	99.31
354.355	90.31
354.583	82.31
354.81	93.31
355.037	96.31
355.264	94.31
355.491	94.31
355.718	93.31
355.945	85.31
356.172	94.31
356.399	110.31
356.626	108.31
356.853	102.31
357.08	115.31
357.307	95.31
357.534	87.31
357.761	90.31
357.988	124.31
358.215	116.31
358.441	128.31
358.668	98.31
358.895	101.31
359.122	99.31
359.349	101.31
359.576	89.31
359.802	100.31
360.029	92.31
360.256	101.31
360.483	100.31
360.709	92.31
360.936	109.31
361.163	105.31
361.39	83.31
361.616	108.31
361.843	105.31
362.07	117.31
362.296	119.31
362.523	120.31
362.749	162.31
362.976	160.31
363.203	183.31
363.429	134.31
363.656	123.31
363.882	111.31
364.109	157.31
364.335	227.31
364.562	232.31
364.788	165.31
365.015	120.31
365.241	109.31
365.468	104.31
365.694	97.31
365.92	99.31
366.147	92.31
366.373	84.31
366.599	85.31
366.826	101.31
367.052	98.31
367.278	107.31
367.505	104.31
367.731	100.31
367.957	99.31
368.184	94.31
368.41	88.31
368.636	98.31
368.862	105.31
369.089	86.31
369.315	95.31
369.541	98.31
369.767	99.31
369.993	99.31
370.219	96.31
370.445	101.31
370.672	122.31
370.898	100.31
371.124	78.31
371.35	90.31
371.576	96.31
371.802	108.31
372.028	139.31
372.254	132.31
372.48	99.31
372.706	105.31
372.932	109.31
373.158	117.31
373.384	134.31
373.61	134.31
373.835	151.31
374.061	130.31
374.287	99.31
374.513	134.31
374.739	144.31
374.965	124.31
375.191	116.31
375.416	107.31
375.642	112.31
375.868	122.31
376.094	106.31
376.319	108.31
376.545	98.31
376.771	91.31
376.997	108.31
377.222	82.31
377.448	92.31
377.674	96.31
377.899	88.31
378.125	84.31
378.35	99.31
378.576	92.31
378.802	89.31
379.027	77.31
379.253	101.31
379.478	85.31
379.704	92.31
379.929	91.31
380.155	95.31
380.38	96.31
380.606	104.31
380.831	99.31
381.057	95.31
381.282	107.31
381.507	103.31
381.733	105.31
381.958	123.31
382.184	119.31
382.409	126.31
382.634	124.31
382.86	116.31
383.085	93.31
383.31	113.31
383.535	120.31
383.761	114.31
383.986	123.31
384.211	109.31
384.436	107.31
384.662	108.31
384.887	104.31
385.112	104.31
385.337	103.31
385.562	109.31
385.787	124.31
386.013	127.31
386.238	123.31
386.463	116.31
386.688	121.31
386.913	107.31
387.138	109.31
387.363	124.31
387.588	106.31
387.813	117.31
388.038	105.31
388.263	113.31
388.488	118.31
388.713	112.31
388.938	122.31
389.163	118.31
389.387	92.31
389.612	84.31
389.837	102.31
390.062	107.31
390.287	107.31
390.512	114.31
390.736	90.31
390.961	97.31
391.186	107.31
391.411	106.31
391.636	97.31
391.86	113.31
392.085	128.31
392.31	135.31
392.534	135.31
392.759	195.31
392.984	279.31
393.208	550.31
393.433	800.31
393.658	581.31
393.882	243.31
394.107	146.31
394.331	172.31
394.556	167.31
394.78	145.31
395.005	134.31
395.229	119.31
395.454	120.31
395.678	149.31
395.903	170.31
396.127	192.31
396.352	240.31
396.576	320.31
396.801	529.31
397.025	616.31
397.249	313.31
397.474	206.31
397.698	149.31
397.922	124.31
398.147	105.31
398.371	94.31
398.595	99.31
398.82	96.31
399.044	104.31
399.268	97.31
399.492	109.31
399.717	107.31
399.941	115.31
400.165	100.31
400.389	84.31
400.613	106.31
400.837	97.31
401.062	94.31
401.286	96.31
401.51	104.31
401.734	109.31
401.958	96.31
402.182	82.31
402.406	88.31
402.63	84.31
402.854	107.31
403.078	108.31
403.302	116.31
403.526	115.31
403.75	94.31
403.974	105.31
404.198	137.31
404.422	158.31
404.645	190.31
404.869	150.31
405.093	122.31
405.317	89.31
405.541	105.31
405.765	108.31
405.988	89.31
406.212	109.31
406.436	116.31
406.66	95.31
406.883	100.31
407.107	96.31
407.331	104.31
407.555	116.31
407.778	145.31
408.002	137.31
408.226	104.31
408.449	86.31
408.673	116.31
408.896	89.31
409.12	103.31
409.344	131.31
409.567	114.31
409.791	132.31
410.014	132.31
410.238	109.31
410.461	100.31
410.685	106.31
410.908	107.31
411.132	96.31
411.355	108.31
411.578	102.31
411.802	89.31
412.025	90.31
412.249	94.31
412.472	84.31
412.695	90.31
412.919	84.31
413.142	93.31
413.365	106.31
413.589	82.31
413.812	93.31
414.035	100.31
414.258	96.31
414.482	112.31
414.705	97.31
414.928	94.31
415.151	88.31
415.374	93.31
415.597	86.31
415.821	102.31
416.044	108.31
416.267	96.31
416.49	84.31
416.713	100.31
416.936	104.31
417.159	90.31
417.382	104.31
417.605	93.31
417.828	108.31
418.051	88.31
418.274	96.31
418.497	90.31
418.72	103.31
418.943	97.31
419.166	93.31
419.389	90.31
419.611	84.31
419.834	98.31
420.057	96.31
420.28	93.31
420.503	106.31
420.726	99.31
420.948	100.31
421.171	117.31
421.394	136.31
421.617	157.31
421.839	183.31
422.062	216.31
422.285	340.31
422.507	638.31
422.73	1001.31
422.953	874.31
423.175	461.31
423.398	249.31
423.621	160.31
423.843	133.31
424.066	123.31
424.288	109.31
424.511	116.31
424.733	110.31
424.956	110.31
425.178	120.31
425.401	116.31
425.623	109.31
425.846	104.31
426.068	112.31
426.291	114.31
426.513	100.31
426.735	97.31
426.958	107.31
427.18	107.31
427.402	112.31
427.625	118.31
427.847	105.31
428.069	126.31
428.292	211.31
428.514	249.31
428.736	176.31
428.958	229.31
429.181	250.31
429.403	134.31
429.625	134.31
429.847	200.31
430.069	322.31
430.292	376.31
430.514	350.31
430.736	237.31
430.958	266.31
431.18	167.31
431.402	123.31
431.624	122.31
431.846	213.31
432.068	250.31
432.29	137.31
432.512	116.31
432.734	114.31
432.956	92.31
433.178	104.31
433.4	108.31
433.622	97.31
433.844	94.31
434.066	92.31
434.287	94.31
434.509	88.31
434.731	88.31
434.953	96.31
435.175	109.31
435.397	106.31
435.618	114.31
435.84	102.31
436.062	108.31
436.284	107.31
436.505	91.31
436.727	83.31
436.949	96.31
437.17	98.31
437.392	96.31
437.614	102.31
437.835	108.31
438.057	105.31
438.278	102.31
438.5	121.31
438.721	96.31
438.943	100.31
439.165	75.31
439.386	93.31
439.608	97.31
439.829	93.31
440.05	100.31
440.272	108.31
440.493	106.31
440.715	100.31
440.936	102.31
441.158	109.31
441.379	116.31
441.6	101.31
441.822	104.31
442.043	109.31
442.264	152.31
442.486	231.31
442.707	361.31
442.928	219.31
443.149	183.31
443.371	314.31
443.592	619.31
443.813	504.31
444.034	184.31
444.255	132.31
444.476	112.31
444.698	107.31
444.919	136.31
445.14	248.31
445.361	404.31
445.582	718.31
445.803	595.31
446.024	219.31
446.245	125.31
446.466	117.31
446.687	89.31
446.908	98.31
447.129	88.31
447.35	92.31
447.571	94.31
447.792	98.31
448.013	86.31
448.234	98.31
448.455	103.31
448.675	90.31
448.896	91.31
449.117	102.31
449.338	84.31
449.559	94.31
449.779	104.31
450	94.31
450.221	89.31
450.442	76.31
450.662	80.31
450.883	98.31
451.104	92.31
451.324	101.31
451.545	102.31
451.766	106.31
451.986	102.31
452.207	96.31
452.428	99.31
452.648	125.31
452.869	141.31
453.089	118.31
453.31	100.31
453.53	102.31
453.751	106.31
453.971	99.31
454.192	85.31
454.412	93.31
454.633	95.31
454.853	84.31
455.073	101.31
455.294	100.31
455.514	106.31
455.734	92.31
455.955	98.31
456.175	92.31
456.395	92.31
456.616	98.31
456.836	96.31
457.056	90.31
457.276	88.31
457.497	94.31
457.717	114.31
457.937	160.31
458.157	202.31
458.377	197.31
458.598	179.31
458.818	212.31
459.038	144.31
459.258	90.31
459.478	99.31
459.698	94.31
459.918	88.31
460.138	88.31
460.358	101.31
460.578	114.31
460.798	173.31
461.018	165.31
461.238	97.31
461.458	103.31
461.678	82.31
461.898	87.31
462.118	96.31
462.338	89.31
462.558	98.31
462.777	84.31
462.997	96.31
463.217	82.31
463.437	96.31
463.657	104.31
463.876	87.31
464.096	102.31
464.316	92.31
464.536	85.31
464.755	87.31
464.975	84.31
465.195	75.31
465.414	85.31
465.634	90.31
465.854	104.31
466.073	101.31
466.293	96.31
466.512	83.31
466.732	100.31
466.951	82.31
467.171	111.31
467.391	94.31
467.61	84.31
467.829	94.31
468.049	96.31
468.268	100.31
468.488	105.31
468.707	111.31
468.927	102.31
469.146	91.31
469.365	93.31
469.585	83.31
469.804	94.31
470.023	88.31
470.243	90.31
470.462	91.31
470.681	89.31
470.901	102.31
471.12	96.31
471.339	73.31
471.558	97.31
471.777	76.31
471.997	86.31
472.216	83.31
472.435	87.31
472.654	96.31
472.873	98.31
473.092	86.31
473.311	102.31
473.53	91.31
473.749	100.31
473.968	89.31
474.187	96.31
474.406	94.31
474.625	106.31
474.844	95.31
475.063	85.31
475.282	98.31
475.501	101.31
475.72	96.31
475.939	84.31
476.158	88.31
476.377	96.31
476.596	98.31
476.814	91.31
477.033	93.31
477.252	101.31
477.471	106.31
477.69	92.31
477.908	104.31
478.127	98.31
478.346	96.31
478.564	97.31
478.783	97.31
479.002	85.31
479.22	90.31
479.439	95.31
479.658	86.31
479.876	104.31
480.095	90.31
480.313	96.31
480.532	103.31
480.751	96.31
480.969	94.31
481.188	88.31
481.406	103.31
481.624	91.31
481.843	100.31
482.061	91.31
482.28	85.31
482.498	108.31
482.717	95.31
482.935	99.31
483.153	99.31
483.372	104.31
483.59	98.31
483.808	97.31
484.027	102.31
484.245	113.31
484.463	91.31
484.681	97.31
484.9	101.31
485.118	98.31
485.336	103.31
485.554	107.31
485.772	106.31
485.99	99.31
486.209	92.31
486.427	114.31
486.645	111.31
486.863	104.31
487.081	116.31
487.299	118.31
487.517	133.31
487.735	166.31
487.953	350.31
488.171	274.31
488.389	123.31
488.607	88.31
488.825	101.31
489.043	89.31
489.261	114.31
489.479	110.31
489.696	100.31
489.914	89.31
490.132	111.31
490.35	88.31
490.568	93.31
490.786	96.31
491.003	86.31
491.221	101.31
491.439	89.31
491.657	87.31
491.874	102.31
492.092	98.31
492.31	109.31
492.527	92.31
492.745	96.31
492.963	100.31
493.18	98.31
493.398	113.31
493.615	111.31
493.833	104.31
494.05	88.31
494.268	101.31
494.485	96.31
494.703	104.31
494.92	89.31
495.138	84.31
495.355	106.31
495.573	96.31
495.79	108.31
496.008	116.31
496.225	98.31
496.442	104.31
496.66	109.31
496.877	103.31
497.094	97.31
497.312	102.31
497.529	96.31
497.746	93.31
497.963	94.31
498.181	110.31
498.398	112.31
498.615	92.31
498.832	108.31
499.049	100.31
499.267	121.31
499.484	110.31
499.701	93.31
499.918	95.31
500.135	102.31
500.352	95.31
500.569	97.31
500.786	115.31
501.003	124.31
501.22	97.31
501.437	89.31
501.654	88.31
501.871	90.31
502.088	103.31
502.305	92.31
502.522	86.31
502.739	112.31
502.956	86.31
503.172	105.31
503.389	106.31
503.606	109.31
503.823	125.31
504.04	141.31
504.256	221.31
504.473	228.31
504.69	126.31
504.907	109.31
505.123	108.31
505.34	94.31
505.557	105.31
505.773	105.31
505.99	93.31
506.207	89.31
506.423	89.31
506.64	102.31
506.856	88.31
507.073	92.31
507.289	88.31
507.506	112.31
507.722	104.31
507.939	93.31
508.155	97.31
508.372	95.31
508.588	97.31
508.805	92.31
509.021	93.31
509.238	85.31
509.454	103.31
509.67	98.31
509.887	99.31
510.103	88.31
510.319	103.31
510.536	107.31
510.752	101.31
510.968	98.31
511.184	102.31
511.401	102.31
511.617	104.31
511.833	96.31
512.049	93.31
512.265	96.31
512.481	99.31
512.698	100.31
512.914	108.31
513.13	101.31
513.346	104.31
