Data from 237_1_HRD10591_00034.txt Node
Date: Mon Jan 19 14:10:46 EST 2026
User: Yrep
Spectrometer: HR+D1059
Trigger mode: 1
Integration Time (sec): 1.000000E-1
Scans to average: 1
Electric dark correction enabled: true
Nonlinearity correction enabled: false
Boxcar width: 0
XAxis mode: Wavelengths
Number of Pixels in Spectrum: 2048
>>>>>Begin Spectral Data<<<<<
223.165	-7.81
223.4	-7.81
223.635	-7.81
223.869	-15.81
224.104	-32.81
224.338	-14.81
224.573	-11.81
224.808	-22.81
225.042	2.19
225.277	-2.81
225.511	-10.81
225.746	-1.81
225.98	19.19
226.215	-6.81
226.449	27.19
226.683	12.19
226.918	19.19
227.152	48.19
227.387	36.19
227.621	38.19
227.856	42.19
228.09	42.19
228.324	42.19
228.559	67.19
228.793	57.19
229.027	75.19
229.262	60.19
229.496	54.19
229.73	68.19
229.964	83.19
230.199	77.19
230.433	69.19
230.667	75.19
230.901	83.19
231.136	71.19
231.37	68.19
231.604	75.19
231.838	63.19
232.072	83.19
232.306	82.19
232.541	97.19
232.775	84.19
233.009	79.19
233.243	72.19
233.477	81.19
233.711	67.19
233.945	81.19
234.179	92.19
234.413	92.19
234.647	76.19
234.881	64.19
235.115	77.19
235.349	76.19
235.583	62.19
235.817	70.19
236.051	68.19
236.285	95.19
236.519	83.19
236.753	64.19
236.987	82.19
237.221	75.19
237.455	76.19
237.689	83.19
237.922	75.19
238.156	74.19
238.39	69.19
238.624	77.19
238.858	77.19
239.091	81.19
239.325	83.19
239.559	100.19
239.793	82.19
240.027	73.19
240.26	75.19
240.494	91.19
240.728	77.19
240.961	73.19
241.195	77.19
241.429	71.19
241.662	89.19
241.896	85.19
242.13	65.19
242.363	72.19
242.597	71.19
242.83	94.19
243.064	73.19
243.298	79.19
243.531	85.19
243.765	77.19
243.998	87.19
244.232	92.19
244.465	84.19
244.699	75.19
244.932	87.19
245.166	78.19
245.399	84.19
245.633	90.19
245.866	95.19
246.099	71.19
246.333	80.19
246.566	85.19
246.8	68.19
247.033	83.19
247.266	76.19
247.5	84.19
247.733	79.19
247.966	91.19
248.2	95.19
248.433	86.19
248.666	75.19
248.899	88.19
249.133	68.19
249.366	99.19
249.599	81.19
249.832	77.19
250.066	73.19
250.299	83.19
250.532	68.19
250.765	79.19
250.998	73.19
251.231	90.19
251.465	83.19
251.698	77.19
251.931	83.19
252.164	75.19
252.397	85.19
252.63	73.19
252.863	75.19
253.096	93.19
253.329	85.19
253.562	86.19
253.795	71.19
254.028	84.19
254.261	89.19
254.494	84.19
254.727	65.19
254.96	86.19
255.193	88.19
255.426	81.19
255.659	92.19
255.892	78.19
256.124	83.19
256.357	96.19
256.59	88.19
256.823	85.19
257.056	85.19
257.289	80.19
257.521	80.19
257.754	89.19
257.987	78.19
258.22	95.19
258.452	87.19
258.685	83.19
258.918	71.19
259.151	74.19
259.383	90.19
259.616	76.19
259.849	81.19
260.081	73.19
260.314	81.19
260.547	80.19
260.779	87.19
261.012	75.19
261.244	79.19
261.477	85.19
261.71	73.19
261.942	83.19
262.175	82.19
262.407	70.19
262.64	75.19
262.872	83.19
263.105	86.19
263.337	95.19
263.57	81.19
263.802	74.19
264.035	65.19
264.267	83.19
264.499	79.19
264.732	87.19
264.964	84.19
265.197	73.19
265.429	82.19
265.661	79.19
265.894	87.19
266.126	82.19
266.358	83.19
266.591	74.19
266.823	71.19
267.055	83.19
267.287	87.19
267.52	88.19
267.752	67.19
267.984	78.19
268.216	79.19
268.448	90.19
268.681	91.19
268.913	85.19
269.145	77.19
269.377	87.19
269.609	89.19
269.841	101.19
270.073	76.19
270.306	69.19
270.538	70.19
270.77	83.19
271.002	87.19
271.234	92.19
271.466	73.19
271.698	76.19
271.93	80.19
272.162	85.19
272.394	86.19
272.626	92.19
272.858	76.19
273.09	87.19
273.322	80.19
273.553	89.19
273.785	84.19
274.017	76.19
274.249	90.19
274.481	83.19
274.713	96.19
274.945	72.19
275.176	75.19
275.408	83.19
275.64	83.19
275.872	84.19
276.104	99.19
276.335	99.19
276.567	87.19
276.799	73.19
277.031	89.19
277.262	85.19
277.494	83.19
277.726	75.19
277.957	93.19
278.189	87.19
278.421	62.19
278.652	87.19
278.884	83.19
279.115	74.19
279.347	83.19
279.579	90.19
279.81	74.19
280.042	83.19
280.273	67.19
280.505	82.19
280.736	88.19
280.968	85.19
281.199	90.19
281.431	96.19
281.662	93.19
281.894	89.19
282.125	77.19
282.356	80.19
282.588	99.19
282.819	81.19
283.051	103.19
283.282	91.19
283.513	96.19
283.745	96.19
283.976	84.19
284.207	82.19
284.439	83.19
284.67	90.19
284.901	94.19
285.132	83.19
285.364	71.19
285.595	86.19
285.826	81.19
286.057	87.19
286.288	76.19
286.52	79.19
286.751	83.19
286.982	77.19
287.213	88.19
287.444	87.19
287.675	83.19
287.906	83.19
288.138	83.19
288.369	93.19
288.6	62.19
288.831	82.19
289.062	77.19
289.293	77.19
289.524	88.19
289.755	75.19
289.986	77.19
290.217	75.19
290.448	73.19
290.679	89.19
290.91	88.19
291.141	87.19
291.371	80.19
291.602	91.19
291.833	79.19
292.064	90.19
292.295	81.19
292.526	90.19
292.757	83.19
292.987	103.19
293.218	100.19
293.449	97.19
293.68	72.19
293.91	98.19
294.141	83.19
294.372	82.19
294.603	88.19
294.833	87.19
295.064	91.19
295.295	85.19
295.525	88.19
295.756	88.19
295.987	89.19
296.217	89.19
296.448	93.19
296.679	92.19
296.909	88.19
297.14	93.19
297.37	85.19
297.601	80.19
297.831	81.19
298.062	97.19
298.292	87.19
298.523	82.19
298.753	80.19
298.984	87.19
299.214	79.19
299.445	95.19
299.675	76.19
299.905	90.19
300.136	79.19
300.366	87.19
300.597	88.19
300.827	89.19
301.057	81.19
301.288	91.19
301.518	84.19
301.748	91.19
301.979	95.19
302.209	92.19
302.439	86.19
302.669	88.19
302.9	72.19
303.13	87.19
303.36	99.19
303.59	85.19
303.82	85.19
304.051	88.19
304.281	89.19
304.511	77.19
304.741	91.19
304.971	106.19
305.201	80.19
305.431	86.19
305.661	84.19
305.891	85.19
306.121	98.19
306.352	88.19
306.582	92.19
306.812	92.19
307.042	91.19
307.272	85.19
307.502	84.19
307.731	92.19
307.961	91.19
308.191	89.19
308.421	83.19
308.651	77.19
308.881	95.19
309.111	97.19
309.341	86.19
309.571	86.19
309.8	77.19
310.03	79.19
310.26	85.19
310.49	81.19
310.72	80.19
310.949	103.19
311.179	103.19
311.409	96.19
311.639	74.19
311.868	87.19
312.098	87.19
312.328	99.19
312.557	94.19
312.787	85.19
313.017	99.19
313.246	86.19
313.476	70.19
313.706	96.19
313.935	77.19
314.165	74.19
314.394	83.19
314.624	82.19
314.853	81.19
315.083	86.19
315.312	87.19
315.542	103.19
315.771	90.19
316.001	81.19
316.23	99.19
316.46	89.19
316.689	95.19
316.919	90.19
317.148	100.19
317.377	94.19
317.607	78.19
317.836	86.19
318.065	79.19
318.295	93.19
318.524	83.19
318.753	85.19
318.983	80.19
319.212	93.19
319.441	71.19
319.67	85.19
319.9	93.19
320.129	88.19
320.358	104.19
320.587	104.19
320.816	75.19
321.046	90.19
321.275	80.19
321.504	94.19
321.733	93.19
321.962	79.19
322.191	90.19
322.42	82.19
322.649	92.19
322.878	94.19
323.108	89.19
323.337	92.19
323.566	80.19
323.795	90.19
324.024	91.19
324.253	80.19
324.482	95.19
324.71	91.19
324.939	94.19
325.168	98.19
325.397	93.19
325.626	91.19
325.855	89.19
326.084	76.19
326.313	81.19
326.542	89.19
326.77	62.19
326.999	75.19
327.228	101.19
327.457	89.19
327.686	83.19
327.914	91.19
328.143	88.19
328.372	94.19
328.6	84.19
328.829	89.19
329.058	90.19
329.287	87.19
329.515	82.19
329.744	91.19
329.972	100.19
330.201	88.19
330.43	97.19
330.658	88.19
330.887	84.19
331.115	89.19
331.344	96.19
331.572	91.19
331.801	81.19
332.03	76.19
332.258	90.19
332.486	75.19
332.715	80.19
332.943	85.19
333.172	78.19
333.4	80.19
333.629	84.19
333.857	78.19
334.085	96.19
334.314	82.19
334.542	100.19
334.771	75.19
334.999	90.19
335.227	90.19
335.455	88.19
335.684	92.19
335.912	88.19
336.14	92.19
336.369	103.19
336.597	95.19
336.825	100.19
337.053	82.19
337.281	83.19
337.51	82.19
337.738	92.19
337.966	81.19
338.194	88.19
338.422	86.19
338.65	87.19
338.878	98.19
339.106	87.19
339.334	88.19
339.562	91.19
339.79	84.19
340.018	93.19
340.246	89.19
340.474	70.19
340.702	83.19
340.93	77.19
341.158	69.19
341.386	83.19
341.614	86.19
341.842	90.19
342.07	87.19
342.298	95.19
342.526	88.19
342.754	80.19
342.981	82.19
343.209	97.19
343.437	88.19
343.665	92.19
343.893	87.19
344.12	89.19
344.348	83.19
344.576	95.19
344.804	74.19
345.031	97.19
345.259	90.19
345.487	84.19
345.714	75.19
345.942	79.19
346.17	89.19
346.397	83.19
346.625	88.19
346.853	85.19
347.08	88.19
347.308	90.19
347.535	89.19
347.763	79.19
347.99	76.19
348.218	91.19
348.445	84.19
348.673	71.19
348.9	69.19
349.128	93.19
349.355	90.19
349.583	78.19
349.81	84.19
350.037	84.19
350.265	83.19
350.492	88.19
350.72	89.19
350.947	94.19
351.174	93.19
351.402	87.19
351.629	85.19
351.856	87.19
352.083	97.19
352.311	105.19
352.538	90.19
352.765	79.19
352.992	95.19
353.22	73.19
353.447	71.19
353.674	77.19
353.901	95.19
354.128	93.19
354.355	81.19
354.583	87.19
354.81	75.19
355.037	89.19
355.264	88.19
355.491	70.19
355.718	78.19
355.945	77.19
356.172	95.19
356.399	99.19
356.626	98.19
356.853	91.19
357.08	96.19
357.307	92.19
357.534	75.19
357.761	91.19
357.988	78.19
358.215	96.19
358.441	90.19
358.668	98.19
358.895	95.19
359.122	78.19
359.349	86.19
359.576	77.19
359.802	69.19
360.029	55.19
360.256	87.19
360.483	91.19
360.709	82.19
360.936	96.19
361.163	79.19
361.39	80.19
361.616	72.19
361.843	81.19
362.07	79.19
362.296	95.19
362.523	100.19
362.749	95.19
362.976	87.19
363.203	104.19
363.429	105.19
363.656	106.19
363.882	81.19
364.109	84.19
364.335	86.19
364.562	103.19
364.788	72.19
365.015	95.19
365.241	91.19
365.468	76.19
365.694	85.19
365.92	88.19
366.147	68.19
366.373	82.19
366.599	78.19
366.826	80.19
367.052	82.19
367.278	95.19
367.505	83.19
367.731	103.19
367.957	86.19
368.184	83.19
368.41	80.19
368.636	88.19
368.862	87.19
369.089	87.19
369.315	80.19
369.541	106.19
369.767	81.19
369.993	83.19
370.219	92.19
370.445	83.19
370.672	90.19
370.898	88.19
371.124	76.19
371.35	83.19
371.576	92.19
371.802	82.19
372.028	81.19
372.254	83.19
372.48	97.19
372.706	89.19
372.932	88.19
373.158	89.19
373.384	91.19
373.61	91.19
373.835	89.19
374.061	91.19
374.287	79.19
374.513	88.19
374.739	83.19
374.965	93.19
375.191	83.19
375.416	97.19
375.642	73.19
375.868	77.19
376.094	87.19
376.319	81.19
376.545	88.19
376.771	90.19
376.997	81.19
377.222	91.19
377.448	85.19
377.674	73.19
377.899	85.19
378.125	74.19
378.35	93.19
378.576	83.19
378.802	97.19
379.027	78.19
379.253	100.19
379.478	95.19
379.704	85.19
379.929	82.19
380.155	82.19
380.38	65.19
380.606	90.19
380.831	73.19
381.057	88.19
381.282	83.19
381.507	91.19
381.733	74.19
381.958	91.19
382.184	107.19
382.409	89.19
382.634	108.19
382.86	95.19
383.085	80.19
383.31	81.19
383.535	86.19
383.761	86.19
383.986	99.19
384.211	89.19
384.436	71.19
384.662	83.19
384.887	79.19
385.112	83.19
385.337	95.19
385.562	84.19
385.787	80.19
386.013	91.19
386.238	98.19
386.463	85.19
386.688	100.19
386.913	97.19
387.138	101.19
387.363	85.19
387.588	85.19
387.813	91.19
388.038	96.19
388.263	83.19
388.488	79.19
388.713	86.19
388.938	72.19
389.163	86.19
389.387	97.19
389.612	83.19
389.837	86.19
390.062	91.19
390.287	107.19
390.512	82.19
390.736	85.19
390.961	94.19
391.186	83.19
391.411	88.19
391.636	75.19
391.86	77.19
392.085	92.19
392.31	81.19
392.534	82.19
392.759	95.19
392.984	103.19
393.208	134.19
393.433	165.19
393.658	145.19
393.882	94.19
394.107	93.19
394.331	80.19
394.556	88.19
394.78	91.19
395.005	76.19
395.229	81.19
395.454	95.19
395.678	72.19
395.903	95.19
396.127	100.19
396.352	104.19
396.576	98.19
396.801	137.19
397.025	143.19
397.249	107.19
397.474	103.19
397.698	87.19
397.922	83.19
398.147	95.19
398.371	84.19
398.595	103.19
398.82	87.19
399.044	85.19
399.268	98.19
399.492	87.19
399.717	71.19
399.941	87.19
400.165	90.19
400.389	82.19
400.613	72.19
400.837	83.19
401.062	69.19
401.286	72.19
401.51	78.19
401.734	81.19
401.958	81.19
402.182	93.19
402.406	78.19
402.63	67.19
402.854	73.19
403.078	89.19
403.302	87.19
403.526	95.19
403.75	99.19
403.974	82.19
404.198	83.19
404.422	80.19
404.645	76.19
404.869	95.19
405.093	75.19
405.317	89.19
405.541	90.19
405.765	97.19
405.988	74.19
406.212	79.19
406.436	78.19
406.66	84.19
406.883	81.19
407.107	78.19
407.331	88.19
407.555	81.19
407.778	95.19
408.002	91.19
408.226	88.19
408.449	91.19
408.673	76.19
408.896	77.19
409.12	74.19
409.344	85.19
409.567	90.19
409.791	95.19
410.014	87.19
410.238	83.19
410.461	87.19
410.685	91.19
410.908	81.19
411.132	75.19
411.355	74.19
411.578	84.19
411.802	74.19
412.025	81.19
412.249	87.19
412.472	78.19
412.695	91.19
412.919	91.19
413.142	82.19
413.365	89.19
413.589	88.19
413.812	93.19
414.035	99.19
414.258	87.19
414.482	90.19
414.705	88.19
414.928	88.19
415.151	72.19
415.374	79.19
415.597	79.19
415.821	86.19
416.044	89.19
416.267	87.19
416.49	92.19
416.713	87.19
416.936	79.19
417.159	75.19
417.382	83.19
417.605	93.19
417.828	92.19
418.051	97.19
418.274	88.19
418.497	86.19
418.72	74.19
418.943	93.19
419.166	90.19
419.389	84.19
419.611	79.19
419.834	86.19
420.057	77.19
420.28	62.19
420.503	81.19
420.726	84.19
420.948	77.19
421.171	80.19
421.394	92.19
421.617	87.19
421.839	88.19
422.062	92.19
422.285	99.19
422.507	143.19
422.73	199.19
422.953	196.19
423.175	111.19
423.398	80.19
423.621	100.19
423.843	83.19
424.066	83.19
424.288	92.19
424.511	91.19
424.733	95.19
424.956	85.19
425.178	81.19
425.401	96.19
425.623	83.19
425.846	85.19
426.068	83.19
426.291	86.19
426.513	91.19
426.735	87.19
426.958	75.19
427.18	91.19
427.402	87.19
427.625	91.19
427.847	89.19
428.069	85.19
428.292	107.19
428.514	92.19
428.736	102.19
428.958	106.19
429.181	96.19
429.403	81.19
429.625	101.19
429.847	96.19
430.069	128.19
430.292	117.19
430.514	104.19
430.736	95.19
430.958	104.19
431.18	81.19
431.402	77.19
431.624	94.19
431.846	70.19
432.068	99.19
432.29	76.19
432.512	84.19
432.734	94.19
432.956	83.19
433.178	85.19
433.4	83.19
433.622	87.19
433.844	63.19
434.066	85.19
434.287	97.19
434.509	89.19
434.731	89.19
434.953	88.19
435.175	78.19
435.397	87.19
435.618	75.19
435.84	68.19
436.062	84.19
436.284	81.19
436.505	73.19
436.727	86.19
436.949	79.19
437.17	77.19
437.392	84.19
437.614	101.19
437.835	86.19
438.057	75.19
438.278	83.19
438.5	90.19
438.721	103.19
438.943	88.19
439.165	79.19
439.386	80.19
439.608	86.19
439.829	78.19
440.05	82.19
440.272	70.19
440.493	86.19
440.715	88.19
440.936	85.19
441.158	79.19
441.379	77.19
441.6	75.19
441.822	82.19
442.043	83.19
442.264	83.19
442.486	98.19
442.707	107.19
442.928	95.19
443.149	87.19
443.371	108.19
443.592	151.19
443.813	109.19
444.034	81.19
444.255	90.19
444.476	80.19
444.698	84.19
444.919	88.19
445.14	147.19
445.361	135.19
445.582	129.19
445.803	129.19
446.024	95.19
446.245	92.19
446.466	73.19
446.687	73.19
446.908	84.19
447.129	76.19
447.35	79.19
447.571	83.19
447.792	80.19
448.013	84.19
448.234	67.19
448.455	79.19
448.675	80.19
448.896	83.19
449.117	81.19
449.338	75.19
449.559	70.19
449.779	75.19
450	76.19
450.221	89.19
450.442	78.19
450.662	87.19
450.883	76.19
451.104	95.19
451.324	91.19
451.545	76.19
451.766	83.19
451.986	84.19
452.207	77.19
452.428	85.19
452.648	84.19
452.869	94.19
453.089	82.19
453.31	83.19
453.53	83.19
453.751	92.19
453.971	85.19
454.192	90.19
454.412	79.19
454.633	89.19
454.853	98.19
455.073	79.19
455.294	78.19
455.514	91.19
455.734	95.19
455.955	88.19
456.175	83.19
456.395	90.19
456.616	79.19
456.836	71.19
457.056	86.19
457.276	84.19
457.497	66.19
457.717	82.19
457.937	85.19
458.157	86.19
458.377	92.19
458.598	83.19
458.818	84.19
459.038	72.19
459.258	83.19
459.478	89.19
459.698	82.19
459.918	78.19
460.138	61.19
460.358	99.19
460.578	102.19
460.798	97.19
461.018	93.19
461.238	83.19
461.458	76.19
461.678	82.19
461.898	87.19
462.118	92.19
462.338	103.19
462.558	86.19
462.777	74.19
462.997	89.19
463.217	82.19
463.437	97.19
463.657	75.19
463.876	83.19
464.096	84.19
464.316	80.19
464.536	96.19
464.755	81.19
464.975	77.19
465.195	78.19
465.414	86.19
465.634	91.19
465.854	76.19
466.073	72.19
466.293	74.19
466.512	85.19
466.732	73.19
466.951	104.19
467.171	88.19
467.391	75.19
467.61	95.19
467.829	85.19
468.049	77.19
468.268	68.19
468.488	88.19
468.707	99.19
468.927	97.19
469.146	74.19
469.365	97.19
469.585	83.19
469.804	71.19
470.023	79.19
470.243	84.19
470.462	89.19
470.681	75.19
470.901	76.19
471.12	76.19
471.339	91.19
471.558	89.19
471.777	60.19
471.997	87.19
472.216	73.19
472.435	76.19
472.654	74.19
472.873	88.19
473.092	89.19
473.311	88.19
473.53	82.19
473.749	90.19
473.968	88.19
474.187	81.19
474.406	97.19
474.625	83.19
474.844	98.19
475.063	98.19
475.282	94.19
475.501	69.19
475.72	86.19
475.939	80.19
476.158	79.19
476.377	74.19
476.596	90.19
476.814	84.19
477.033	78.19
477.252	96.19
477.471	98.19
477.69	91.19
477.908	84.19
478.127	85.19
478.346	80.19
478.564	81.19
478.783	86.19
479.002	71.19
479.22	85.19
479.439	90.19
479.658	79.19
479.876	74.19
480.095	85.19
480.313	81.19
480.532	78.19
480.751	85.19
480.969	90.19
481.188	105.19
481.406	93.19
481.624	94.19
481.843	82.19
482.061	79.19
482.28	72.19
482.498	85.19
482.717	85.19
482.935	92.19
483.153	85.19
483.372	99.19
483.59	72.19
483.808	75.19
484.027	92.19
484.245	75.19
484.463	93.19
484.681	92.19
484.9	89.19
485.118	80.19
485.336	80.19
485.554	105.19
485.772	87.19
485.99	58.19
486.209	76.19
486.427	81.19
486.645	87.19
486.863	77.19
487.081	89.19
487.299	97.19
487.517	68.19
487.735	83.19
487.953	103.19
488.171	93.19
488.389	87.19
488.607	91.19
488.825	79.19
489.043	85.19
489.261	101.19
489.479	81.19
489.696	83.19
489.914	95.19
490.132	85.19
490.35	83.19
490.568	93.19
490.786	77.19
491.003	97.19
491.221	69.19
491.439	79.19
491.657	83.19
491.874	75.19
492.092	95.19
492.31	106.19
492.527	97.19
492.745	77.19
492.963	77.19
493.18	98.19
493.398	81.19
493.615	91.19
493.833	72.19
494.05	89.19
494.268	71.19
494.485	89.19
494.703	97.19
494.92	84.19
495.138	87.19
495.355	93.19
495.573	87.19
495.79	88.19
496.008	87.19
496.225	80.19
496.442	85.19
496.66	94.19
496.877	102.19
497.094	93.19
497.312	83.19
497.529	88.19
497.746	85.19
497.963	69.19
498.181	83.19
498.398	95.19
498.615	71.19
498.832	76.19
499.049	83.19
499.267	82.19
499.484	96.19
499.701	85.19
499.918	90.19
500.135	96.19
500.352	78.19
500.569	91.19
500.786	90.19
501.003	102.19
501.22	95.19
501.437	84.19
501.654	69.19
501.871	78.19
502.088	78.19
502.305	92.19
502.522	101.19
502.739	87.19
502.956	74.19
503.172	82.19
503.389	89.19
503.606	72.19
503.823	109.19
504.04	86.19
504.256	87.19
504.473	86.19
504.69	71.19
504.907	90.19
505.123	86.19
505.34	79.19
505.557	91.19
505.773	76.19
505.99	73.19
506.207	92.19
506.423	83.19
506.64	90.19
506.856	82.19
507.073	75.19
507.289	90.19
507.506	81.19
507.722	92.19
507.939	97.19
508.155	81.19
508.372	77.19
508.588	91.19
508.805	67.19
509.021	71.19
509.238	88.19
509.454	71.19
509.67	60.19
509.887	89.19
510.103	92.19
510.319	75.19
510.536	83.19
510.752	81.19
510.968	82.19
511.184	86.19
511.401	92.19
511.617	89.19
511.833	81.19
512.049	87.19
512.265	91.19
512.481	86.19
512.698	95.19
512.914	90.19
513.13	83.19
513.346	78.19
513.562	89.19
513.778	74.19
513.994	79.19
514.21	99.19
514.426	88.19
514.642	91.19
514.858	97.19
515.074	85.19
515.29	91.19
515.506	86.19
515.721	81.19
515.937	101.19
516.153	80.19
516.369	71.19
516.585	87.19
516.801	80.19
517.016	90.19
517.232	81.19
517.448	82.19
517.664	88.19
517.879	99.19
518.095	82.19
518.311	97.19
518.527	81.19
518.742	99.19
518.958	106.19
519.173	104.19
