Data from 237_1_HRD10591_00013.txt Node
Date: Mon Jan 19 14:10:36 EST 2026
User: Yrep
Spectrometer: HR+D1059
Trigger mode: 1
Integration Time (sec): 1.000000E-1
Scans to average: 1
Electric dark correction enabled: true
Nonlinearity correction enabled: false
Boxcar width: 0
XAxis mode: Wavelengths
Number of Pixels in Spectrum: 2048
>>>>>Begin Spectral Data<<<<<
223.165	-8.88
223.4	-8.88
223.635	-8.88
223.869	-12.88
224.104	-18.88
224.338	-15.88
224.573	-27.88
224.808	-24.88
225.042	-3.88
225.277	-0.88
225.511	-0.88
225.746	1.12
225.98	21.12
226.215	7.12
226.449	25.12
226.683	15.12
226.918	13.12
227.152	32.12
227.387	37.12
227.621	43.12
227.856	56.12
228.09	54.12
228.324	57.12
228.559	57.12
228.793	62.12
229.027	62.12
229.262	75.12
229.496	52.12
229.73	75.12
229.964	90.12
230.199	75.12
230.433	83.12
230.667	72.12
230.901	90.12
231.136	68.12
231.37	71.12
231.604	88.12
231.838	94.12
232.072	86.12
232.306	73.12
232.541	82.12
232.775	80.12
233.009	74.12
233.243	73.12
233.477	88.12
233.711	98.12
233.945	82.12
234.179	83.12
234.413	92.12
234.647	81.12
234.881	85.12
235.115	72.12
235.349	78.12
235.583	74.12
235.817	81.12
236.051	87.12
236.285	70.12
236.519	86.12
236.753	90.12
236.987	77.12
237.221	75.12
237.455	74.12
237.689	76.12
237.922	75.12
238.156	74.12
238.39	81.12
238.624	74.12
238.858	65.12
239.091	74.12
239.325	72.12
239.559	86.12
239.793	73.12
240.027	86.12
240.26	79.12
240.494	81.12
240.728	68.12
240.961	64.12
241.195	72.12
241.429	75.12
241.662	86.12
241.896	72.12
242.13	64.12
242.363	73.12
242.597	91.12
242.83	78.12
243.064	68.12
243.298	72.12
243.531	73.12
243.765	83.12
243.998	79.12
244.232	75.12
244.465	81.12
244.699	86.12
244.932	71.12
245.166	83.12
245.399	97.12
245.633	83.12
245.866	72.12
246.099	76.12
246.333	80.12
246.566	66.12
246.8	76.12
247.033	73.12
247.266	86.12
247.5	76.12
247.733	74.12
247.966	92.12
248.2	80.12
248.433	81.12
248.666	90.12
248.899	81.12
249.133	76.12
249.366	94.12
249.599	76.12
249.832	88.12
250.066	92.12
250.299	74.12
250.532	78.12
250.765	81.12
250.998	70.12
251.231	84.12
251.465	80.12
251.698	87.12
251.931	69.12
252.164	79.12
252.397	80.12
252.63	79.12
252.863	78.12
253.096	76.12
253.329	75.12
253.562	75.12
253.795	86.12
254.028	94.12
254.261	75.12
254.494	81.12
254.727	88.12
254.96	86.12
255.193	77.12
255.426	92.12
255.659	90.12
255.892	84.12
256.124	90.12
256.357	79.12
256.59	68.12
256.823	88.12
257.056	92.12
257.289	84.12
257.521	93.12
257.754	88.12
257.987	85.12
258.22	95.12
258.452	88.12
258.685	80.12
258.918	77.12
259.151	81.12
259.383	82.12
259.616	92.12
259.849	82.12
260.081	80.12
260.314	97.12
260.547	86.12
260.779	84.12
261.012	96.12
261.244	79.12
261.477	81.12
261.71	87.12
261.942	90.12
262.175	85.12
262.407	84.12
262.64	85.12
262.872	90.12
263.105	75.12
263.337	87.12
263.57	76.12
263.802	85.12
264.035	86.12
264.267	90.12
264.499	85.12
264.732	87.12
264.964	84.12
265.197	78.12
265.429	88.12
265.661	88.12
265.894	96.12
266.126	93.12
266.358	92.12
266.591	84.12
266.823	89.12
267.055	88.12
267.287	86.12
267.52	94.12
267.752	92.12
267.984	82.12
268.216	81.12
268.448	90.12
268.681	85.12
268.913	88.12
269.145	95.12
269.377	88.12
269.609	95.12
269.841	87.12
270.073	88.12
270.306	89.12
270.538	87.12
270.77	94.12
271.002	92.12
271.234	83.12
271.466	85.12
271.698	69.12
271.93	88.12
272.162	84.12
272.394	88.12
272.626	86.12
272.858	87.12
273.09	82.12
273.322	81.12
273.553	83.12
273.785	102.12
274.017	95.12
274.249	89.12
274.481	101.12
274.713	77.12
274.945	86.12
275.176	80.12
275.408	83.12
275.64	95.12
275.872	81.12
276.104	90.12
276.335	93.12
276.567	82.12
276.799	93.12
277.031	90.12
277.262	90.12
277.494	81.12
277.726	88.12
277.957	93.12
278.189	86.12
278.421	84.12
278.652	81.12
278.884	79.12
279.115	74.12
279.347	95.12
279.579	80.12
279.81	88.12
280.042	93.12
280.273	90.12
280.505	83.12
280.736	80.12
280.968	86.12
281.199	78.12
281.431	86.12
281.662	94.12
281.894	77.12
282.125	96.12
282.356	94.12
282.588	99.12
282.819	93.12
283.051	77.12
283.282	96.12
283.513	98.12
283.745	78.12
283.976	86.12
284.207	86.12
284.439	79.12
284.67	90.12
284.901	85.12
285.132	76.12
285.364	82.12
285.595	88.12
285.826	88.12
286.057	80.12
286.288	77.12
286.52	76.12
286.751	86.12
286.982	86.12
287.213	95.12
287.444	88.12
287.675	94.12
287.906	86.12
288.138	88.12
288.369	77.12
288.6	91.12
288.831	104.12
289.062	106.12
289.293	93.12
289.524	100.12
289.755	97.12
289.986	89.12
290.217	93.12
290.448	80.12
290.679	92.12
290.91	80.12
291.141	102.12
291.371	103.12
291.602	93.12
291.833	88.12
292.064	71.12
292.295	95.12
292.526	100.12
292.757	92.12
292.987	101.12
293.218	84.12
293.449	71.12
293.68	98.12
293.91	90.12
294.141	94.12
294.372	77.12
294.603	104.12
294.833	85.12
295.064	79.12
295.295	92.12
295.525	90.12
295.756	103.12
295.987	90.12
296.217	91.12
296.448	92.12
296.679	90.12
296.909	75.12
297.14	102.12
297.37	78.12
297.601	92.12
297.831	96.12
298.062	78.12
298.292	103.12
298.523	84.12
298.753	95.12
298.984	67.12
299.214	96.12
299.445	97.12
299.675	86.12
299.905	93.12
300.136	83.12
300.366	103.12
300.597	102.12
300.827	99.12
301.057	92.12
301.288	81.12
301.518	93.12
301.748	90.12
301.979	101.12
302.209	106.12
302.439	85.12
302.669	82.12
302.9	80.12
303.13	86.12
303.36	86.12
303.59	91.12
303.82	91.12
304.051	81.12
304.281	82.12
304.511	102.12
304.741	86.12
304.971	90.12
305.201	108.12
305.431	86.12
305.661	91.12
305.891	103.12
306.121	90.12
306.352	95.12
306.582	84.12
306.812	80.12
307.042	84.12
307.272	90.12
307.502	89.12
307.731	86.12
307.961	95.12
308.191	92.12
308.421	95.12
308.651	103.12
308.881	98.12
309.111	83.12
309.341	94.12
309.571	102.12
309.8	93.12
310.03	103.12
310.26	89.12
310.49	87.12
310.72	95.12
310.949	76.12
311.179	98.12
311.409	94.12
311.639	90.12
311.868	91.12
312.098	95.12
312.328	85.12
312.557	79.12
312.787	98.12
313.017	88.12
313.246	90.12
313.476	99.12
313.706	94.12
313.935	91.12
314.165	104.12
314.394	94.12
314.624	84.12
314.853	86.12
315.083	87.12
315.312	80.12
315.542	87.12
315.771	101.12
316.001	98.12
316.23	93.12
316.46	102.12
316.689	80.12
316.919	91.12
317.148	104.12
317.377	93.12
317.607	92.12
317.836	85.12
318.065	92.12
318.295	96.12
318.524	88.12
318.753	96.12
318.983	97.12
319.212	68.12
319.441	94.12
319.67	96.12
319.9	98.12
320.129	87.12
320.358	95.12
320.587	99.12
320.816	86.12
321.046	98.12
321.275	95.12
321.504	96.12
321.733	91.12
321.962	79.12
322.191	85.12
322.42	84.12
322.649	92.12
322.878	89.12
323.108	94.12
323.337	75.12
323.566	98.12
323.795	93.12
324.024	94.12
324.253	85.12
324.482	98.12
324.71	95.12
324.939	93.12
325.168	87.12
325.397	99.12
325.626	104.12
325.855	85.12
326.084	74.12
326.313	90.12
326.542	89.12
326.77	92.12
326.999	97.12
327.228	99.12
327.457	92.12
327.686	85.12
327.914	90.12
328.143	86.12
328.372	94.12
328.6	87.12
328.829	92.12
329.058	95.12
329.287	98.12
329.515	94.12
329.744	95.12
329.972	79.12
330.201	79.12
330.43	77.12
330.658	94.12
330.887	86.12
331.115	85.12
331.344	77.12
331.572	99.12
331.801	86.12
332.03	83.12
332.258	93.12
332.486	79.12
332.715	92.12
332.943	96.12
333.172	91.12
333.4	101.12
333.629	86.12
333.857	91.12
334.085	90.12
334.314	86.12
334.542	103.12
334.771	98.12
334.999	104.12
335.227	95.12
335.455	107.12
335.684	91.12
335.912	91.12
336.14	102.12
336.369	88.12
336.597	100.12
336.825	79.12
337.053	85.12
337.281	84.12
337.51	87.12
337.738	79.12
337.966	89.12
338.194	80.12
338.422	86.12
338.65	86.12
338.878	96.12
339.106	81.12
339.334	96.12
339.562	74.12
339.79	86.12
340.018	82.12
340.246	86.12
340.474	105.12
340.702	85.12
340.93	89.12
341.158	78.12
341.386	94.12
341.614	102.12
341.842	91.12
342.07	100.12
342.298	96.12
342.526	83.12
342.754	90.12
342.981	87.12
343.209	91.12
343.437	98.12
343.665	87.12
343.893	90.12
344.12	94.12
344.348	88.12
344.576	85.12
344.804	97.12
345.031	96.12
345.259	87.12
345.487	84.12
345.714	78.12
345.942	97.12
346.17	90.12
346.397	103.12
346.625	87.12
346.853	89.12
347.08	87.12
347.308	86.12
347.535	88.12
347.763	93.12
347.99	82.12
348.218	95.12
348.445	79.12
348.673	89.12
348.9	102.12
349.128	102.12
349.355	89.12
349.583	92.12
349.81	72.12
350.037	103.12
350.265	82.12
350.492	90.12
350.72	104.12
350.947	89.12
351.174	81.12
351.402	87.12
351.629	88.12
351.856	79.12
352.083	89.12
352.311	82.12
352.538	95.12
352.765	91.12
352.992	102.12
353.22	93.12
353.447	84.12
353.674	88.12
353.901	88.12
354.128	80.12
354.355	86.12
354.583	103.12
354.81	84.12
355.037	80.12
355.264	87.12
355.491	85.12
355.718	89.12
355.945	84.12
356.172	103.12
356.399	93.12
356.626	85.12
356.853	92.12
357.08	95.12
357.307	84.12
357.534	94.12
357.761	97.12
357.988	81.12
358.215	104.12
358.441	94.12
358.668	92.12
358.895	92.12
359.122	103.12
359.349	96.12
359.576	90.12
359.802	81.12
360.029	78.12
360.256	101.12
360.483	78.12
360.709	90.12
360.936	102.12
361.163	96.12
361.39	107.12
361.616	90.12
361.843	103.12
362.07	88.12
362.296	111.12
362.523	94.12
362.749	94.12
362.976	100.12
363.203	114.12
363.429	78.12
363.656	95.12
363.882	102.12
364.109	97.12
364.335	119.12
364.562	109.12
364.788	99.12
365.015	98.12
365.241	106.12
365.468	92.12
365.694	91.12
365.92	79.12
366.147	81.12
366.373	96.12
366.599	86.12
366.826	89.12
367.052	109.12
367.278	102.12
367.505	86.12
367.731	93.12
367.957	90.12
368.184	98.12
368.41	74.12
368.636	87.12
368.862	91.12
369.089	91.12
369.315	88.12
369.541	80.12
369.767	84.12
369.993	91.12
370.219	84.12
370.445	94.12
370.672	87.12
370.898	88.12
371.124	99.12
371.35	72.12
371.576	82.12
371.802	95.12
372.028	105.12
372.254	98.12
372.48	100.12
372.706	93.12
372.932	91.12
373.158	95.12
373.384	95.12
373.61	117.12
373.835	118.12
374.061	75.12
374.287	83.12
374.513	98.12
374.739	102.12
374.965	95.12
375.191	103.12
375.416	91.12
375.642	102.12
375.868	109.12
376.094	88.12
376.319	90.12
376.545	84.12
376.771	90.12
376.997	85.12
377.222	91.12
377.448	97.12
377.674	102.12
377.899	84.12
378.125	82.12
378.35	102.12
378.576	96.12
378.802	88.12
379.027	98.12
379.253	99.12
379.478	71.12
379.704	96.12
379.929	90.12
380.155	106.12
380.38	84.12
380.606	98.12
380.831	98.12
381.057	93.12
381.282	95.12
381.507	84.12
381.733	118.12
381.958	98.12
382.184	98.12
382.409	83.12
382.634	114.12
382.86	94.12
383.085	92.12
383.31	103.12
383.535	99.12
383.761	88.12
383.986	99.12
384.211	84.12
384.436	89.12
384.662	97.12
384.887	99.12
385.112	95.12
385.337	109.12
385.562	83.12
385.787	94.12
386.013	86.12
386.238	92.12
386.463	73.12
386.688	102.12
386.913	88.12
387.138	78.12
387.363	99.12
387.588	102.12
387.813	93.12
388.038	89.12
388.263	94.12
388.488	100.12
388.713	101.12
388.938	91.12
389.163	70.12
389.387	81.12
389.612	98.12
389.837	89.12
390.062	86.12
390.287	99.12
390.512	98.12
390.736	84.12
390.961	99.12
391.186	84.12
391.411	99.12
391.636	84.12
391.86	93.12
392.085	87.12
392.31	84.12
392.534	95.12
392.759	103.12
392.984	134.12
393.208	207.12
393.433	276.12
393.658	220.12
393.882	118.12
394.107	101.12
394.331	123.12
394.556	110.12
394.78	100.12
395.005	79.12
395.229	92.12
395.454	78.12
395.678	101.12
395.903	120.12
396.127	130.12
396.352	148.12
396.576	160.12
396.801	189.12
397.025	227.12
397.249	142.12
397.474	113.12
397.698	92.12
397.922	111.12
398.147	87.12
398.371	88.12
398.595	95.12
398.82	95.12
399.044	80.12
399.268	80.12
399.492	93.12
399.717	102.12
399.941	95.12
400.165	71.12
400.389	77.12
400.613	79.12
400.837	102.12
401.062	86.12
401.286	96.12
401.51	85.12
401.734	88.12
401.958	94.12
402.182	86.12
402.406	84.12
402.63	87.12
402.854	77.12
403.078	93.12
403.302	93.12
403.526	102.12
403.75	109.12
403.974	95.12
404.198	104.12
404.422	122.12
404.645	119.12
404.869	112.12
405.093	94.12
405.317	88.12
405.541	86.12
405.765	91.12
405.988	80.12
406.212	86.12
406.436	95.12
406.66	87.12
406.883	86.12
407.107	98.12
407.331	105.12
407.555	93.12
407.778	99.12
408.002	103.12
408.226	86.12
408.449	92.12
408.673	94.12
408.896	95.12
409.12	80.12
409.344	91.12
409.567	106.12
409.791	100.12
410.014	103.12
410.238	90.12
410.461	102.12
410.685	87.12
410.908	86.12
411.132	101.12
411.355	82.12
411.578	102.12
411.802	91.12
412.025	87.12
412.249	96.12
412.472	101.12
412.695	90.12
412.919	89.12
413.142	99.12
413.365	87.12
413.589	85.12
413.812	94.12
414.035	89.12
414.258	91.12
414.482	91.12
414.705	101.12
414.928	78.12
415.151	85.12
415.374	73.12
415.597	101.12
415.821	99.12
416.044	89.12
416.267	70.12
416.49	85.12
416.713	100.12
416.936	86.12
417.159	76.12
417.382	99.12
417.605	98.12
417.828	95.12
418.051	88.12
418.274	81.12
418.497	92.12
418.72	85.12
418.943	80.12
419.166	99.12
419.389	108.12
419.611	84.12
419.834	84.12
420.057	94.12
420.28	87.12
420.503	88.12
420.726	85.12
420.948	91.12
421.171	91.12
421.394	102.12
421.617	93.12
421.839	122.12
422.062	134.12
422.285	152.12
422.507	243.12
422.73	361.12
422.953	312.12
423.175	194.12
423.398	141.12
423.621	110.12
423.843	100.12
424.066	92.12
424.288	95.12
424.511	101.12
424.733	84.12
424.956	94.12
425.178	103.12
425.401	100.12
425.623	86.12
425.846	78.12
426.068	94.12
426.291	90.12
426.513	76.12
426.735	88.12
426.958	70.12
427.18	81.12
427.402	101.12
427.625	86.12
427.847	96.12
428.069	106.12
428.292	114.12
428.514	138.12
428.736	115.12
428.958	114.12
429.181	122.12
429.403	106.12
429.625	119.12
429.847	116.12
430.069	154.12
430.292	164.12
430.514	168.12
430.736	122.12
430.958	128.12
431.18	91.12
431.402	89.12
431.624	94.12
431.846	129.12
432.068	131.12
432.29	111.12
432.512	90.12
432.734	98.12
432.956	102.12
433.178	83.12
433.4	84.12
433.622	78.12
433.844	80.12
434.066	99.12
434.287	75.12
434.509	94.12
434.731	86.12
434.953	88.12
435.175	85.12
435.397	90.12
435.618	91.12
435.84	93.12
436.062	92.12
436.284	96.12
436.505	90.12
436.727	100.12
436.949	77.12
437.17	86.12
437.392	88.12
437.614	94.12
437.835	85.12
438.057	90.12
438.278	84.12
438.5	94.12
438.721	103.12
438.943	85.12
439.165	88.12
439.386	83.12
439.608	105.12
439.829	91.12
440.05	92.12
440.272	79.12
440.493	93.12
440.715	83.12
440.936	87.12
441.158	91.12
441.379	82.12
441.6	91.12
441.822	94.12
442.043	90.12
442.264	98.12
442.486	120.12
442.707	154.12
442.928	126.12
443.149	98.12
443.371	134.12
443.592	222.12
443.813	202.12
444.034	109.12
444.255	89.12
444.476	91.12
444.698	102.12
444.919	87.12
445.14	168.12
445.361	184.12
445.582	261.12
445.803	226.12
446.024	118.12
446.245	98.12
446.466	101.12
446.687	95.12
446.908	92.12
447.129	92.12
447.35	99.12
447.571	85.12
447.792	78.12
448.013	92.12
448.234	100.12
448.455	82.12
448.675	86.12
448.896	87.12
449.117	86.12
449.338	98.12
449.559	79.12
449.779	101.12
450	104.12
450.221	100.12
450.442	95.12
450.662	82.12
450.883	92.12
451.104	90.12
451.324	76.12
451.545	78.12
451.766	76.12
451.986	96.12
452.207	90.12
452.428	97.12
452.648	95.12
452.869	91.12
453.089	95.12
453.31	93.12
453.53	104.12
453.751	80.12
453.971	89.12
454.192	88.12
454.412	90.12
454.633	84.12
454.853	83.12
455.073	87.12
455.294	96.12
455.514	102.12
455.734	94.12
455.955	78.12
456.175	81.12
456.395	86.12
456.616	84.12
456.836	85.12
457.056	96.12
457.276	88.12
457.497	93.12
457.717	98.12
457.937	115.12
458.157	108.12
458.377	128.12
458.598	105.12
458.818	118.12
459.038	101.12
459.258	77.12
459.478	76.12
459.698	78.12
459.918	97.12
460.138	99.12
460.358	95.12
460.578	95.12
460.798	116.12
461.018	108.12
461.238	89.12
461.458	74.12
461.678	101.12
461.898	98.12
462.118	92.12
462.338	89.12
462.558	118.12
462.777	80.12
462.997	82.12
463.217	80.12
463.437	85.12
463.657	84.12
463.876	89.12
464.096	83.12
464.316	101.12
464.536	90.12
464.755	86.12
464.975	90.12
465.195	80.12
465.414	90.12
465.634	86.12
465.854	103.12
466.073	94.12
466.293	102.12
466.512	80.12
466.732	88.12
466.951	82.12
467.171	93.12
467.391	96.12
467.61	81.12
467.829	96.12
468.049	90.12
468.268	89.12
468.488	91.12
468.707	79.12
468.927	91.12
469.146	81.12
469.365	93.12
469.585	80.12
469.804	78.12
470.023	84.12
470.243	89.12
470.462	96.12
470.681	86.12
470.901	92.12
471.12	88.12
471.339	106.12
471.558	88.12
471.777	88.12
471.997	76.12
472.216	86.12
472.435	77.12
472.654	95.12
472.873	92.12
473.092	86.12
473.311	107.12
473.53	91.12
473.749	93.12
473.968	101.12
474.187	86.12
474.406	89.12
474.625	92.12
474.844	95.12
475.063	82.12
475.282	84.12
475.501	81.12
475.72	98.12
475.939	89.12
476.158	78.12
476.377	81.12
476.596	98.12
476.814	100.12
477.033	89.12
477.252	88.12
477.471	105.12
477.69	91.12
477.908	102.12
478.127	99.12
478.346	90.12
478.564	90.12
478.783	94.12
479.002	93.12
479.22	86.12
479.439	93.12
479.658	74.12
479.876	75.12
480.095	88.12
480.313	98.12
480.532	92.12
480.751	92.12
480.969	76.12
481.188	84.12
481.406	91.12
481.624	86.12
481.843	83.12
482.061	92.12
482.28	100.12
482.498	95.12
482.717	84.12
482.935	92.12
483.153	94.12
483.372	101.12
483.59	84.12
483.808	99.12
484.027	100.12
484.245	91.12
484.463	86.12
484.681	94.12
484.9	84.12
485.118	96.12
485.336	109.12
485.554	90.12
485.772	98.12
485.99	107.12
486.209	93.12
486.427	86.12
486.645	95.12
486.863	91.12
487.081	93.12
487.299	87.12
487.517	102.12
487.735	115.12
487.953	178.12
488.171	141.12
488.389	102.12
488.607	91.12
488.825	89.12
489.043	100.12
489.261	86.12
489.479	100.12
489.696	98.12
489.914	78.12
490.132	93.12
490.35	107.12
490.568	81.12
490.786	95.12
491.003	108.12
491.221	98.12
491.439	80.12
491.657	104.12
491.874	94.12
492.092	95.12
492.31	100.12
492.527	94.12
492.745	79.12
492.963	98.12
493.18	104.12
493.398	100.12
493.615	102.12
493.833	69.12
494.05	80.12
494.268	86.12
494.485	81.12
494.703	98.12
494.92	100.12
495.138	78.12
495.355	100.12
495.573	94.12
495.79	95.12
496.008	103.12
496.225	102.12
496.442	80.12
496.66	91.12
496.877	92.12
497.094	95.12
497.312	103.12
497.529	96.12
497.746	97.12
497.963	96.12
498.181	91.12
498.398	107.12
498.615	78.12
498.832	87.12
499.049	79.12
499.267	91.12
499.484	84.12
499.701	87.12
499.918	97.12
500.135	96.12
500.352	84.12
500.569	102.12
500.786	118.12
501.003	117.12
501.22	99.12
501.437	85.12
501.654	95.12
501.871	94.12
502.088	91.12
502.305	80.12
502.522	95.12
502.739	101.12
502.956	91.12
503.172	92.12
503.389	89.12
503.606	106.12
503.823	98.12
504.04	103.12
504.256	130.12
504.473	140.12
504.69	101.12
504.907	96.12
505.123	82.12
505.34	93.12
505.557	91.12
505.773	98.12
505.99	90.12
506.207	86.12
506.423	86.12
506.64	98.12
506.856	77.12
507.073	78.12
507.289	89.12
507.506	73.12
507.722	95.12
507.939	88.12
508.155	88.12
508.372	98.12
508.588	98.12
508.805	100.12
509.021	96.12
509.238	88.12
509.454	79.12
509.67	81.12
509.887	77.12
510.103	95.12
510.319	99.12
510.536	93.12
510.752	104.12
510.968	94.12
511.184	95.12
511.401	94.12
511.617	88.12
511.833	93.12
512.049	99.12
512.265	96.12
512.481	98.12
512.698	94.12
512.914	93.12
513.13	98.12
513.346	89.12
513.562	98.12
513.778	87.12
513.994	90.12
514.21	92.12
514.426	81.12
514.642	112.12
514.858	111.12
515.074	90.12
515.29	101.12
515.506	94.12
515.721	95.12
515.937	94.12
516.153	101.12
516.369	86.12
516.585	102.12
516.801	103.12
517.016	105.12
