Data from 237_1_HRD10591_00033.txt Node
Date: Mon Jan 19 14:10:46 EST 2026
User: Yrep
Spectrometer: HR+D1059
Trigger mode: 1
Integration Time (sec): 1.000000E-1
Scans to average: 1
Electric dark correction enabled: true
Nonlinearity correction enabled: false
Boxcar width: 0
XAxis mode: Wavelengths
Number of Pixels in Spectrum: 2048
>>>>>Begin Spectral Data<<<<<
223.165	-12.38
223.4	-12.38
223.635	-12.38
223.869	-11.38
224.104	-11.38
224.338	-15.38
224.573	-16.38
224.808	-21.38
225.042	-2.38
225.277	0.62
225.511	-1.38
225.746	-9.38
225.98	2.62
226.215	15.62
226.449	5.62
226.683	21.62
226.918	27.62
227.152	27.62
227.387	32.62
227.621	34.62
227.856	32.62
228.09	46.62
228.324	45.62
228.559	61.62
228.793	68.62
229.027	65.62
229.262	64.62
229.496	56.62
229.73	65.62
229.964	64.62
230.199	72.62
230.433	64.62
230.667	77.62
230.901	65.62
231.136	75.62
231.37	73.62
231.604	66.62
231.838	80.62
232.072	89.62
232.306	85.62
232.541	79.62
232.775	82.62
233.009	79.62
233.243	61.62
233.477	77.62
233.711	81.62
233.945	80.62
234.179	70.62
234.413	72.62
234.647	67.62
234.881	88.62
235.115	72.62
235.349	86.62
235.583	75.62
235.817	60.62
236.051	59.62
236.285	67.62
236.519	78.62
236.753	73.62
236.987	69.62
237.221	61.62
237.455	76.62
237.689	80.62
237.922	81.62
238.156	67.62
238.39	77.62
238.624	73.62
238.858	80.62
239.091	78.62
239.325	66.62
239.559	74.62
239.793	69.62
240.027	67.62
240.26	72.62
240.494	73.62
240.728	71.62
240.961	73.62
241.195	73.62
241.429	82.62
241.662	75.62
241.896	71.62
242.13	78.62
242.363	72.62
242.597	86.62
242.83	70.62
243.064	71.62
243.298	72.62
243.531	77.62
243.765	82.62
243.998	80.62
244.232	79.62
244.465	75.62
244.699	79.62
244.932	80.62
245.166	71.62
245.399	89.62
245.633	69.62
245.866	70.62
246.099	71.62
246.333	54.62
246.566	63.62
246.8	70.62
247.033	67.62
247.266	81.62
247.5	75.62
247.733	78.62
247.966	78.62
248.2	76.62
248.433	68.62
248.666	82.62
248.899	70.62
249.133	67.62
249.366	79.62
249.599	76.62
249.832	69.62
250.066	77.62
250.299	61.62
250.532	85.62
250.765	67.62
250.998	81.62
251.231	66.62
251.465	71.62
251.698	83.62
251.931	87.62
252.164	85.62
252.397	82.62
252.63	75.62
252.863	68.62
253.096	81.62
253.329	83.62
253.562	68.62
253.795	81.62
254.028	77.62
254.261	75.62
254.494	76.62
254.727	89.62
254.96	67.62
255.193	75.62
255.426	84.62
255.659	80.62
255.892	75.62
256.124	72.62
256.357	70.62
256.59	71.62
256.823	74.62
257.056	81.62
257.289	74.62
257.521	91.62
257.754	70.62
257.987	90.62
258.22	77.62
258.452	80.62
258.685	75.62
258.918	81.62
259.151	63.62
259.383	84.62
259.616	75.62
259.849	76.62
260.081	87.62
260.314	75.62
260.547	74.62
260.779	84.62
261.012	81.62
261.244	79.62
261.477	83.62
261.71	81.62
261.942	78.62
262.175	72.62
262.407	75.62
262.64	85.62
262.872	91.62
263.105	75.62
263.337	72.62
263.57	61.62
263.802	83.62
264.035	70.62
264.267	75.62
264.499	81.62
264.732	78.62
264.964	71.62
265.197	79.62
265.429	70.62
265.661	65.62
265.894	65.62
266.126	81.62
266.358	72.62
266.591	95.62
266.823	75.62
267.055	82.62
267.287	69.62
267.52	79.62
267.752	60.62
267.984	77.62
268.216	81.62
268.448	85.62
268.681	73.62
268.913	83.62
269.145	81.62
269.377	74.62
269.609	74.62
269.841	74.62
270.073	81.62
270.306	84.62
270.538	69.62
270.77	71.62
271.002	64.62
271.234	83.62
271.466	84.62
271.698	82.62
271.93	74.62
272.162	83.62
272.394	74.62
272.626	74.62
272.858	77.62
273.09	89.62
273.322	81.62
273.553	77.62
273.785	66.62
274.017	89.62
274.249	77.62
274.481	82.62
274.713	87.62
274.945	82.62
275.176	82.62
275.408	92.62
275.64	87.62
275.872	78.62
276.104	77.62
276.335	86.62
276.567	74.62
276.799	68.62
277.031	85.62
277.262	85.62
277.494	70.62
277.726	69.62
277.957	81.62
278.189	88.62
278.421	91.62
278.652	92.62
278.884	79.62
279.115	79.62
279.347	67.62
279.579	59.62
279.81	84.62
280.042	70.62
280.273	83.62
280.505	85.62
280.736	85.62
280.968	75.62
281.199	77.62
281.431	76.62
281.662	76.62
281.894	88.62
282.125	73.62
282.356	65.62
282.588	79.62
282.819	71.62
283.051	68.62
283.282	63.62
283.513	71.62
283.745	72.62
283.976	71.62
284.207	79.62
284.439	77.62
284.67	83.62
284.901	72.62
285.132	89.62
285.364	86.62
285.595	87.62
285.826	82.62
286.057	86.62
286.288	99.62
286.52	92.62
286.751	77.62
286.982	85.62
287.213	85.62
287.444	60.62
287.675	78.62
287.906	88.62
288.138	87.62
288.369	91.62
288.6	83.62
288.831	79.62
289.062	80.62
289.293	77.62
289.524	79.62
289.755	60.62
289.986	86.62
290.217	85.62
290.448	82.62
290.679	79.62
290.91	71.62
291.141	77.62
291.371	80.62
291.602	76.62
291.833	87.62
292.064	78.62
292.295	93.62
292.526	65.62
292.757	76.62
292.987	94.62
293.218	78.62
293.449	85.62
293.68	86.62
293.91	73.62
294.141	77.62
294.372	77.62
294.603	82.62
294.833	85.62
295.064	83.62
295.295	93.62
295.525	84.62
295.756	75.62
295.987	81.62
296.217	90.62
296.448	83.62
296.679	67.62
296.909	70.62
297.14	88.62
297.37	84.62
297.601	83.62
297.831	87.62
298.062	79.62
298.292	80.62
298.523	89.62
298.753	85.62
298.984	83.62
299.214	91.62
299.445	81.62
299.675	82.62
299.905	99.62
300.136	76.62
300.366	74.62
300.597	81.62
300.827	77.62
301.057	85.62
301.288	80.62
301.518	70.62
301.748	75.62
301.979	93.62
302.209	82.62
302.439	91.62
302.669	91.62
302.9	77.62
303.13	76.62
303.36	87.62
303.59	72.62
303.82	77.62
304.051	85.62
304.281	82.62
304.511	73.62
304.741	82.62
304.971	78.62
305.201	90.62
305.431	71.62
305.661	83.62
305.891	77.62
306.121	79.62
306.352	77.62
306.582	72.62
306.812	81.62
307.042	87.62
307.272	78.62
307.502	95.62
307.731	72.62
307.961	90.62
308.191	89.62
308.421	91.62
308.651	80.62
308.881	81.62
309.111	81.62
309.341	81.62
309.571	91.62
309.8	87.62
310.03	75.62
310.26	75.62
310.49	87.62
310.72	88.62
310.949	63.62
311.179	77.62
311.409	80.62
311.639	79.62
311.868	74.62
312.098	85.62
312.328	80.62
312.557	87.62
312.787	71.62
313.017	81.62
313.246	79.62
313.476	74.62
313.706	81.62
313.935	83.62
314.165	92.62
314.394	81.62
314.624	68.62
314.853	81.62
315.083	79.62
315.312	77.62
315.542	94.62
315.771	76.62
316.001	90.62
316.23	83.62
316.46	78.62
316.689	74.62
316.919	70.62
317.148	83.62
317.377	86.62
317.607	93.62
317.836	77.62
318.065	86.62
318.295	81.62
318.524	93.62
318.753	81.62
318.983	77.62
319.212	99.62
319.441	85.62
319.67	85.62
319.9	70.62
320.129	77.62
320.358	81.62
320.587	78.62
320.816	78.62
321.046	71.62
321.275	83.62
321.504	76.62
321.733	85.62
321.962	79.62
322.191	78.62
322.42	70.62
322.649	77.62
322.878	75.62
323.108	79.62
323.337	72.62
323.566	79.62
323.795	77.62
324.024	88.62
324.253	75.62
324.482	93.62
324.71	73.62
324.939	78.62
325.168	77.62
325.397	74.62
325.626	81.62
325.855	79.62
326.084	86.62
326.313	95.62
326.542	88.62
326.77	78.62
326.999	74.62
327.228	57.62
327.457	97.62
327.686	93.62
327.914	69.62
328.143	82.62
328.372	89.62
328.6	91.62
328.829	74.62
329.058	94.62
329.287	85.62
329.515	81.62
329.744	79.62
329.972	86.62
330.201	72.62
330.43	83.62
330.658	76.62
330.887	62.62
331.115	69.62
331.344	93.62
331.572	74.62
331.801	82.62
332.03	78.62
332.258	75.62
332.486	79.62
332.715	86.62
332.943	81.62
333.172	68.62
333.4	85.62
333.629	90.62
333.857	81.62
334.085	89.62
334.314	76.62
334.542	89.62
334.771	74.62
334.999	78.62
335.227	84.62
335.455	77.62
335.684	97.62
335.912	76.62
336.14	107.62
336.369	87.62
336.597	76.62
336.825	89.62
337.053	79.62
337.281	67.62
337.51	79.62
337.738	91.62
337.966	78.62
338.194	77.62
338.422	82.62
338.65	85.62
338.878	77.62
339.106	75.62
339.334	87.62
339.562	85.62
339.79	83.62
340.018	92.62
340.246	81.62
340.474	83.62
340.702	85.62
340.93	76.62
341.158	91.62
341.386	81.62
341.614	83.62
341.842	99.62
342.07	73.62
342.298	61.62
342.526	92.62
342.754	81.62
342.981	73.62
343.209	58.62
343.437	69.62
343.665	79.62
343.893	83.62
344.12	81.62
344.348	78.62
344.576	82.62
344.804	88.62
345.031	74.62
345.259	82.62
345.487	72.62
345.714	83.62
345.942	87.62
346.17	74.62
346.397	73.62
346.625	76.62
346.853	89.62
347.08	72.62
347.308	77.62
347.535	94.62
347.763	61.62
347.99	87.62
348.218	74.62
348.445	92.62
348.673	78.62
348.9	85.62
349.128	80.62
349.355	85.62
349.583	76.62
349.81	87.62
350.037	86.62
350.265	70.62
350.492	71.62
350.72	86.62
350.947	83.62
351.174	82.62
351.402	80.62
351.629	86.62
351.856	82.62
352.083	74.62
352.311	84.62
352.538	77.62
352.765	74.62
352.992	76.62
353.22	75.62
353.447	91.62
353.674	80.62
353.901	87.62
354.128	92.62
354.355	69.62
354.583	82.62
354.81	97.62
355.037	73.62
355.264	86.62
355.491	83.62
355.718	70.62
355.945	81.62
356.172	92.62
356.399	80.62
356.626	79.62
356.853	84.62
357.08	87.62
357.307	83.62
357.534	77.62
357.761	80.62
357.988	87.62
358.215	97.62
358.441	97.62
358.668	83.62
358.895	70.62
359.122	95.62
359.349	85.62
359.576	77.62
359.802	84.62
360.029	66.62
360.256	85.62
360.483	71.62
360.709	79.62
360.936	84.62
361.163	69.62
361.39	79.62
361.616	88.62
361.843	91.62
362.07	76.62
362.296	95.62
362.523	82.62
362.749	91.62
362.976	92.62
363.203	115.62
363.429	79.62
363.656	85.62
363.882	81.62
364.109	96.62
364.335	111.62
364.562	95.62
364.788	87.62
365.015	93.62
365.241	77.62
365.468	89.62
365.694	71.62
365.92	59.62
366.147	74.62
366.373	76.62
366.599	74.62
366.826	84.62
367.052	89.62
367.278	80.62
367.505	79.62
367.731	90.62
367.957	77.62
368.184	93.62
368.41	79.62
368.636	78.62
368.862	82.62
369.089	78.62
369.315	78.62
369.541	88.62
369.767	67.62
369.993	93.62
370.219	57.62
370.445	78.62
370.672	90.62
370.898	70.62
371.124	84.62
371.35	88.62
371.576	71.62
371.802	84.62
372.028	93.62
372.254	87.62
372.48	102.62
372.706	76.62
372.932	83.62
373.158	89.62
373.384	85.62
373.61	96.62
373.835	109.62
374.061	83.62
374.287	71.62
374.513	82.62
374.739	97.62
374.965	81.62
375.191	72.62
375.416	67.62
375.642	93.62
375.868	90.62
376.094	85.62
376.319	71.62
376.545	94.62
376.771	76.62
376.997	85.62
377.222	96.62
377.448	91.62
377.674	95.62
377.899	87.62
378.125	86.62
378.35	74.62
378.576	75.62
378.802	84.62
379.027	75.62
379.253	94.62
379.478	79.62
379.704	82.62
379.929	77.62
380.155	79.62
380.38	78.62
380.606	75.62
380.831	79.62
381.057	82.62
381.282	81.62
381.507	84.62
381.733	97.62
381.958	86.62
382.184	81.62
382.409	77.62
382.634	64.62
382.86	89.62
383.085	80.62
383.31	95.62
383.535	81.62
383.761	63.62
383.986	91.62
384.211	78.62
384.436	77.62
384.662	81.62
384.887	79.62
385.112	85.62
385.337	88.62
385.562	75.62
385.787	87.62
386.013	85.62
386.238	86.62
386.463	79.62
386.688	86.62
386.913	86.62
387.138	77.62
387.363	74.62
387.588	80.62
387.813	83.62
388.038	94.62
388.263	81.62
388.488	92.62
388.713	87.62
388.938	77.62
389.163	83.62
389.387	89.62
389.612	78.62
389.837	93.62
390.062	88.62
390.287	79.62
390.512	77.62
390.736	75.62
390.961	81.62
391.186	75.62
391.411	77.62
391.636	79.62
391.86	72.62
392.085	86.62
392.31	74.62
392.534	69.62
392.759	99.62
392.984	122.62
393.208	205.62
393.433	299.62
393.658	233.62
393.882	113.62
394.107	93.62
394.331	94.62
394.556	90.62
394.78	98.62
395.005	85.62
395.229	93.62
395.454	78.62
395.678	84.62
395.903	110.62
396.127	124.62
396.352	127.62
396.576	138.62
396.801	200.62
397.025	223.62
397.249	138.62
397.474	102.62
397.698	91.62
397.922	85.62
398.147	87.62
398.371	83.62
398.595	69.62
398.82	81.62
399.044	84.62
399.268	87.62
399.492	83.62
399.717	78.62
399.941	95.62
400.165	86.62
400.389	76.62
400.613	82.62
400.837	84.62
401.062	57.62
401.286	79.62
401.51	93.62
401.734	76.62
401.958	76.62
402.182	78.62
402.406	84.62
402.63	75.62
402.854	73.62
403.078	93.62
403.302	101.62
403.526	80.62
403.75	75.62
403.974	80.62
404.198	78.62
404.422	99.62
404.645	95.62
404.869	87.62
405.093	87.62
405.317	87.62
405.541	82.62
405.765	85.62
405.988	95.62
406.212	82.62
406.436	69.62
406.66	73.62
406.883	77.62
407.107	83.62
407.331	71.62
407.555	83.62
407.778	91.62
408.002	103.62
408.226	69.62
408.449	84.62
408.673	76.62
408.896	79.62
409.12	77.62
409.344	84.62
409.567	80.62
409.791	86.62
410.014	97.62
410.238	77.62
410.461	73.62
410.685	97.62
410.908	81.62
411.132	89.62
411.355	79.62
411.578	84.62
411.802	83.62
412.025	68.62
412.249	72.62
412.472	75.62
412.695	79.62
412.919	85.62
413.142	91.62
413.365	77.62
413.589	80.62
413.812	75.62
414.035	79.62
414.258	80.62
414.482	80.62
414.705	82.62
414.928	86.62
415.151	77.62
415.374	78.62
415.597	64.62
415.821	69.62
416.044	91.62
416.267	79.62
416.49	85.62
416.713	89.62
416.936	76.62
417.159	73.62
417.382	87.62
417.605	78.62
417.828	85.62
418.051	80.62
418.274	66.62
418.497	82.62
418.72	74.62
418.943	83.62
419.166	87.62
419.389	83.62
419.611	86.62
419.834	83.62
420.057	88.62
420.28	80.62
420.503	82.62
420.726	77.62
420.948	89.62
421.171	97.62
421.394	91.62
421.617	111.62
421.839	105.62
422.062	93.62
422.285	125.62
422.507	220.62
422.73	343.62
422.953	299.62
423.175	146.62
423.398	107.62
423.621	88.62
423.843	81.62
424.066	93.62
424.288	84.62
424.511	77.62
424.733	85.62
424.956	98.62
425.178	66.62
425.401	93.62
425.623	83.62
425.846	86.62
426.068	78.62
426.291	73.62
426.513	83.62
426.735	93.62
426.958	70.62
427.18	81.62
427.402	97.62
427.625	75.62
427.847	101.62
428.069	81.62
428.292	121.62
428.514	107.62
428.736	102.62
428.958	97.62
429.181	115.62
429.403	83.62
429.625	88.62
429.847	92.62
430.069	119.62
430.292	132.62
430.514	132.62
430.736	126.62
430.958	113.62
431.18	82.62
431.402	75.62
431.624	83.62
431.846	94.62
432.068	107.62
432.29	93.62
432.512	88.62
432.734	87.62
432.956	77.62
433.178	85.62
433.4	69.62
433.622	84.62
433.844	89.62
434.066	75.62
434.287	77.62
434.509	75.62
434.731	92.62
434.953	71.62
435.175	77.62
435.397	84.62
435.618	86.62
435.84	83.62
436.062	69.62
436.284	81.62
436.505	79.62
436.727	81.62
436.949	91.62
437.17	75.62
437.392	89.62
437.614	83.62
437.835	91.62
438.057	57.62
438.278	77.62
438.5	95.62
438.721	86.62
438.943	80.62
439.165	83.62
439.386	79.62
439.608	85.62
439.829	79.62
440.05	96.62
440.272	66.62
440.493	88.62
440.715	90.62
440.936	79.62
441.158	75.62
441.379	77.62
441.6	83.62
441.822	82.62
442.043	82.62
442.264	73.62
442.486	100.62
442.707	111.62
442.928	103.62
443.149	98.62
443.371	123.62
443.592	177.62
443.813	159.62
444.034	83.62
444.255	81.62
444.476	94.62
444.698	74.62
444.919	88.62
445.14	169.62
445.361	136.62
445.582	197.62
445.803	172.62
446.024	89.62
446.245	83.62
446.466	91.62
446.687	85.62
446.908	64.62
447.129	86.62
447.35	64.62
447.571	71.62
447.792	82.62
448.013	74.62
448.234	73.62
448.455	69.62
448.675	75.62
448.896	72.62
449.117	71.62
449.338	75.62
449.559	80.62
449.779	76.62
450	82.62
450.221	82.62
450.442	85.62
450.662	69.62
450.883	83.62
451.104	83.62
451.324	82.62
451.545	93.62
451.766	83.62
451.986	69.62
452.207	73.62
452.428	75.62
452.648	79.62
452.869	77.62
453.089	71.62
453.31	75.62
453.53	65.62
453.751	79.62
453.971	87.62
454.192	70.62
454.412	83.62
454.633	79.62
454.853	74.62
455.073	81.62
455.294	85.62
455.514	89.62
455.734	77.62
455.955	68.62
456.175	90.62
456.395	71.62
456.616	76.62
456.836	75.62
457.056	80.62
457.276	86.62
457.497	93.62
457.717	87.62
457.937	108.62
458.157	93.62
458.377	91.62
458.598	92.62
458.818	105.62
459.038	98.62
459.258	67.62
459.478	63.62
459.698	77.62
459.918	86.62
460.138	86.62
460.358	87.62
460.578	100.62
460.798	113.62
461.018	98.62
461.238	86.62
461.458	85.62
461.678	87.62
461.898	75.62
462.118	86.62
462.338	77.62
462.558	79.62
462.777	85.62
462.997	91.62
463.217	77.62
463.437	82.62
463.657	67.62
463.876	75.62
464.096	88.62
464.316	84.62
464.536	78.62
464.755	89.62
464.975	85.62
465.195	89.62
465.414	61.62
465.634	79.62
465.854	63.62
466.073	78.62
466.293	91.62
466.512	81.62
466.732	72.62
466.951	87.62
467.171	89.62
467.391	85.62
467.61	85.62
467.829	81.62
468.049	85.62
468.268	84.62
468.488	85.62
468.707	71.62
468.927	68.62
469.146	83.62
469.365	74.62
469.585	74.62
469.804	70.62
470.023	81.62
470.243	85.62
470.462	94.62
470.681	86.62
470.901	85.62
471.12	83.62
471.339	82.62
471.558	78.62
471.777	76.62
471.997	83.62
472.216	79.62
472.435	69.62
472.654	84.62
472.873	77.62
473.092	79.62
473.311	74.62
473.53	81.62
473.749	69.62
473.968	97.62
474.187	86.62
474.406	67.62
474.625	73.62
474.844	87.62
475.063	72.62
475.282	86.62
475.501	63.62
475.72	82.62
475.939	86.62
476.158	84.62
476.377	71.62
476.596	73.62
476.814	71.62
477.033	85.62
477.252	77.62
477.471	94.62
477.69	77.62
477.908	82.62
478.127	78.62
478.346	84.62
478.564	92.62
478.783	79.62
479.002	78.62
479.22	93.62
479.439	99.62
479.658	76.62
479.876	78.62
480.095	85.62
480.313	89.62
480.532	85.62
480.751	86.62
480.969	95.62
481.188	86.62
481.406	74.62
481.624	77.62
481.843	78.62
482.061	91.62
482.28	94.62
482.498	85.62
482.717	83.62
482.935	78.62
483.153	76.62
483.372	80.62
483.59	71.62
483.808	79.62
484.027	93.62
484.245	81.62
484.463	93.62
484.681	85.62
484.9	85.62
485.118	87.62
485.336	77.62
485.554	92.62
485.772	92.62
485.99	90.62
486.209	77.62
486.427	73.62
486.645	83.62
486.863	86.62
487.081	87.62
487.299	89.62
487.517	86.62
487.735	117.62
487.953	115.62
488.171	98.62
488.389	90.62
488.607	81.62
488.825	85.62
489.043	73.62
489.261	93.62
489.479	86.62
489.696	81.62
489.914	78.62
490.132	78.62
490.35	80.62
490.568	87.62
490.786	64.62
491.003	79.62
491.221	90.62
491.439	105.62
491.657	79.62
491.874	98.62
492.092	86.62
492.31	81.62
492.527	101.62
492.745	68.62
492.963	97.62
493.18	89.62
493.398	83.62
493.615	87.62
493.833	69.62
494.05	77.62
494.268	87.62
494.485	89.62
494.703	77.62
494.92	79.62
495.138	83.62
495.355	71.62
495.573	91.62
495.79	86.62
496.008	92.62
496.225	92.62
496.442	93.62
496.66	77.62
496.877	76.62
497.094	90.62
497.312	85.62
497.529	93.62
497.746	97.62
497.963	90.62
498.181	86.62
498.398	95.62
498.615	91.62
498.832	95.62
499.049	88.62
499.267	97.62
499.484	85.62
499.701	77.62
499.918	84.62
500.135	80.62
500.352	85.62
500.569	75.62
500.786	84.62
501.003	86.62
501.22	79.62
501.437	100.62
501.654	91.62
501.871	88.62
502.088	70.62
502.305	77.62
502.522	101.62
502.739	80.62
502.956	76.62
503.172	84.62
503.389	98.62
503.606	90.62
503.823	100.62
504.04	94.62
504.256	118.62
504.473	115.62
504.69	83.62
504.907	82.62
505.123	76.62
505.34	89.62
505.557	85.62
505.773	81.62
505.99	79.62
506.207	93.62
506.423	95.62
506.64	93.62
506.856	83.62
507.073	83.62
507.289	82.62
507.506	75.62
507.722	77.62
507.939	72.62
508.155	90.62
508.372	64.62
508.588	59.62
508.805	82.62
509.021	80.62
509.238	77.62
509.454	93.62
509.67	92.62
509.887	69.62
510.103	77.62
510.319	76.62
510.536	82.62
510.752	78.62
510.968	79.62
511.184	94.62
511.401	71.62
511.617	85.62
511.833	76.62
512.049	93.62
512.265	94.62
512.481	86.62
512.698	82.62
512.914	93.62
513.13	81.62
513.346	78.62
513.562	89.62
513.778	95.62
513.994	69.62
514.21	86.62
514.426	84.62
514.642	83.62
514.858	78.62
515.074	95.62
515.29	86.62
515.506	93.62
515.721	85.62
515.937	81.62
516.153	97.62
516.369	93.62
516.585	70.62
516.801	89.62
517.016	100.62
517.232	95.62
517.448	109.62
517.664	97.62
517.879	87.62
518.095	75.62
518.311	70.62
518.527	101.62
518.742	91.62
518.958	123.62
519.173	130.62
519.389	97.62
