Data from 237_1_HRD10591_00050.txt Node
Date: Mon Jan 19 14:10:54 EST 2026
User: Yrep
Spectrometer: HR+D1059
Trigger mode: 1
Integration Time (sec): 1.000000E-1
Scans to average: 1
Electric dark correction enabled: true
Nonlinearity correction enabled: false
Boxcar width: 0
XAxis mode: Wavelengths
Number of Pixels in Spectrum: 2048
>>>>>Begin Spectral Data<<<<<
223.165	-27.88
223.4	-27.88
223.635	-27.88
223.869	-19.88
224.104	-24.88
224.338	-14.88
224.573	-8.88
224.808	-8.88
225.042	-1.88
225.277	-3.88
225.511	-15.88
225.746	16.12
225.98	2.12
226.215	19.12
226.449	10.12
226.683	22.12
226.918	22.12
227.152	35.12
227.387	31.12
227.621	57.12
227.856	38.12
228.09	52.12
228.324	50.12
228.559	63.12
228.793	56.12
229.027	57.12
229.262	55.12
229.496	69.12
229.73	71.12
229.964	85.12
230.199	71.12
230.433	69.12
230.667	77.12
230.901	75.12
231.136	65.12
231.37	71.12
231.604	85.12
231.838	79.12
232.072	77.12
232.306	73.12
232.541	75.12
232.775	86.12
233.009	89.12
233.243	87.12
233.477	91.12
233.711	80.12
233.945	87.12
234.179	81.12
234.413	80.12
234.647	74.12
234.881	80.12
235.115	77.12
235.349	63.12
235.583	73.12
235.817	66.12
236.051	68.12
236.285	82.12
236.519	76.12
236.753	85.12
236.987	71.12
237.221	71.12
237.455	68.12
237.689	77.12
237.922	72.12
238.156	87.12
238.39	73.12
238.624	83.12
238.858	70.12
239.091	69.12
239.325	81.12
239.559	77.12
239.793	73.12
240.027	90.12
240.26	91.12
240.494	71.12
240.728	59.12
240.961	76.12
241.195	69.12
241.429	68.12
241.662	78.12
241.896	77.12
242.13	75.12
242.363	73.12
242.597	77.12
242.83	70.12
243.064	76.12
243.298	87.12
243.531	77.12
243.765	86.12
243.998	87.12
244.232	87.12
244.465	80.12
244.699	84.12
244.932	69.12
245.166	83.12
245.399	76.12
245.633	73.12
245.866	74.12
246.099	75.12
246.333	82.12
246.566	72.12
246.8	74.12
247.033	60.12
247.266	81.12
247.5	73.12
247.733	73.12
247.966	78.12
248.2	77.12
248.433	76.12
248.666	63.12
248.899	84.12
249.133	69.12
249.366	90.12
249.599	81.12
249.832	60.12
250.066	76.12
250.299	66.12
250.532	84.12
250.765	87.12
250.998	84.12
251.231	73.12
251.465	84.12
251.698	75.12
251.931	82.12
252.164	87.12
252.397	78.12
252.63	87.12
252.863	71.12
253.096	63.12
253.329	93.12
253.562	76.12
253.795	89.12
254.028	77.12
254.261	81.12
254.494	85.12
254.727	82.12
254.96	92.12
255.193	89.12
255.426	67.12
255.659	76.12
255.892	72.12
256.124	82.12
256.357	84.12
256.59	89.12
256.823	84.12
257.056	72.12
257.289	75.12
257.521	77.12
257.754	75.12
257.987	76.12
258.22	67.12
258.452	89.12
258.685	77.12
258.918	79.12
259.151	93.12
259.383	77.12
259.616	88.12
259.849	63.12
260.081	75.12
260.314	80.12
260.547	79.12
260.779	87.12
261.012	72.12
261.244	70.12
261.477	83.12
261.71	72.12
261.942	81.12
262.175	81.12
262.407	70.12
262.64	76.12
262.872	79.12
263.105	89.12
263.337	92.12
263.57	77.12
263.802	79.12
264.035	76.12
264.267	82.12
264.499	78.12
264.732	70.12
264.964	85.12
265.197	87.12
265.429	84.12
265.661	70.12
265.894	74.12
266.126	80.12
266.358	80.12
266.591	82.12
266.823	90.12
267.055	76.12
267.287	91.12
267.52	81.12
267.752	75.12
267.984	75.12
268.216	82.12
268.448	88.12
268.681	77.12
268.913	67.12
269.145	80.12
269.377	88.12
269.609	90.12
269.841	78.12
270.073	85.12
270.306	84.12
270.538	97.12
270.77	85.12
271.002	88.12
271.234	82.12
271.466	91.12
271.698	85.12
271.93	83.12
272.162	84.12
272.394	73.12
272.626	93.12
272.858	94.12
273.09	96.12
273.322	88.12
273.553	76.12
273.785	67.12
274.017	85.12
274.249	81.12
274.481	88.12
274.713	73.12
274.945	72.12
275.176	80.12
275.408	81.12
275.64	82.12
275.872	97.12
276.104	75.12
276.335	83.12
276.567	79.12
276.799	67.12
277.031	79.12
277.262	80.12
277.494	71.12
277.726	85.12
277.957	75.12
278.189	79.12
278.421	76.12
278.652	75.12
278.884	68.12
279.115	75.12
279.347	75.12
279.579	78.12
279.81	85.12
280.042	89.12
280.273	75.12
280.505	70.12
280.736	95.12
280.968	77.12
281.199	82.12
281.431	87.12
281.662	87.12
281.894	87.12
282.125	77.12
282.356	80.12
282.588	77.12
282.819	86.12
283.051	80.12
283.282	74.12
283.513	87.12
283.745	83.12
283.976	88.12
284.207	90.12
284.439	80.12
284.67	81.12
284.901	101.12
285.132	67.12
285.364	71.12
285.595	81.12
285.826	77.12
286.057	84.12
286.288	87.12
286.52	75.12
286.751	85.12
286.982	92.12
287.213	87.12
287.444	74.12
287.675	65.12
287.906	85.12
288.138	79.12
288.369	75.12
288.6	89.12
288.831	85.12
289.062	91.12
289.293	91.12
289.524	80.12
289.755	87.12
289.986	78.12
290.217	92.12
290.448	85.12
290.679	80.12
290.91	103.12
291.141	88.12
291.371	83.12
291.602	94.12
291.833	76.12
292.064	83.12
292.295	78.12
292.526	88.12
292.757	89.12
292.987	83.12
293.218	88.12
293.449	75.12
293.68	91.12
293.91	88.12
294.141	89.12
294.372	80.12
294.603	87.12
294.833	89.12
295.064	83.12
295.295	84.12
295.525	81.12
295.756	82.12
295.987	90.12
296.217	83.12
296.448	76.12
296.679	82.12
296.909	83.12
297.14	93.12
297.37	75.12
297.601	83.12
297.831	92.12
298.062	86.12
298.292	80.12
298.523	77.12
298.753	88.12
298.984	94.12
299.214	77.12
299.445	97.12
299.675	83.12
299.905	75.12
300.136	87.12
300.366	85.12
300.597	89.12
300.827	70.12
301.057	68.12
301.288	71.12
301.518	83.12
301.748	99.12
301.979	95.12
302.209	75.12
302.439	79.12
302.669	81.12
302.9	91.12
303.13	85.12
303.36	92.12
303.59	96.12
303.82	89.12
304.051	95.12
304.281	98.12
304.511	94.12
304.741	78.12
304.971	84.12
305.201	87.12
305.431	83.12
305.661	88.12
305.891	78.12
306.121	82.12
306.352	85.12
306.582	86.12
306.812	78.12
307.042	93.12
307.272	91.12
307.502	87.12
307.731	78.12
307.961	90.12
308.191	76.12
308.421	89.12
308.651	84.12
308.881	96.12
309.111	87.12
309.341	91.12
309.571	84.12
309.8	80.12
310.03	73.12
310.26	75.12
310.49	77.12
310.72	84.12
310.949	91.12
311.179	78.12
311.409	77.12
311.639	88.12
311.868	94.12
312.098	81.12
312.328	91.12
312.557	95.12
312.787	96.12
313.017	91.12
313.246	81.12
313.476	87.12
313.706	90.12
313.935	85.12
314.165	89.12
314.394	88.12
314.624	82.12
314.853	71.12
315.083	67.12
315.312	80.12
315.542	83.12
315.771	81.12
316.001	85.12
316.23	87.12
316.46	88.12
316.689	95.12
316.919	77.12
317.148	80.12
317.377	88.12
317.607	87.12
317.836	95.12
318.065	94.12
318.295	89.12
318.524	81.12
318.753	84.12
318.983	83.12
319.212	102.12
319.441	84.12
319.67	86.12
319.9	79.12
320.129	82.12
320.358	91.12
320.587	83.12
320.816	63.12
321.046	75.12
321.275	75.12
321.504	77.12
321.733	92.12
321.962	84.12
322.191	92.12
322.42	87.12
322.649	75.12
322.878	86.12
323.108	91.12
323.337	89.12
323.566	82.12
323.795	90.12
324.024	86.12
324.253	90.12
324.482	85.12
324.71	90.12
324.939	85.12
325.168	91.12
325.397	79.12
325.626	91.12
325.855	95.12
326.084	82.12
326.313	76.12
326.542	69.12
326.77	84.12
326.999	83.12
327.228	81.12
327.457	79.12
327.686	100.12
327.914	88.12
328.143	85.12
328.372	69.12
328.6	75.12
328.829	83.12
329.058	84.12
329.287	94.12
329.515	79.12
329.744	78.12
329.972	77.12
330.201	73.12
330.43	88.12
330.658	89.12
330.887	94.12
331.115	78.12
331.344	88.12
331.572	88.12
331.801	76.12
332.03	92.12
332.258	90.12
332.486	81.12
332.715	74.12
332.943	75.12
333.172	91.12
333.4	87.12
333.629	92.12
333.857	88.12
334.085	91.12
334.314	95.12
334.542	98.12
334.771	84.12
334.999	77.12
335.227	94.12
335.455	87.12
335.684	77.12
335.912	57.12
336.14	87.12
336.369	102.12
336.597	77.12
336.825	81.12
337.053	72.12
337.281	96.12
337.51	82.12
337.738	85.12
337.966	74.12
338.194	77.12
338.422	74.12
338.65	80.12
338.878	99.12
339.106	93.12
339.334	88.12
339.562	84.12
339.79	83.12
340.018	103.12
340.246	78.12
340.474	76.12
340.702	75.12
340.93	85.12
341.158	85.12
341.386	82.12
341.614	78.12
341.842	71.12
342.07	71.12
342.298	80.12
342.526	94.12
342.754	83.12
342.981	94.12
343.209	76.12
343.437	86.12
343.665	87.12
343.893	73.12
344.12	91.12
344.348	82.12
344.576	94.12
344.804	96.12
345.031	83.12
345.259	90.12
345.487	81.12
345.714	75.12
345.942	69.12
346.17	86.12
346.397	87.12
346.625	86.12
346.853	85.12
347.08	90.12
347.308	76.12
347.535	92.12
347.763	85.12
347.99	73.12
348.218	87.12
348.445	84.12
348.673	74.12
348.9	77.12
349.128	78.12
349.355	86.12
349.583	68.12
349.81	89.12
350.037	77.12
350.265	91.12
350.492	93.12
350.72	93.12
350.947	95.12
351.174	77.12
351.402	79.12
351.629	93.12
351.856	85.12
352.083	83.12
352.311	78.12
352.538	75.12
352.765	76.12
352.992	86.12
353.22	81.12
353.447	77.12
353.674	88.12
353.901	75.12
354.128	83.12
354.355	81.12
354.583	77.12
354.81	94.12
355.037	83.12
355.264	83.12
355.491	77.12
355.718	88.12
355.945	83.12
356.172	91.12
356.399	96.12
356.626	73.12
356.853	71.12
357.08	84.12
357.307	98.12
357.534	81.12
357.761	93.12
357.988	89.12
358.215	104.12
358.441	86.12
358.668	80.12
358.895	95.12
359.122	68.12
359.349	80.12
359.576	89.12
359.802	89.12
360.029	69.12
360.256	88.12
360.483	78.12
360.709	73.12
360.936	83.12
361.163	83.12
361.39	92.12
361.616	89.12
361.843	89.12
362.07	88.12
362.296	93.12
362.523	89.12
362.749	78.12
362.976	93.12
363.203	98.12
363.429	101.12
363.656	97.12
363.882	88.12
364.109	100.12
364.335	97.12
364.562	78.12
364.788	82.12
365.015	74.12
365.241	85.12
365.468	79.12
365.694	80.12
365.92	75.12
366.147	68.12
366.373	85.12
366.599	67.12
366.826	72.12
367.052	79.12
367.278	87.12
367.505	72.12
367.731	88.12
367.957	90.12
368.184	91.12
368.41	98.12
368.636	73.12
368.862	69.12
369.089	76.12
369.315	80.12
369.541	78.12
369.767	78.12
369.993	93.12
370.219	75.12
370.445	85.12
370.672	83.12
370.898	92.12
371.124	73.12
371.35	77.12
371.576	82.12
371.802	89.12
372.028	88.12
372.254	82.12
372.48	79.12
372.706	87.12
372.932	78.12
373.158	84.12
373.384	95.12
373.61	101.12
373.835	101.12
374.061	89.12
374.287	81.12
374.513	98.12
374.739	91.12
374.965	92.12
375.191	75.12
375.416	83.12
375.642	68.12
375.868	89.12
376.094	94.12
376.319	81.12
376.545	84.12
376.771	71.12
376.997	71.12
377.222	82.12
377.448	77.12
377.674	70.12
377.899	83.12
378.125	95.12
378.35	95.12
378.576	88.12
378.802	74.12
379.027	69.12
379.253	83.12
379.478	77.12
379.704	82.12
379.929	91.12
380.155	69.12
380.38	91.12
380.606	75.12
380.831	96.12
381.057	75.12
381.282	101.12
381.507	87.12
381.733	85.12
381.958	95.12
382.184	78.12
382.409	86.12
382.634	83.12
382.86	78.12
383.085	89.12
383.31	73.12
383.535	78.12
383.761	83.12
383.986	84.12
384.211	88.12
384.436	72.12
384.662	83.12
384.887	88.12
385.112	87.12
385.337	80.12
385.562	92.12
385.787	87.12
386.013	84.12
386.238	83.12
386.463	83.12
386.688	96.12
386.913	86.12
387.138	78.12
387.363	99.12
387.588	90.12
387.813	88.12
388.038	89.12
388.263	87.12
388.488	90.12
388.713	83.12
388.938	90.12
389.163	91.12
389.387	97.12
389.612	71.12
389.837	76.12
390.062	87.12
390.287	79.12
390.512	92.12
390.736	92.12
390.961	74.12
391.186	74.12
391.411	96.12
391.636	92.12
391.86	90.12
392.085	90.12
392.31	96.12
392.534	84.12
392.759	100.12
392.984	107.12
393.208	177.12
393.433	252.12
393.658	187.12
393.882	99.12
394.107	85.12
394.331	78.12
394.556	100.12
394.78	95.12
395.005	83.12
395.229	82.12
395.454	90.12
395.678	88.12
395.903	91.12
396.127	96.12
396.352	117.12
396.576	138.12
396.801	171.12
397.025	192.12
397.249	119.12
397.474	93.12
397.698	96.12
397.922	61.12
398.147	83.12
398.371	65.12
398.595	95.12
398.82	81.12
399.044	86.12
399.268	85.12
399.492	79.12
399.717	82.12
399.941	81.12
400.165	76.12
400.389	70.12
400.613	80.12
400.837	74.12
401.062	88.12
401.286	95.12
401.51	65.12
401.734	95.12
401.958	83.12
402.182	81.12
402.406	88.12
402.63	97.12
402.854	93.12
403.078	83.12
403.302	75.12
403.526	89.12
403.75	78.12
403.974	77.12
404.198	80.12
404.422	96.12
404.645	85.12
404.869	87.12
405.093	77.12
405.317	95.12
405.541	80.12
405.765	75.12
405.988	83.12
406.212	83.12
406.436	96.12
406.66	87.12
406.883	78.12
407.107	81.12
407.331	78.12
407.555	76.12
407.778	86.12
408.002	88.12
408.226	76.12
408.449	87.12
408.673	83.12
408.896	85.12
409.12	76.12
409.344	81.12
409.567	91.12
409.791	83.12
410.014	93.12
410.238	81.12
410.461	82.12
410.685	86.12
410.908	78.12
411.132	93.12
411.355	99.12
411.578	91.12
411.802	67.12
412.025	75.12
412.249	72.12
412.472	82.12
412.695	83.12
412.919	80.12
413.142	77.12
413.365	93.12
413.589	83.12
413.812	82.12
414.035	77.12
414.258	86.12
414.482	82.12
414.705	81.12
414.928	80.12
415.151	91.12
415.374	82.12
415.597	83.12
415.821	85.12
416.044	82.12
416.267	82.12
416.49	97.12
416.713	80.12
416.936	79.12
417.159	70.12
417.382	81.12
417.605	83.12
417.828	86.12
418.051	94.12
418.274	83.12
418.497	86.12
418.72	87.12
418.943	90.12
419.166	93.12
419.389	87.12
419.611	68.12
419.834	87.12
420.057	88.12
420.28	88.12
420.503	85.12
420.726	83.12
420.948	74.12
421.171	91.12
421.394	96.12
421.617	106.12
421.839	90.12
422.062	95.12
422.285	116.12
422.507	173.12
422.73	256.12
422.953	228.12
423.175	128.12
423.398	103.12
423.621	89.12
423.843	79.12
424.066	72.12
424.288	81.12
424.511	77.12
424.733	87.12
424.956	75.12
425.178	87.12
425.401	73.12
425.623	77.12
425.846	77.12
426.068	89.12
426.291	91.12
426.513	78.12
426.735	93.12
426.958	74.12
427.18	77.12
427.402	84.12
427.625	82.12
427.847	77.12
428.069	79.12
428.292	87.12
428.514	92.12
428.736	83.12
428.958	95.12
429.181	102.12
429.403	88.12
429.625	90.12
429.847	96.12
430.069	111.12
430.292	112.12
430.514	111.12
430.736	99.12
430.958	120.12
431.18	95.12
431.402	81.12
431.624	95.12
431.846	96.12
432.068	97.12
432.29	75.12
432.512	71.12
432.734	90.12
432.956	95.12
433.178	72.12
433.4	71.12
433.622	94.12
433.844	77.12
434.066	82.12
434.287	73.12
434.509	79.12
434.731	71.12
434.953	73.12
435.175	76.12
435.397	96.12
435.618	92.12
435.84	90.12
436.062	83.12
436.284	69.12
436.505	90.12
436.727	67.12
436.949	82.12
437.17	75.12
437.392	57.12
437.614	72.12
437.835	82.12
438.057	85.12
438.278	70.12
438.5	82.12
438.721	81.12
438.943	95.12
439.165	92.12
439.386	77.12
439.608	72.12
439.829	90.12
440.05	93.12
440.272	82.12
440.493	74.12
440.715	76.12
440.936	67.12
441.158	77.12
441.379	84.12
441.6	95.12
441.822	82.12
442.043	77.12
442.264	86.12
442.486	100.12
442.707	122.12
442.928	101.12
443.149	84.12
443.371	119.12
443.592	149.12
443.813	136.12
444.034	81.12
444.255	75.12
444.476	75.12
444.698	89.12
444.919	85.12
445.14	171.12
445.361	158.12
445.582	158.12
445.803	148.12
446.024	87.12
446.245	86.12
446.466	81.12
446.687	75.12
446.908	69.12
447.129	87.12
447.35	86.12
447.571	75.12
447.792	76.12
448.013	78.12
448.234	76.12
448.455	81.12
448.675	85.12
448.896	84.12
449.117	99.12
449.338	73.12
449.559	87.12
449.779	83.12
450	86.12
450.221	84.12
450.442	88.12
450.662	69.12
450.883	80.12
451.104	98.12
451.324	63.12
451.545	82.12
451.766	84.12
451.986	73.12
452.207	90.12
452.428	86.12
452.648	85.12
452.869	97.12
453.089	91.12
453.31	83.12
453.53	88.12
453.751	83.12
453.971	75.12
454.192	77.12
454.412	75.12
454.633	78.12
454.853	75.12
455.073	85.12
455.294	91.12
455.514	81.12
455.734	83.12
455.955	74.12
456.175	72.12
456.395	80.12
456.616	74.12
456.836	71.12
457.056	70.12
457.276	91.12
457.497	81.12
457.717	86.12
457.937	85.12
458.157	97.12
458.377	102.12
458.598	90.12
458.818	103.12
459.038	91.12
459.258	98.12
459.478	80.12
459.698	87.12
459.918	81.12
460.138	69.12
460.358	86.12
460.578	83.12
460.798	94.12
461.018	90.12
461.238	100.12
461.458	77.12
461.678	89.12
461.898	75.12
462.118	86.12
462.338	87.12
462.558	93.12
462.777	86.12
462.997	72.12
463.217	79.12
463.437	94.12
463.657	84.12
463.876	91.12
464.096	83.12
464.316	66.12
464.536	68.12
464.755	71.12
464.975	78.12
465.195	95.12
465.414	74.12
465.634	91.12
465.854	85.12
466.073	88.12
466.293	93.12
466.512	76.12
466.732	87.12
466.951	64.12
467.171	76.12
467.391	81.12
467.61	75.12
467.829	79.12
468.049	83.12
468.268	69.12
468.488	77.12
468.707	83.12
468.927	88.12
469.146	85.12
469.365	90.12
469.585	86.12
469.804	83.12
470.023	77.12
470.243	83.12
470.462	75.12
470.681	75.12
470.901	85.12
471.12	82.12
471.339	89.12
471.558	81.12
471.777	87.12
471.997	82.12
472.216	84.12
472.435	75.12
472.654	69.12
472.873	77.12
473.092	87.12
473.311	87.12
473.53	84.12
473.749	61.12
473.968	71.12
474.187	81.12
474.406	73.12
474.625	83.12
474.844	61.12
475.063	61.12
475.282	70.12
475.501	91.12
475.72	73.12
475.939	103.12
476.158	89.12
476.377	74.12
476.596	91.12
476.814	74.12
477.033	83.12
477.252	90.12
477.471	92.12
477.69	88.12
477.908	84.12
478.127	87.12
478.346	88.12
478.564	80.12
478.783	81.12
479.002	90.12
479.22	80.12
479.439	83.12
479.658	89.12
479.876	84.12
480.095	75.12
480.313	84.12
480.532	85.12
480.751	88.12
480.969	76.12
481.188	71.12
481.406	85.12
481.624	83.12
481.843	92.12
482.061	88.12
482.28	88.12
482.498	86.12
482.717	79.12
482.935	76.12
483.153	105.12
483.372	91.12
483.59	77.12
483.808	80.12
484.027	71.12
484.245	87.12
484.463	90.12
484.681	83.12
484.9	78.12
485.118	81.12
485.336	73.12
485.554	102.12
485.772	77.12
485.99	85.12
486.209	87.12
486.427	80.12
486.645	85.12
486.863	62.12
487.081	92.12
487.299	91.12
487.517	82.12
487.735	91.12
487.953	105.12
488.171	105.12
488.389	80.12
488.607	80.12
488.825	92.12
489.043	87.12
489.261	76.12
489.479	83.12
489.696	77.12
489.914	83.12
490.132	85.12
490.35	88.12
490.568	83.12
490.786	65.12
491.003	68.12
491.221	72.12
491.439	82.12
491.657	77.12
491.874	79.12
492.092	78.12
492.31	86.12
492.527	82.12
492.745	91.12
492.963	93.12
493.18	89.12
493.398	82.12
493.615	85.12
493.833	81.12
494.05	84.12
494.268	84.12
494.485	85.12
494.703	84.12
494.92	89.12
495.138	84.12
495.355	87.12
495.573	82.12
495.79	75.12
496.008	83.12
496.225	84.12
496.442	82.12
496.66	78.12
496.877	93.12
497.094	81.12
497.312	93.12
497.529	99.12
497.746	95.12
497.963	83.12
498.181	69.12
498.398	72.12
498.615	77.12
498.832	98.12
499.049	87.12
499.267	96.12
499.484	97.12
499.701	78.12
499.918	75.12
500.135	87.12
500.352	83.12
500.569	82.12
500.786	89.12
501.003	97.12
501.22	91.12
501.437	90.12
501.654	93.12
501.871	95.12
502.088	85.12
502.305	89.12
502.522	76.12
502.739	84.12
502.956	88.12
503.172	83.12
503.389	84.12
503.606	91.12
503.823	80.12
504.04	83.12
504.256	91.12
504.473	82.12
504.69	82.12
504.907	92.12
505.123	84.12
505.34	92.12
505.557	100.12
505.773	95.12
505.99	77.12
506.207	74.12
506.423	80.12
506.64	83.12
506.856	83.12
507.073	96.12
507.289	91.12
507.506	92.12
507.722	84.12
507.939	83.12
508.155	88.12
508.372	75.12
508.588	90.12
508.805	92.12
509.021	82.12
509.238	89.12
509.454	83.12
509.67	80.12
509.887	86.12
510.103	72.12
510.319	77.12
510.536	90.12
510.752	76.12
510.968	81.12
511.184	85.12
511.401	83.12
511.617	95.12
511.833	87.12
512.049	82.12
512.265	75.12
512.481	98.12
512.698	85.12
512.914	86.12
513.13	79.12
513.346	76.12
513.562	93.12
513.778	82.12
513.994	73.12
514.21	84.12
514.426	92.12
514.642	80.12
514.858	67.12
515.074	86.12
515.29	87.12
515.506	84.12
515.721	67.12
515.937	77.12
516.153	78.12
516.369	72.12
516.585	81.12
516.801	84.12
517.016	98.12
517.232	98.12
517.448	97.12
517.664	81.12
517.879	80.12
518.095	85.12
518.311	88.12
518.527	95.12
518.742	84.12
518.958	81.12
519.173	104.12
519.389	82.12
519.605	78.12
