Data from 237_1_HRD10591_00018.txt Node
Date: Mon Jan 19 14:10:38 EST 2026
User: Yrep
Spectrometer: HR+D1059
Trigger mode: 1
Integration Time (sec): 1.000000E-1
Scans to average: 1
Electric dark correction enabled: true
Nonlinearity correction enabled: false
Boxcar width: 0
XAxis mode: Wavelengths
Number of Pixels in Spectrum: 2048
>>>>>Begin Spectral Data<<<<<
223.165	-8.62
223.4	-8.62
223.635	-8.62
223.869	-18.62
224.104	-17.62
224.338	-15.62
224.573	-7.62
224.808	-12.62
225.042	-10.62
225.277	-16.62
225.511	-15.62
225.746	2.38
225.98	8.38
226.215	8.38
226.449	14.38
226.683	31.38
226.918	35.38
227.152	23.38
227.387	31.38
227.621	53.38
227.856	53.38
228.09	49.38
228.324	47.38
228.559	49.38
228.793	57.38
229.027	79.38
229.262	59.38
229.496	74.38
229.73	65.38
229.964	63.38
230.199	59.38
230.433	60.38
230.667	83.38
230.901	74.38
231.136	71.38
231.37	89.38
231.604	74.38
231.838	72.38
232.072	70.38
232.306	77.38
232.541	87.38
232.775	77.38
233.009	84.38
233.243	76.38
233.477	77.38
233.711	82.38
233.945	86.38
234.179	69.38
234.413	67.38
234.647	76.38
234.881	64.38
235.115	64.38
235.349	74.38
235.583	69.38
235.817	79.38
236.051	74.38
236.285	77.38
236.519	69.38
236.753	70.38
236.987	78.38
237.221	77.38
237.455	81.38
237.689	83.38
237.922	63.38
238.156	56.38
238.39	65.38
238.624	71.38
238.858	80.38
239.091	78.38
239.325	85.38
239.559	79.38
239.793	74.38
240.027	73.38
240.26	63.38
240.494	80.38
240.728	66.38
240.961	68.38
241.195	74.38
241.429	71.38
241.662	70.38
241.896	74.38
242.13	65.38
242.363	59.38
242.597	75.38
242.83	76.38
243.064	67.38
243.298	85.38
243.531	79.38
243.765	72.38
243.998	85.38
244.232	77.38
244.465	72.38
244.699	77.38
244.932	79.38
245.166	75.38
245.399	71.38
245.633	75.38
245.866	74.38
246.099	77.38
246.333	72.38
246.566	65.38
246.8	63.38
247.033	67.38
247.266	64.38
247.5	82.38
247.733	59.38
247.966	79.38
248.2	70.38
248.433	94.38
248.666	88.38
248.899	87.38
249.133	81.38
249.366	85.38
249.599	83.38
249.832	70.38
250.066	78.38
250.299	78.38
250.532	73.38
250.765	59.38
250.998	69.38
251.231	71.38
251.465	70.38
251.698	80.38
251.931	87.38
252.164	81.38
252.397	70.38
252.63	70.38
252.863	78.38
253.096	77.38
253.329	77.38
253.562	87.38
253.795	76.38
254.028	78.38
254.261	63.38
254.494	93.38
254.727	83.38
254.96	66.38
255.193	85.38
255.426	71.38
255.659	65.38
255.892	83.38
256.124	75.38
256.357	66.38
256.59	75.38
256.823	74.38
257.056	87.38
257.289	87.38
257.521	72.38
257.754	77.38
257.987	66.38
258.22	79.38
258.452	82.38
258.685	80.38
258.918	73.38
259.151	90.38
259.383	67.38
259.616	83.38
259.849	87.38
260.081	77.38
260.314	68.38
260.547	67.38
260.779	84.38
261.012	76.38
261.244	65.38
261.477	78.38
261.71	77.38
261.942	71.38
262.175	80.38
262.407	81.38
262.64	95.38
262.872	87.38
263.105	81.38
263.337	80.38
263.57	73.38
263.802	71.38
264.035	80.38
264.267	88.38
264.499	83.38
264.732	91.38
264.964	67.38
265.197	70.38
265.429	80.38
265.661	75.38
265.894	75.38
266.126	68.38
266.358	66.38
266.591	56.38
266.823	73.38
267.055	87.38
267.287	68.38
267.52	72.38
267.752	89.38
267.984	86.38
268.216	72.38
268.448	82.38
268.681	82.38
268.913	94.38
269.145	66.38
269.377	83.38
269.609	78.38
269.841	88.38
270.073	85.38
270.306	80.38
270.538	72.38
270.77	80.38
271.002	83.38
271.234	85.38
271.466	77.38
271.698	86.38
271.93	86.38
272.162	68.38
272.394	71.38
272.626	78.38
272.858	73.38
273.09	77.38
273.322	87.38
273.553	71.38
273.785	86.38
274.017	82.38
274.249	76.38
274.481	67.38
274.713	71.38
274.945	71.38
275.176	84.38
275.408	59.38
275.64	91.38
275.872	85.38
276.104	70.38
276.335	81.38
276.567	67.38
276.799	77.38
277.031	85.38
277.262	86.38
277.494	85.38
277.726	78.38
277.957	94.38
278.189	64.38
278.421	79.38
278.652	87.38
278.884	72.38
279.115	80.38
279.347	85.38
279.579	83.38
279.81	77.38
280.042	77.38
280.273	94.38
280.505	81.38
280.736	79.38
280.968	68.38
281.199	75.38
281.431	78.38
281.662	79.38
281.894	92.38
282.125	81.38
282.356	75.38
282.588	79.38
282.819	77.38
283.051	76.38
283.282	91.38
283.513	75.38
283.745	71.38
283.976	73.38
284.207	76.38
284.439	65.38
284.67	65.38
284.901	71.38
285.132	86.38
285.364	89.38
285.595	70.38
285.826	74.38
286.057	91.38
286.288	88.38
286.52	73.38
286.751	80.38
286.982	75.38
287.213	85.38
287.444	78.38
287.675	87.38
287.906	77.38
288.138	92.38
288.369	86.38
288.6	87.38
288.831	69.38
289.062	87.38
289.293	77.38
289.524	81.38
289.755	80.38
289.986	80.38
290.217	82.38
290.448	82.38
290.679	81.38
290.91	102.38
291.141	88.38
291.371	81.38
291.602	108.38
291.833	83.38
292.064	82.38
292.295	80.38
292.526	81.38
292.757	84.38
292.987	83.38
293.218	100.38
293.449	92.38
293.68	77.38
293.91	72.38
294.141	104.38
294.372	81.38
294.603	94.38
294.833	84.38
295.064	71.38
295.295	77.38
295.525	79.38
295.756	91.38
295.987	93.38
296.217	83.38
296.448	87.38
296.679	78.38
296.909	85.38
297.14	81.38
297.37	71.38
297.601	70.38
297.831	81.38
298.062	69.38
298.292	82.38
298.523	80.38
298.753	75.38
298.984	92.38
299.214	78.38
299.445	81.38
299.675	90.38
299.905	92.38
300.136	89.38
300.366	72.38
300.597	86.38
300.827	79.38
301.057	89.38
301.288	86.38
301.518	87.38
301.748	68.38
301.979	95.38
302.209	81.38
302.439	85.38
302.669	102.38
302.9	77.38
303.13	79.38
303.36	99.38
303.59	80.38
303.82	84.38
304.051	84.38
304.281	82.38
304.511	82.38
304.741	86.38
304.971	84.38
305.201	92.38
305.431	88.38
305.661	80.38
305.891	80.38
306.121	92.38
306.352	64.38
306.582	79.38
306.812	77.38
307.042	82.38
307.272	73.38
307.502	74.38
307.731	70.38
307.961	87.38
308.191	89.38
308.421	91.38
308.651	86.38
308.881	96.38
309.111	91.38
309.341	92.38
309.571	91.38
309.8	76.38
310.03	66.38
310.26	73.38
310.49	84.38
310.72	87.38
310.949	77.38
311.179	75.38
311.409	74.38
311.639	84.38
311.868	74.38
312.098	80.38
312.328	83.38
312.557	79.38
312.787	89.38
313.017	88.38
313.246	95.38
313.476	80.38
313.706	74.38
313.935	77.38
314.165	101.38
314.394	75.38
314.624	74.38
314.853	91.38
315.083	84.38
315.312	93.38
315.542	68.38
315.771	87.38
316.001	81.38
316.23	87.38
316.46	77.38
316.689	72.38
316.919	80.38
317.148	80.38
317.377	81.38
317.607	88.38
317.836	86.38
318.065	75.38
318.295	71.38
318.524	77.38
318.753	87.38
318.983	66.38
319.212	77.38
319.441	77.38
319.67	84.38
319.9	83.38
320.129	87.38
320.358	74.38
320.587	86.38
320.816	94.38
321.046	69.38
321.275	79.38
321.504	72.38
321.733	97.38
321.962	91.38
322.191	83.38
322.42	70.38
322.649	85.38
322.878	75.38
323.108	79.38
323.337	86.38
323.566	97.38
323.795	85.38
324.024	97.38
324.253	91.38
324.482	81.38
324.71	90.38
324.939	88.38
325.168	85.38
325.397	73.38
325.626	84.38
325.855	83.38
326.084	87.38
326.313	84.38
326.542	77.38
326.77	95.38
326.999	91.38
327.228	89.38
327.457	73.38
327.686	73.38
327.914	69.38
328.143	87.38
328.372	102.38
328.6	77.38
328.829	92.38
329.058	64.38
329.287	71.38
329.515	80.38
329.744	87.38
329.972	75.38
330.201	95.38
330.43	75.38
330.658	93.38
330.887	81.38
331.115	79.38
331.344	81.38
331.572	82.38
331.801	65.38
332.03	77.38
332.258	84.38
332.486	77.38
332.715	93.38
332.943	92.38
333.172	73.38
333.4	91.38
333.629	80.38
333.857	82.38
334.085	91.38
334.314	94.38
334.542	70.38
334.771	86.38
334.999	62.38
335.227	97.38
335.455	94.38
335.684	69.38
335.912	86.38
336.14	87.38
336.369	92.38
336.597	93.38
336.825	96.38
337.053	83.38
337.281	86.38
337.51	80.38
337.738	92.38
337.966	89.38
338.194	99.38
338.422	75.38
338.65	84.38
338.878	100.38
339.106	82.38
339.334	98.38
339.562	88.38
339.79	82.38
340.018	71.38
340.246	101.38
340.474	82.38
340.702	91.38
340.93	79.38
341.158	88.38
341.386	88.38
341.614	77.38
341.842	69.38
342.07	90.38
342.298	85.38
342.526	83.38
342.754	67.38
342.981	81.38
343.209	81.38
343.437	96.38
343.665	87.38
343.893	77.38
344.12	79.38
344.348	79.38
344.576	72.38
344.804	99.38
345.031	95.38
345.259	80.38
345.487	74.38
345.714	75.38
345.942	72.38
346.17	79.38
346.397	73.38
346.625	79.38
346.853	87.38
347.08	93.38
347.308	92.38
347.535	91.38
347.763	79.38
347.99	87.38
348.218	68.38
348.445	78.38
348.673	79.38
348.9	96.38
349.128	85.38
349.355	74.38
349.583	64.38
349.81	88.38
350.037	71.38
350.265	82.38
350.492	83.38
350.72	88.38
350.947	91.38
351.174	74.38
351.402	85.38
351.629	86.38
351.856	89.38
352.083	79.38
352.311	71.38
352.538	77.38
352.765	89.38
352.992	86.38
353.22	82.38
353.447	79.38
353.674	79.38
353.901	84.38
354.128	73.38
354.355	73.38
354.583	74.38
354.81	83.38
355.037	61.38
355.264	88.38
355.491	85.38
355.718	78.38
355.945	85.38
356.172	73.38
356.399	69.38
356.626	91.38
356.853	72.38
357.08	85.38
357.307	98.38
357.534	72.38
357.761	91.38
357.988	91.38
358.215	75.38
358.441	97.38
358.668	81.38
358.895	80.38
359.122	82.38
359.349	99.38
359.576	79.38
359.802	85.38
360.029	83.38
360.256	63.38
360.483	88.38
360.709	87.38
360.936	88.38
361.163	82.38
361.39	91.38
361.616	103.38
361.843	89.38
362.07	95.38
362.296	90.38
362.523	86.38
362.749	104.38
362.976	103.38
363.203	110.38
363.429	77.38
363.656	94.38
363.882	103.38
364.109	101.38
364.335	111.38
364.562	110.38
364.788	92.38
365.015	95.38
365.241	77.38
365.468	92.38
365.694	78.38
365.92	69.38
366.147	91.38
366.373	74.38
366.599	78.38
366.826	85.38
367.052	88.38
367.278	77.38
367.505	91.38
367.731	89.38
367.957	85.38
368.184	99.38
368.41	72.38
368.636	81.38
368.862	87.38
369.089	91.38
369.315	72.38
369.541	89.38
369.767	79.38
369.993	82.38
370.219	92.38
370.445	81.38
370.672	90.38
370.898	91.38
371.124	84.38
371.35	98.38
371.576	86.38
371.802	88.38
372.028	87.38
372.254	80.38
372.48	87.38
372.706	90.38
372.932	91.38
373.158	85.38
373.384	95.38
373.61	94.38
373.835	93.38
374.061	97.38
374.287	91.38
374.513	101.38
374.739	91.38
374.965	99.38
375.191	91.38
375.416	92.38
375.642	87.38
375.868	75.38
376.094	88.38
376.319	90.38
376.545	89.38
376.771	92.38
376.997	81.38
377.222	90.38
377.448	68.38
377.674	92.38
377.899	92.38
378.125	88.38
378.35	71.38
378.576	79.38
378.802	92.38
379.027	75.38
379.253	90.38
379.478	77.38
379.704	85.38
379.929	87.38
380.155	96.38
380.38	86.38
380.606	95.38
380.831	79.38
381.057	96.38
381.282	96.38
381.507	104.38
381.733	100.38
381.958	85.38
382.184	86.38
382.409	100.38
382.634	89.38
382.86	101.38
383.085	84.38
383.31	78.38
383.535	98.38
383.761	100.38
383.986	92.38
384.211	84.38
384.436	76.38
384.662	72.38
384.887	89.38
385.112	86.38
385.337	87.38
385.562	92.38
385.787	92.38
386.013	91.38
386.238	96.38
386.463	87.38
386.688	97.38
386.913	92.38
387.138	91.38
387.363	71.38
387.588	81.38
387.813	90.38
388.038	85.38
388.263	88.38
388.488	79.38
388.713	101.38
388.938	96.38
389.163	82.38
389.387	84.38
389.612	78.38
389.837	89.38
390.062	99.38
390.287	79.38
390.512	80.38
390.736	84.38
390.961	88.38
391.186	88.38
391.411	86.38
391.636	87.38
391.86	80.38
392.085	97.38
392.31	84.38
392.534	93.38
392.759	95.38
392.984	134.38
393.208	189.38
393.433	279.38
393.658	210.38
393.882	100.38
394.107	96.38
394.331	99.38
394.556	105.38
394.78	106.38
395.005	91.38
395.229	75.38
395.454	81.38
395.678	84.38
395.903	117.38
396.127	116.38
396.352	125.38
396.576	129.38
396.801	202.38
397.025	219.38
397.249	136.38
397.474	117.38
397.698	97.38
397.922	87.38
398.147	95.38
398.371	93.38
398.595	100.38
398.82	85.38
399.044	91.38
399.268	82.38
399.492	96.38
399.717	91.38
399.941	92.38
400.165	86.38
400.389	79.38
400.613	74.38
400.837	83.38
401.062	73.38
401.286	83.38
401.51	83.38
401.734	94.38
401.958	79.38
402.182	79.38
402.406	88.38
402.63	82.38
402.854	90.38
403.078	82.38
403.302	84.38
403.526	73.38
403.75	93.38
403.974	90.38
404.198	87.38
404.422	92.38
404.645	103.38
404.869	99.38
405.093	79.38
405.317	92.38
405.541	73.38
405.765	79.38
405.988	77.38
406.212	82.38
406.436	75.38
406.66	92.38
406.883	79.38
407.107	69.38
407.331	77.38
407.555	93.38
407.778	91.38
408.002	96.38
408.226	90.38
408.449	74.38
408.673	82.38
408.896	78.38
409.12	76.38
409.344	79.38
409.567	83.38
409.791	96.38
410.014	88.38
410.238	101.38
410.461	86.38
410.685	94.38
410.908	82.38
411.132	72.38
411.355	68.38
411.578	77.38
411.802	83.38
412.025	74.38
412.249	87.38
412.472	78.38
412.695	78.38
412.919	79.38
413.142	87.38
413.365	71.38
413.589	87.38
413.812	97.38
414.035	99.38
414.258	87.38
414.482	95.38
414.705	90.38
414.928	83.38
415.151	101.38
415.374	93.38
415.597	84.38
415.821	78.38
416.044	79.38
416.267	93.38
416.49	76.38
416.713	88.38
416.936	82.38
417.159	87.38
417.382	68.38
417.605	81.38
417.828	72.38
418.051	76.38
418.274	85.38
418.497	89.38
418.72	93.38
418.943	87.38
419.166	86.38
419.389	76.38
419.611	73.38
419.834	88.38
420.057	90.38
420.28	94.38
420.503	87.38
420.726	89.38
420.948	84.38
421.171	90.38
421.394	97.38
421.617	99.38
421.839	104.38
422.062	129.38
422.285	155.38
422.507	215.38
422.73	326.38
422.953	293.38
423.175	162.38
423.398	103.38
423.621	87.38
423.843	94.38
424.066	107.38
424.288	92.38
424.511	82.38
424.733	88.38
424.956	104.38
425.178	81.38
425.401	91.38
425.623	79.38
425.846	70.38
426.068	83.38
426.291	83.38
426.513	79.38
426.735	91.38
426.958	87.38
427.18	88.38
427.402	95.38
427.625	72.38
427.847	79.38
428.069	84.38
428.292	93.38
428.514	129.38
428.736	100.38
428.958	119.38
429.181	118.38
429.403	97.38
429.625	95.38
429.847	102.38
430.069	119.38
430.292	137.38
430.514	130.38
430.736	120.38
430.958	131.38
431.18	77.38
431.402	97.38
431.624	91.38
431.846	113.38
432.068	111.38
432.29	102.38
432.512	75.38
432.734	83.38
432.956	88.38
433.178	95.38
433.4	85.38
433.622	69.38
433.844	76.38
434.066	67.38
434.287	81.38
434.509	99.38
434.731	82.38
434.953	85.38
435.175	77.38
435.397	88.38
435.618	99.38
435.84	94.38
436.062	78.38
436.284	81.38
436.505	79.38
436.727	85.38
436.949	92.38
437.17	84.38
437.392	88.38
437.614	78.38
437.835	77.38
438.057	82.38
438.278	85.38
438.5	105.38
438.721	99.38
438.943	93.38
439.165	79.38
439.386	86.38
439.608	87.38
439.829	83.38
440.05	88.38
440.272	89.38
440.493	72.38
440.715	93.38
440.936	83.38
441.158	95.38
441.379	83.38
441.6	85.38
441.822	66.38
442.043	99.38
442.264	100.38
442.486	111.38
442.707	140.38
442.928	119.38
443.149	103.38
443.371	120.38
443.592	205.38
443.813	175.38
444.034	105.38
444.255	75.38
444.476	80.38
444.698	91.38
444.919	85.38
445.14	156.38
445.361	165.38
445.582	228.38
445.803	203.38
446.024	93.38
446.245	93.38
446.466	80.38
446.687	84.38
446.908	68.38
447.129	82.38
447.35	80.38
447.571	79.38
447.792	86.38
448.013	79.38
448.234	84.38
448.455	75.38
448.675	77.38
448.896	73.38
449.117	92.38
449.338	91.38
449.559	84.38
449.779	83.38
450	72.38
450.221	92.38
450.442	88.38
450.662	98.38
450.883	91.38
451.104	83.38
451.324	84.38
451.545	95.38
451.766	79.38
451.986	68.38
452.207	87.38
452.428	93.38
452.648	78.38
452.869	87.38
453.089	96.38
453.31	77.38
453.53	93.38
453.751	73.38
453.971	89.38
454.192	82.38
454.412	93.38
454.633	75.38
454.853	88.38
455.073	90.38
455.294	87.38
455.514	93.38
455.734	91.38
455.955	87.38
456.175	79.38
456.395	74.38
456.616	73.38
456.836	81.38
457.056	100.38
457.276	88.38
457.497	83.38
457.717	93.38
457.937	101.38
458.157	108.38
458.377	105.38
458.598	109.38
458.818	101.38
459.038	81.38
459.258	70.38
459.478	82.38
459.698	85.38
459.918	86.38
460.138	87.38
460.358	83.38
460.578	70.38
460.798	111.38
461.018	105.38
461.238	79.38
461.458	83.38
461.678	85.38
461.898	85.38
462.118	80.38
462.338	75.38
462.558	73.38
462.777	88.38
462.997	82.38
463.217	83.38
463.437	98.38
463.657	86.38
463.876	73.38
464.096	78.38
464.316	84.38
464.536	82.38
464.755	82.38
464.975	88.38
465.195	86.38
465.414	102.38
465.634	92.38
465.854	79.38
466.073	65.38
466.293	89.38
466.512	85.38
466.732	77.38
466.951	92.38
467.171	88.38
467.391	81.38
467.61	76.38
467.829	64.38
468.049	85.38
468.268	79.38
468.488	93.38
468.707	86.38
468.927	90.38
469.146	75.38
469.365	87.38
469.585	77.38
469.804	95.38
470.023	83.38
470.243	88.38
470.462	89.38
470.681	81.38
470.901	80.38
471.12	88.38
471.339	101.38
471.558	83.38
471.777	77.38
471.997	67.38
472.216	84.38
472.435	79.38
472.654	85.38
472.873	87.38
473.092	85.38
473.311	81.38
473.53	95.38
473.749	80.38
473.968	81.38
474.187	75.38
474.406	83.38
474.625	94.38
474.844	85.38
475.063	82.38
475.282	76.38
475.501	81.38
475.72	91.38
475.939	74.38
476.158	65.38
476.377	90.38
476.596	91.38
476.814	87.38
477.033	79.38
477.252	86.38
477.471	78.38
477.69	77.38
477.908	82.38
478.127	81.38
478.346	73.38
478.564	88.38
478.783	85.38
479.002	83.38
479.22	85.38
479.439	90.38
479.658	79.38
479.876	73.38
480.095	93.38
480.313	94.38
480.532	80.38
480.751	82.38
480.969	71.38
481.188	95.38
481.406	91.38
481.624	83.38
481.843	75.38
482.061	78.38
482.28	85.38
482.498	88.38
482.717	84.38
482.935	98.38
483.153	94.38
483.372	97.38
483.59	92.38
483.808	79.38
484.027	89.38
484.245	91.38
484.463	79.38
484.681	92.38
484.9	102.38
485.118	86.38
485.336	93.38
485.554	84.38
485.772	82.38
485.99	88.38
486.209	85.38
486.427	74.38
486.645	102.38
486.863	82.38
487.081	73.38
487.299	70.38
487.517	87.38
487.735	99.38
487.953	136.38
488.171	111.38
488.389	71.38
488.607	83.38
488.825	89.38
489.043	89.38
489.261	83.38
489.479	80.38
489.696	96.38
489.914	98.38
490.132	88.38
490.35	83.38
490.568	77.38
490.786	85.38
491.003	81.38
491.221	95.38
491.439	81.38
491.657	85.38
491.874	80.38
492.092	92.38
492.31	79.38
492.527	90.38
492.745	86.38
492.963	82.38
493.18	95.38
493.398	95.38
493.615	85.38
493.833	79.38
494.05	72.38
494.268	79.38
494.485	81.38
494.703	70.38
494.92	72.38
495.138	81.38
495.355	69.38
495.573	85.38
495.79	96.38
496.008	93.38
496.225	88.38
496.442	79.38
496.66	88.38
496.877	85.38
497.094	88.38
497.312	79.38
497.529	92.38
497.746	90.38
497.963	89.38
498.181	85.38
498.398	103.38
498.615	79.38
498.832	78.38
499.049	88.38
499.267	89.38
499.484	96.38
499.701	86.38
499.918	88.38
500.135	87.38
500.352	86.38
500.569	93.38
500.786	89.38
501.003	100.38
501.22	87.38
501.437	91.38
501.654	84.38
501.871	100.38
502.088	71.38
502.305	70.38
502.522	92.38
502.739	79.38
502.956	83.38
503.172	79.38
503.389	102.38
503.606	90.38
503.823	95.38
504.04	101.38
504.256	113.38
504.473	125.38
504.69	97.38
504.907	95.38
505.123	81.38
505.34	82.38
505.557	75.38
505.773	95.38
505.99	81.38
506.207	89.38
506.423	79.38
506.64	94.38
506.856	83.38
507.073	81.38
507.289	95.38
507.506	87.38
507.722	95.38
507.939	92.38
508.155	89.38
508.372	82.38
508.588	97.38
508.805	91.38
509.021	79.38
509.238	80.38
509.454	74.38
509.67	81.38
509.887	90.38
510.103	75.38
510.319	91.38
510.536	83.38
510.752	81.38
510.968	80.38
511.184	84.38
511.401	93.38
511.617	87.38
511.833	82.38
512.049	88.38
512.265	70.38
512.481	76.38
512.698	83.38
512.914	89.38
513.13	91.38
513.346	91.38
513.562	80.38
513.778	91.38
513.994	92.38
514.21	90.38
514.426	82.38
514.642	92.38
514.858	90.38
515.074	86.38
515.29	102.38
515.506	82.38
515.721	83.38
515.937	87.38
516.153	85.38
516.369	77.38
516.585	70.38
516.801	74.38
517.016	88.38
517.232	92.38
517.448	79.38
517.664	84.38
517.879	85.38
518.095	93.38
518.311	106.38
518.527	92.38
518.742	94.38
518.958	143.38
