Data from 237_1_HRD10591_00048.txt Node
Date: Mon Jan 19 14:10:53 EST 2026
User: Yrep
Spectrometer: HR+D1059
Trigger mode: 1
Integration Time (sec): 1.000000E-1
Scans to average: 1
Electric dark correction enabled: true
Nonlinearity correction enabled: false
Boxcar width: 0
XAxis mode: Wavelengths
Number of Pixels in Spectrum: 2048
>>>>>Begin Spectral Data<<<<<
223.165	-16.56
223.4	-16.56
223.635	-16.56
223.869	-11.56
224.104	-19.56
224.338	-7.56
224.573	-4.56
224.808	-8.56
225.042	-10.56
225.277	1.44
225.511	-9.56
225.746	-1.56
225.98	7.44
226.215	8.44
226.449	11.44
226.683	17.44
226.918	20.44
227.152	23.44
227.387	37.44
227.621	36.44
227.856	41.44
228.09	54.44
228.324	62.44
228.559	56.44
228.793	60.44
229.027	56.44
229.262	73.44
229.496	57.44
229.73	73.44
229.964	77.44
230.199	71.44
230.433	81.44
230.667	87.44
230.901	80.44
231.136	70.44
231.37	78.44
231.604	77.44
231.838	76.44
232.072	83.44
232.306	74.44
232.541	70.44
232.775	72.44
233.009	85.44
233.243	94.44
233.477	83.44
233.711	74.44
233.945	66.44
234.179	67.44
234.413	73.44
234.647	86.44
234.881	72.44
235.115	87.44
235.349	91.44
235.583	82.44
235.817	78.44
236.051	86.44
236.285	62.44
236.519	73.44
236.753	85.44
236.987	78.44
237.221	79.44
237.455	69.44
237.689	68.44
237.922	68.44
238.156	70.44
238.39	79.44
238.624	75.44
238.858	68.44
239.091	84.44
239.325	70.44
239.559	80.44
239.793	77.44
240.027	73.44
240.26	63.44
240.494	77.44
240.728	77.44
240.961	70.44
241.195	83.44
241.429	65.44
241.662	76.44
241.896	70.44
242.13	70.44
242.363	78.44
242.597	76.44
242.83	72.44
243.064	83.44
243.298	90.44
243.531	76.44
243.765	75.44
243.998	84.44
244.232	62.44
244.465	66.44
244.699	60.44
244.932	84.44
245.166	85.44
245.399	80.44
245.633	64.44
245.866	69.44
246.099	86.44
246.333	77.44
246.566	76.44
246.8	72.44
247.033	74.44
247.266	80.44
247.5	81.44
247.733	72.44
247.966	75.44
248.2	87.44
248.433	76.44
248.666	76.44
248.899	70.44
249.133	99.44
249.366	77.44
249.599	71.44
249.832	88.44
250.066	72.44
250.299	88.44
250.532	74.44
250.765	99.44
250.998	78.44
251.231	80.44
251.465	83.44
251.698	88.44
251.931	91.44
252.164	86.44
252.397	84.44
252.63	74.44
252.863	65.44
253.096	82.44
253.329	77.44
253.562	75.44
253.795	73.44
254.028	83.44
254.261	83.44
254.494	81.44
254.727	90.44
254.96	83.44
255.193	78.44
255.426	80.44
255.659	87.44
255.892	74.44
256.124	80.44
256.357	74.44
256.59	74.44
256.823	77.44
257.056	76.44
257.289	83.44
257.521	66.44
257.754	85.44
257.987	77.44
258.22	89.44
258.452	74.44
258.685	69.44
258.918	79.44
259.151	74.44
259.383	90.44
259.616	77.44
259.849	72.44
260.081	82.44
260.314	83.44
260.547	87.44
260.779	88.44
261.012	81.44
261.244	92.44
261.477	80.44
261.71	73.44
261.942	94.44
262.175	95.44
262.407	79.44
262.64	64.44
262.872	69.44
263.105	70.44
263.337	71.44
263.57	87.44
263.802	94.44
264.035	76.44
264.267	70.44
264.499	80.44
264.732	74.44
264.964	80.44
265.197	81.44
265.429	76.44
265.661	77.44
265.894	86.44
266.126	78.44
266.358	86.44
266.591	88.44
266.823	83.44
267.055	84.44
267.287	85.44
267.52	95.44
267.752	93.44
267.984	84.44
268.216	84.44
268.448	91.44
268.681	99.44
268.913	87.44
269.145	89.44
269.377	81.44
269.609	71.44
269.841	85.44
270.073	74.44
270.306	90.44
270.538	74.44
270.77	86.44
271.002	71.44
271.234	71.44
271.466	74.44
271.698	77.44
271.93	65.44
272.162	90.44
272.394	91.44
272.626	82.44
272.858	83.44
273.09	76.44
273.322	83.44
273.553	92.44
273.785	94.44
274.017	68.44
274.249	82.44
274.481	82.44
274.713	76.44
274.945	92.44
275.176	84.44
275.408	87.44
275.64	86.44
275.872	82.44
276.104	64.44
276.335	75.44
276.567	100.44
276.799	64.44
277.031	81.44
277.262	82.44
277.494	91.44
277.726	81.44
277.957	81.44
278.189	80.44
278.421	77.44
278.652	87.44
278.884	74.44
279.115	89.44
279.347	81.44
279.579	82.44
279.81	88.44
280.042	79.44
280.273	83.44
280.505	70.44
280.736	60.44
280.968	85.44
281.199	90.44
281.431	92.44
281.662	82.44
281.894	90.44
282.125	73.44
282.356	84.44
282.588	91.44
282.819	74.44
283.051	89.44
283.282	83.44
283.513	81.44
283.745	91.44
283.976	81.44
284.207	94.44
284.439	73.44
284.67	96.44
284.901	74.44
285.132	66.44
285.364	85.44
285.595	91.44
285.826	72.44
286.057	98.44
286.288	83.44
286.52	86.44
286.751	96.44
286.982	94.44
287.213	71.44
287.444	83.44
287.675	95.44
287.906	76.44
288.138	79.44
288.369	88.44
288.6	83.44
288.831	81.44
289.062	88.44
289.293	91.44
289.524	71.44
289.755	85.44
289.986	90.44
290.217	77.44
290.448	87.44
290.679	78.44
290.91	81.44
291.141	93.44
291.371	86.44
291.602	95.44
291.833	78.44
292.064	89.44
292.295	71.44
292.526	79.44
292.757	77.44
292.987	83.44
293.218	88.44
293.449	88.44
293.68	89.44
293.91	83.44
294.141	98.44
294.372	85.44
294.603	74.44
294.833	78.44
295.064	90.44
295.295	72.44
295.525	88.44
295.756	83.44
295.987	92.44
296.217	82.44
296.448	93.44
296.679	81.44
296.909	78.44
297.14	82.44
297.37	85.44
297.601	82.44
297.831	78.44
298.062	91.44
298.292	85.44
298.523	87.44
298.753	89.44
298.984	76.44
299.214	94.44
299.445	82.44
299.675	77.44
299.905	82.44
300.136	90.44
300.366	100.44
300.597	87.44
300.827	92.44
301.057	86.44
301.288	81.44
301.518	95.44
301.748	86.44
301.979	96.44
302.209	88.44
302.439	86.44
302.669	84.44
302.9	76.44
303.13	80.44
303.36	86.44
303.59	75.44
303.82	83.44
304.051	80.44
304.281	80.44
304.511	94.44
304.741	85.44
304.971	85.44
305.201	89.44
305.431	86.44
305.661	88.44
305.891	80.44
306.121	84.44
306.352	84.44
306.582	81.44
306.812	90.44
307.042	88.44
307.272	84.44
307.502	85.44
307.731	76.44
307.961	83.44
308.191	90.44
308.421	90.44
308.651	86.44
308.881	93.44
309.111	96.44
309.341	82.44
309.571	92.44
309.8	86.44
310.03	106.44
310.26	79.44
310.49	82.44
310.72	90.44
310.949	81.44
311.179	75.44
311.409	79.44
311.639	74.44
311.868	72.44
312.098	86.44
312.328	71.44
312.557	80.44
312.787	87.44
313.017	86.44
313.246	71.44
313.476	87.44
313.706	94.44
313.935	85.44
314.165	96.44
314.394	80.44
314.624	83.44
314.853	79.44
315.083	77.44
315.312	88.44
315.542	96.44
315.771	89.44
316.001	88.44
316.23	75.44
316.46	63.44
316.689	85.44
316.919	85.44
317.148	86.44
317.377	74.44
317.607	90.44
317.836	86.44
318.065	90.44
318.295	91.44
318.524	85.44
318.753	73.44
318.983	82.44
319.212	84.44
319.441	96.44
319.67	83.44
319.9	82.44
320.129	84.44
320.358	95.44
320.587	86.44
320.816	81.44
321.046	94.44
321.275	76.44
321.504	72.44
321.733	91.44
321.962	85.44
322.191	86.44
322.42	94.44
322.649	102.44
322.878	96.44
323.108	91.44
323.337	88.44
323.566	82.44
323.795	84.44
324.024	81.44
324.253	90.44
324.482	92.44
324.71	85.44
324.939	95.44
325.168	84.44
325.397	59.44
325.626	80.44
325.855	94.44
326.084	77.44
326.313	87.44
326.542	93.44
326.77	82.44
326.999	81.44
327.228	79.44
327.457	74.44
327.686	84.44
327.914	88.44
328.143	89.44
328.372	82.44
328.6	87.44
328.829	70.44
329.058	88.44
329.287	83.44
329.515	80.44
329.744	79.44
329.972	85.44
330.201	89.44
330.43	78.44
330.658	84.44
330.887	82.44
331.115	91.44
331.344	78.44
331.572	82.44
331.801	77.44
332.03	101.44
332.258	78.44
332.486	100.44
332.715	83.44
332.943	89.44
333.172	83.44
333.4	76.44
333.629	82.44
333.857	83.44
334.085	86.44
334.314	85.44
334.542	83.44
334.771	82.44
334.999	70.44
335.227	91.44
335.455	71.44
335.684	88.44
335.912	92.44
336.14	91.44
336.369	72.44
336.597	71.44
336.825	83.44
337.053	80.44
337.281	82.44
337.51	96.44
337.738	91.44
337.966	74.44
338.194	83.44
338.422	85.44
338.65	95.44
338.878	76.44
339.106	76.44
339.334	90.44
339.562	71.44
339.79	85.44
340.018	94.44
340.246	73.44
340.474	67.44
340.702	78.44
340.93	82.44
341.158	74.44
341.386	72.44
341.614	83.44
341.842	84.44
342.07	68.44
342.298	81.44
342.526	89.44
342.754	91.44
342.981	83.44
343.209	79.44
343.437	104.44
343.665	74.44
343.893	75.44
344.12	86.44
344.348	98.44
344.576	74.44
344.804	92.44
345.031	87.44
345.259	83.44
345.487	90.44
345.714	80.44
345.942	90.44
346.17	82.44
346.397	68.44
346.625	96.44
346.853	75.44
347.08	86.44
347.308	78.44
347.535	94.44
347.763	71.44
347.99	71.44
348.218	87.44
348.445	87.44
348.673	84.44
348.9	90.44
349.128	85.44
349.355	71.44
349.583	88.44
349.81	87.44
350.037	89.44
350.265	77.44
350.492	87.44
350.72	73.44
350.947	88.44
351.174	80.44
351.402	75.44
351.629	76.44
351.856	83.44
352.083	81.44
352.311	95.44
352.538	89.44
352.765	79.44
352.992	76.44
353.22	84.44
353.447	79.44
353.674	72.44
353.901	75.44
354.128	82.44
354.355	87.44
354.583	71.44
354.81	108.44
355.037	91.44
355.264	80.44
355.491	80.44
355.718	77.44
355.945	76.44
356.172	77.44
356.399	98.44
356.626	79.44
356.853	96.44
357.08	86.44
357.307	91.44
357.534	99.44
357.761	88.44
357.988	86.44
358.215	93.44
358.441	90.44
358.668	84.44
358.895	87.44
359.122	98.44
359.349	72.44
359.576	75.44
359.802	74.44
360.029	82.44
360.256	81.44
360.483	81.44
360.709	79.44
360.936	92.44
361.163	90.44
361.39	92.44
361.616	91.44
361.843	80.44
362.07	71.44
362.296	90.44
362.523	85.44
362.749	98.44
362.976	94.44
363.203	98.44
363.429	86.44
363.656	84.44
363.882	95.44
364.109	108.44
364.335	92.44
364.562	86.44
364.788	83.44
365.015	75.44
365.241	99.44
365.468	83.44
365.694	67.44
365.92	85.44
366.147	82.44
366.373	76.44
366.599	80.44
366.826	88.44
367.052	75.44
367.278	93.44
367.505	84.44
367.731	101.44
367.957	84.44
368.184	77.44
368.41	87.44
368.636	82.44
368.862	94.44
369.089	70.44
369.315	79.44
369.541	96.44
369.767	75.44
369.993	87.44
370.219	66.44
370.445	83.44
370.672	71.44
370.898	72.44
371.124	69.44
371.35	86.44
371.576	87.44
371.802	90.44
372.028	87.44
372.254	98.44
372.48	97.44
372.706	83.44
372.932	92.44
373.158	83.44
373.384	101.44
373.61	91.44
373.835	96.44
374.061	83.44
374.287	77.44
374.513	68.44
374.739	90.44
374.965	86.44
375.191	103.44
375.416	90.44
375.642	86.44
375.868	77.44
376.094	80.44
376.319	83.44
376.545	83.44
376.771	85.44
376.997	72.44
377.222	83.44
377.448	80.44
377.674	87.44
377.899	74.44
378.125	87.44
378.35	75.44
378.576	79.44
378.802	78.44
379.027	71.44
379.253	73.44
379.478	83.44
379.704	65.44
379.929	70.44
380.155	79.44
380.38	82.44
380.606	84.44
380.831	83.44
381.057	83.44
381.282	87.44
381.507	86.44
381.733	107.44
381.958	88.44
382.184	94.44
382.409	64.44
382.634	82.44
382.86	83.44
383.085	84.44
383.31	83.44
383.535	80.44
383.761	85.44
383.986	83.44
384.211	82.44
384.436	81.44
384.662	80.44
384.887	88.44
385.112	94.44
385.337	86.44
385.562	92.44
385.787	87.44
386.013	97.44
386.238	82.44
386.463	72.44
386.688	107.44
386.913	80.44
387.138	88.44
387.363	89.44
387.588	70.44
387.813	79.44
388.038	81.44
388.263	95.44
388.488	89.44
388.713	87.44
388.938	84.44
389.163	81.44
389.387	71.44
389.612	88.44
389.837	81.44
390.062	81.44
390.287	80.44
390.512	87.44
390.736	87.44
390.961	84.44
391.186	77.44
391.411	78.44
391.636	90.44
391.86	88.44
392.085	81.44
392.31	90.44
392.534	87.44
392.759	101.44
392.984	107.44
393.208	160.44
393.433	206.44
393.658	171.44
393.882	100.44
394.107	104.44
394.331	107.44
394.556	95.44
394.78	98.44
395.005	94.44
395.229	89.44
395.454	94.44
395.678	73.44
395.903	89.44
396.127	114.44
396.352	128.44
396.576	130.44
396.801	162.44
397.025	171.44
397.249	120.44
397.474	92.44
397.698	95.44
397.922	80.44
398.147	92.44
398.371	84.44
398.595	75.44
398.82	73.44
399.044	88.44
399.268	66.44
399.492	91.44
399.717	90.44
399.941	82.44
400.165	83.44
400.389	89.44
400.613	79.44
400.837	95.44
401.062	68.44
401.286	70.44
401.51	81.44
401.734	74.44
401.958	84.44
402.182	77.44
402.406	82.44
402.63	82.44
402.854	86.44
403.078	84.44
403.302	80.44
403.526	80.44
403.75	67.44
403.974	76.44
404.198	86.44
404.422	88.44
404.645	103.44
404.869	98.44
405.093	73.44
405.317	88.44
405.541	80.44
405.765	83.44
405.988	82.44
406.212	90.44
406.436	75.44
406.66	95.44
406.883	88.44
407.107	64.44
407.331	76.44
407.555	75.44
407.778	99.44
408.002	91.44
408.226	75.44
408.449	94.44
408.673	75.44
408.896	87.44
409.12	82.44
409.344	91.44
409.567	91.44
409.791	88.44
410.014	91.44
410.238	90.44
410.461	86.44
410.685	85.44
410.908	86.44
411.132	71.44
411.355	96.44
411.578	83.44
411.802	70.44
412.025	82.44
412.249	84.44
412.472	86.44
412.695	74.44
412.919	74.44
413.142	81.44
413.365	84.44
413.589	78.44
413.812	79.44
414.035	92.44
414.258	71.44
414.482	85.44
414.705	77.44
414.928	82.44
415.151	82.44
415.374	99.44
415.597	82.44
415.821	94.44
416.044	81.44
416.267	81.44
416.49	89.44
416.713	84.44
416.936	75.44
417.159	75.44
417.382	80.44
417.605	90.44
417.828	91.44
418.051	85.44
418.274	76.44
418.497	82.44
418.72	74.44
418.943	76.44
419.166	81.44
419.389	91.44
419.611	77.44
419.834	82.44
420.057	72.44
420.28	89.44
420.503	86.44
420.726	81.44
420.948	84.44
421.171	76.44
421.394	82.44
421.617	90.44
421.839	106.44
422.062	101.44
422.285	106.44
422.507	154.44
422.73	232.44
422.953	204.44
423.175	119.44
423.398	92.44
423.621	85.44
423.843	86.44
424.066	89.44
424.288	92.44
424.511	86.44
424.733	83.44
424.956	67.44
425.178	89.44
425.401	86.44
425.623	78.44
425.846	81.44
426.068	68.44
426.291	75.44
426.513	70.44
426.735	86.44
426.958	87.44
427.18	80.44
427.402	79.44
427.625	80.44
427.847	71.44
428.069	86.44
428.292	95.44
428.514	105.44
428.736	90.44
428.958	98.44
429.181	104.44
429.403	102.44
429.625	94.44
429.847	101.44
430.069	125.44
430.292	134.44
430.514	107.44
430.736	107.44
430.958	106.44
431.18	97.44
431.402	82.44
431.624	82.44
431.846	115.44
432.068	106.44
432.29	87.44
432.512	83.44
432.734	84.44
432.956	80.44
433.178	89.44
433.4	85.44
433.622	77.44
433.844	98.44
434.066	98.44
434.287	65.44
434.509	73.44
434.731	73.44
434.953	82.44
435.175	84.44
435.397	90.44
435.618	69.44
435.84	87.44
436.062	78.44
436.284	81.44
436.505	85.44
436.727	85.44
436.949	64.44
437.17	88.44
437.392	89.44
437.614	88.44
437.835	88.44
438.057	86.44
438.278	73.44
438.5	82.44
438.721	91.44
438.943	87.44
439.165	69.44
439.386	73.44
439.608	73.44
439.829	84.44
440.05	83.44
440.272	83.44
440.493	79.44
440.715	84.44
440.936	80.44
441.158	73.44
441.379	75.44
441.6	86.44
441.822	100.44
442.043	80.44
442.264	83.44
442.486	92.44
442.707	122.44
442.928	105.44
443.149	88.44
443.371	115.44
443.592	153.44
443.813	137.44
444.034	79.44
444.255	90.44
444.476	97.44
444.698	96.44
444.919	88.44
445.14	160.44
445.361	166.44
445.582	177.44
445.803	168.44
446.024	100.44
446.245	80.44
446.466	76.44
446.687	76.44
446.908	87.44
447.129	72.44
447.35	78.44
447.571	97.44
447.792	85.44
448.013	86.44
448.234	93.44
448.455	91.44
448.675	81.44
448.896	79.44
449.117	71.44
449.338	73.44
449.559	79.44
449.779	85.44
450	72.44
450.221	68.44
450.442	94.44
450.662	82.44
450.883	82.44
451.104	85.44
451.324	87.44
451.545	77.44
451.766	83.44
451.986	76.44
452.207	90.44
452.428	68.44
452.648	85.44
452.869	81.44
453.089	89.44
453.31	83.44
453.53	81.44
453.751	89.44
453.971	86.44
454.192	87.44
454.412	82.44
454.633	77.44
454.853	79.44
455.073	72.44
455.294	88.44
455.514	81.44
455.734	82.44
455.955	83.44
456.175	75.44
456.395	87.44
456.616	61.44
456.836	76.44
457.056	75.44
457.276	68.44
457.497	85.44
457.717	98.44
457.937	83.44
458.157	94.44
458.377	91.44
458.598	102.44
458.818	90.44
459.038	78.44
459.258	86.44
459.478	70.44
459.698	73.44
459.918	77.44
460.138	88.44
460.358	97.44
460.578	102.44
460.798	96.44
461.018	111.44
461.238	80.44
461.458	100.44
461.678	85.44
461.898	91.44
462.118	88.44
462.338	84.44
462.558	90.44
462.777	98.44
462.997	92.44
463.217	70.44
463.437	68.44
463.657	67.44
463.876	87.44
464.096	78.44
464.316	80.44
464.536	80.44
464.755	76.44
464.975	71.44
465.195	87.44
465.414	89.44
465.634	77.44
465.854	80.44
466.073	94.44
466.293	79.44
466.512	89.44
466.732	91.44
466.951	90.44
467.171	75.44
467.391	86.44
467.61	86.44
467.829	71.44
468.049	84.44
468.268	80.44
468.488	88.44
468.707	85.44
468.927	91.44
469.146	97.44
469.365	84.44
469.585	88.44
469.804	73.44
470.023	77.44
470.243	85.44
470.462	70.44
470.681	87.44
470.901	81.44
471.12	84.44
471.339	79.44
471.558	94.44
471.777	80.44
471.997	77.44
472.216	74.44
472.435	74.44
472.654	76.44
472.873	94.44
473.092	86.44
473.311	76.44
473.53	86.44
473.749	75.44
473.968	86.44
474.187	84.44
474.406	96.44
474.625	86.44
474.844	95.44
475.063	72.44
475.282	75.44
475.501	95.44
475.72	86.44
475.939	90.44
476.158	87.44
476.377	100.44
476.596	82.44
476.814	71.44
477.033	81.44
477.252	81.44
477.471	85.44
477.69	81.44
477.908	95.44
478.127	88.44
478.346	84.44
478.564	73.44
478.783	66.44
479.002	71.44
479.22	92.44
479.439	77.44
479.658	64.44
479.876	87.44
480.095	90.44
480.313	76.44
480.532	96.44
480.751	76.44
480.969	72.44
481.188	69.44
481.406	74.44
481.624	82.44
481.843	80.44
482.061	87.44
482.28	97.44
482.498	89.44
482.717	73.44
482.935	88.44
483.153	88.44
483.372	84.44
483.59	76.44
483.808	74.44
484.027	91.44
484.245	80.44
484.463	80.44
484.681	82.44
484.9	84.44
485.118	83.44
485.336	73.44
485.554	94.44
485.772	84.44
485.99	83.44
486.209	77.44
486.427	88.44
486.645	72.44
486.863	82.44
487.081	88.44
487.299	97.44
487.517	97.44
487.735	85.44
487.953	127.44
488.171	99.44
488.389	80.44
488.607	90.44
488.825	77.44
489.043	77.44
489.261	75.44
489.479	67.44
489.696	78.44
489.914	84.44
490.132	82.44
490.35	84.44
490.568	95.44
490.786	78.44
491.003	90.44
491.221	84.44
491.439	93.44
491.657	85.44
491.874	89.44
492.092	86.44
492.31	95.44
492.527	93.44
492.745	90.44
492.963	100.44
493.18	77.44
493.398	79.44
493.615	95.44
493.833	84.44
494.05	78.44
494.268	78.44
494.485	84.44
494.703	75.44
494.92	86.44
495.138	90.44
495.355	82.44
495.573	88.44
495.79	84.44
496.008	87.44
496.225	88.44
496.442	86.44
496.66	91.44
496.877	86.44
497.094	70.44
497.312	61.44
497.529	76.44
497.746	92.44
497.963	91.44
498.181	99.44
498.398	91.44
498.615	75.44
498.832	91.44
499.049	86.44
499.267	97.44
499.484	91.44
499.701	73.44
499.918	84.44
500.135	82.44
500.352	81.44
500.569	87.44
500.786	92.44
501.003	89.44
501.22	90.44
501.437	89.44
501.654	86.44
501.871	83.44
502.088	76.44
502.305	85.44
502.522	80.44
502.739	100.44
502.956	85.44
503.172	82.44
503.389	85.44
503.606	85.44
503.823	74.44
504.04	90.44
504.256	111.44
504.473	100.44
504.69	78.44
504.907	79.44
505.123	73.44
505.34	93.44
505.557	84.44
505.773	83.44
505.99	86.44
506.207	77.44
506.423	86.44
506.64	79.44
506.856	99.44
507.073	87.44
507.289	88.44
507.506	80.44
507.722	83.44
507.939	81.44
508.155	84.44
508.372	98.44
508.588	86.44
508.805	83.44
509.021	110.44
509.238	74.44
509.454	82.44
509.67	64.44
509.887	69.44
510.103	82.44
510.319	91.44
510.536	77.44
510.752	89.44
510.968	75.44
511.184	79.44
511.401	66.44
511.617	70.44
511.833	77.44
512.049	89.44
512.265	76.44
512.481	82.44
512.698	74.44
512.914	86.44
513.13	86.44
513.346	68.44
513.562	84.44
513.778	83.44
513.994	88.44
514.21	83.44
514.426	86.44
514.642	80.44
514.858	92.44
515.074	81.44
515.29	88.44
515.506	86.44
515.721	80.44
515.937	82.44
516.153	85.44
516.369	78.44
516.585	78.44
516.801	86.44
517.016	79.44
517.232	77.44
517.448	80.44
517.664	76.44
517.879	93.44
518.095	81.44
518.311	79.44
518.527	80.44
518.742	94.44
518.958	114.44
519.173	96.44
519.389	106.44
