Data from 237_1_HRD10591_00012.txt Node
Date: Mon Jan 19 14:10:35 EST 2026
User: Yrep
Spectrometer: HR+D1059
Trigger mode: 1
Integration Time (sec): 1.000000E-1
Scans to average: 1
Electric dark correction enabled: true
Nonlinearity correction enabled: false
Boxcar width: 0
XAxis mode: Wavelengths
Number of Pixels in Spectrum: 2048
>>>>>Begin Spectral Data<<<<<
223.165	-15.19
223.4	-15.19
223.635	-15.19
223.869	-28.19
224.104	-2.19
224.338	-6.19
224.573	-19.19
224.808	-14.19
225.042	-12.19
225.277	-2.19
225.511	-1.19
225.746	-8.19
225.98	9.81
226.215	10.81
226.449	9.81
226.683	21.81
226.918	21.81
227.152	34.81
227.387	28.81
227.621	34.81
227.856	38.81
228.09	33.81
228.324	51.81
228.559	64.81
228.793	55.81
229.027	61.81
229.262	61.81
229.496	54.81
229.73	57.81
229.964	65.81
230.199	76.81
230.433	70.81
230.667	92.81
230.901	85.81
231.136	78.81
231.37	73.81
231.604	74.81
231.838	80.81
232.072	70.81
232.306	58.81
232.541	82.81
232.775	73.81
233.009	81.81
233.243	64.81
233.477	79.81
233.711	79.81
233.945	79.81
234.179	71.81
234.413	70.81
234.647	90.81
234.881	71.81
235.115	79.81
235.349	77.81
235.583	79.81
235.817	73.81
236.051	67.81
236.285	82.81
236.519	65.81
236.753	84.81
236.987	84.81
237.221	88.81
237.455	74.81
237.689	69.81
237.922	72.81
238.156	82.81
238.39	72.81
238.624	76.81
238.858	85.81
239.091	66.81
239.325	65.81
239.559	70.81
239.793	78.81
240.027	82.81
240.26	71.81
240.494	77.81
240.728	70.81
240.961	63.81
241.195	69.81
241.429	75.81
241.662	81.81
241.896	66.81
242.13	81.81
242.363	54.81
242.597	74.81
242.83	70.81
243.064	78.81
243.298	81.81
243.531	80.81
243.765	70.81
243.998	73.81
244.232	74.81
244.465	71.81
244.699	65.81
244.932	73.81
245.166	66.81
245.399	59.81
245.633	75.81
245.866	76.81
246.099	89.81
246.333	82.81
246.566	75.81
246.8	69.81
247.033	81.81
247.266	67.81
247.5	86.81
247.733	77.81
247.966	84.81
248.2	84.81
248.433	69.81
248.666	75.81
248.899	65.81
249.133	82.81
249.366	81.81
249.599	75.81
249.832	91.81
250.066	85.81
250.299	75.81
250.532	59.81
250.765	82.81
250.998	74.81
251.231	76.81
251.465	84.81
251.698	80.81
251.931	72.81
252.164	73.81
252.397	67.81
252.63	86.81
252.863	81.81
253.096	86.81
253.329	93.81
253.562	81.81
253.795	83.81
254.028	72.81
254.261	79.81
254.494	85.81
254.727	77.81
254.96	83.81
255.193	86.81
255.426	74.81
255.659	80.81
255.892	89.81
256.124	84.81
256.357	83.81
256.59	91.81
256.823	76.81
257.056	77.81
257.289	75.81
257.521	79.81
257.754	78.81
257.987	65.81
258.22	79.81
258.452	73.81
258.685	84.81
258.918	82.81
259.151	71.81
259.383	84.81
259.616	91.81
259.849	93.81
260.081	73.81
260.314	85.81
260.547	78.81
260.779	84.81
261.012	67.81
261.244	81.81
261.477	73.81
261.71	75.81
261.942	80.81
262.175	89.81
262.407	72.81
262.64	73.81
262.872	91.81
263.105	75.81
263.337	89.81
263.57	67.81
263.802	65.81
264.035	74.81
264.267	68.81
264.499	80.81
264.732	75.81
264.964	68.81
265.197	85.81
265.429	86.81
265.661	85.81
265.894	70.81
266.126	88.81
266.358	81.81
266.591	85.81
266.823	73.81
267.055	78.81
267.287	82.81
267.52	72.81
267.752	87.81
267.984	68.81
268.216	85.81
268.448	81.81
268.681	78.81
268.913	63.81
269.145	78.81
269.377	78.81
269.609	73.81
269.841	74.81
270.073	72.81
270.306	70.81
270.538	75.81
270.77	82.81
271.002	81.81
271.234	75.81
271.466	83.81
271.698	78.81
271.93	90.81
272.162	75.81
272.394	85.81
272.626	73.81
272.858	87.81
273.09	70.81
273.322	71.81
273.553	85.81
273.785	70.81
274.017	71.81
274.249	85.81
274.481	73.81
274.713	86.81
274.945	91.81
275.176	87.81
275.408	72.81
275.64	85.81
275.872	87.81
276.104	92.81
276.335	101.81
276.567	90.81
276.799	89.81
277.031	80.81
277.262	82.81
277.494	72.81
277.726	91.81
277.957	67.81
278.189	81.81
278.421	64.81
278.652	70.81
278.884	86.81
279.115	64.81
279.347	84.81
279.579	77.81
279.81	102.81
280.042	89.81
280.273	86.81
280.505	79.81
280.736	74.81
280.968	82.81
281.199	80.81
281.431	77.81
281.662	82.81
281.894	83.81
282.125	83.81
282.356	95.81
282.588	85.81
282.819	81.81
283.051	74.81
283.282	86.81
283.513	83.81
283.745	88.81
283.976	82.81
284.207	77.81
284.439	85.81
284.67	83.81
284.901	81.81
285.132	63.81
285.364	81.81
285.595	98.81
285.826	94.81
286.057	74.81
286.288	85.81
286.52	69.81
286.751	72.81
286.982	82.81
287.213	73.81
287.444	63.81
287.675	79.81
287.906	88.81
288.138	74.81
288.369	69.81
288.6	74.81
288.831	87.81
289.062	69.81
289.293	75.81
289.524	86.81
289.755	81.81
289.986	86.81
290.217	83.81
290.448	74.81
290.679	68.81
290.91	91.81
291.141	79.81
291.371	90.81
291.602	89.81
291.833	74.81
292.064	70.81
292.295	82.81
292.526	75.81
292.757	74.81
292.987	80.81
293.218	71.81
293.449	90.81
293.68	86.81
293.91	74.81
294.141	85.81
294.372	88.81
294.603	73.81
294.833	77.81
295.064	73.81
295.295	82.81
295.525	79.81
295.756	90.81
295.987	83.81
296.217	85.81
296.448	109.81
296.679	82.81
296.909	86.81
297.14	87.81
297.37	83.81
297.601	80.81
297.831	78.81
298.062	86.81
298.292	78.81
298.523	79.81
298.753	76.81
298.984	71.81
299.214	77.81
299.445	77.81
299.675	83.81
299.905	90.81
300.136	69.81
300.366	82.81
300.597	81.81
300.827	71.81
301.057	78.81
301.288	82.81
301.518	81.81
301.748	85.81
301.979	92.81
302.209	72.81
302.439	66.81
302.669	79.81
302.9	67.81
303.13	91.81
303.36	85.81
303.59	87.81
303.82	80.81
304.051	72.81
304.281	79.81
304.511	78.81
304.741	78.81
304.971	87.81
305.201	89.81
305.431	73.81
305.661	82.81
305.891	76.81
306.121	90.81
306.352	79.81
306.582	85.81
306.812	90.81
307.042	78.81
307.272	90.81
307.502	80.81
307.731	94.81
307.961	87.81
308.191	109.81
308.421	96.81
308.651	84.81
308.881	79.81
309.111	91.81
309.341	87.81
309.571	88.81
309.8	76.81
310.03	85.81
310.26	89.81
310.49	81.81
310.72	75.81
310.949	73.81
311.179	75.81
311.409	74.81
311.639	87.81
311.868	90.81
312.098	85.81
312.328	86.81
312.557	93.81
312.787	82.81
313.017	77.81
313.246	85.81
313.476	82.81
313.706	87.81
313.935	75.81
314.165	95.81
314.394	89.81
314.624	88.81
314.853	77.81
315.083	83.81
315.312	88.81
315.542	74.81
315.771	86.81
316.001	85.81
316.23	93.81
316.46	78.81
316.689	85.81
316.919	74.81
317.148	74.81
317.377	89.81
317.607	87.81
317.836	97.81
318.065	98.81
318.295	90.81
318.524	93.81
318.753	93.81
318.983	85.81
319.212	84.81
319.441	75.81
319.67	85.81
319.9	77.81
320.129	85.81
320.358	73.81
320.587	67.81
320.816	76.81
321.046	86.81
321.275	95.81
321.504	85.81
321.733	89.81
321.962	90.81
322.191	80.81
322.42	88.81
322.649	86.81
322.878	90.81
323.108	101.81
323.337	89.81
323.566	83.81
323.795	101.81
324.024	89.81
324.253	81.81
324.482	91.81
324.71	82.81
324.939	80.81
325.168	96.81
325.397	90.81
325.626	75.81
325.855	73.81
326.084	81.81
326.313	74.81
326.542	75.81
326.77	92.81
326.999	94.81
327.228	81.81
327.457	93.81
327.686	89.81
327.914	82.81
328.143	85.81
328.372	95.81
328.6	77.81
328.829	75.81
329.058	81.81
329.287	98.81
329.515	65.81
329.744	75.81
329.972	89.81
330.201	90.81
330.43	79.81
330.658	74.81
330.887	78.81
331.115	90.81
331.344	97.81
331.572	76.81
331.801	80.81
332.03	74.81
332.258	78.81
332.486	76.81
332.715	80.81
332.943	89.81
333.172	77.81
333.4	96.81
333.629	85.81
333.857	90.81
334.085	97.81
334.314	101.81
334.542	78.81
334.771	87.81
334.999	72.81
335.227	76.81
335.455	86.81
335.684	73.81
335.912	90.81
336.14	96.81
336.369	83.81
336.597	89.81
336.825	83.81
337.053	69.81
337.281	77.81
337.51	81.81
337.738	102.81
337.966	92.81
338.194	87.81
338.422	89.81
338.65	79.81
338.878	93.81
339.106	79.81
339.334	92.81
339.562	82.81
339.79	91.81
340.018	78.81
340.246	81.81
340.474	86.81
340.702	86.81
340.93	90.81
341.158	86.81
341.386	76.81
341.614	75.81
341.842	101.81
342.07	81.81
342.298	73.81
342.526	72.81
342.754	91.81
342.981	79.81
343.209	87.81
343.437	87.81
343.665	89.81
343.893	81.81
344.12	86.81
344.348	81.81
344.576	84.81
344.804	81.81
345.031	90.81
345.259	82.81
345.487	87.81
345.714	77.81
345.942	95.81
346.17	87.81
346.397	72.81
346.625	78.81
346.853	81.81
347.08	94.81
347.308	103.81
347.535	88.81
347.763	95.81
347.99	86.81
348.218	65.81
348.445	93.81
348.673	92.81
348.9	78.81
349.128	89.81
349.355	77.81
349.583	77.81
349.81	83.81
350.037	85.81
350.265	79.81
350.492	79.81
350.72	94.81
350.947	82.81
351.174	84.81
351.402	87.81
351.629	91.81
351.856	97.81
352.083	98.81
352.311	91.81
352.538	81.81
352.765	71.81
352.992	84.81
353.22	87.81
353.447	88.81
353.674	94.81
353.901	78.81
354.128	88.81
354.355	93.81
354.583	85.81
354.81	94.81
355.037	79.81
355.264	91.81
355.491	79.81
355.718	80.81
355.945	71.81
356.172	81.81
356.399	81.81
356.626	93.81
356.853	88.81
357.08	92.81
357.307	94.81
357.534	69.81
357.761	85.81
357.988	88.81
358.215	79.81
358.441	71.81
358.668	80.81
358.895	72.81
359.122	85.81
359.349	83.81
359.576	98.81
359.802	81.81
360.029	86.81
360.256	87.81
360.483	93.81
360.709	75.81
360.936	75.81
361.163	85.81
361.39	93.81
361.616	101.81
361.843	89.81
362.07	85.81
362.296	78.81
362.523	88.81
362.749	101.81
362.976	94.81
363.203	102.81
363.429	86.81
363.656	80.81
363.882	80.81
364.109	100.81
364.335	100.81
364.562	107.81
364.788	100.81
365.015	87.81
365.241	91.81
365.468	84.81
365.694	82.81
365.92	81.81
366.147	81.81
366.373	75.81
366.599	91.81
366.826	84.81
367.052	87.81
367.278	75.81
367.505	86.81
367.731	110.81
367.957	81.81
368.184	75.81
368.41	88.81
368.636	88.81
368.862	87.81
369.089	76.81
369.315	90.81
369.541	91.81
369.767	85.81
369.993	85.81
370.219	88.81
370.445	85.81
370.672	75.81
370.898	83.81
371.124	91.81
371.35	87.81
371.576	98.81
371.802	100.81
372.028	94.81
372.254	82.81
372.48	76.81
372.706	87.81
372.932	96.81
373.158	96.81
373.384	94.81
373.61	91.81
373.835	89.81
374.061	94.81
374.287	91.81
374.513	75.81
374.739	98.81
374.965	96.81
375.191	84.81
375.416	77.81
375.642	91.81
375.868	89.81
376.094	91.81
376.319	85.81
376.545	82.81
376.771	94.81
376.997	81.81
377.222	78.81
377.448	77.81
377.674	81.81
377.899	83.81
378.125	82.81
378.35	86.81
378.576	99.81
378.802	81.81
379.027	90.81
379.253	85.81
379.478	81.81
379.704	69.81
379.929	89.81
380.155	87.81
380.38	84.81
380.606	98.81
380.831	92.81
381.057	105.81
381.282	95.81
381.507	79.81
381.733	86.81
381.958	83.81
382.184	100.81
382.409	87.81
382.634	97.81
382.86	89.81
383.085	90.81
383.31	88.81
383.535	77.81
383.761	83.81
383.986	95.81
384.211	75.81
384.436	78.81
384.662	79.81
384.887	84.81
385.112	93.81
385.337	95.81
385.562	97.81
385.787	90.81
386.013	105.81
386.238	95.81
386.463	89.81
386.688	99.81
386.913	74.81
387.138	102.81
387.363	78.81
387.588	91.81
387.813	81.81
388.038	101.81
388.263	93.81
388.488	86.81
388.713	88.81
388.938	79.81
389.163	74.81
389.387	80.81
389.612	79.81
389.837	84.81
390.062	87.81
390.287	92.81
390.512	95.81
390.736	91.81
390.961	79.81
391.186	83.81
391.411	88.81
391.636	89.81
391.86	80.81
392.085	67.81
392.31	95.81
392.534	94.81
392.759	112.81
392.984	130.81
393.208	187.81
393.433	266.81
393.658	215.81
393.882	110.81
394.107	103.81
394.331	97.81
394.556	112.81
394.78	97.81
395.005	99.81
395.229	98.81
395.454	97.81
395.678	107.81
395.903	93.81
396.127	113.81
396.352	132.81
396.576	130.81
396.801	199.81
397.025	221.81
397.249	115.81
397.474	113.81
397.698	82.81
397.922	85.81
398.147	86.81
398.371	94.81
398.595	85.81
398.82	93.81
399.044	85.81
399.268	94.81
399.492	81.81
399.717	85.81
399.941	94.81
400.165	84.81
400.389	103.81
400.613	85.81
400.837	90.81
401.062	81.81
401.286	80.81
401.51	86.81
401.734	79.81
401.958	75.81
402.182	84.81
402.406	84.81
402.63	86.81
402.854	91.81
403.078	80.81
403.302	87.81
403.526	88.81
403.75	77.81
403.974	89.81
404.198	99.81
404.422	109.81
404.645	103.81
404.869	93.81
405.093	86.81
405.317	95.81
405.541	100.81
405.765	87.81
405.988	91.81
406.212	77.81
406.436	86.81
406.66	91.81
406.883	91.81
407.107	82.81
407.331	73.81
407.555	78.81
407.778	101.81
408.002	96.81
408.226	96.81
408.449	89.81
408.673	102.81
408.896	99.81
409.12	77.81
409.344	89.81
409.567	87.81
409.791	81.81
410.014	82.81
410.238	81.81
410.461	89.81
410.685	94.81
410.908	102.81
411.132	89.81
411.355	97.81
411.578	85.81
411.802	85.81
412.025	81.81
412.249	87.81
412.472	96.81
412.695	87.81
412.919	97.81
413.142	99.81
413.365	73.81
413.589	84.81
413.812	81.81
414.035	86.81
414.258	88.81
414.482	94.81
414.705	88.81
414.928	89.81
415.151	85.81
415.374	93.81
415.597	83.81
415.821	79.81
416.044	80.81
416.267	87.81
416.49	81.81
416.713	93.81
416.936	77.81
417.159	99.81
417.382	84.81
417.605	65.81
417.828	80.81
418.051	99.81
418.274	81.81
418.497	80.81
418.72	79.81
418.943	79.81
419.166	80.81
419.389	93.81
419.611	85.81
419.834	98.81
420.057	98.81
420.28	75.81
420.503	74.81
420.726	86.81
420.948	86.81
421.171	103.81
421.394	113.81
421.617	98.81
421.839	106.81
422.062	118.81
422.285	143.81
422.507	203.81
422.73	306.81
422.953	280.81
423.175	155.81
423.398	121.81
423.621	105.81
423.843	82.81
424.066	86.81
424.288	85.81
424.511	80.81
424.733	92.81
424.956	97.81
425.178	84.81
425.401	82.81
425.623	96.81
425.846	81.81
426.068	82.81
426.291	91.81
426.513	96.81
426.735	77.81
426.958	87.81
427.18	90.81
427.402	96.81
427.625	77.81
427.847	77.81
428.069	83.81
428.292	111.81
428.514	109.81
428.736	106.81
428.958	109.81
429.181	97.81
429.403	93.81
429.625	95.81
429.847	98.81
430.069	134.81
430.292	154.81
430.514	150.81
430.736	116.81
430.958	121.81
431.18	98.81
431.402	97.81
431.624	91.81
431.846	112.81
432.068	122.81
432.29	99.81
432.512	95.81
432.734	81.81
432.956	96.81
433.178	89.81
433.4	87.81
433.622	79.81
433.844	87.81
434.066	93.81
434.287	84.81
434.509	76.81
434.731	85.81
434.953	89.81
435.175	81.81
435.397	98.81
435.618	86.81
435.84	79.81
436.062	88.81
436.284	87.81
436.505	71.81
436.727	83.81
436.949	90.81
437.17	79.81
437.392	76.81
437.614	85.81
437.835	83.81
438.057	95.81
438.278	84.81
438.5	96.81
438.721	85.81
438.943	78.81
439.165	89.81
439.386	73.81
439.608	88.81
439.829	79.81
440.05	85.81
440.272	68.81
440.493	77.81
440.715	94.81
440.936	89.81
441.158	104.81
441.379	81.81
441.6	77.81
441.822	75.81
442.043	83.81
442.264	94.81
442.486	109.81
442.707	138.81
442.928	105.81
443.149	106.81
443.371	126.81
443.592	161.81
443.813	141.81
444.034	93.81
444.255	76.81
444.476	85.81
444.698	86.81
444.919	94.81
445.14	162.81
445.361	163.81
445.582	211.81
445.803	177.81
446.024	101.81
446.245	97.81
446.466	88.81
446.687	88.81
446.908	83.81
447.129	93.81
447.35	82.81
447.571	89.81
447.792	85.81
448.013	84.81
448.234	84.81
448.455	69.81
448.675	91.81
448.896	87.81
449.117	98.81
449.338	75.81
449.559	72.81
449.779	71.81
450	75.81
450.221	81.81
450.442	78.81
450.662	93.81
450.883	83.81
451.104	88.81
451.324	82.81
451.545	90.81
451.766	94.81
451.986	88.81
452.207	75.81
452.428	108.81
452.648	112.81
452.869	96.81
453.089	88.81
453.31	93.81
453.53	99.81
453.751	98.81
453.971	79.81
454.192	97.81
454.412	80.81
454.633	87.81
454.853	69.81
455.073	79.81
455.294	81.81
455.514	86.81
455.734	90.81
455.955	85.81
456.175	84.81
456.395	81.81
456.616	87.81
456.836	83.81
457.056	91.81
457.276	99.81
457.497	75.81
457.717	90.81
457.937	114.81
458.157	101.81
458.377	90.81
458.598	85.81
458.818	106.81
459.038	79.81
459.258	85.81
459.478	98.81
459.698	89.81
459.918	87.81
460.138	79.81
460.358	81.81
460.578	82.81
460.798	113.81
461.018	88.81
461.238	89.81
461.458	79.81
461.678	98.81
461.898	91.81
462.118	92.81
462.338	90.81
462.558	83.81
462.777	77.81
462.997	83.81
463.217	94.81
463.437	88.81
463.657	79.81
463.876	93.81
464.096	87.81
464.316	78.81
464.536	74.81
464.755	96.81
464.975	65.81
465.195	86.81
465.414	81.81
465.634	88.81
465.854	87.81
466.073	89.81
466.293	93.81
466.512	61.81
466.732	91.81
466.951	93.81
467.171	77.81
467.391	79.81
467.61	101.81
467.829	92.81
468.049	89.81
468.268	84.81
468.488	80.81
468.707	85.81
468.927	81.81
469.146	90.81
469.365	78.81
469.585	83.81
469.804	77.81
470.023	71.81
470.243	95.81
470.462	84.81
470.681	78.81
470.901	77.81
471.12	96.81
471.339	93.81
471.558	62.81
471.777	81.81
471.997	90.81
472.216	90.81
472.435	85.81
472.654	75.81
472.873	84.81
473.092	71.81
473.311	86.81
473.53	89.81
473.749	84.81
473.968	75.81
474.187	73.81
474.406	85.81
474.625	82.81
474.844	79.81
475.063	83.81
475.282	87.81
475.501	85.81
475.72	79.81
475.939	82.81
476.158	85.81
476.377	94.81
476.596	81.81
476.814	75.81
477.033	102.81
477.252	97.81
477.471	89.81
477.69	71.81
477.908	89.81
478.127	81.81
478.346	78.81
478.564	88.81
478.783	77.81
479.002	83.81
479.22	91.81
479.439	90.81
479.658	84.81
479.876	83.81
480.095	96.81
480.313	70.81
480.532	83.81
480.751	88.81
480.969	89.81
481.188	75.81
481.406	83.81
481.624	86.81
481.843	85.81
482.061	85.81
482.28	89.81
482.498	94.81
482.717	95.81
482.935	84.81
483.153	93.81
483.372	85.81
483.59	91.81
483.808	88.81
484.027	91.81
484.245	83.81
484.463	85.81
484.681	98.81
484.9	97.81
485.118	89.81
485.336	87.81
485.554	90.81
485.772	97.81
485.99	86.81
486.209	93.81
486.427	115.81
486.645	80.81
486.863	89.81
487.081	102.81
487.299	95.81
487.517	96.81
487.735	113.81
487.953	143.81
488.171	126.81
488.389	97.81
488.607	75.81
488.825	85.81
489.043	77.81
489.261	74.81
489.479	86.81
489.696	96.81
489.914	84.81
490.132	86.81
490.35	97.81
490.568	87.81
490.786	79.81
491.003	90.81
491.221	89.81
491.439	74.81
491.657	93.81
491.874	85.81
492.092	94.81
492.31	95.81
492.527	62.81
492.745	79.81
492.963	83.81
493.18	79.81
493.398	78.81
493.615	74.81
493.833	66.81
494.05	68.81
494.268	66.81
494.485	84.81
494.703	82.81
494.92	62.81
495.138	86.81
495.355	70.81
495.573	93.81
495.79	95.81
496.008	78.81
496.225	92.81
496.442	75.81
496.66	95.81
496.877	80.81
497.094	89.81
497.312	77.81
497.529	81.81
497.746	89.81
497.963	97.81
498.181	93.81
498.398	90.81
498.615	80.81
498.832	82.81
499.049	90.81
499.267	93.81
499.484	82.81
499.701	92.81
499.918	100.81
500.135	95.81
500.352	83.81
500.569	80.81
500.786	101.81
501.003	74.81
501.22	90.81
501.437	89.81
501.654	85.81
501.871	88.81
502.088	93.81
502.305	85.81
502.522	83.81
502.739	91.81
502.956	77.81
503.172	109.81
503.389	73.81
503.606	95.81
503.823	83.81
504.04	119.81
504.256	112.81
504.473	105.81
504.69	97.81
504.907	99.81
505.123	86.81
505.34	86.81
505.557	101.81
505.773	76.81
505.99	87.81
506.207	81.81
506.423	73.81
506.64	87.81
506.856	83.81
507.073	79.81
507.289	73.81
507.506	73.81
507.722	80.81
507.939	85.81
508.155	83.81
508.372	83.81
508.588	99.81
508.805	97.81
509.021	73.81
509.238	61.81
509.454	62.81
509.67	87.81
509.887	79.81
510.103	82.81
510.319	79.81
510.536	108.81
510.752	82.81
510.968	91.81
511.184	81.81
511.401	96.81
511.617	85.81
511.833	90.81
512.049	75.81
512.265	89.81
512.481	79.81
512.698	77.81
512.914	93.81
513.13	79.81
513.346	81.81
513.562	83.81
513.778	90.81
513.994	90.81
514.21	86.81
514.426	79.81
514.642	88.81
514.858	96.81
515.074	81.81
515.29	85.81
515.506	85.81
515.721	80.81
515.937	74.81
516.153	94.81
516.369	91.81
516.585	85.81
516.801	80.81
517.016	85.81
517.232	89.81
517.448	98.81
517.664	91.81
517.879	87.81
518.095	81.81
518.311	79.81
518.527	88.81
518.742	99.81
