Data from Uncirc_2005_H10_HRD10591_00064.txt Node
Date: Wed Jan 03 10:28:37 EST 2024
User: Yrep
Spectrometer: HR+D1059
Trigger mode: 1
Integration Time (sec): 1.000000E-1
Scans to average: 1
Electric dark correction enabled: true
Nonlinearity correction enabled: false
Boxcar width: 0
XAxis mode: Wavelengths
Number of Pixels in Spectrum: 2048
>>>>>Begin Spectral Data<<<<<
223.165	-19.5
223.4	-19.5
223.635	-19.5
223.869	-8.5
224.104	-29.5
224.338	-24.5
224.573	-27.5
224.808	-20.5
225.042	-1.5
225.277	-10.5
225.511	4.5
225.746	9.5
225.98	16.5
226.215	19.5
226.449	18.5
226.683	16.5
226.918	19.5
227.152	37.5
227.387	35.5
227.621	43.5
227.856	38.5
228.09	39.5
228.324	60.5
228.559	65.5
228.793	46.5
229.027	52.5
229.262	65.5
229.496	72.5
229.73	80.5
229.964	74.5
230.199	63.5
230.433	79.5
230.667	90.5
230.901	76.5
231.136	74.5
231.37	81.5
231.604	67.5
231.838	80.5
232.072	98.5
232.306	88.5
232.541	74.5
232.775	89.5
233.009	75.5
233.243	83.5
233.477	83.5
233.711	86.5
233.945	102.5
234.179	88.5
234.413	77.5
234.647	87.5
234.881	81.5
235.115	71.5
235.349	59.5
235.583	84.5
235.817	95.5
236.051	87.5
236.285	70.5
236.519	61.5
236.753	71.5
236.987	85.5
237.221	89.5
237.455	84.5
237.689	78.5
237.922	71.5
238.156	91.5
238.39	80.5
238.624	75.5
238.858	88.5
239.091	64.5
239.325	70.5
239.559	75.5
239.793	75.5
240.027	73.5
240.26	89.5
240.494	85.5
240.728	80.5
240.961	75.5
241.195	75.5
241.429	86.5
241.662	86.5
241.896	84.5
242.13	86.5
242.363	78.5
242.597	69.5
242.83	96.5
243.064	75.5
243.298	83.5
243.531	81.5
243.765	76.5
243.998	80.5
244.232	86.5
244.465	81.5
244.699	83.5
244.932	94.5
245.166	80.5
245.399	87.5
245.633	85.5
245.866	82.5
246.099	84.5
246.333	73.5
246.566	72.5
246.8	87.5
247.033	92.5
247.266	79.5
247.5	79.5
247.733	85.5
247.966	80.5
248.2	65.5
248.433	80.5
248.666	81.5
248.899	84.5
249.133	91.5
249.366	97.5
249.599	78.5
249.832	79.5
250.066	98.5
250.299	77.5
250.532	83.5
250.765	79.5
250.998	69.5
251.231	78.5
251.465	61.5
251.698	74.5
251.931	77.5
252.164	78.5
252.397	83.5
252.63	84.5
252.863	89.5
253.096	84.5
253.329	64.5
253.562	86.5
253.795	79.5
254.028	65.5
254.261	61.5
254.494	84.5
254.727	84.5
254.96	84.5
255.193	76.5
255.426	78.5
255.659	79.5
255.892	79.5
256.124	95.5
256.357	77.5
256.59	104.5
256.823	72.5
257.056	73.5
257.289	72.5
257.521	76.5
257.754	91.5
257.987	75.5
258.22	73.5
258.452	88.5
258.685	93.5
258.918	89.5
259.151	86.5
259.383	78.5
259.616	64.5
259.849	87.5
260.081	80.5
260.314	97.5
260.547	83.5
260.779	76.5
261.012	77.5
261.244	69.5
261.477	83.5
261.71	80.5
261.942	102.5
262.175	116.5
262.407	100.5
262.64	73.5
262.872	76.5
263.105	75.5
263.337	99.5
263.57	71.5
263.802	85.5
264.035	70.5
264.267	80.5
264.499	88.5
264.732	86.5
264.964	91.5
265.197	94.5
265.429	80.5
265.661	85.5
265.894	84.5
266.126	86.5
266.358	79.5
266.591	89.5
266.823	91.5
267.055	80.5
267.287	84.5
267.52	78.5
267.752	83.5
267.984	79.5
268.216	82.5
268.448	73.5
268.681	91.5
268.913	85.5
269.145	87.5
269.377	100.5
269.609	95.5
269.841	78.5
270.073	85.5
270.306	89.5
270.538	77.5
270.77	103.5
271.002	82.5
271.234	87.5
271.466	80.5
271.698	78.5
271.93	77.5
272.162	86.5
272.394	84.5
272.626	80.5
272.858	88.5
273.09	81.5
273.322	87.5
273.553	96.5
273.785	87.5
274.017	82.5
274.249	69.5
274.481	80.5
274.713	83.5
274.945	93.5
275.176	95.5
275.408	76.5
275.64	84.5
275.872	87.5
276.104	79.5
276.335	98.5
276.567	112.5
276.799	103.5
277.031	89.5
277.262	109.5
277.494	88.5
277.726	78.5
277.957	73.5
278.189	98.5
278.421	86.5
278.652	88.5
278.884	83.5
279.115	85.5
279.347	83.5
279.579	83.5
279.81	93.5
280.042	79.5
280.273	83.5
280.505	86.5
280.736	86.5
280.968	78.5
281.199	83.5
281.431	77.5
281.662	89.5
281.894	90.5
282.125	77.5
282.356	103.5
282.588	128.5
282.819	105.5
283.051	95.5
283.282	93.5
283.513	84.5
283.745	62.5
283.976	72.5
284.207	89.5
284.439	86.5
284.67	89.5
284.901	95.5
285.132	87.5
285.364	81.5
285.595	94.5
285.826	87.5
286.057	91.5
286.288	91.5
286.52	101.5
286.751	97.5
286.982	88.5
287.213	87.5
287.444	90.5
287.675	86.5
287.906	82.5
288.138	86.5
288.369	91.5
288.6	80.5
288.831	95.5
289.062	95.5
289.293	93.5
289.524	85.5
289.755	83.5
289.986	83.5
290.217	85.5
290.448	95.5
290.679	88.5
290.91	81.5
291.141	78.5
291.371	78.5
291.602	84.5
291.833	86.5
292.064	103.5
292.295	106.5
292.526	89.5
292.757	73.5
292.987	103.5
293.218	70.5
293.449	84.5
293.68	84.5
293.91	93.5
294.141	80.5
294.372	92.5
294.603	85.5
294.833	87.5
295.064	103.5
295.295	89.5
295.525	94.5
295.756	104.5
295.987	98.5
296.217	113.5
296.448	107.5
296.679	79.5
296.909	94.5
297.14	83.5
297.37	69.5
297.601	71.5
297.831	83.5
298.062	79.5
298.292	99.5
298.523	85.5
298.753	93.5
298.984	90.5
299.214	88.5
299.445	90.5
299.675	84.5
299.905	80.5
300.136	92.5
300.366	93.5
300.597	93.5
300.827	85.5
301.057	107.5
301.288	92.5
301.518	88.5
301.748	84.5
301.979	90.5
302.209	83.5
302.439	104.5
302.669	101.5
302.9	95.5
303.13	98.5
303.36	86.5
303.59	93.5
303.82	89.5
304.051	109.5
304.281	90.5
304.511	90.5
304.741	84.5
304.971	88.5
305.201	96.5
305.431	97.5
305.661	80.5
305.891	100.5
306.121	95.5
306.352	84.5
306.582	92.5
306.812	93.5
307.042	97.5
307.272	97.5
307.502	104.5
307.731	97.5
307.961	87.5
308.191	88.5
308.421	97.5
308.651	99.5
308.881	85.5
309.111	83.5
309.341	94.5
309.571	99.5
309.8	83.5
310.03	82.5
310.26	91.5
310.49	87.5
310.72	90.5
310.949	106.5
311.179	107.5
311.409	87.5
311.639	102.5
311.868	98.5
312.098	93.5
312.328	85.5
312.557	103.5
312.787	106.5
313.017	100.5
313.246	89.5
313.476	88.5
313.706	96.5
313.935	104.5
314.165	100.5
314.394	107.5
314.624	96.5
314.853	91.5
315.083	91.5
315.312	97.5
315.542	84.5
315.771	98.5
316.001	97.5
316.23	88.5
316.46	86.5
316.689	98.5
316.919	87.5
317.148	92.5
317.377	97.5
317.607	88.5
317.836	91.5
318.065	94.5
318.295	81.5
318.524	85.5
318.753	90.5
318.983	104.5
319.212	106.5
319.441	104.5
319.67	107.5
319.9	94.5
320.129	87.5
320.358	103.5
320.587	92.5
320.816	94.5
321.046	108.5
321.275	102.5
321.504	77.5
321.733	107.5
321.962	103.5
322.191	99.5
322.42	109.5
322.649	118.5
322.878	105.5
323.108	110.5
323.337	127.5
323.566	128.5
323.795	139.5
324.024	197.5
324.253	381.5
324.482	814.5
324.71	1648.5
324.939	2164.5
325.168	782.5
325.397	243.5
325.626	147.5
325.855	126.5
326.084	139.5
326.313	127.5
326.542	130.5
326.77	215.5
326.999	428.5
327.228	919.5
327.457	1672.5
327.686	1328.5
327.914	364.5
328.143	177.5
328.372	137.5
328.6	121.5
328.829	108.5
329.058	123.5
329.287	134.5
329.515	96.5
329.744	89.5
329.972	101.5
330.201	89.5
330.43	107.5
330.658	121.5
330.887	125.5
331.115	118.5
331.344	108.5
331.572	91.5
331.801	102.5
332.03	100.5
332.258	101.5
332.486	101.5
332.715	97.5
332.943	88.5
333.172	90.5
333.4	104.5
333.629	110.5
333.857	126.5
334.085	97.5
334.314	96.5
334.542	82.5
334.771	88.5
334.999	89.5
335.227	92.5
335.455	93.5
335.684	98.5
335.912	83.5
336.14	94.5
336.369	82.5
336.597	82.5
336.825	92.5
337.053	82.5
337.281	89.5
337.51	86.5
337.738	85.5
337.966	93.5
338.194	91.5
338.422	109.5
338.65	90.5
338.878	91.5
339.106	94.5
339.334	105.5
339.562	97.5
339.79	92.5
340.018	95.5
340.246	96.5
340.474	100.5
340.702	95.5
340.93	89.5
341.158	92.5
341.386	95.5
341.614	96.5
341.842	112.5
342.07	95.5
342.298	98.5
342.526	95.5
342.754	81.5
342.981	99.5
343.209	88.5
343.437	91.5
343.665	92.5
343.893	94.5
344.12	96.5
344.348	96.5
344.576	103.5
344.804	100.5
345.031	101.5
345.259	93.5
345.487	92.5
345.714	82.5
345.942	89.5
346.17	88.5
346.397	103.5
346.625	99.5
346.853	89.5
347.08	96.5
347.308	88.5
347.535	90.5
347.763	111.5
347.99	104.5
348.218	90.5
348.445	116.5
348.673	92.5
348.9	85.5
349.128	83.5
349.355	89.5
349.583	93.5
349.81	103.5
350.037	95.5
350.265	112.5
350.492	107.5
350.72	108.5
350.947	97.5
351.174	74.5
351.402	103.5
351.629	99.5
351.856	89.5
352.083	112.5
352.311	107.5
352.538	93.5
352.765	104.5
352.992	106.5
353.22	112.5
353.447	93.5
353.674	111.5
353.901	103.5
354.128	86.5
354.355	94.5
354.583	98.5
354.81	88.5
355.037	85.5
355.264	91.5
355.491	108.5
355.718	85.5
355.945	89.5
356.172	80.5
356.399	95.5
356.626	88.5
356.853	87.5
357.08	81.5
357.307	100.5
357.534	89.5
357.761	91.5
357.988	103.5
358.215	88.5
358.441	110.5
358.668	90.5
358.895	90.5
359.122	88.5
359.349	98.5
359.576	93.5
359.802	100.5
360.029	104.5
360.256	113.5
360.483	93.5
360.709	97.5
360.936	96.5
361.163	102.5
361.39	98.5
361.616	100.5
361.843	92.5
362.07	91.5
362.296	105.5
362.523	93.5
362.749	86.5
362.976	98.5
363.203	94.5
363.429	77.5
363.656	84.5
363.882	95.5
364.109	101.5
364.335	113.5
364.562	85.5
364.788	75.5
365.015	83.5
365.241	93.5
365.468	107.5
365.694	107.5
365.92	103.5
366.147	101.5
366.373	80.5
366.599	88.5
366.826	88.5
367.052	76.5
367.278	81.5
367.505	101.5
367.731	86.5
367.957	91.5
368.184	92.5
368.41	85.5
368.636	105.5
368.862	101.5
369.089	103.5
369.315	88.5
369.541	94.5
369.767	102.5
369.993	82.5
370.219	94.5
370.445	89.5
370.672	87.5
370.898	81.5
371.124	77.5
371.35	93.5
371.576	95.5
371.802	83.5
372.028	92.5
372.254	86.5
372.48	87.5
372.706	97.5
372.932	83.5
373.158	86.5
373.384	88.5
373.61	87.5
373.835	84.5
374.061	81.5
374.287	99.5
374.513	87.5
374.739	83.5
374.965	86.5
375.191	85.5
375.416	89.5
375.642	87.5
375.868	102.5
376.094	89.5
376.319	89.5
376.545	90.5
376.771	93.5
376.997	96.5
377.222	82.5
377.448	93.5
377.674	86.5
377.899	100.5
378.125	100.5
378.35	92.5
378.576	88.5
378.802	87.5
379.027	92.5
379.253	106.5
379.478	97.5
379.704	100.5
379.929	103.5
380.155	107.5
380.38	96.5
380.606	107.5
380.831	95.5
381.057	97.5
381.282	83.5
381.507	86.5
381.733	99.5
381.958	94.5
382.184	96.5
382.409	89.5
382.634	102.5
382.86	94.5
383.085	102.5
383.31	103.5
383.535	87.5
383.761	110.5
383.986	87.5
384.211	102.5
384.436	88.5
384.662	112.5
384.887	92.5
385.112	89.5
385.337	99.5
385.562	98.5
385.787	106.5
386.013	117.5
386.238	107.5
386.463	99.5
386.688	102.5
386.913	102.5
387.138	118.5
387.363	107.5
387.588	96.5
387.813	101.5
388.038	96.5
388.263	104.5
388.488	97.5
388.713	89.5
388.938	107.5
389.163	101.5
389.387	98.5
389.612	100.5
389.837	84.5
390.062	89.5
390.287	86.5
390.512	91.5
390.736	108.5
390.961	97.5
391.186	93.5
391.411	91.5
391.636	91.5
391.86	87.5
392.085	78.5
392.31	104.5
392.534	77.5
392.759	99.5
392.984	83.5
393.208	86.5
393.433	75.5
393.658	95.5
393.882	86.5
394.107	80.5
394.331	70.5
394.556	87.5
394.78	87.5
395.005	96.5
395.229	83.5
395.454	86.5
395.678	79.5
395.903	90.5
396.127	100.5
396.352	87.5
396.576	86.5
396.801	94.5
397.025	86.5
397.249	96.5
397.474	95.5
397.698	95.5
397.922	80.5
398.147	73.5
398.371	80.5
398.595	85.5
398.82	95.5
399.044	85.5
399.268	88.5
399.492	89.5
399.717	87.5
399.941	87.5
400.165	91.5
400.389	94.5
400.613	88.5
400.837	103.5
401.062	85.5
401.286	108.5
401.51	107.5
401.734	95.5
401.958	112.5
402.182	105.5
402.406	140.5
402.63	102.5
402.854	94.5
403.078	98.5
403.302	92.5
403.526	89.5
403.75	77.5
403.974	87.5
404.198	107.5
404.422	92.5
404.645	84.5
404.869	81.5
405.093	79.5
405.317	102.5
405.541	89.5
405.765	87.5
405.988	113.5
406.212	159.5
406.436	199.5
406.66	126.5
406.883	105.5
407.107	87.5
407.331	97.5
407.555	97.5
407.778	83.5
408.002	97.5
408.226	91.5
408.449	84.5
408.673	93.5
408.896	98.5
409.12	93.5
409.344	85.5
409.567	80.5
409.791	106.5
410.014	99.5
410.238	76.5
410.461	94.5
410.685	89.5
410.908	103.5
411.132	113.5
411.355	113.5
411.578	107.5
411.802	89.5
412.025	93.5
412.249	80.5
412.472	83.5
412.695	89.5
412.919	87.5
413.142	91.5
413.365	102.5
413.589	87.5
413.812	87.5
414.035	98.5
414.258	96.5
414.482	100.5
414.705	81.5
414.928	75.5
415.151	95.5
415.374	82.5
415.597	83.5
415.821	80.5
416.044	97.5
416.267	89.5
416.49	82.5
416.713	94.5
416.936	93.5
417.159	77.5
417.382	87.5
417.605	95.5
417.828	98.5
418.051	112.5
418.274	101.5
418.497	88.5
418.72	88.5
418.943	80.5
419.166	79.5
419.389	92.5
419.611	99.5
419.834	98.5
420.057	102.5
420.28	104.5
420.503	70.5
420.726	85.5
420.948	90.5
421.171	98.5
421.394	85.5
421.617	89.5
421.839	97.5
422.062	92.5
422.285	85.5
422.507	99.5
422.73	97.5
422.953	103.5
423.175	84.5
423.398	79.5
423.621	86.5
423.843	92.5
424.066	88.5
424.288	78.5
424.511	88.5
424.733	89.5
424.956	108.5
425.178	91.5
425.401	100.5
425.623	92.5
425.846	96.5
426.068	95.5
426.291	93.5
426.513	97.5
426.735	88.5
426.958	88.5
427.18	117.5
427.402	131.5
427.625	151.5
427.847	118.5
428.069	96.5
428.292	89.5
428.514	84.5
428.736	84.5
428.958	87.5
429.181	94.5
429.403	85.5
429.625	89.5
429.847	90.5
430.069	99.5
430.292	102.5
430.514	90.5
430.736	92.5
430.958	85.5
431.18	82.5
431.402	86.5
431.624	80.5
431.846	91.5
432.068	79.5
432.29	85.5
432.512	94.5
432.734	80.5
432.956	102.5
433.178	99.5
433.4	90.5
433.622	92.5
433.844	71.5
434.066	101.5
434.287	90.5
434.509	95.5
434.731	78.5
434.953	88.5
435.175	85.5
435.397	94.5
435.618	96.5
435.84	101.5
436.062	116.5
436.284	111.5
436.505	99.5
436.727	108.5
436.949	94.5
437.17	84.5
437.392	95.5
437.614	101.5
437.835	98.5
438.057	115.5
438.278	105.5
438.5	105.5
438.721	115.5
438.943	99.5
439.165	91.5
439.386	86.5
439.608	97.5
439.829	87.5
440.05	109.5
440.272	137.5
440.493	102.5
440.715	94.5
440.936	98.5
441.158	91.5
441.379	97.5
441.6	92.5
441.822	107.5
442.043	108.5
442.264	97.5
442.486	95.5
442.707	71.5
442.928	102.5
443.149	98.5
443.371	122.5
443.592	97.5
443.813	112.5
444.034	97.5
444.255	88.5
444.476	88.5
444.698	85.5
444.919	85.5
445.14	115.5
445.361	131.5
445.582	118.5
445.803	130.5
446.024	125.5
446.245	129.5
446.466	110.5
446.687	86.5
446.908	101.5
447.129	94.5
447.35	103.5
447.571	92.5
447.792	88.5
448.013	81.5
448.234	92.5
448.455	104.5
448.675	92.5
448.896	118.5
449.117	111.5
449.338	100.5
449.559	128.5
449.779	137.5
450	92.5
450.221	88.5
450.442	95.5
450.662	86.5
450.883	115.5
451.104	103.5
451.324	103.5
451.545	81.5
451.766	84.5
451.986	84.5
452.207	108.5
452.428	103.5
452.648	90.5
452.869	99.5
453.089	110.5
453.31	109.5
453.53	105.5
453.751	99.5
453.971	91.5
454.192	113.5
454.412	95.5
454.633	96.5
454.853	81.5
455.073	95.5
455.294	104.5
455.514	99.5
455.734	82.5
455.955	97.5
456.175	95.5
456.395	85.5
456.616	94.5
456.836	74.5
457.056	92.5
457.276	84.5
457.497	82.5
457.717	92.5
457.937	98.5
458.157	99.5
458.377	87.5
458.598	101.5
458.818	139.5
459.038	143.5
459.258	99.5
459.478	84.5
459.698	99.5
459.918	94.5
460.138	91.5
460.358	87.5
460.578	88.5
460.798	79.5
461.018	87.5
461.238	94.5
461.458	95.5
461.678	97.5
461.898	99.5
462.118	88.5
462.338	85.5
462.558	88.5
462.777	96.5
462.997	76.5
463.217	83.5
463.437	81.5
463.657	94.5
463.876	92.5
464.096	93.5
464.316	93.5
464.536	107.5
464.755	95.5
464.975	98.5
465.195	150.5
465.414	143.5
465.634	87.5
465.854	85.5
466.073	92.5
466.293	96.5
466.512	88.5
466.732	85.5
466.951	94.5
467.171	88.5
467.391	87.5
467.61	102.5
467.829	99.5
468.049	87.5
468.268	100.5
468.488	88.5
468.707	79.5
468.927	77.5
469.146	82.5
469.365	79.5
469.585	91.5
469.804	106.5
470.023	98.5
470.243	88.5
470.462	97.5
470.681	103.5
470.901	89.5
471.12	87.5
471.339	81.5
471.558	97.5
471.777	92.5
471.997	95.5
472.216	102.5
472.435	95.5
472.654	88.5
472.873	92.5
473.092	87.5
473.311	77.5
473.53	85.5
473.749	88.5
473.968	97.5
474.187	108.5
474.406	104.5
474.625	103.5
474.844	93.5
475.063	95.5
475.282	99.5
475.501	84.5
475.72	73.5
475.939	87.5
476.158	86.5
476.377	86.5
476.596	89.5
476.814	96.5
477.033	87.5
477.252	86.5
477.471	95.5
477.69	89.5
477.908	82.5
478.127	89.5
478.346	79.5
478.564	84.5
478.783	95.5
479.002	83.5
479.22	101.5
479.439	89.5
479.658	114.5
479.876	102.5
480.095	88.5
480.313	85.5
480.532	80.5
480.751	84.5
480.969	94.5
481.188	101.5
481.406	85.5
481.624	100.5
481.843	76.5
482.061	94.5
482.28	91.5
482.498	94.5
482.717	103.5
482.935	92.5
483.153	94.5
483.372	88.5
483.59	96.5
483.808	100.5
484.027	90.5
484.245	94.5
484.463	87.5
484.681	95.5
484.9	87.5
485.118	103.5
485.336	97.5
485.554	109.5
485.772	99.5
485.99	99.5
486.209	83.5
486.427	108.5
486.645	105.5
486.863	110.5
487.081	96.5
487.299	101.5
487.517	95.5
487.735	107.5
487.953	89.5
488.171	80.5
488.389	94.5
488.607	84.5
488.825	88.5
489.043	96.5
489.261	89.5
489.479	99.5
489.696	105.5
489.914	104.5
490.132	92.5
490.35	109.5
490.568	96.5
490.786	100.5
491.003	91.5
491.221	88.5
491.439	95.5
491.657	88.5
491.874	83.5
492.092	102.5
492.31	91.5
492.527	75.5
492.745	76.5
492.963	88.5
493.18	97.5
493.398	88.5
493.615	93.5
493.833	93.5
494.05	89.5
494.268	90.5
494.485	82.5
494.703	82.5
494.92	104.5
495.138	94.5
495.355	77.5
495.573	62.5
495.79	92.5
496.008	90.5
496.225	84.5
496.442	97.5
496.66	86.5
496.877	83.5
497.094	88.5
497.312	89.5
497.529	77.5
497.746	94.5
497.963	103.5
498.181	92.5
498.398	92.5
498.615	112.5
498.832	97.5
499.049	90.5
499.267	100.5
499.484	76.5
499.701	93.5
499.918	88.5
500.135	81.5
500.352	83.5
500.569	94.5
500.786	92.5
501.003	87.5
501.22	80.5
501.437	79.5
501.654	95.5
501.871	120.5
502.088	107.5
502.305	84.5
502.522	90.5
502.739	83.5
502.956	91.5
503.172	105.5
503.389	85.5
503.606	107.5
503.823	104.5
504.04	88.5
504.256	95.5
504.473	96.5
504.69	86.5
504.907	84.5
505.123	96.5
505.34	89.5
505.557	90.5
505.773	84.5
505.99	83.5
506.207	86.5
506.423	75.5
506.64	93.5
506.856	93.5
507.073	92.5
507.289	94.5
507.506	99.5
507.722	102.5
507.939	107.5
508.155	91.5
508.372	100.5
508.588	91.5
508.805	99.5
509.021	103.5
509.238	100.5
509.454	84.5
509.67	102.5
509.887	100.5
510.103	144.5
510.319	190.5
510.536	669.5
510.752	2015.5
510.968	549.5
511.184	157.5
511.401	102.5
511.617	92.5
511.833	96.5
512.049	100.5
512.265	86.5
512.481	88.5
512.698	101.5
512.914	87.5
513.13	91.5
513.346	92.5
513.562	94.5
513.778	98.5
513.994	90.5
514.21	90.5
514.426	126.5
514.642	131.5
514.858	125.5
515.074	148.5
515.29	405.5
515.506	1254.5
515.721	467.5
515.937	141.5
516.153	97.5
516.369	91.5
516.585	94.5
516.801	84.5
517.016	95.5
517.232	103.5
517.448	104.5
517.664	89.5
517.879	83.5
518.095	80.5
518.311	93.5
518.527	78.5
518.742	91.5
518.958	93.5
519.173	93.5
519.389	77.5
519.605	100.5
519.82	93.5
520.036	116.5
520.251	123.5
520.467	97.5
520.682	108.5
520.898	95.5
521.113	113.5
521.329	142.5
521.544	179.5
521.76	487.5
521.975	2016.5
522.19	1252.5
522.406	281.5
522.621	125.5
522.836	94.5
523.052	89.5
523.267	92.5
523.482	103.5
523.698	96.5
523.913	110.5
524.128	123.5
524.343	90.5
524.559	107.5
524.774	92.5
524.989	86.5
525.204	98.5
525.419	94.5
525.634	103.5
525.849	88.5
526.064	85.5
526.28	99.5
526.495	93.5
526.71	92.5
526.925	96.5
527.14	76.5
527.355	72.5
527.57	88.5
527.785	98.5
527.999	96.5
528.214	90.5
528.429	93.5
528.644	101.5
528.859	105.5
529.074	110.5
529.289	117.5
529.503	146.5
529.718	101.5
529.933	95.5
530.148	90.5
530.363	88.5
530.577	87.5
530.792	89.5
531.007	96.5
531.221	83.5
531.436	91.5
531.651	85.5
531.865	86.5
532.08	96.5
532.295	90.5
532.509	86.5
532.724	88.5
532.938	103.5
533.153	89.5
533.367	106.5
533.582	100.5
533.796	95.5
534.011	82.5
534.225	99.5
534.44	107.5
534.654	85.5
534.868	92.5
535.083	87.5
535.297	103.5
