Data from Uncirc_2005_H10_HRD10591_00048.txt Node
Date: Wed Jan 03 10:28:34 EST 2024
User: Yrep
Spectrometer: HR+D1059
Trigger mode: 1
Integration Time (sec): 1.000000E-1
Scans to average: 1
Electric dark correction enabled: true
Nonlinearity correction enabled: false
Boxcar width: 0
XAxis mode: Wavelengths
Number of Pixels in Spectrum: 2048
>>>>>Begin Spectral Data<<<<<
223.165	-21.31
223.4	-21.31
223.635	-21.31
223.869	-15.31
224.104	-12.31
224.338	-29.31
224.573	-14.31
224.808	-2.31
225.042	-15.31
225.277	-11.31
225.511	3.69
225.746	9.69
225.98	14.69
226.215	13.69
226.449	12.69
226.683	17.69
226.918	29.69
227.152	19.69
227.387	37.69
227.621	37.69
227.856	37.69
228.09	47.69
228.324	43.69
228.559	67.69
228.793	56.69
229.027	57.69
229.262	67.69
229.496	72.69
229.73	76.69
229.964	68.69
230.199	72.69
230.433	72.69
230.667	80.69
230.901	85.69
231.136	90.69
231.37	90.69
231.604	67.69
231.838	64.69
232.072	78.69
232.306	83.69
232.541	79.69
232.775	82.69
233.009	86.69
233.243	68.69
233.477	78.69
233.711	75.69
233.945	71.69
234.179	74.69
234.413	69.69
234.647	71.69
234.881	66.69
235.115	76.69
235.349	78.69
235.583	82.69
235.817	72.69
236.051	78.69
236.285	74.69
236.519	73.69
236.753	73.69
236.987	68.69
237.221	87.69
237.455	81.69
237.689	75.69
237.922	71.69
238.156	68.69
238.39	75.69
238.624	85.69
238.858	84.69
239.091	83.69
239.325	81.69
239.559	89.69
239.793	79.69
240.027	81.69
240.26	66.69
240.494	80.69
240.728	77.69
240.961	85.69
241.195	68.69
241.429	69.69
241.662	62.69
241.896	62.69
242.13	80.69
242.363	63.69
242.597	78.69
242.83	72.69
243.064	68.69
243.298	81.69
243.531	72.69
243.765	78.69
243.998	78.69
244.232	76.69
244.465	82.69
244.699	82.69
244.932	85.69
245.166	85.69
245.399	81.69
245.633	85.69
245.866	75.69
246.099	62.69
246.333	78.69
246.566	64.69
246.8	78.69
247.033	87.69
247.266	76.69
247.5	76.69
247.733	74.69
247.966	83.69
248.2	78.69
248.433	82.69
248.666	76.69
248.899	68.69
249.133	76.69
249.366	90.69
249.599	83.69
249.832	76.69
250.066	81.69
250.299	68.69
250.532	80.69
250.765	73.69
250.998	73.69
251.231	93.69
251.465	94.69
251.698	76.69
251.931	76.69
252.164	69.69
252.397	91.69
252.63	79.69
252.863	91.69
253.096	71.69
253.329	77.69
253.562	82.69
253.795	85.69
254.028	84.69
254.261	80.69
254.494	78.69
254.727	83.69
254.96	94.69
255.193	74.69
255.426	81.69
255.659	80.69
255.892	78.69
256.124	79.69
256.357	99.69
256.59	83.69
256.823	74.69
257.056	80.69
257.289	83.69
257.521	80.69
257.754	94.69
257.987	83.69
258.22	74.69
258.452	83.69
258.685	78.69
258.918	78.69
259.151	78.69
259.383	76.69
259.616	79.69
259.849	86.69
260.081	72.69
260.314	74.69
260.547	87.69
260.779	94.69
261.012	70.69
261.244	77.69
261.477	93.69
261.71	89.69
261.942	97.69
262.175	101.69
262.407	84.69
262.64	72.69
262.872	70.69
263.105	72.69
263.337	97.69
263.57	88.69
263.802	80.69
264.035	89.69
264.267	89.69
264.499	81.69
264.732	82.69
264.964	80.69
265.197	87.69
265.429	82.69
265.661	80.69
265.894	80.69
266.126	95.69
266.358	74.69
266.591	97.69
266.823	83.69
267.055	75.69
267.287	87.69
267.52	94.69
267.752	74.69
267.984	83.69
268.216	92.69
268.448	76.69
268.681	88.69
268.913	88.69
269.145	86.69
269.377	89.69
269.609	74.69
269.841	82.69
270.073	89.69
270.306	86.69
270.538	83.69
270.77	81.69
271.002	88.69
271.234	90.69
271.466	80.69
271.698	82.69
271.93	78.69
272.162	89.69
272.394	73.69
272.626	83.69
272.858	92.69
273.09	77.69
273.322	81.69
273.553	72.69
273.785	82.69
274.017	75.69
274.249	77.69
274.481	84.69
274.713	76.69
274.945	88.69
275.176	78.69
275.408	98.69
275.64	70.69
275.872	79.69
276.104	80.69
276.335	92.69
276.567	95.69
276.799	80.69
277.031	88.69
277.262	87.69
277.494	96.69
277.726	88.69
277.957	94.69
278.189	92.69
278.421	87.69
278.652	83.69
278.884	67.69
279.115	80.69
279.347	90.69
279.579	85.69
279.81	81.69
280.042	82.69
280.273	89.69
280.505	67.69
280.736	75.69
280.968	96.69
281.199	84.69
281.431	79.69
281.662	84.69
281.894	93.69
282.125	93.69
282.356	116.69
282.588	130.69
282.819	113.69
283.051	81.69
283.282	87.69
283.513	84.69
283.745	90.69
283.976	91.69
284.207	91.69
284.439	78.69
284.67	76.69
284.901	85.69
285.132	74.69
285.364	76.69
285.595	88.69
285.826	77.69
286.057	85.69
286.288	83.69
286.52	84.69
286.751	86.69
286.982	86.69
287.213	90.69
287.444	94.69
287.675	95.69
287.906	93.69
288.138	97.69
288.369	97.69
288.6	87.69
288.831	73.69
289.062	98.69
289.293	77.69
289.524	80.69
289.755	88.69
289.986	73.69
290.217	86.69
290.448	93.69
290.679	79.69
290.91	83.69
291.141	85.69
291.371	91.69
291.602	91.69
291.833	96.69
292.064	86.69
292.295	92.69
292.526	79.69
292.757	80.69
292.987	77.69
293.218	73.69
293.449	86.69
293.68	103.69
293.91	84.69
294.141	98.69
294.372	82.69
294.603	88.69
294.833	86.69
295.064	96.69
295.295	85.69
295.525	79.69
295.756	90.69
295.987	104.69
296.217	120.69
296.448	120.69
296.679	97.69
296.909	88.69
297.14	91.69
297.37	96.69
297.601	80.69
297.831	98.69
298.062	85.69
298.292	85.69
298.523	89.69
298.753	94.69
298.984	92.69
299.214	93.69
299.445	92.69
299.675	88.69
299.905	87.69
300.136	92.69
300.366	77.69
300.597	92.69
300.827	97.69
301.057	93.69
301.288	84.69
301.518	78.69
301.748	95.69
301.979	94.69
302.209	85.69
302.439	85.69
302.669	66.69
302.9	72.69
303.13	92.69
303.36	90.69
303.59	112.69
303.82	110.69
304.051	86.69
304.281	85.69
304.511	89.69
304.741	86.69
304.971	81.69
305.201	91.69
305.431	87.69
305.661	94.69
305.891	97.69
306.121	86.69
306.352	105.69
306.582	100.69
306.812	94.69
307.042	75.69
307.272	82.69
307.502	93.69
307.731	85.69
307.961	97.69
308.191	93.69
308.421	83.69
308.651	84.69
308.881	91.69
309.111	112.69
309.341	95.69
309.571	90.69
309.8	89.69
310.03	99.69
310.26	96.69
310.49	101.69
310.72	79.69
310.949	91.69
311.179	85.69
311.409	94.69
311.639	98.69
311.868	106.69
312.098	79.69
312.328	85.69
312.557	88.69
312.787	82.69
313.017	97.69
313.246	85.69
313.476	84.69
313.706	112.69
313.935	85.69
314.165	98.69
314.394	108.69
314.624	97.69
314.853	82.69
315.083	86.69
315.312	93.69
315.542	84.69
315.771	98.69
316.001	94.69
316.23	88.69
316.46	93.69
316.689	89.69
316.919	78.69
317.148	101.69
317.377	76.69
317.607	94.69
317.836	91.69
318.065	98.69
318.295	94.69
318.524	85.69
318.753	99.69
318.983	88.69
319.212	106.69
319.441	111.69
319.67	106.69
319.9	83.69
320.129	89.69
320.358	97.69
320.587	97.69
320.816	81.69
321.046	81.69
321.275	102.69
321.504	94.69
321.733	101.69
321.962	98.69
322.191	108.69
322.42	106.69
322.649	97.69
322.878	101.69
323.108	96.69
323.337	125.69
323.566	126.69
323.795	144.69
324.024	202.69
324.253	388.69
324.482	786.69
324.71	1600.69
324.939	2099.69
325.168	778.69
325.397	234.69
325.626	129.69
325.855	139.69
326.084	121.69
326.313	137.69
326.542	140.69
326.77	224.69
326.999	451.69
327.228	925.69
327.457	1649.69
327.686	1313.69
327.914	357.69
328.143	188.69
328.372	140.69
328.6	117.69
328.829	125.69
329.058	113.69
329.287	124.69
329.515	108.69
329.744	112.69
329.972	105.69
330.201	98.69
330.43	102.69
330.658	112.69
330.887	112.69
331.115	127.69
331.344	104.69
331.572	95.69
331.801	96.69
332.03	92.69
332.258	88.69
332.486	94.69
332.715	86.69
332.943	87.69
333.172	84.69
333.4	101.69
333.629	94.69
333.857	114.69
334.085	104.69
334.314	90.69
334.542	81.69
334.771	100.69
334.999	93.69
335.227	94.69
335.455	91.69
335.684	93.69
335.912	93.69
336.14	87.69
336.369	75.69
336.597	89.69
336.825	101.69
337.053	102.69
337.281	81.69
337.51	95.69
337.738	87.69
337.966	98.69
338.194	103.69
338.422	88.69
338.65	83.69
338.878	89.69
339.106	77.69
339.334	81.69
339.562	93.69
339.79	81.69
340.018	83.69
340.246	83.69
340.474	80.69
340.702	88.69
340.93	77.69
341.158	85.69
341.386	102.69
341.614	109.69
341.842	90.69
342.07	89.69
342.298	92.69
342.526	92.69
342.754	82.69
342.981	85.69
343.209	88.69
343.437	100.69
343.665	98.69
343.893	76.69
344.12	98.69
344.348	90.69
344.576	75.69
344.804	96.69
345.031	95.69
345.259	101.69
345.487	89.69
345.714	86.69
345.942	94.69
346.17	90.69
346.397	96.69
346.625	85.69
346.853	101.69
347.08	80.69
347.308	92.69
347.535	87.69
347.763	75.69
347.99	92.69
348.218	83.69
348.445	92.69
348.673	88.69
348.9	88.69
349.128	100.69
349.355	100.69
349.583	87.69
349.81	84.69
350.037	91.69
350.265	81.69
350.492	84.69
350.72	98.69
350.947	103.69
351.174	112.69
351.402	88.69
351.629	93.69
351.856	97.69
352.083	95.69
352.311	96.69
352.538	94.69
352.765	118.69
352.992	103.69
353.22	105.69
353.447	108.69
353.674	98.69
353.901	90.69
354.128	104.69
354.355	101.69
354.583	105.69
354.81	89.69
355.037	82.69
355.264	105.69
355.491	104.69
355.718	81.69
355.945	89.69
356.172	106.69
356.399	98.69
356.626	92.69
356.853	92.69
357.08	101.69
357.307	83.69
357.534	82.69
357.761	82.69
357.988	106.69
358.215	91.69
358.441	104.69
358.668	95.69
358.895	90.69
359.122	86.69
359.349	101.69
359.576	96.69
359.802	100.69
360.029	109.69
360.256	106.69
360.483	104.69
360.709	88.69
360.936	94.69
361.163	103.69
361.39	93.69
361.616	96.69
361.843	75.69
362.07	107.69
362.296	87.69
362.523	85.69
362.749	89.69
362.976	95.69
363.203	90.69
363.429	81.69
363.656	76.69
363.882	96.69
364.109	98.69
364.335	98.69
364.562	85.69
364.788	96.69
365.015	109.69
365.241	94.69
365.468	104.69
365.694	87.69
365.92	99.69
366.147	92.69
366.373	84.69
366.599	88.69
366.826	89.69
367.052	93.69
367.278	98.69
367.505	96.69
367.731	91.69
367.957	88.69
368.184	94.69
368.41	98.69
368.636	94.69
368.862	117.69
369.089	110.69
369.315	98.69
369.541	98.69
369.767	81.69
369.993	88.69
370.219	83.69
370.445	67.69
370.672	79.69
370.898	105.69
371.124	93.69
371.35	93.69
371.576	86.69
371.802	81.69
372.028	95.69
372.254	90.69
372.48	80.69
372.706	84.69
372.932	92.69
373.158	85.69
373.384	87.69
373.61	87.69
373.835	80.69
374.061	92.69
374.287	93.69
374.513	92.69
374.739	94.69
374.965	93.69
375.191	85.69
375.416	87.69
375.642	102.69
375.868	89.69
376.094	90.69
376.319	82.69
376.545	93.69
376.771	95.69
376.997	76.69
377.222	81.69
377.448	80.69
377.674	77.69
377.899	93.69
378.125	89.69
378.35	77.69
378.576	88.69
378.802	78.69
379.027	86.69
379.253	88.69
379.478	84.69
379.704	89.69
379.929	84.69
380.155	85.69
380.38	88.69
380.606	102.69
380.831	89.69
381.057	97.69
381.282	101.69
381.507	85.69
381.733	93.69
381.958	91.69
382.184	95.69
382.409	112.69
382.634	113.69
382.86	95.69
383.085	92.69
383.31	113.69
383.535	88.69
383.761	91.69
383.986	95.69
384.211	89.69
384.436	96.69
384.662	107.69
384.887	97.69
385.112	101.69
385.337	99.69
385.562	107.69
385.787	86.69
386.013	112.69
386.238	112.69
386.463	100.69
386.688	116.69
386.913	100.69
387.138	104.69
387.363	105.69
387.588	97.69
387.813	97.69
388.038	101.69
388.263	116.69
388.488	122.69
388.713	85.69
388.938	86.69
389.163	95.69
389.387	100.69
389.612	100.69
389.837	98.69
390.062	92.69
390.287	100.69
390.512	82.69
390.736	83.69
390.961	87.69
391.186	104.69
391.411	95.69
391.636	98.69
391.86	75.69
392.085	79.69
392.31	88.69
392.534	76.69
392.759	94.69
392.984	84.69
393.208	70.69
393.433	91.69
393.658	86.69
393.882	80.69
394.107	78.69
394.331	87.69
394.556	93.69
394.78	81.69
395.005	101.69
395.229	85.69
395.454	83.69
395.678	90.69
395.903	66.69
396.127	76.69
396.352	100.69
396.576	100.69
396.801	85.69
397.025	74.69
397.249	75.69
397.474	86.69
397.698	85.69
397.922	84.69
398.147	85.69
398.371	82.69
398.595	74.69
398.82	81.69
399.044	83.69
399.268	86.69
399.492	85.69
399.717	91.69
399.941	87.69
400.165	75.69
400.389	91.69
400.613	81.69
400.837	88.69
401.062	80.69
401.286	94.69
401.51	97.69
401.734	105.69
401.958	81.69
402.182	131.69
402.406	144.69
402.63	110.69
402.854	80.69
403.078	80.69
403.302	92.69
403.526	81.69
403.75	92.69
403.974	92.69
404.198	63.69
404.422	89.69
404.645	80.69
404.869	90.69
405.093	105.69
405.317	91.69
405.541	94.69
405.765	91.69
405.988	120.69
406.212	162.69
406.436	206.69
406.66	131.69
406.883	84.69
407.107	86.69
407.331	96.69
407.555	85.69
407.778	90.69
408.002	89.69
408.226	101.69
408.449	91.69
408.673	91.69
408.896	84.69
409.12	83.69
409.344	88.69
409.567	83.69
409.791	84.69
410.014	89.69
410.238	96.69
410.461	88.69
410.685	88.69
410.908	94.69
411.132	109.69
411.355	104.69
411.578	87.69
411.802	81.69
412.025	90.69
412.249	86.69
412.472	82.69
412.695	89.69
412.919	86.69
413.142	94.69
413.365	86.69
413.589	93.69
413.812	87.69
414.035	94.69
414.258	84.69
414.482	97.69
414.705	81.69
414.928	88.69
415.151	80.69
415.374	80.69
415.597	88.69
415.821	87.69
416.044	84.69
416.267	81.69
416.49	77.69
416.713	86.69
416.936	91.69
417.159	96.69
417.382	96.69
417.605	91.69
417.828	95.69
418.051	83.69
418.274	87.69
418.497	76.69
418.72	90.69
418.943	93.69
419.166	91.69
419.389	88.69
419.611	90.69
419.834	90.69
420.057	80.69
420.28	68.69
420.503	83.69
420.726	62.69
420.948	82.69
421.171	86.69
421.394	87.69
421.617	104.69
421.839	100.69
422.062	83.69
422.285	80.69
422.507	93.69
422.73	94.69
422.953	77.69
423.175	91.69
423.398	81.69
423.621	77.69
423.843	82.69
424.066	105.69
424.288	101.69
424.511	77.69
424.733	99.69
424.956	100.69
425.178	99.69
425.401	97.69
425.623	94.69
425.846	79.69
426.068	91.69
426.291	81.69
426.513	92.69
426.735	83.69
426.958	100.69
427.18	114.69
427.402	122.69
427.625	156.69
427.847	113.69
428.069	98.69
428.292	80.69
428.514	83.69
428.736	86.69
428.958	77.69
429.181	94.69
429.403	85.69
429.625	89.69
429.847	90.69
430.069	83.69
430.292	88.69
430.514	93.69
430.736	87.69
430.958	96.69
431.18	80.69
431.402	106.69
431.624	84.69
431.846	83.69
432.068	83.69
432.29	74.69
432.512	93.69
432.734	76.69
432.956	88.69
433.178	101.69
433.4	92.69
433.622	118.69
433.844	87.69
434.066	94.69
434.287	106.69
434.509	89.69
434.731	97.69
434.953	90.69
435.175	90.69
435.397	83.69
435.618	88.69
435.84	98.69
436.062	120.69
436.284	121.69
436.505	93.69
436.727	108.69
436.949	91.69
437.17	87.69
437.392	73.69
437.614	87.69
437.835	108.69
438.057	105.69
438.278	100.69
438.5	108.69
438.721	110.69
438.943	109.69
439.165	90.69
439.386	95.69
439.608	97.69
439.829	97.69
440.05	106.69
440.272	124.69
440.493	100.69
440.715	86.69
440.936	82.69
441.158	82.69
441.379	85.69
441.6	91.69
441.822	106.69
442.043	103.69
442.264	106.69
442.486	102.69
442.707	103.69
442.928	106.69
443.149	135.69
443.371	135.69
443.592	114.69
443.813	102.69
444.034	104.69
444.255	81.69
444.476	82.69
444.698	94.69
444.919	96.69
445.14	124.69
445.361	117.69
445.582	117.69
445.803	129.69
446.024	130.69
446.245	140.69
446.466	100.69
446.687	89.69
446.908	92.69
447.129	88.69
447.35	87.69
447.571	86.69
447.792	92.69
448.013	107.69
448.234	94.69
448.455	111.69
448.675	112.69
448.896	125.69
449.117	87.69
449.338	106.69
449.559	120.69
449.779	128.69
450	89.69
450.221	85.69
450.442	79.69
450.662	84.69
450.883	106.69
451.104	101.69
451.324	84.69
451.545	76.69
451.766	82.69
451.986	85.69
452.207	76.69
452.428	88.69
452.648	95.69
452.869	110.69
453.089	100.69
453.31	107.69
453.53	76.69
453.751	92.69
453.971	98.69
454.192	104.69
454.412	75.69
454.633	77.69
454.853	81.69
455.073	87.69
455.294	102.69
455.514	98.69
455.734	93.69
455.955	94.69
456.175	101.69
456.395	84.69
456.616	96.69
456.836	96.69
457.056	92.69
457.276	89.69
457.497	82.69
457.717	85.69
457.937	98.69
458.157	97.69
458.377	99.69
458.598	102.69
458.818	125.69
459.038	139.69
459.258	109.69
459.478	86.69
459.698	95.69
459.918	89.69
460.138	90.69
460.358	89.69
460.578	77.69
460.798	99.69
461.018	76.69
461.238	101.69
461.458	89.69
461.678	94.69
461.898	90.69
462.118	69.69
462.338	90.69
462.558	78.69
462.777	80.69
462.997	73.69
463.217	86.69
463.437	85.69
463.657	90.69
463.876	84.69
464.096	86.69
464.316	83.69
464.536	90.69
464.755	94.69
464.975	114.69
465.195	141.69
465.414	127.69
465.634	80.69
465.854	90.69
466.073	82.69
466.293	96.69
466.512	76.69
466.732	91.69
466.951	79.69
467.171	96.69
467.391	106.69
467.61	83.69
467.829	93.69
468.049	83.69
468.268	92.69
468.488	96.69
468.707	86.69
468.927	100.69
469.146	75.69
469.365	88.69
469.585	79.69
469.804	92.69
470.023	95.69
470.243	94.69
470.462	85.69
470.681	103.69
470.901	93.69
471.12	91.69
471.339	81.69
471.558	79.69
471.777	91.69
471.997	81.69
472.216	97.69
472.435	92.69
472.654	91.69
472.873	84.69
473.092	83.69
473.311	87.69
473.53	82.69
473.749	89.69
473.968	94.69
474.187	100.69
474.406	85.69
474.625	93.69
474.844	85.69
475.063	96.69
475.282	87.69
475.501	86.69
475.72	101.69
475.939	80.69
476.158	81.69
476.377	87.69
476.596	93.69
476.814	99.69
477.033	91.69
477.252	92.69
477.471	89.69
477.69	87.69
477.908	74.69
478.127	88.69
478.346	81.69
478.564	99.69
478.783	88.69
479.002	76.69
479.22	79.69
479.439	85.69
479.658	94.69
479.876	92.69
480.095	86.69
480.313	95.69
480.532	86.69
480.751	95.69
480.969	88.69
481.188	115.69
481.406	92.69
481.624	87.69
481.843	90.69
482.061	82.69
482.28	94.69
482.498	93.69
482.717	85.69
482.935	88.69
483.153	88.69
483.372	86.69
483.59	86.69
483.808	91.69
484.027	81.69
484.245	93.69
484.463	100.69
484.681	96.69
484.9	90.69
485.118	92.69
485.336	105.69
485.554	94.69
485.772	91.69
485.99	99.69
486.209	106.69
486.427	103.69
486.645	110.69
486.863	104.69
487.081	111.69
487.299	83.69
487.517	83.69
487.735	83.69
487.953	103.69
488.171	83.69
488.389	93.69
488.607	105.69
488.825	99.69
489.043	100.69
489.261	93.69
489.479	91.69
489.696	91.69
489.914	85.69
490.132	93.69
490.35	90.69
490.568	87.69
490.786	90.69
491.003	92.69
491.221	93.69
491.439	86.69
491.657	91.69
491.874	84.69
492.092	77.69
492.31	90.69
492.527	98.69
492.745	79.69
492.963	84.69
493.18	96.69
493.398	104.69
493.615	97.69
493.833	103.69
494.05	90.69
494.268	97.69
494.485	91.69
494.703	91.69
494.92	85.69
495.138	79.69
495.355	90.69
495.573	87.69
495.79	98.69
496.008	84.69
496.225	100.69
496.442	91.69
496.66	85.69
496.877	90.69
497.094	76.69
497.312	86.69
497.529	95.69
497.746	96.69
497.963	100.69
498.181	88.69
498.398	85.69
498.615	101.69
498.832	101.69
499.049	84.69
499.267	97.69
499.484	88.69
499.701	90.69
499.918	108.69
500.135	87.69
500.352	82.69
500.569	94.69
500.786	86.69
501.003	92.69
501.22	83.69
501.437	90.69
501.654	91.69
501.871	84.69
502.088	91.69
502.305	97.69
502.522	70.69
502.739	86.69
502.956	93.69
503.172	85.69
503.389	117.69
503.606	97.69
503.823	84.69
504.04	76.69
504.256	87.69
504.473	90.69
504.69	87.69
504.907	107.69
505.123	98.69
505.34	93.69
505.557	91.69
505.773	92.69
505.99	90.69
506.207	95.69
506.423	79.69
506.64	92.69
506.856	94.69
507.073	100.69
507.289	89.69
507.506	101.69
507.722	97.69
507.939	90.69
508.155	72.69
508.372	90.69
508.588	80.69
508.805	86.69
509.021	92.69
509.238	81.69
509.454	90.69
509.67	101.69
509.887	112.69
510.103	127.69
510.319	216.69
510.536	675.69
510.752	2078.69
510.968	584.69
511.184	142.69
511.401	100.69
511.617	106.69
511.833	94.69
512.049	89.69
512.265	94.69
512.481	94.69
512.698	106.69
512.914	90.69
513.13	89.69
513.346	87.69
513.562	76.69
513.778	89.69
513.994	108.69
514.21	98.69
514.426	114.69
514.642	134.69
514.858	107.69
515.074	151.69
515.29	406.69
515.506	1344.69
515.721	481.69
515.937	145.69
516.153	105.69
516.369	90.69
