Data from Uncirc_2005_H10_HRD10591_00056.txt Node
Date: Wed Jan 03 10:28:36 EST 2024
User: Yrep
Spectrometer: HR+D1059
Trigger mode: 1
Integration Time (sec): 1.000000E-1
Scans to average: 1
Electric dark correction enabled: true
Nonlinearity correction enabled: false
Boxcar width: 0
XAxis mode: Wavelengths
Number of Pixels in Spectrum: 2048
>>>>>Begin Spectral Data<<<<<
223.165	-11.81
223.4	-11.81
223.635	-11.81
223.869	-6.81
224.104	-15.81
224.338	-10.81
224.573	-22.81
224.808	-21.81
225.042	-1.81
225.277	-15.81
225.511	-8.81
225.746	6.19
225.98	6.19
226.215	16.19
226.449	15.19
226.683	18.19
226.918	28.19
227.152	26.19
227.387	54.19
227.621	32.19
227.856	50.19
228.09	49.19
228.324	66.19
228.559	52.19
228.793	52.19
229.027	48.19
229.262	62.19
229.496	69.19
229.73	91.19
229.964	79.19
230.199	75.19
230.433	73.19
230.667	70.19
230.901	72.19
231.136	71.19
231.37	79.19
231.604	75.19
231.838	65.19
232.072	87.19
232.306	83.19
232.541	74.19
232.775	82.19
233.009	93.19
233.243	93.19
233.477	75.19
233.711	84.19
233.945	82.19
234.179	73.19
234.413	89.19
234.647	81.19
234.881	75.19
235.115	82.19
235.349	89.19
235.583	81.19
235.817	75.19
236.051	85.19
236.285	87.19
236.519	91.19
236.753	81.19
236.987	75.19
237.221	87.19
237.455	86.19
237.689	90.19
237.922	74.19
238.156	79.19
238.39	91.19
238.624	73.19
238.858	80.19
239.091	68.19
239.325	86.19
239.559	69.19
239.793	80.19
240.027	86.19
240.26	73.19
240.494	72.19
240.728	65.19
240.961	74.19
241.195	77.19
241.429	85.19
241.662	80.19
241.896	67.19
242.13	66.19
242.363	65.19
242.597	83.19
242.83	82.19
243.064	65.19
243.298	79.19
243.531	69.19
243.765	70.19
243.998	89.19
244.232	87.19
244.465	95.19
244.699	74.19
244.932	77.19
245.166	69.19
245.399	60.19
245.633	62.19
245.866	85.19
246.099	87.19
246.333	90.19
246.566	83.19
246.8	89.19
247.033	87.19
247.266	85.19
247.5	73.19
247.733	99.19
247.966	80.19
248.2	82.19
248.433	79.19
248.666	89.19
248.899	86.19
249.133	88.19
249.366	105.19
249.599	112.19
249.832	73.19
250.066	90.19
250.299	80.19
250.532	83.19
250.765	73.19
250.998	82.19
251.231	76.19
251.465	72.19
251.698	79.19
251.931	66.19
252.164	72.19
252.397	82.19
252.63	82.19
252.863	84.19
253.096	81.19
253.329	75.19
253.562	87.19
253.795	94.19
254.028	87.19
254.261	86.19
254.494	78.19
254.727	81.19
254.96	80.19
255.193	86.19
255.426	78.19
255.659	75.19
255.892	79.19
256.124	79.19
256.357	82.19
256.59	84.19
256.823	92.19
257.056	79.19
257.289	73.19
257.521	91.19
257.754	80.19
257.987	85.19
258.22	100.19
258.452	87.19
258.685	84.19
258.918	90.19
259.151	84.19
259.383	96.19
259.616	86.19
259.849	85.19
260.081	86.19
260.314	88.19
260.547	86.19
260.779	84.19
261.012	67.19
261.244	93.19
261.477	98.19
261.71	98.19
261.942	103.19
262.175	104.19
262.407	94.19
262.64	85.19
262.872	65.19
263.105	87.19
263.337	88.19
263.57	81.19
263.802	101.19
264.035	92.19
264.267	95.19
264.499	90.19
264.732	87.19
264.964	82.19
265.197	88.19
265.429	87.19
265.661	71.19
265.894	86.19
266.126	95.19
266.358	87.19
266.591	93.19
266.823	81.19
267.055	77.19
267.287	81.19
267.52	81.19
267.752	62.19
267.984	81.19
268.216	89.19
268.448	79.19
268.681	94.19
268.913	86.19
269.145	74.19
269.377	94.19
269.609	86.19
269.841	86.19
270.073	81.19
270.306	90.19
270.538	78.19
270.77	96.19
271.002	77.19
271.234	83.19
271.466	96.19
271.698	90.19
271.93	94.19
272.162	81.19
272.394	105.19
272.626	89.19
272.858	75.19
273.09	90.19
273.322	80.19
273.553	87.19
273.785	81.19
274.017	76.19
274.249	93.19
274.481	91.19
274.713	95.19
274.945	79.19
275.176	105.19
275.408	90.19
275.64	95.19
275.872	98.19
276.104	98.19
276.335	98.19
276.567	101.19
276.799	101.19
277.031	99.19
277.262	94.19
277.494	94.19
277.726	84.19
277.957	97.19
278.189	95.19
278.421	85.19
278.652	109.19
278.884	91.19
279.115	71.19
279.347	92.19
279.579	84.19
279.81	84.19
280.042	102.19
280.273	87.19
280.505	83.19
280.736	84.19
280.968	89.19
281.199	86.19
281.431	89.19
281.662	82.19
281.894	95.19
282.125	104.19
282.356	120.19
282.588	133.19
282.819	126.19
283.051	89.19
283.282	89.19
283.513	74.19
283.745	92.19
283.976	80.19
284.207	92.19
284.439	91.19
284.67	86.19
284.901	85.19
285.132	77.19
285.364	83.19
285.595	85.19
285.826	87.19
286.057	91.19
286.288	94.19
286.52	77.19
286.751	103.19
286.982	97.19
287.213	94.19
287.444	82.19
287.675	86.19
287.906	102.19
288.138	102.19
288.369	104.19
288.6	97.19
288.831	87.19
289.062	92.19
289.293	97.19
289.524	77.19
289.755	90.19
289.986	95.19
290.217	81.19
290.448	92.19
290.679	97.19
290.91	91.19
291.141	96.19
291.371	97.19
291.602	85.19
291.833	92.19
292.064	83.19
292.295	89.19
292.526	108.19
292.757	80.19
292.987	87.19
293.218	92.19
293.449	81.19
293.68	99.19
293.91	97.19
294.141	89.19
294.372	111.19
294.603	90.19
294.833	89.19
295.064	92.19
295.295	98.19
295.525	80.19
295.756	91.19
295.987	122.19
296.217	146.19
296.448	119.19
296.679	107.19
296.909	95.19
297.14	101.19
297.37	84.19
297.601	82.19
297.831	79.19
298.062	86.19
298.292	98.19
298.523	97.19
298.753	89.19
298.984	93.19
299.214	93.19
299.445	90.19
299.675	88.19
299.905	96.19
300.136	108.19
300.366	81.19
300.597	97.19
300.827	87.19
301.057	98.19
301.288	103.19
301.518	91.19
301.748	74.19
301.979	95.19
302.209	91.19
302.439	106.19
302.669	102.19
302.9	100.19
303.13	97.19
303.36	99.19
303.59	104.19
303.82	97.19
304.051	87.19
304.281	101.19
304.511	109.19
304.741	90.19
304.971	87.19
305.201	82.19
305.431	92.19
305.661	90.19
305.891	99.19
306.121	106.19
306.352	100.19
306.582	110.19
306.812	87.19
307.042	80.19
307.272	82.19
307.502	109.19
307.731	91.19
307.961	85.19
308.191	82.19
308.421	88.19
308.651	89.19
308.881	100.19
309.111	91.19
309.341	84.19
309.571	97.19
309.8	87.19
310.03	90.19
310.26	96.19
310.49	99.19
310.72	109.19
310.949	93.19
311.179	100.19
311.409	97.19
311.639	89.19
311.868	109.19
312.098	94.19
312.328	101.19
312.557	95.19
312.787	117.19
313.017	90.19
313.246	101.19
313.476	90.19
313.706	101.19
313.935	81.19
314.165	97.19
314.394	99.19
314.624	93.19
314.853	98.19
315.083	88.19
315.312	94.19
315.542	93.19
315.771	87.19
316.001	98.19
316.23	108.19
316.46	82.19
316.689	104.19
316.919	88.19
317.148	110.19
317.377	102.19
317.607	99.19
317.836	103.19
318.065	84.19
318.295	98.19
318.524	94.19
318.753	98.19
318.983	98.19
319.212	105.19
319.441	101.19
319.67	99.19
319.9	98.19
320.129	95.19
320.358	108.19
320.587	108.19
320.816	111.19
321.046	98.19
321.275	98.19
321.504	104.19
321.733	109.19
321.962	103.19
322.191	103.19
322.42	98.19
322.649	110.19
322.878	101.19
323.108	136.19
323.337	127.19
323.566	147.19
323.795	162.19
324.024	200.19
324.253	384.19
324.482	782.19
324.71	1625.19
324.939	2115.19
325.168	771.19
325.397	222.19
325.626	136.19
325.855	125.19
326.084	132.19
326.313	141.19
326.542	163.19
326.77	231.19
326.999	450.19
327.228	931.19
327.457	1648.19
327.686	1309.19
327.914	348.19
328.143	192.19
328.372	141.19
328.6	128.19
328.829	126.19
329.058	133.19
329.287	109.19
329.515	106.19
329.744	104.19
329.972	102.19
330.201	102.19
330.43	88.19
330.658	101.19
330.887	117.19
331.115	107.19
331.344	90.19
331.572	102.19
331.801	103.19
332.03	111.19
332.258	100.19
332.486	105.19
332.715	99.19
332.943	91.19
333.172	94.19
333.4	107.19
333.629	103.19
333.857	123.19
334.085	109.19
334.314	115.19
334.542	105.19
334.771	92.19
334.999	102.19
335.227	96.19
335.455	108.19
335.684	115.19
335.912	104.19
336.14	106.19
336.369	102.19
336.597	113.19
336.825	104.19
337.053	102.19
337.281	94.19
337.51	99.19
337.738	104.19
337.966	102.19
338.194	94.19
338.422	111.19
338.65	106.19
338.878	96.19
339.106	86.19
339.334	92.19
339.562	89.19
339.79	92.19
340.018	97.19
340.246	84.19
340.474	97.19
340.702	86.19
340.93	98.19
341.158	93.19
341.386	88.19
341.614	97.19
341.842	104.19
342.07	99.19
342.298	87.19
342.526	110.19
342.754	103.19
342.981	96.19
343.209	102.19
343.437	105.19
343.665	81.19
343.893	95.19
344.12	112.19
344.348	91.19
344.576	89.19
344.804	87.19
345.031	82.19
345.259	89.19
345.487	106.19
345.714	87.19
345.942	93.19
346.17	83.19
346.397	112.19
346.625	88.19
346.853	97.19
347.08	96.19
347.308	94.19
347.535	95.19
347.763	106.19
347.99	92.19
348.218	103.19
348.445	104.19
348.673	83.19
348.9	95.19
349.128	102.19
349.355	85.19
349.583	99.19
349.81	97.19
350.037	89.19
350.265	101.19
350.492	101.19
350.72	97.19
350.947	97.19
351.174	112.19
351.402	117.19
351.629	110.19
351.856	87.19
352.083	109.19
352.311	112.19
352.538	107.19
352.765	103.19
352.992	119.19
353.22	116.19
353.447	107.19
353.674	104.19
353.901	103.19
354.128	100.19
354.355	96.19
354.583	92.19
354.81	108.19
355.037	104.19
355.264	109.19
355.491	99.19
355.718	99.19
355.945	102.19
356.172	108.19
356.399	103.19
356.626	105.19
356.853	106.19
357.08	99.19
357.307	99.19
357.534	104.19
357.761	98.19
357.988	109.19
358.215	117.19
358.441	93.19
358.668	98.19
358.895	87.19
359.122	95.19
359.349	95.19
359.576	108.19
359.802	102.19
360.029	105.19
360.256	119.19
360.483	95.19
360.709	86.19
360.936	110.19
361.163	101.19
361.39	97.19
361.616	105.19
361.843	94.19
362.07	89.19
362.296	93.19
362.523	89.19
362.749	94.19
362.976	104.19
363.203	103.19
363.429	85.19
363.656	102.19
363.882	78.19
364.109	85.19
364.335	101.19
364.562	90.19
364.788	87.19
365.015	95.19
365.241	96.19
365.468	113.19
365.694	104.19
365.92	100.19
366.147	86.19
366.373	95.19
366.599	89.19
366.826	91.19
367.052	100.19
367.278	105.19
367.505	90.19
367.731	95.19
367.957	104.19
368.184	93.19
368.41	114.19
368.636	121.19
368.862	108.19
369.089	118.19
369.315	101.19
369.541	96.19
369.767	91.19
369.993	93.19
370.219	85.19
370.445	91.19
370.672	81.19
370.898	88.19
371.124	83.19
371.35	83.19
371.576	96.19
371.802	96.19
372.028	93.19
372.254	105.19
372.48	106.19
372.706	105.19
372.932	82.19
373.158	112.19
373.384	106.19
373.61	90.19
373.835	86.19
374.061	89.19
374.287	93.19
374.513	84.19
374.739	91.19
374.965	91.19
375.191	94.19
375.416	102.19
375.642	90.19
375.868	91.19
376.094	96.19
376.319	93.19
376.545	86.19
376.771	96.19
376.997	93.19
377.222	79.19
377.448	106.19
377.674	97.19
377.899	94.19
378.125	91.19
378.35	84.19
378.576	100.19
378.802	96.19
379.027	98.19
379.253	97.19
379.478	98.19
379.704	83.19
379.929	76.19
380.155	87.19
380.38	105.19
380.606	87.19
380.831	104.19
381.057	116.19
381.282	96.19
381.507	93.19
381.733	103.19
381.958	100.19
382.184	96.19
382.409	101.19
382.634	102.19
382.86	104.19
383.085	115.19
383.31	115.19
383.535	114.19
383.761	96.19
383.986	103.19
384.211	104.19
384.436	106.19
384.662	98.19
384.887	113.19
385.112	114.19
385.337	102.19
385.562	111.19
385.787	111.19
386.013	117.19
386.238	100.19
386.463	111.19
386.688	97.19
386.913	97.19
387.138	117.19
387.363	124.19
387.588	107.19
387.813	102.19
388.038	94.19
388.263	114.19
388.488	115.19
388.713	93.19
388.938	109.19
389.163	111.19
389.387	111.19
389.612	95.19
389.837	106.19
390.062	102.19
390.287	87.19
390.512	85.19
390.736	94.19
390.961	83.19
391.186	98.19
391.411	93.19
391.636	88.19
391.86	95.19
392.085	90.19
392.31	95.19
392.534	91.19
392.759	91.19
392.984	81.19
393.208	85.19
393.433	86.19
393.658	97.19
393.882	90.19
394.107	83.19
394.331	92.19
394.556	90.19
394.78	93.19
395.005	105.19
395.229	98.19
395.454	87.19
395.678	90.19
395.903	97.19
396.127	90.19
396.352	89.19
396.576	73.19
396.801	95.19
397.025	91.19
397.249	86.19
397.474	89.19
397.698	87.19
397.922	76.19
398.147	93.19
398.371	91.19
398.595	93.19
398.82	90.19
399.044	101.19
399.268	104.19
399.492	91.19
399.717	87.19
399.941	96.19
400.165	98.19
400.389	87.19
400.613	79.19
400.837	92.19
401.062	80.19
401.286	94.19
401.51	90.19
401.734	90.19
401.958	103.19
402.182	109.19
402.406	155.19
402.63	121.19
402.854	93.19
403.078	92.19
403.302	91.19
403.526	103.19
403.75	85.19
403.974	94.19
404.198	93.19
404.422	97.19
404.645	89.19
404.869	101.19
405.093	98.19
405.317	90.19
405.541	101.19
405.765	97.19
405.988	111.19
406.212	170.19
406.436	200.19
406.66	138.19
406.883	104.19
407.107	87.19
407.331	93.19
407.555	103.19
407.778	106.19
408.002	109.19
408.226	93.19
408.449	107.19
408.673	101.19
408.896	89.19
409.12	94.19
409.344	97.19
409.567	97.19
409.791	89.19
410.014	105.19
410.238	91.19
410.461	101.19
410.685	108.19
410.908	94.19
411.132	103.19
411.355	102.19
411.578	85.19
411.802	94.19
412.025	104.19
412.249	94.19
412.472	102.19
412.695	84.19
412.919	94.19
413.142	93.19
413.365	86.19
413.589	97.19
413.812	90.19
414.035	88.19
414.258	106.19
414.482	106.19
414.705	82.19
414.928	96.19
415.151	88.19
415.374	85.19
415.597	96.19
415.821	94.19
416.044	91.19
416.267	109.19
416.49	100.19
416.713	80.19
416.936	97.19
417.159	86.19
417.382	100.19
417.605	79.19
417.828	107.19
418.051	111.19
418.274	88.19
418.497	91.19
418.72	101.19
418.943	80.19
419.166	86.19
419.389	91.19
419.611	114.19
419.834	97.19
420.057	97.19
420.28	91.19
420.503	95.19
420.726	99.19
420.948	90.19
421.171	99.19
421.394	95.19
421.617	110.19
421.839	93.19
422.062	94.19
422.285	105.19
422.507	101.19
422.73	115.19
422.953	101.19
423.175	98.19
423.398	91.19
423.621	96.19
423.843	85.19
424.066	98.19
424.288	75.19
424.511	80.19
424.733	108.19
424.956	107.19
425.178	104.19
425.401	102.19
425.623	99.19
425.846	91.19
426.068	90.19
426.291	89.19
426.513	78.19
426.735	100.19
426.958	91.19
427.18	101.19
427.402	141.19
427.625	161.19
427.847	124.19
428.069	104.19
428.292	88.19
428.514	77.19
428.736	87.19
428.958	87.19
429.181	84.19
429.403	78.19
429.625	81.19
429.847	89.19
430.069	98.19
430.292	96.19
430.514	85.19
430.736	97.19
430.958	82.19
431.18	83.19
431.402	79.19
431.624	87.19
431.846	95.19
432.068	75.19
432.29	96.19
432.512	85.19
432.734	102.19
432.956	95.19
433.178	105.19
433.4	99.19
433.622	102.19
433.844	107.19
434.066	96.19
434.287	90.19
434.509	82.19
434.731	96.19
434.953	87.19
435.175	106.19
435.397	112.19
435.618	90.19
435.84	114.19
436.062	114.19
436.284	103.19
436.505	100.19
436.727	99.19
436.949	91.19
437.17	98.19
437.392	97.19
437.614	84.19
437.835	94.19
438.057	124.19
438.278	105.19
438.5	115.19
438.721	121.19
438.943	106.19
439.165	85.19
439.386	97.19
439.608	102.19
439.829	109.19
440.05	117.19
440.272	141.19
440.493	106.19
440.715	87.19
440.936	85.19
441.158	94.19
441.379	95.19
441.6	97.19
441.822	80.19
442.043	92.19
442.264	99.19
442.486	103.19
442.707	80.19
442.928	89.19
443.149	142.19
443.371	127.19
443.592	118.19
443.813	105.19
444.034	100.19
444.255	94.19
444.476	96.19
444.698	88.19
444.919	96.19
445.14	145.19
445.361	127.19
445.582	98.19
445.803	117.19
446.024	128.19
446.245	127.19
446.466	111.19
446.687	97.19
446.908	103.19
447.129	91.19
447.35	91.19
447.571	88.19
447.792	94.19
448.013	90.19
448.234	107.19
448.455	105.19
448.675	113.19
448.896	101.19
449.117	105.19
449.338	91.19
449.559	115.19
449.779	125.19
450	97.19
450.221	87.19
450.442	93.19
450.662	85.19
450.883	97.19
451.104	102.19
451.324	92.19
451.545	87.19
451.766	83.19
451.986	89.19
452.207	94.19
452.428	98.19
452.648	80.19
452.869	103.19
453.089	125.19
453.31	116.19
453.53	95.19
453.751	81.19
453.971	108.19
454.192	110.19
454.412	96.19
454.633	74.19
454.853	85.19
455.073	88.19
455.294	95.19
455.514	94.19
455.734	86.19
455.955	79.19
456.175	91.19
456.395	89.19
456.616	86.19
456.836	78.19
457.056	83.19
457.276	81.19
457.497	84.19
457.717	86.19
457.937	88.19
458.157	83.19
458.377	86.19
458.598	106.19
458.818	142.19
459.038	130.19
459.258	117.19
459.478	92.19
459.698	82.19
459.918	95.19
460.138	93.19
460.358	83.19
460.578	105.19
460.798	77.19
461.018	94.19
461.238	99.19
461.458	82.19
461.678	80.19
461.898	87.19
462.118	96.19
462.338	100.19
462.558	101.19
462.777	82.19
462.997	77.19
463.217	86.19
463.437	85.19
463.657	86.19
463.876	84.19
464.096	94.19
464.316	83.19
464.536	95.19
464.755	98.19
464.975	95.19
465.195	141.19
465.414	145.19
465.634	87.19
465.854	84.19
466.073	97.19
466.293	99.19
466.512	94.19
466.732	88.19
466.951	95.19
467.171	101.19
467.391	101.19
467.61	94.19
467.829	104.19
468.049	96.19
468.268	99.19
468.488	73.19
468.707	77.19
468.927	95.19
469.146	101.19
469.365	103.19
469.585	86.19
469.804	90.19
470.023	98.19
470.243	99.19
470.462	103.19
470.681	92.19
470.901	86.19
471.12	96.19
471.339	92.19
471.558	65.19
471.777	90.19
471.997	101.19
472.216	100.19
472.435	88.19
472.654	87.19
472.873	86.19
473.092	91.19
473.311	93.19
473.53	91.19
473.749	102.19
473.968	88.19
474.187	105.19
474.406	96.19
474.625	102.19
474.844	91.19
475.063	89.19
475.282	93.19
475.501	82.19
475.72	85.19
475.939	77.19
476.158	86.19
476.377	97.19
476.596	91.19
476.814	99.19
477.033	95.19
477.252	79.19
477.471	83.19
477.69	97.19
477.908	96.19
478.127	102.19
478.346	91.19
478.564	91.19
478.783	80.19
479.002	88.19
479.22	90.19
479.439	96.19
479.658	92.19
479.876	90.19
480.095	75.19
480.313	101.19
480.532	94.19
480.751	100.19
480.969	94.19
481.188	98.19
481.406	82.19
481.624	81.19
481.843	98.19
482.061	89.19
482.28	86.19
482.498	95.19
482.717	92.19
482.935	110.19
483.153	94.19
483.372	98.19
483.59	78.19
483.808	89.19
484.027	95.19
484.245	101.19
484.463	92.19
484.681	99.19
484.9	95.19
485.118	91.19
485.336	88.19
485.554	100.19
485.772	97.19
485.99	104.19
486.209	101.19
486.427	102.19
486.645	101.19
486.863	101.19
487.081	99.19
487.299	94.19
487.517	96.19
487.735	96.19
487.953	83.19
488.171	99.19
488.389	96.19
488.607	93.19
488.825	83.19
489.043	89.19
489.261	93.19
489.479	91.19
489.696	100.19
489.914	76.19
490.132	88.19
490.35	80.19
490.568	83.19
490.786	84.19
491.003	91.19
491.221	84.19
491.439	82.19
491.657	89.19
491.874	99.19
492.092	104.19
492.31	99.19
492.527	86.19
492.745	102.19
492.963	92.19
493.18	94.19
493.398	81.19
493.615	95.19
493.833	100.19
494.05	81.19
494.268	94.19
494.485	88.19
494.703	99.19
494.92	89.19
495.138	91.19
495.355	99.19
495.573	111.19
495.79	98.19
496.008	101.19
496.225	101.19
496.442	94.19
496.66	100.19
496.877	94.19
497.094	94.19
497.312	87.19
497.529	81.19
497.746	97.19
497.963	101.19
498.181	98.19
498.398	101.19
498.615	111.19
498.832	103.19
499.049	91.19
499.267	81.19
499.484	81.19
499.701	92.19
499.918	82.19
500.135	89.19
500.352	91.19
500.569	92.19
500.786	80.19
501.003	102.19
501.22	97.19
501.437	96.19
501.654	98.19
501.871	112.19
502.088	96.19
502.305	87.19
502.522	96.19
502.739	102.19
502.956	95.19
503.172	98.19
503.389	91.19
503.606	106.19
503.823	101.19
504.04	106.19
504.256	81.19
504.473	103.19
504.69	79.19
504.907	98.19
505.123	100.19
505.34	82.19
505.557	99.19
505.773	100.19
505.99	94.19
506.207	95.19
506.423	86.19
506.64	99.19
506.856	98.19
507.073	95.19
507.289	104.19
507.506	89.19
507.722	104.19
507.939	125.19
508.155	95.19
508.372	99.19
508.588	95.19
508.805	96.19
509.021	109.19
509.238	106.19
509.454	114.19
509.67	113.19
509.887	103.19
510.103	125.19
510.319	207.19
510.536	723.19
510.752	2155.19
510.968	622.19
511.184	162.19
511.401	100.19
511.617	104.19
511.833	94.19
512.049	113.19
512.265	103.19
512.481	90.19
512.698	112.19
512.914	95.19
513.13	98.19
513.346	117.19
513.562	106.19
513.778	97.19
513.994	111.19
514.21	102.19
514.426	113.19
