Data from Uncirc_2005_H10_HRD10591_00074.txt Node
Date: Wed Jan 03 10:28:39 EST 2024
User: Yrep
Spectrometer: HR+D1059
Trigger mode: 1
Integration Time (sec): 1.000000E-1
Scans to average: 1
Electric dark correction enabled: true
Nonlinearity correction enabled: false
Boxcar width: 0
XAxis mode: Wavelengths
Number of Pixels in Spectrum: 2048
>>>>>Begin Spectral Data<<<<<
223.165	-19.69
223.4	-19.69
223.635	-19.69
223.869	-4.69
224.104	-12.69
224.338	-19.69
224.573	-9.69
224.808	-11.69
225.042	-19.69
225.277	-9.69
225.511	-8.69
225.746	1.31
225.98	9.31
226.215	6.31
226.449	21.31
226.683	17.31
226.918	37.31
227.152	23.31
227.387	31.31
227.621	42.31
227.856	28.31
228.09	43.31
228.324	54.31
228.559	62.31
228.793	63.31
229.027	65.31
229.262	71.31
229.496	77.31
229.73	83.31
229.964	90.31
230.199	68.31
230.433	79.31
230.667	65.31
230.901	71.31
231.136	69.31
231.37	74.31
231.604	74.31
231.838	72.31
232.072	76.31
232.306	60.31
232.541	85.31
232.775	88.31
233.009	74.31
233.243	88.31
233.477	83.31
233.711	77.31
233.945	68.31
234.179	88.31
234.413	91.31
234.647	91.31
234.881	74.31
235.115	71.31
235.349	76.31
235.583	74.31
235.817	77.31
236.051	80.31
236.285	80.31
236.519	84.31
236.753	71.31
236.987	82.31
237.221	95.31
237.455	76.31
237.689	78.31
237.922	82.31
238.156	80.31
238.39	82.31
238.624	73.31
238.858	76.31
239.091	80.31
239.325	56.31
239.559	85.31
239.793	76.31
240.027	80.31
240.26	88.31
240.494	71.31
240.728	79.31
240.961	77.31
241.195	84.31
241.429	71.31
241.662	64.31
241.896	93.31
242.13	86.31
242.363	71.31
242.597	90.31
242.83	80.31
243.064	69.31
243.298	81.31
243.531	85.31
243.765	74.31
243.998	76.31
244.232	73.31
244.465	84.31
244.699	83.31
244.932	91.31
245.166	69.31
245.399	69.31
245.633	80.31
245.866	83.31
246.099	90.31
246.333	91.31
246.566	76.31
246.8	80.31
247.033	91.31
247.266	85.31
247.5	69.31
247.733	93.31
247.966	84.31
248.2	98.31
248.433	77.31
248.666	79.31
248.899	81.31
249.133	87.31
249.366	97.31
249.599	101.31
249.832	87.31
250.066	84.31
250.299	83.31
250.532	84.31
250.765	72.31
250.998	79.31
251.231	79.31
251.465	71.31
251.698	61.31
251.931	75.31
252.164	74.31
252.397	71.31
252.63	79.31
252.863	95.31
253.096	89.31
253.329	86.31
253.562	87.31
253.795	69.31
254.028	84.31
254.261	76.31
254.494	71.31
254.727	93.31
254.96	60.31
255.193	75.31
255.426	84.31
255.659	75.31
255.892	72.31
256.124	81.31
256.357	82.31
256.59	88.31
256.823	87.31
257.056	73.31
257.289	83.31
257.521	88.31
257.754	88.31
257.987	65.31
258.22	81.31
258.452	70.31
258.685	72.31
258.918	88.31
259.151	80.31
259.383	87.31
259.616	76.31
259.849	79.31
260.081	78.31
260.314	80.31
260.547	83.31
260.779	90.31
261.012	84.31
261.244	96.31
261.477	84.31
261.71	78.31
261.942	98.31
262.175	111.31
262.407	80.31
262.64	86.31
262.872	56.31
263.105	83.31
263.337	93.31
263.57	82.31
263.802	87.31
264.035	85.31
264.267	86.31
264.499	83.31
264.732	84.31
264.964	70.31
265.197	87.31
265.429	87.31
265.661	81.31
265.894	80.31
266.126	92.31
266.358	81.31
266.591	89.31
266.823	88.31
267.055	98.31
267.287	91.31
267.52	93.31
267.752	90.31
267.984	66.31
268.216	89.31
268.448	75.31
268.681	94.31
268.913	86.31
269.145	98.31
269.377	81.31
269.609	85.31
269.841	81.31
270.073	72.31
270.306	76.31
270.538	78.31
270.77	87.31
271.002	77.31
271.234	76.31
271.466	82.31
271.698	74.31
271.93	88.31
272.162	92.31
272.394	96.31
272.626	87.31
272.858	82.31
273.09	80.31
273.322	90.31
273.553	70.31
273.785	69.31
274.017	87.31
274.249	91.31
274.481	69.31
274.713	78.31
274.945	77.31
275.176	81.31
275.408	90.31
275.64	87.31
275.872	70.31
276.104	102.31
276.335	87.31
276.567	82.31
276.799	83.31
277.031	86.31
277.262	78.31
277.494	72.31
277.726	95.31
277.957	81.31
278.189	72.31
278.421	102.31
278.652	85.31
278.884	94.31
279.115	81.31
279.347	100.31
279.579	76.31
279.81	92.31
280.042	75.31
280.273	85.31
280.505	86.31
280.736	82.31
280.968	96.31
281.199	87.31
281.431	78.31
281.662	90.31
281.894	97.31
282.125	93.31
282.356	115.31
282.588	124.31
282.819	110.31
283.051	90.31
283.282	96.31
283.513	76.31
283.745	93.31
283.976	75.31
284.207	101.31
284.439	81.31
284.67	89.31
284.901	64.31
285.132	93.31
285.364	71.31
285.595	88.31
285.826	77.31
286.057	85.31
286.288	92.31
286.52	99.31
286.751	79.31
286.982	84.31
287.213	78.31
287.444	87.31
287.675	96.31
287.906	91.31
288.138	82.31
288.369	98.31
288.6	99.31
288.831	86.31
289.062	82.31
289.293	96.31
289.524	79.31
289.755	75.31
289.986	94.31
290.217	86.31
290.448	86.31
290.679	80.31
290.91	82.31
291.141	84.31
291.371	82.31
291.602	85.31
291.833	91.31
292.064	90.31
292.295	104.31
292.526	89.31
292.757	97.31
292.987	89.31
293.218	76.31
293.449	77.31
293.68	84.31
293.91	87.31
294.141	92.31
294.372	95.31
294.603	73.31
294.833	81.31
295.064	84.31
295.295	95.31
295.525	101.31
295.756	111.31
295.987	127.31
296.217	134.31
296.448	116.31
296.679	104.31
296.909	100.31
297.14	85.31
297.37	79.31
297.601	77.31
297.831	94.31
298.062	92.31
298.292	80.31
298.523	83.31
298.753	81.31
298.984	76.31
299.214	83.31
299.445	108.31
299.675	90.31
299.905	98.31
300.136	90.31
300.366	95.31
300.597	91.31
300.827	94.31
301.057	90.31
301.288	98.31
301.518	85.31
301.748	86.31
301.979	94.31
302.209	75.31
302.439	94.31
302.669	92.31
302.9	93.31
303.13	91.31
303.36	94.31
303.59	96.31
303.82	106.31
304.051	93.31
304.281	92.31
304.511	102.31
304.741	90.31
304.971	99.31
305.201	96.31
305.431	100.31
305.661	95.31
305.891	84.31
306.121	99.31
306.352	96.31
306.582	93.31
306.812	77.31
307.042	87.31
307.272	100.31
307.502	78.31
307.731	84.31
307.961	81.31
308.191	86.31
308.421	97.31
308.651	87.31
308.881	99.31
309.111	96.31
309.341	91.31
309.571	101.31
309.8	90.31
310.03	97.31
310.26	101.31
310.49	81.31
310.72	101.31
310.949	92.31
311.179	94.31
311.409	95.31
311.639	95.31
311.868	99.31
312.098	90.31
312.328	99.31
312.557	96.31
312.787	99.31
313.017	82.31
313.246	97.31
313.476	76.31
313.706	84.31
313.935	93.31
314.165	98.31
314.394	100.31
314.624	87.31
314.853	92.31
315.083	92.31
315.312	97.31
315.542	73.31
315.771	82.31
316.001	77.31
316.23	91.31
316.46	77.31
316.689	87.31
316.919	86.31
317.148	98.31
317.377	96.31
317.607	90.31
317.836	101.31
318.065	103.31
318.295	96.31
318.524	86.31
318.753	88.31
318.983	104.31
319.212	101.31
319.441	105.31
319.67	95.31
319.9	101.31
320.129	103.31
320.358	91.31
320.587	95.31
320.816	102.31
321.046	90.31
321.275	102.31
321.504	75.31
321.733	78.31
321.962	99.31
322.191	90.31
322.42	104.31
322.649	103.31
322.878	104.31
323.108	134.31
323.337	117.31
323.566	121.31
323.795	148.31
324.024	213.31
324.253	432.31
324.482	922.31
324.71	1891.31
324.939	2558.31
325.168	916.31
325.397	272.31
325.626	158.31
325.855	124.31
326.084	126.31
326.313	162.31
326.542	149.31
326.77	259.31
326.999	494.31
327.228	1096.31
327.457	1890.31
327.686	1530.31
327.914	384.31
328.143	190.31
328.372	141.31
328.6	127.31
328.829	111.31
329.058	122.31
329.287	128.31
329.515	115.31
329.744	105.31
329.972	110.31
330.201	92.31
330.43	104.31
330.658	111.31
330.887	131.31
331.115	112.31
331.344	97.31
331.572	106.31
331.801	91.31
332.03	102.31
332.258	109.31
332.486	94.31
332.715	99.31
332.943	97.31
333.172	89.31
333.4	96.31
333.629	90.31
333.857	111.31
334.085	88.31
334.314	92.31
334.542	100.31
334.771	100.31
334.999	101.31
335.227	98.31
335.455	95.31
335.684	97.31
335.912	99.31
336.14	103.31
336.369	101.31
336.597	108.31
336.825	103.31
337.053	74.31
337.281	83.31
337.51	82.31
337.738	84.31
337.966	91.31
338.194	95.31
338.422	104.31
338.65	99.31
338.878	76.31
339.106	87.31
339.334	96.31
339.562	87.31
339.79	94.31
340.018	103.31
340.246	91.31
340.474	84.31
340.702	90.31
340.93	80.31
341.158	83.31
341.386	83.31
341.614	102.31
341.842	94.31
342.07	80.31
342.298	94.31
342.526	74.31
342.754	89.31
342.981	90.31
343.209	74.31
343.437	86.31
343.665	76.31
343.893	84.31
344.12	86.31
344.348	85.31
344.576	86.31
344.804	98.31
345.031	102.31
345.259	108.31
345.487	80.31
345.714	95.31
345.942	83.31
346.17	96.31
346.397	87.31
346.625	91.31
346.853	81.31
347.08	72.31
347.308	77.31
347.535	84.31
347.763	97.31
347.99	102.31
348.218	91.31
348.445	122.31
348.673	90.31
348.9	102.31
349.128	89.31
349.355	83.31
349.583	100.31
349.81	92.31
350.037	84.31
350.265	95.31
350.492	102.31
350.72	107.31
350.947	102.31
351.174	97.31
351.402	111.31
351.629	108.31
351.856	104.31
352.083	97.31
352.311	107.31
352.538	112.31
352.765	109.31
352.992	127.31
353.22	112.31
353.447	103.31
353.674	105.31
353.901	78.31
354.128	88.31
354.355	93.31
354.583	101.31
354.81	111.31
355.037	88.31
355.264	87.31
355.491	105.31
355.718	88.31
355.945	88.31
356.172	97.31
356.399	102.31
356.626	97.31
356.853	88.31
357.08	98.31
357.307	74.31
357.534	83.31
357.761	86.31
357.988	102.31
358.215	102.31
358.441	95.31
358.668	82.31
358.895	85.31
359.122	93.31
359.349	86.31
359.576	86.31
359.802	111.31
360.029	102.31
360.256	116.31
360.483	93.31
360.709	81.31
360.936	93.31
361.163	82.31
361.39	93.31
361.616	90.31
361.843	71.31
362.07	88.31
362.296	103.31
362.523	99.31
362.749	86.31
362.976	82.31
363.203	81.31
363.429	90.31
363.656	95.31
363.882	106.31
364.109	97.31
364.335	90.31
364.562	87.31
364.788	79.31
365.015	87.31
365.241	79.31
365.468	114.31
365.694	113.31
365.92	80.31
366.147	98.31
366.373	96.31
366.599	85.31
366.826	102.31
367.052	93.31
367.278	94.31
367.505	93.31
367.731	97.31
367.957	91.31
368.184	82.31
368.41	95.31
368.636	105.31
368.862	103.31
369.089	107.31
369.315	97.31
369.541	87.31
369.767	93.31
369.993	87.31
370.219	76.31
370.445	85.31
370.672	87.31
370.898	85.31
371.124	88.31
371.35	90.31
371.576	81.31
371.802	88.31
372.028	91.31
372.254	91.31
372.48	94.31
372.706	96.31
372.932	81.31
373.158	92.31
373.384	104.31
373.61	88.31
373.835	101.31
374.061	91.31
374.287	98.31
374.513	95.31
374.739	95.31
374.965	92.31
375.191	94.31
375.416	94.31
375.642	94.31
375.868	88.31
376.094	108.31
376.319	96.31
376.545	73.31
376.771	97.31
376.997	83.31
377.222	88.31
377.448	94.31
377.674	99.31
377.899	99.31
378.125	77.31
378.35	83.31
378.576	98.31
378.802	76.31
379.027	90.31
379.253	86.31
379.478	100.31
379.704	109.31
379.929	98.31
380.155	80.31
380.38	90.31
380.606	95.31
380.831	110.31
381.057	109.31
381.282	86.31
381.507	87.31
381.733	78.31
381.958	94.31
382.184	82.31
382.409	99.31
382.634	102.31
382.86	106.31
383.085	91.31
383.31	101.31
383.535	108.31
383.761	98.31
383.986	88.31
384.211	96.31
384.436	99.31
384.662	98.31
384.887	93.31
385.112	104.31
385.337	97.31
385.562	97.31
385.787	103.31
386.013	102.31
386.238	116.31
386.463	96.31
386.688	106.31
386.913	96.31
387.138	92.31
387.363	103.31
387.588	118.31
387.813	90.31
388.038	97.31
388.263	112.31
388.488	115.31
388.713	96.31
388.938	98.31
389.163	96.31
389.387	102.31
389.612	93.31
389.837	103.31
390.062	93.31
390.287	91.31
390.512	79.31
390.736	87.31
390.961	90.31
391.186	77.31
391.411	98.31
391.636	87.31
391.86	87.31
392.085	90.31
392.31	96.31
392.534	81.31
392.759	83.31
392.984	72.31
393.208	82.31
393.433	78.31
393.658	89.31
393.882	90.31
394.107	95.31
394.331	79.31
394.556	87.31
394.78	101.31
395.005	98.31
395.229	70.31
395.454	91.31
395.678	81.31
395.903	80.31
396.127	83.31
396.352	88.31
396.576	71.31
396.801	94.31
397.025	92.31
397.249	85.31
397.474	95.31
397.698	90.31
397.922	78.31
398.147	106.31
398.371	82.31
398.595	94.31
398.82	92.31
399.044	72.31
399.268	90.31
399.492	85.31
399.717	79.31
399.941	93.31
400.165	86.31
400.389	91.31
400.613	98.31
400.837	96.31
401.062	93.31
401.286	85.31
401.51	83.31
401.734	106.31
401.958	96.31
402.182	121.31
402.406	145.31
402.63	99.31
402.854	96.31
403.078	81.31
403.302	77.31
403.526	86.31
403.75	87.31
403.974	74.31
404.198	81.31
404.422	86.31
404.645	86.31
404.869	91.31
405.093	88.31
405.317	95.31
405.541	84.31
405.765	98.31
405.988	117.31
406.212	153.31
406.436	223.31
406.66	140.31
406.883	106.31
407.107	95.31
407.331	85.31
407.555	100.31
407.778	106.31
408.002	94.31
408.226	91.31
408.449	82.31
408.673	100.31
408.896	87.31
409.12	87.31
409.344	98.31
409.567	85.31
409.791	83.31
410.014	79.31
410.238	90.31
410.461	92.31
410.685	105.31
410.908	96.31
411.132	104.31
411.355	110.31
411.578	81.31
411.802	76.31
412.025	93.31
412.249	99.31
412.472	99.31
412.695	95.31
412.919	95.31
413.142	80.31
413.365	90.31
413.589	73.31
413.812	72.31
414.035	97.31
414.258	87.31
414.482	98.31
414.705	88.31
414.928	93.31
415.151	78.31
415.374	96.31
415.597	87.31
415.821	83.31
416.044	85.31
416.267	83.31
416.49	81.31
416.713	92.31
416.936	101.31
417.159	89.31
417.382	74.31
417.605	96.31
417.828	99.31
418.051	96.31
418.274	89.31
418.497	77.31
418.72	89.31
418.943	82.31
419.166	71.31
419.389	78.31
419.611	91.31
419.834	100.31
420.057	91.31
420.28	84.31
420.503	97.31
420.726	84.31
420.948	81.31
421.171	83.31
421.394	91.31
421.617	90.31
421.839	82.31
422.062	86.31
422.285	98.31
422.507	98.31
422.73	105.31
422.953	115.31
423.175	95.31
423.398	94.31
423.621	97.31
423.843	91.31
424.066	95.31
424.288	81.31
424.511	89.31
424.733	98.31
424.956	118.31
425.178	98.31
425.401	104.31
425.623	100.31
425.846	87.31
426.068	84.31
426.291	98.31
426.513	85.31
426.735	84.31
426.958	98.31
427.18	107.31
427.402	131.31
427.625	162.31
427.847	115.31
428.069	100.31
428.292	107.31
428.514	94.31
428.736	92.31
428.958	78.31
429.181	94.31
429.403	84.31
429.625	74.31
429.847	88.31
430.069	88.31
430.292	104.31
430.514	88.31
430.736	72.31
430.958	86.31
431.18	84.31
431.402	82.31
431.624	80.31
431.846	91.31
432.068	91.31
432.29	79.31
432.512	82.31
432.734	95.31
432.956	99.31
433.178	96.31
433.4	111.31
433.622	87.31
433.844	89.31
434.066	93.31
434.287	70.31
434.509	98.31
434.731	72.31
434.953	87.31
435.175	88.31
435.397	79.31
435.618	112.31
435.84	94.31
436.062	124.31
436.284	116.31
436.505	94.31
436.727	98.31
436.949	91.31
437.17	95.31
437.392	91.31
437.614	80.31
437.835	118.31
438.057	123.31
438.278	106.31
438.5	109.31
438.721	128.31
438.943	96.31
439.165	98.31
439.386	92.31
439.608	87.31
439.829	116.31
440.05	129.31
440.272	140.31
440.493	97.31
440.715	90.31
440.936	79.31
441.158	93.31
441.379	99.31
441.6	82.31
441.822	91.31
442.043	82.31
442.264	113.31
442.486	111.31
442.707	77.31
442.928	101.31
443.149	131.31
443.371	140.31
443.592	113.31
443.813	111.31
444.034	100.31
444.255	70.31
444.476	101.31
444.698	85.31
444.919	76.31
445.14	128.31
445.361	125.31
445.582	107.31
445.803	136.31
446.024	147.31
446.245	143.31
446.466	117.31
446.687	86.31
446.908	84.31
447.129	92.31
447.35	89.31
447.571	79.31
447.792	95.31
448.013	99.31
448.234	102.31
448.455	108.31
448.675	103.31
448.896	126.31
449.117	103.31
449.338	108.31
449.559	126.31
449.779	142.31
450	102.31
450.221	97.31
450.442	82.31
450.662	100.31
450.883	102.31
451.104	99.31
451.324	90.31
451.545	86.31
451.766	82.31
451.986	89.31
452.207	89.31
452.428	91.31
452.648	95.31
452.869	111.31
453.089	106.31
453.31	105.31
453.53	96.31
453.751	81.31
453.971	103.31
454.192	101.31
454.412	96.31
454.633	80.31
454.853	94.31
455.073	85.31
455.294	98.31
455.514	109.31
455.734	85.31
455.955	77.31
456.175	88.31
456.395	89.31
456.616	73.31
456.836	81.31
457.056	81.31
457.276	82.31
457.497	87.31
457.717	58.31
457.937	78.31
458.157	93.31
458.377	106.31
458.598	104.31
458.818	150.31
459.038	151.31
459.258	124.31
459.478	96.31
459.698	90.31
459.918	99.31
460.138	87.31
460.358	101.31
460.578	83.31
460.798	101.31
461.018	97.31
461.238	90.31
461.458	81.31
461.678	83.31
461.898	86.31
462.118	96.31
462.338	91.31
462.558	69.31
462.777	89.31
462.997	85.31
463.217	77.31
463.437	84.31
463.657	82.31
463.876	83.31
464.096	85.31
464.316	97.31
464.536	97.31
464.755	94.31
464.975	103.31
465.195	149.31
465.414	159.31
465.634	91.31
465.854	84.31
466.073	84.31
466.293	87.31
466.512	87.31
466.732	82.31
466.951	90.31
467.171	73.31
467.391	87.31
467.61	89.31
467.829	105.31
468.049	104.31
468.268	83.31
468.488	82.31
468.707	80.31
468.927	78.31
469.146	85.31
469.365	85.31
469.585	88.31
469.804	88.31
470.023	87.31
470.243	86.31
470.462	113.31
470.681	99.31
470.901	86.31
471.12	90.31
471.339	70.31
471.558	82.31
471.777	85.31
471.997	88.31
472.216	87.31
472.435	87.31
472.654	89.31
472.873	78.31
473.092	81.31
473.311	87.31
473.53	82.31
473.749	86.31
473.968	84.31
474.187	103.31
474.406	103.31
474.625	82.31
474.844	100.31
475.063	82.31
475.282	98.31
475.501	83.31
475.72	82.31
475.939	87.31
476.158	100.31
476.377	84.31
476.596	78.31
476.814	88.31
477.033	91.31
477.252	91.31
477.471	97.31
477.69	87.31
477.908	88.31
478.127	79.31
478.346	98.31
478.564	94.31
478.783	99.31
479.002	116.31
479.22	94.31
479.439	98.31
479.658	113.31
479.876	99.31
480.095	95.31
480.313	100.31
480.532	102.31
480.751	92.31
480.969	89.31
481.188	87.31
481.406	93.31
481.624	89.31
481.843	91.31
482.061	87.31
482.28	86.31
482.498	82.31
482.717	85.31
482.935	93.31
483.153	84.31
483.372	76.31
483.59	87.31
483.808	88.31
484.027	91.31
484.245	90.31
484.463	91.31
484.681	88.31
484.9	119.31
485.118	98.31
485.336	88.31
485.554	99.31
485.772	90.31
485.99	103.31
486.209	90.31
486.427	92.31
486.645	118.31
486.863	111.31
487.081	101.31
487.299	91.31
487.517	83.31
487.735	104.31
487.953	90.31
488.171	99.31
488.389	94.31
488.607	106.31
488.825	92.31
489.043	102.31
489.261	88.31
489.479	88.31
489.696	75.31
489.914	80.31
490.132	91.31
490.35	90.31
490.568	85.31
490.786	92.31
491.003	100.31
491.221	90.31
491.439	72.31
491.657	103.31
491.874	91.31
492.092	94.31
492.31	99.31
492.527	91.31
492.745	78.31
492.963	109.31
493.18	75.31
493.398	82.31
493.615	100.31
493.833	91.31
494.05	85.31
494.268	91.31
494.485	94.31
494.703	94.31
494.92	83.31
495.138	92.31
495.355	92.31
495.573	79.31
495.79	93.31
496.008	101.31
496.225	100.31
496.442	85.31
496.66	86.31
496.877	88.31
497.094	87.31
497.312	82.31
497.529	99.31
497.746	80.31
497.963	84.31
498.181	84.31
498.398	91.31
498.615	114.31
498.832	100.31
499.049	88.31
499.267	79.31
499.484	78.31
499.701	79.31
499.918	81.31
500.135	86.31
500.352	86.31
500.569	89.31
500.786	88.31
501.003	87.31
501.22	95.31
501.437	88.31
501.654	80.31
501.871	82.31
502.088	85.31
502.305	79.31
502.522	107.31
502.739	92.31
502.956	99.31
503.172	81.31
503.389	88.31
503.606	107.31
503.823	110.31
504.04	93.31
504.256	108.31
504.473	91.31
504.69	87.31
504.907	92.31
505.123	97.31
505.34	87.31
505.557	93.31
505.773	88.31
505.99	77.31
506.207	92.31
506.423	88.31
506.64	103.31
506.856	103.31
507.073	91.31
507.289	88.31
507.506	108.31
507.722	111.31
507.939	109.31
508.155	94.31
508.372	80.31
508.588	71.31
508.805	94.31
509.021	99.31
509.238	106.31
509.454	109.31
509.67	103.31
509.887	104.31
510.103	136.31
510.319	208.31
510.536	723.31
510.752	2311.31
510.968	662.31
511.184	146.31
511.401	115.31
511.617	103.31
511.833	93.31
512.049	87.31
512.265	86.31
512.481	83.31
512.698	98.31
512.914	90.31
513.13	108.31
513.346	88.31
513.562	103.31
513.778	89.31
513.994	93.31
514.21	102.31
514.426	104.31
514.642	136.31
514.858	114.31
515.074	158.31
515.29	435.31
515.506	1433.31
515.721	544.31
515.937	158.31
