Data from Uncirc_2005_H10_HRD10591_00079.txt Node
Date: Wed Jan 03 10:28:40 EST 2024
User: Yrep
Spectrometer: HR+D1059
Trigger mode: 1
Integration Time (sec): 1.000000E-1
Scans to average: 1
Electric dark correction enabled: true
Nonlinearity correction enabled: false
Boxcar width: 0
XAxis mode: Wavelengths
Number of Pixels in Spectrum: 2048
>>>>>Begin Spectral Data<<<<<
223.165	-4.38
223.4	-4.38
223.635	-4.38
223.869	-3.38
224.104	-24.38
224.338	-14.38
224.573	-12.38
224.808	-20.38
225.042	-5.38
225.277	-1.38
225.511	1.62
225.746	-14.38
225.98	7.62
226.215	6.62
226.449	19.62
226.683	16.62
226.918	14.62
227.152	33.62
227.387	35.62
227.621	26.62
227.856	54.62
228.09	44.62
228.324	31.62
228.559	54.62
228.793	56.62
229.027	59.62
229.262	71.62
229.496	74.62
229.73	79.62
229.964	88.62
230.199	77.62
230.433	73.62
230.667	79.62
230.901	74.62
231.136	83.62
231.37	82.62
231.604	79.62
231.838	95.62
232.072	82.62
232.306	81.62
232.541	82.62
232.775	80.62
233.009	68.62
233.243	77.62
233.477	68.62
233.711	80.62
233.945	66.62
234.179	74.62
234.413	76.62
234.647	78.62
234.881	71.62
235.115	81.62
235.349	72.62
235.583	84.62
235.817	97.62
236.051	81.62
236.285	80.62
236.519	80.62
236.753	80.62
236.987	83.62
237.221	81.62
237.455	73.62
237.689	76.62
237.922	77.62
238.156	65.62
238.39	72.62
238.624	72.62
238.858	70.62
239.091	68.62
239.325	76.62
239.559	91.62
239.793	72.62
240.027	77.62
240.26	69.62
240.494	79.62
240.728	70.62
240.961	69.62
241.195	75.62
241.429	78.62
241.662	90.62
241.896	73.62
242.13	74.62
242.363	71.62
242.597	77.62
242.83	78.62
243.064	73.62
243.298	88.62
243.531	74.62
243.765	78.62
243.998	87.62
244.232	86.62
244.465	70.62
244.699	79.62
244.932	82.62
245.166	80.62
245.399	83.62
245.633	76.62
245.866	71.62
246.099	80.62
246.333	68.62
246.566	69.62
246.8	67.62
247.033	79.62
247.266	71.62
247.5	74.62
247.733	71.62
247.966	92.62
248.2	79.62
248.433	72.62
248.666	86.62
248.899	82.62
249.133	86.62
249.366	103.62
249.599	76.62
249.832	87.62
250.066	73.62
250.299	75.62
250.532	82.62
250.765	82.62
250.998	66.62
251.231	71.62
251.465	71.62
251.698	75.62
251.931	80.62
252.164	82.62
252.397	81.62
252.63	78.62
252.863	83.62
253.096	77.62
253.329	70.62
253.562	74.62
253.795	79.62
254.028	97.62
254.261	88.62
254.494	89.62
254.727	87.62
254.96	90.62
255.193	82.62
255.426	78.62
255.659	93.62
255.892	82.62
256.124	85.62
256.357	80.62
256.59	77.62
256.823	80.62
257.056	81.62
257.289	79.62
257.521	79.62
257.754	70.62
257.987	85.62
258.22	71.62
258.452	82.62
258.685	79.62
258.918	79.62
259.151	77.62
259.383	81.62
259.616	106.62
259.849	78.62
260.081	83.62
260.314	71.62
260.547	82.62
260.779	78.62
261.012	84.62
261.244	79.62
261.477	86.62
261.71	85.62
261.942	111.62
262.175	100.62
262.407	98.62
262.64	81.62
262.872	91.62
263.105	78.62
263.337	82.62
263.57	76.62
263.802	93.62
264.035	86.62
264.267	88.62
264.499	87.62
264.732	80.62
264.964	95.62
265.197	86.62
265.429	83.62
265.661	77.62
265.894	80.62
266.126	88.62
266.358	79.62
266.591	77.62
266.823	79.62
267.055	70.62
267.287	88.62
267.52	85.62
267.752	71.62
267.984	84.62
268.216	67.62
268.448	80.62
268.681	100.62
268.913	86.62
269.145	78.62
269.377	77.62
269.609	78.62
269.841	89.62
270.073	87.62
270.306	95.62
270.538	77.62
270.77	93.62
271.002	88.62
271.234	95.62
271.466	74.62
271.698	85.62
271.93	88.62
272.162	76.62
272.394	92.62
272.626	76.62
272.858	82.62
273.09	80.62
273.322	75.62
273.553	88.62
273.785	84.62
274.017	92.62
274.249	92.62
274.481	92.62
274.713	76.62
274.945	87.62
275.176	78.62
275.408	81.62
275.64	97.62
275.872	75.62
276.104	91.62
276.335	76.62
276.567	113.62
276.799	103.62
277.031	104.62
277.262	76.62
277.494	86.62
277.726	87.62
277.957	88.62
278.189	89.62
278.421	79.62
278.652	85.62
278.884	78.62
279.115	88.62
279.347	78.62
279.579	85.62
279.81	86.62
280.042	87.62
280.273	89.62
280.505	90.62
280.736	80.62
280.968	93.62
281.199	85.62
281.431	79.62
281.662	84.62
281.894	82.62
282.125	106.62
282.356	115.62
282.588	125.62
282.819	107.62
283.051	87.62
283.282	83.62
283.513	84.62
283.745	89.62
283.976	90.62
284.207	86.62
284.439	81.62
284.67	106.62
284.901	79.62
285.132	81.62
285.364	85.62
285.595	74.62
285.826	80.62
286.057	92.62
286.288	83.62
286.52	88.62
286.751	85.62
286.982	104.62
287.213	84.62
287.444	69.62
287.675	92.62
287.906	96.62
288.138	89.62
288.369	95.62
288.6	92.62
288.831	87.62
289.062	97.62
289.293	103.62
289.524	79.62
289.755	83.62
289.986	77.62
290.217	83.62
290.448	78.62
290.679	87.62
290.91	91.62
291.141	68.62
291.371	80.62
291.602	95.62
291.833	89.62
292.064	98.62
292.295	100.62
292.526	102.62
292.757	94.62
292.987	95.62
293.218	77.62
293.449	79.62
293.68	72.62
293.91	79.62
294.141	84.62
294.372	99.62
294.603	97.62
294.833	90.62
295.064	92.62
295.295	98.62
295.525	103.62
295.756	99.62
295.987	111.62
296.217	125.62
296.448	122.62
296.679	83.62
296.909	96.62
297.14	86.62
297.37	71.62
297.601	92.62
297.831	90.62
298.062	91.62
298.292	80.62
298.523	98.62
298.753	94.62
298.984	86.62
299.214	83.62
299.445	90.62
299.675	99.62
299.905	103.62
300.136	87.62
300.366	98.62
300.597	95.62
300.827	93.62
301.057	103.62
301.288	87.62
301.518	94.62
301.748	86.62
301.979	107.62
302.209	93.62
302.439	86.62
302.669	108.62
302.9	97.62
303.13	80.62
303.36	96.62
303.59	96.62
303.82	102.62
304.051	96.62
304.281	87.62
304.511	105.62
304.741	70.62
304.971	75.62
305.201	89.62
305.431	96.62
305.661	89.62
305.891	84.62
306.121	92.62
306.352	96.62
306.582	97.62
306.812	92.62
307.042	100.62
307.272	84.62
307.502	93.62
307.731	83.62
307.961	94.62
308.191	93.62
308.421	88.62
308.651	79.62
308.881	101.62
309.111	87.62
309.341	91.62
309.571	100.62
309.8	96.62
310.03	102.62
310.26	79.62
310.49	85.62
310.72	93.62
310.949	97.62
311.179	99.62
311.409	91.62
311.639	99.62
311.868	90.62
312.098	99.62
312.328	103.62
312.557	93.62
312.787	97.62
313.017	90.62
313.246	93.62
313.476	88.62
313.706	81.62
313.935	93.62
314.165	98.62
314.394	94.62
314.624	97.62
314.853	99.62
315.083	101.62
315.312	91.62
315.542	85.62
315.771	91.62
316.001	106.62
316.23	87.62
316.46	93.62
316.689	82.62
316.919	86.62
317.148	79.62
317.377	85.62
317.607	86.62
317.836	87.62
318.065	78.62
318.295	93.62
318.524	87.62
318.753	103.62
318.983	96.62
319.212	99.62
319.441	99.62
319.67	109.62
319.9	97.62
320.129	91.62
320.358	99.62
320.587	110.62
320.816	79.62
321.046	99.62
321.275	98.62
321.504	103.62
321.733	93.62
321.962	98.62
322.191	95.62
322.42	109.62
322.649	95.62
322.878	113.62
323.108	116.62
323.337	129.62
323.566	111.62
323.795	152.62
324.024	189.62
324.253	383.62
324.482	800.62
324.71	1603.62
324.939	2110.62
325.168	753.62
325.397	231.62
325.626	149.62
325.855	120.62
326.084	138.62
326.313	126.62
326.542	156.62
326.77	226.62
326.999	455.62
327.228	935.62
327.457	1653.62
327.686	1306.62
327.914	358.62
328.143	179.62
328.372	126.62
328.6	117.62
328.829	97.62
329.058	123.62
329.287	120.62
329.515	123.62
329.744	88.62
329.972	93.62
330.201	102.62
330.43	107.62
330.658	118.62
330.887	129.62
331.115	103.62
331.344	97.62
331.572	102.62
331.801	97.62
332.03	100.62
332.258	102.62
332.486	88.62
332.715	88.62
332.943	90.62
333.172	92.62
333.4	96.62
333.629	96.62
333.857	105.62
334.085	103.62
334.314	98.62
334.542	95.62
334.771	83.62
334.999	83.62
335.227	97.62
335.455	85.62
335.684	92.62
335.912	104.62
336.14	105.62
336.369	94.62
336.597	102.62
336.825	75.62
337.053	91.62
337.281	88.62
337.51	93.62
337.738	103.62
337.966	92.62
338.194	91.62
338.422	84.62
338.65	89.62
338.878	89.62
339.106	87.62
339.334	82.62
339.562	88.62
339.79	98.62
340.018	88.62
340.246	91.62
340.474	93.62
340.702	89.62
340.93	97.62
341.158	78.62
341.386	97.62
341.614	86.62
341.842	106.62
342.07	72.62
342.298	78.62
342.526	96.62
342.754	83.62
342.981	86.62
343.209	86.62
343.437	89.62
343.665	88.62
343.893	97.62
344.12	90.62
344.348	96.62
344.576	99.62
344.804	92.62
345.031	98.62
345.259	94.62
345.487	82.62
345.714	85.62
345.942	97.62
346.17	87.62
346.397	95.62
346.625	91.62
346.853	92.62
347.08	95.62
347.308	90.62
347.535	94.62
347.763	102.62
347.99	95.62
348.218	110.62
348.445	97.62
348.673	96.62
348.9	90.62
349.128	101.62
349.355	87.62
349.583	90.62
349.81	92.62
350.037	85.62
350.265	101.62
350.492	85.62
350.72	98.62
350.947	99.62
351.174	112.62
351.402	117.62
351.629	91.62
351.856	106.62
352.083	91.62
352.311	128.62
352.538	107.62
352.765	101.62
352.992	113.62
353.22	125.62
353.447	106.62
353.674	91.62
353.901	97.62
354.128	90.62
354.355	91.62
354.583	95.62
354.81	97.62
355.037	91.62
355.264	96.62
355.491	94.62
355.718	92.62
355.945	97.62
356.172	82.62
356.399	84.62
356.626	95.62
356.853	103.62
357.08	86.62
357.307	95.62
357.534	87.62
357.761	83.62
357.988	95.62
358.215	105.62
358.441	85.62
358.668	84.62
358.895	95.62
359.122	79.62
359.349	85.62
359.576	85.62
359.802	99.62
360.029	124.62
360.256	119.62
360.483	86.62
360.709	81.62
360.936	87.62
361.163	100.62
361.39	103.62
361.616	84.62
361.843	88.62
362.07	101.62
362.296	95.62
362.523	101.62
362.749	90.62
362.976	97.62
363.203	70.62
363.429	96.62
363.656	104.62
363.882	84.62
364.109	91.62
364.335	94.62
364.562	81.62
364.788	92.62
365.015	82.62
365.241	95.62
365.468	106.62
365.694	94.62
365.92	95.62
366.147	100.62
366.373	86.62
366.599	91.62
366.826	91.62
367.052	83.62
367.278	82.62
367.505	83.62
367.731	78.62
367.957	106.62
368.184	94.62
368.41	98.62
368.636	100.62
368.862	112.62
369.089	88.62
369.315	86.62
369.541	90.62
369.767	87.62
369.993	85.62
370.219	99.62
370.445	92.62
370.672	92.62
370.898	87.62
371.124	103.62
371.35	87.62
371.576	90.62
371.802	78.62
372.028	77.62
372.254	85.62
372.48	96.62
372.706	85.62
372.932	87.62
373.158	85.62
373.384	79.62
373.61	87.62
373.835	107.62
374.061	94.62
374.287	82.62
374.513	90.62
374.739	74.62
374.965	78.62
375.191	96.62
375.416	83.62
375.642	90.62
375.868	79.62
376.094	79.62
376.319	88.62
376.545	81.62
376.771	92.62
376.997	76.62
377.222	87.62
377.448	87.62
377.674	94.62
377.899	88.62
378.125	91.62
378.35	86.62
378.576	99.62
378.802	102.62
379.027	83.62
379.253	93.62
379.478	96.62
379.704	89.62
379.929	71.62
380.155	90.62
380.38	86.62
380.606	88.62
380.831	93.62
381.057	96.62
381.282	92.62
381.507	95.62
381.733	105.62
381.958	81.62
382.184	91.62
382.409	111.62
382.634	106.62
382.86	103.62
383.085	93.62
383.31	97.62
383.535	101.62
383.761	100.62
383.986	98.62
384.211	99.62
384.436	94.62
384.662	89.62
384.887	106.62
385.112	109.62
385.337	88.62
385.562	101.62
385.787	98.62
386.013	100.62
386.238	103.62
386.463	112.62
386.688	124.62
386.913	101.62
387.138	107.62
387.363	103.62
387.588	102.62
387.813	108.62
388.038	101.62
388.263	102.62
388.488	106.62
388.713	95.62
388.938	93.62
389.163	106.62
389.387	94.62
389.612	93.62
389.837	89.62
390.062	85.62
390.287	89.62
390.512	84.62
390.736	100.62
390.961	78.62
391.186	87.62
391.411	83.62
391.636	95.62
391.86	85.62
392.085	90.62
392.31	88.62
392.534	98.62
392.759	82.62
392.984	85.62
393.208	88.62
393.433	83.62
393.658	83.62
393.882	77.62
394.107	81.62
394.331	79.62
394.556	90.62
394.78	97.62
395.005	80.62
395.229	96.62
395.454	79.62
395.678	69.62
395.903	86.62
396.127	75.62
396.352	95.62
396.576	80.62
396.801	77.62
397.025	88.62
397.249	82.62
397.474	86.62
397.698	85.62
397.922	79.62
398.147	83.62
398.371	76.62
398.595	94.62
398.82	91.62
399.044	76.62
399.268	94.62
399.492	88.62
399.717	69.62
399.941	83.62
400.165	100.62
400.389	96.62
400.613	78.62
400.837	79.62
401.062	79.62
401.286	85.62
401.51	91.62
401.734	98.62
401.958	90.62
402.182	118.62
402.406	140.62
402.63	118.62
402.854	96.62
403.078	79.62
403.302	81.62
403.526	70.62
403.75	84.62
403.974	73.62
404.198	67.62
404.422	81.62
404.645	85.62
404.869	92.62
405.093	85.62
405.317	101.62
405.541	90.62
405.765	83.62
405.988	107.62
406.212	157.62
406.436	203.62
406.66	130.62
406.883	102.62
407.107	90.62
407.331	85.62
407.555	98.62
407.778	94.62
408.002	85.62
408.226	91.62
408.449	95.62
408.673	87.62
408.896	90.62
409.12	106.62
409.344	95.62
409.567	104.62
409.791	95.62
410.014	97.62
410.238	87.62
410.461	95.62
410.685	102.62
410.908	91.62
411.132	111.62
411.355	100.62
411.578	87.62
411.802	87.62
412.025	86.62
412.249	100.62
412.472	87.62
412.695	94.62
412.919	83.62
413.142	80.62
413.365	81.62
413.589	92.62
413.812	87.62
414.035	96.62
414.258	92.62
414.482	85.62
414.705	97.62
414.928	95.62
415.151	94.62
415.374	81.62
415.597	77.62
415.821	93.62
416.044	80.62
416.267	95.62
416.49	78.62
416.713	86.62
416.936	78.62
417.159	83.62
417.382	83.62
417.605	97.62
417.828	101.62
418.051	102.62
418.274	93.62
418.497	81.62
418.72	75.62
418.943	98.62
419.166	96.62
419.389	95.62
419.611	82.62
419.834	89.62
420.057	83.62
420.28	90.62
420.503	79.62
420.726	88.62
420.948	99.62
421.171	86.62
421.394	101.62
421.617	100.62
421.839	95.62
422.062	84.62
422.285	88.62
422.507	104.62
422.73	99.62
422.953	92.62
423.175	89.62
423.398	87.62
423.621	101.62
423.843	90.62
424.066	94.62
424.288	90.62
424.511	91.62
424.733	103.62
424.956	95.62
425.178	90.62
425.401	80.62
425.623	93.62
425.846	86.62
426.068	81.62
426.291	87.62
426.513	98.62
426.735	91.62
426.958	83.62
427.18	111.62
427.402	135.62
427.625	157.62
427.847	132.62
428.069	104.62
428.292	83.62
428.514	82.62
428.736	66.62
428.958	77.62
429.181	82.62
429.403	86.62
429.625	86.62
429.847	89.62
430.069	94.62
430.292	74.62
430.514	80.62
430.736	99.62
430.958	91.62
431.18	91.62
431.402	93.62
431.624	104.62
431.846	94.62
432.068	86.62
432.29	84.62
432.512	84.62
432.734	85.62
432.956	86.62
433.178	93.62
433.4	96.62
433.622	97.62
433.844	82.62
434.066	88.62
434.287	84.62
434.509	93.62
434.731	100.62
434.953	101.62
435.175	107.62
435.397	94.62
435.618	97.62
435.84	100.62
436.062	103.62
436.284	114.62
436.505	100.62
436.727	103.62
436.949	109.62
437.17	94.62
437.392	82.62
437.614	86.62
437.835	118.62
438.057	109.62
438.278	98.62
438.5	113.62
438.721	125.62
438.943	100.62
439.165	80.62
439.386	79.62
439.608	82.62
439.829	99.62
440.05	102.62
440.272	139.62
440.493	92.62
440.715	94.62
440.936	79.62
441.158	78.62
441.379	87.62
441.6	99.62
441.822	92.62
442.043	90.62
442.264	96.62
442.486	84.62
442.707	80.62
442.928	99.62
443.149	115.62
443.371	119.62
443.592	91.62
443.813	106.62
444.034	107.62
444.255	89.62
444.476	76.62
444.698	83.62
444.919	88.62
445.14	142.62
445.361	109.62
445.582	92.62
445.803	138.62
446.024	143.62
446.245	126.62
446.466	98.62
446.687	86.62
446.908	81.62
447.129	83.62
447.35	77.62
447.571	101.62
447.792	100.62
448.013	90.62
448.234	114.62
448.455	101.62
448.675	103.62
448.896	113.62
449.117	106.62
449.338	96.62
449.559	116.62
449.779	122.62
450	110.62
450.221	87.62
450.442	84.62
450.662	103.62
450.883	98.62
451.104	103.62
451.324	104.62
451.545	82.62
451.766	93.62
451.986	72.62
452.207	95.62
452.428	79.62
452.648	94.62
452.869	111.62
453.089	106.62
453.31	98.62
453.53	79.62
453.751	82.62
453.971	102.62
454.192	92.62
454.412	94.62
454.633	85.62
454.853	83.62
455.073	86.62
455.294	90.62
455.514	87.62
455.734	88.62
455.955	91.62
456.175	97.62
456.395	93.62
456.616	80.62
456.836	88.62
457.056	88.62
457.276	90.62
457.497	76.62
457.717	97.62
457.937	92.62
458.157	87.62
458.377	88.62
458.598	99.62
458.818	131.62
459.038	154.62
459.258	107.62
459.478	81.62
459.698	78.62
459.918	76.62
460.138	71.62
460.358	78.62
460.578	87.62
460.798	66.62
461.018	83.62
461.238	94.62
461.458	86.62
461.678	82.62
461.898	76.62
462.118	77.62
462.338	74.62
462.558	75.62
462.777	86.62
462.997	91.62
463.217	88.62
463.437	81.62
463.657	81.62
463.876	85.62
464.096	87.62
464.316	92.62
464.536	91.62
464.755	94.62
464.975	98.62
465.195	146.62
465.414	132.62
465.634	91.62
465.854	90.62
466.073	88.62
466.293	80.62
466.512	75.62
466.732	101.62
466.951	69.62
467.171	88.62
467.391	87.62
467.61	87.62
467.829	87.62
468.049	102.62
468.268	82.62
468.488	97.62
468.707	81.62
468.927	77.62
469.146	95.62
469.365	93.62
469.585	86.62
469.804	93.62
470.023	101.62
470.243	87.62
470.462	93.62
470.681	106.62
470.901	89.62
471.12	83.62
471.339	74.62
471.558	81.62
471.777	85.62
471.997	87.62
472.216	87.62
472.435	75.62
472.654	84.62
472.873	89.62
473.092	92.62
473.311	98.62
473.53	80.62
473.749	85.62
473.968	98.62
474.187	97.62
474.406	91.62
474.625	94.62
474.844	90.62
475.063	103.62
475.282	83.62
475.501	93.62
475.72	99.62
475.939	87.62
476.158	86.62
476.377	82.62
476.596	84.62
476.814	94.62
477.033	88.62
477.252	93.62
477.471	84.62
477.69	88.62
477.908	72.62
478.127	86.62
478.346	90.62
478.564	74.62
478.783	87.62
479.002	78.62
479.22	87.62
479.439	95.62
479.658	84.62
479.876	93.62
480.095	88.62
480.313	94.62
480.532	86.62
480.751	97.62
480.969	98.62
481.188	82.62
481.406	101.62
481.624	92.62
481.843	92.62
482.061	102.62
482.28	90.62
482.498	88.62
482.717	106.62
482.935	86.62
483.153	82.62
483.372	87.62
483.59	79.62
483.808	90.62
484.027	87.62
484.245	87.62
484.463	100.62
484.681	91.62
484.9	82.62
485.118	86.62
485.336	82.62
485.554	94.62
485.772	102.62
485.99	97.62
486.209	102.62
486.427	91.62
486.645	100.62
486.863	116.62
487.081	115.62
487.299	94.62
487.517	85.62
487.735	85.62
487.953	91.62
488.171	93.62
488.389	97.62
488.607	100.62
488.825	98.62
489.043	82.62
489.261	100.62
489.479	94.62
489.696	93.62
489.914	96.62
490.132	91.62
490.35	91.62
490.568	80.62
490.786	107.62
491.003	87.62
491.221	88.62
491.439	103.62
491.657	92.62
491.874	99.62
492.092	88.62
492.31	87.62
492.527	76.62
492.745	85.62
492.963	85.62
493.18	92.62
493.398	84.62
493.615	90.62
493.833	81.62
494.05	109.62
494.268	88.62
494.485	86.62
494.703	91.62
494.92	95.62
495.138	77.62
495.355	83.62
495.573	87.62
495.79	86.62
496.008	97.62
496.225	88.62
496.442	84.62
496.66	94.62
496.877	108.62
497.094	98.62
497.312	93.62
497.529	94.62
497.746	83.62
497.963	83.62
498.181	102.62
498.398	96.62
498.615	92.62
498.832	102.62
499.049	94.62
499.267	73.62
499.484	95.62
499.701	91.62
499.918	98.62
500.135	91.62
500.352	92.62
500.569	87.62
500.786	88.62
501.003	86.62
501.22	94.62
501.437	94.62
501.654	107.62
501.871	113.62
502.088	92.62
502.305	87.62
502.522	72.62
502.739	77.62
502.956	101.62
503.172	76.62
503.389	96.62
503.606	101.62
503.823	96.62
504.04	86.62
504.256	79.62
504.473	88.62
504.69	98.62
504.907	92.62
505.123	77.62
505.34	69.62
505.557	98.62
505.773	88.62
505.99	97.62
506.207	89.62
506.423	87.62
506.64	94.62
506.856	92.62
507.073	93.62
507.289	88.62
507.506	100.62
507.722	112.62
507.939	98.62
508.155	86.62
508.372	79.62
508.588	109.62
508.805	98.62
509.021	86.62
509.238	104.62
509.454	96.62
509.67	103.62
509.887	120.62
510.103	123.62
510.319	194.62
510.536	659.62
510.752	2014.62
510.968	566.62
511.184	141.62
511.401	115.62
511.617	86.62
511.833	84.62
512.049	93.62
512.265	84.62
512.481	81.62
512.698	90.62
512.914	72.62
513.13	90.62
513.346	80.62
513.562	102.62
513.778	96.62
513.994	109.62
514.21	91.62
514.426	92.62
514.642	126.62
514.858	128.62
515.074	159.62
515.29	389.62
515.506	1226.62
515.721	448.62
515.937	151.62
516.153	92.62
516.369	103.62
