Data from Uncirc_2005_H10_HRD10591_00088.txt Node
Date: Wed Jan 03 10:28:42 EST 2024
User: Yrep
Spectrometer: HR+D1059
Trigger mode: 1
Integration Time (sec): 1.000000E-1
Scans to average: 1
Electric dark correction enabled: true
Nonlinearity correction enabled: false
Boxcar width: 0
XAxis mode: Wavelengths
Number of Pixels in Spectrum: 2048
>>>>>Begin Spectral Data<<<<<
223.165	-16.81
223.4	-16.81
223.635	-16.81
223.869	-16.81
224.104	-15.81
224.338	-13.81
224.573	-15.81
224.808	-11.81
225.042	-3.81
225.277	-2.81
225.511	-3.81
225.746	-1.81
225.98	16.19
226.215	8.19
226.449	23.19
226.683	12.19
226.918	28.19
227.152	15.19
227.387	39.19
227.621	56.19
227.856	46.19
228.09	40.19
228.324	44.19
228.559	69.19
228.793	77.19
229.027	71.19
229.262	73.19
229.496	57.19
229.73	86.19
229.964	78.19
230.199	81.19
230.433	72.19
230.667	90.19
230.901	69.19
231.136	69.19
231.37	82.19
231.604	84.19
231.838	71.19
232.072	91.19
232.306	83.19
232.541	78.19
232.775	95.19
233.009	87.19
233.243	85.19
233.477	81.19
233.711	85.19
233.945	83.19
234.179	70.19
234.413	88.19
234.647	94.19
234.881	76.19
235.115	68.19
235.349	71.19
235.583	87.19
235.817	78.19
236.051	94.19
236.285	72.19
236.519	88.19
236.753	67.19
236.987	86.19
237.221	101.19
237.455	93.19
237.689	77.19
237.922	68.19
238.156	81.19
238.39	74.19
238.624	78.19
238.858	74.19
239.091	72.19
239.325	79.19
239.559	76.19
239.793	70.19
240.027	67.19
240.26	72.19
240.494	77.19
240.728	88.19
240.961	69.19
241.195	81.19
241.429	72.19
241.662	65.19
241.896	79.19
242.13	75.19
242.363	64.19
242.597	72.19
242.83	82.19
243.064	76.19
243.298	77.19
243.531	84.19
243.765	61.19
243.998	78.19
244.232	90.19
244.465	85.19
244.699	85.19
244.932	83.19
245.166	77.19
245.399	78.19
245.633	75.19
245.866	71.19
246.099	81.19
246.333	76.19
246.566	73.19
246.8	74.19
247.033	79.19
247.266	82.19
247.5	85.19
247.733	92.19
247.966	85.19
248.2	83.19
248.433	90.19
248.666	69.19
248.899	73.19
249.133	105.19
249.366	103.19
249.599	99.19
249.832	80.19
250.066	79.19
250.299	65.19
250.532	86.19
250.765	85.19
250.998	69.19
251.231	65.19
251.465	87.19
251.698	84.19
251.931	85.19
252.164	78.19
252.397	81.19
252.63	76.19
252.863	78.19
253.096	88.19
253.329	72.19
253.562	84.19
253.795	88.19
254.028	87.19
254.261	82.19
254.494	75.19
254.727	79.19
254.96	80.19
255.193	89.19
255.426	88.19
255.659	86.19
255.892	70.19
256.124	76.19
256.357	84.19
256.59	74.19
256.823	91.19
257.056	89.19
257.289	73.19
257.521	83.19
257.754	73.19
257.987	80.19
258.22	88.19
258.452	85.19
258.685	101.19
258.918	76.19
259.151	85.19
259.383	87.19
259.616	77.19
259.849	73.19
260.081	80.19
260.314	79.19
260.547	88.19
260.779	80.19
261.012	84.19
261.244	77.19
261.477	75.19
261.71	99.19
261.942	123.19
262.175	123.19
262.407	105.19
262.64	88.19
262.872	91.19
263.105	95.19
263.337	89.19
263.57	77.19
263.802	72.19
264.035	73.19
264.267	74.19
264.499	90.19
264.732	86.19
264.964	79.19
265.197	75.19
265.429	77.19
265.661	90.19
265.894	71.19
266.126	84.19
266.358	95.19
266.591	90.19
266.823	80.19
267.055	86.19
267.287	91.19
267.52	88.19
267.752	88.19
267.984	78.19
268.216	85.19
268.448	84.19
268.681	92.19
268.913	82.19
269.145	90.19
269.377	94.19
269.609	93.19
269.841	84.19
270.073	65.19
270.306	68.19
270.538	94.19
270.77	72.19
271.002	91.19
271.234	95.19
271.466	92.19
271.698	86.19
271.93	82.19
272.162	88.19
272.394	100.19
272.626	84.19
272.858	87.19
273.09	89.19
273.322	82.19
273.553	69.19
273.785	56.19
274.017	89.19
274.249	78.19
274.481	91.19
274.713	91.19
274.945	70.19
275.176	85.19
275.408	87.19
275.64	84.19
275.872	71.19
276.104	83.19
276.335	89.19
276.567	108.19
276.799	93.19
277.031	101.19
277.262	84.19
277.494	83.19
277.726	84.19
277.957	92.19
278.189	86.19
278.421	96.19
278.652	88.19
278.884	70.19
279.115	83.19
279.347	88.19
279.579	80.19
279.81	89.19
280.042	88.19
280.273	87.19
280.505	90.19
280.736	83.19
280.968	105.19
281.199	76.19
281.431	93.19
281.662	100.19
281.894	102.19
282.125	82.19
282.356	105.19
282.588	155.19
282.819	96.19
283.051	69.19
283.282	73.19
283.513	104.19
283.745	73.19
283.976	85.19
284.207	89.19
284.439	88.19
284.67	98.19
284.901	78.19
285.132	102.19
285.364	90.19
285.595	93.19
285.826	87.19
286.057	92.19
286.288	75.19
286.52	80.19
286.751	96.19
286.982	102.19
287.213	93.19
287.444	92.19
287.675	84.19
287.906	88.19
288.138	96.19
288.369	89.19
288.6	97.19
288.831	102.19
289.062	80.19
289.293	75.19
289.524	87.19
289.755	92.19
289.986	92.19
290.217	89.19
290.448	81.19
290.679	89.19
290.91	89.19
291.141	96.19
291.371	88.19
291.602	97.19
291.833	88.19
292.064	96.19
292.295	87.19
292.526	90.19
292.757	85.19
292.987	81.19
293.218	89.19
293.449	84.19
293.68	85.19
293.91	98.19
294.141	91.19
294.372	89.19
294.603	95.19
294.833	84.19
295.064	88.19
295.295	94.19
295.525	95.19
295.756	74.19
295.987	106.19
296.217	142.19
296.448	112.19
296.679	99.19
296.909	87.19
297.14	94.19
297.37	91.19
297.601	95.19
297.831	88.19
298.062	88.19
298.292	92.19
298.523	89.19
298.753	87.19
298.984	101.19
299.214	75.19
299.445	89.19
299.675	97.19
299.905	81.19
300.136	95.19
300.366	95.19
300.597	97.19
300.827	86.19
301.057	101.19
301.288	109.19
301.518	99.19
301.748	94.19
301.979	103.19
302.209	83.19
302.439	98.19
302.669	82.19
302.9	96.19
303.13	86.19
303.36	93.19
303.59	92.19
303.82	110.19
304.051	88.19
304.281	102.19
304.511	86.19
304.741	98.19
304.971	80.19
305.201	89.19
305.431	97.19
305.661	105.19
305.891	97.19
306.121	94.19
306.352	102.19
306.582	106.19
306.812	101.19
307.042	90.19
307.272	93.19
307.502	86.19
307.731	101.19
307.961	89.19
308.191	86.19
308.421	88.19
308.651	94.19
308.881	109.19
309.111	82.19
309.341	90.19
309.571	91.19
309.8	90.19
310.03	101.19
310.26	107.19
310.49	94.19
310.72	107.19
310.949	99.19
311.179	122.19
311.409	105.19
311.639	101.19
311.868	94.19
312.098	92.19
312.328	98.19
312.557	98.19
312.787	120.19
313.017	111.19
313.246	97.19
313.476	85.19
313.706	99.19
313.935	96.19
314.165	93.19
314.394	96.19
314.624	78.19
314.853	104.19
315.083	99.19
315.312	95.19
315.542	79.19
315.771	87.19
316.001	84.19
316.23	96.19
316.46	84.19
316.689	78.19
316.919	87.19
317.148	105.19
317.377	90.19
317.607	90.19
317.836	84.19
318.065	94.19
318.295	110.19
318.524	87.19
318.753	99.19
318.983	105.19
319.212	98.19
319.441	99.19
319.67	117.19
319.9	94.19
320.129	101.19
320.358	91.19
320.587	98.19
320.816	98.19
321.046	112.19
321.275	101.19
321.504	88.19
321.733	92.19
321.962	100.19
322.191	101.19
322.42	104.19
322.649	91.19
322.878	114.19
323.108	116.19
323.337	129.19
323.566	131.19
323.795	151.19
324.024	207.19
324.253	402.19
324.482	831.19
324.71	1776.19
324.939	2363.19
325.168	860.19
325.397	258.19
325.626	158.19
325.855	133.19
326.084	135.19
326.313	133.19
326.542	175.19
326.77	257.19
326.999	495.19
327.228	972.19
327.457	1827.19
327.686	1439.19
327.914	369.19
328.143	201.19
328.372	136.19
328.6	116.19
328.829	124.19
329.058	126.19
329.287	128.19
329.515	111.19
329.744	101.19
329.972	100.19
330.201	101.19
330.43	109.19
330.658	116.19
330.887	136.19
331.115	113.19
331.344	94.19
331.572	94.19
331.801	95.19
332.03	99.19
332.258	97.19
332.486	100.19
332.715	86.19
332.943	78.19
333.172	96.19
333.4	91.19
333.629	112.19
333.857	102.19
334.085	114.19
334.314	103.19
334.542	89.19
334.771	117.19
334.999	108.19
335.227	99.19
335.455	90.19
335.684	86.19
335.912	105.19
336.14	81.19
336.369	94.19
336.597	108.19
336.825	97.19
337.053	97.19
337.281	89.19
337.51	94.19
337.738	91.19
337.966	88.19
338.194	92.19
338.422	96.19
338.65	101.19
338.878	94.19
339.106	78.19
339.334	94.19
339.562	102.19
339.79	83.19
340.018	83.19
340.246	94.19
340.474	89.19
340.702	107.19
340.93	93.19
341.158	85.19
341.386	79.19
341.614	81.19
341.842	78.19
342.07	93.19
342.298	95.19
342.526	103.19
342.754	84.19
342.981	86.19
343.209	87.19
343.437	88.19
343.665	85.19
343.893	77.19
344.12	97.19
344.348	88.19
344.576	98.19
344.804	91.19
345.031	101.19
345.259	98.19
345.487	96.19
345.714	99.19
345.942	93.19
346.17	94.19
346.397	101.19
346.625	103.19
346.853	93.19
347.08	93.19
347.308	88.19
347.535	96.19
347.763	110.19
347.99	105.19
348.218	102.19
348.445	100.19
348.673	110.19
348.9	85.19
349.128	105.19
349.355	87.19
349.583	82.19
349.81	89.19
350.037	98.19
350.265	98.19
350.492	105.19
350.72	101.19
350.947	103.19
351.174	108.19
351.402	114.19
351.629	96.19
351.856	96.19
352.083	103.19
352.311	111.19
352.538	105.19
352.765	115.19
352.992	103.19
353.22	114.19
353.447	99.19
353.674	105.19
353.901	94.19
354.128	80.19
354.355	88.19
354.583	88.19
354.81	92.19
355.037	103.19
355.264	84.19
355.491	92.19
355.718	100.19
355.945	96.19
356.172	92.19
356.399	87.19
356.626	88.19
356.853	104.19
357.08	111.19
357.307	81.19
357.534	95.19
357.761	104.19
357.988	100.19
358.215	98.19
358.441	96.19
358.668	99.19
358.895	92.19
359.122	101.19
359.349	87.19
359.576	92.19
359.802	107.19
360.029	110.19
360.256	112.19
360.483	112.19
360.709	85.19
360.936	79.19
361.163	88.19
361.39	93.19
361.616	100.19
361.843	93.19
362.07	101.19
362.296	97.19
362.523	94.19
362.749	84.19
362.976	96.19
363.203	87.19
363.429	101.19
363.656	92.19
363.882	79.19
364.109	105.19
364.335	109.19
364.562	95.19
364.788	98.19
365.015	99.19
365.241	102.19
365.468	109.19
365.694	113.19
365.92	98.19
366.147	85.19
366.373	95.19
366.599	88.19
366.826	79.19
367.052	75.19
367.278	81.19
367.505	96.19
367.731	107.19
367.957	95.19
368.184	77.19
368.41	91.19
368.636	114.19
368.862	107.19
369.089	95.19
369.315	100.19
369.541	89.19
369.767	91.19
369.993	96.19
370.219	95.19
370.445	97.19
370.672	89.19
370.898	89.19
371.124	87.19
371.35	68.19
371.576	87.19
371.802	87.19
372.028	82.19
372.254	96.19
372.48	91.19
372.706	81.19
372.932	75.19
373.158	89.19
373.384	101.19
373.61	112.19
373.835	87.19
374.061	111.19
374.287	83.19
374.513	84.19
374.739	84.19
374.965	105.19
375.191	92.19
375.416	104.19
375.642	97.19
375.868	104.19
376.094	85.19
376.319	96.19
376.545	107.19
376.771	84.19
376.997	97.19
377.222	87.19
377.448	85.19
377.674	87.19
377.899	101.19
378.125	92.19
378.35	102.19
378.576	85.19
378.802	91.19
379.027	88.19
379.253	89.19
379.478	92.19
379.704	88.19
379.929	97.19
380.155	104.19
380.38	90.19
380.606	93.19
380.831	92.19
381.057	103.19
381.282	96.19
381.507	99.19
381.733	83.19
381.958	100.19
382.184	97.19
382.409	89.19
382.634	96.19
382.86	115.19
383.085	108.19
383.31	108.19
383.535	87.19
383.761	103.19
383.986	104.19
384.211	88.19
384.436	99.19
384.662	94.19
384.887	100.19
385.112	89.19
385.337	105.19
385.562	104.19
385.787	94.19
386.013	112.19
386.238	106.19
386.463	103.19
386.688	101.19
386.913	99.19
387.138	103.19
387.363	87.19
387.588	95.19
387.813	93.19
388.038	113.19
388.263	99.19
388.488	100.19
388.713	93.19
388.938	107.19
389.163	111.19
389.387	81.19
389.612	95.19
389.837	88.19
390.062	93.19
390.287	90.19
390.512	81.19
390.736	96.19
390.961	95.19
391.186	97.19
391.411	86.19
391.636	80.19
391.86	73.19
392.085	107.19
392.31	88.19
392.534	77.19
392.759	84.19
392.984	93.19
393.208	86.19
393.433	88.19
393.658	81.19
393.882	83.19
394.107	72.19
394.331	93.19
394.556	98.19
394.78	93.19
395.005	102.19
395.229	83.19
395.454	88.19
395.678	99.19
395.903	82.19
396.127	79.19
396.352	73.19
396.576	83.19
396.801	92.19
397.025	89.19
397.249	86.19
397.474	89.19
397.698	75.19
397.922	82.19
398.147	63.19
398.371	90.19
398.595	92.19
398.82	85.19
399.044	97.19
399.268	86.19
399.492	76.19
399.717	77.19
399.941	72.19
400.165	97.19
400.389	80.19
400.613	79.19
400.837	84.19
401.062	98.19
401.286	98.19
401.51	92.19
401.734	88.19
401.958	98.19
402.182	120.19
402.406	173.19
402.63	111.19
402.854	97.19
403.078	83.19
403.302	85.19
403.526	97.19
403.75	84.19
403.974	90.19
404.198	86.19
404.422	79.19
404.645	80.19
404.869	87.19
405.093	88.19
405.317	101.19
405.541	103.19
405.765	102.19
405.988	111.19
406.212	148.19
406.436	204.19
406.66	148.19
406.883	98.19
407.107	83.19
407.331	94.19
407.555	102.19
407.778	71.19
408.002	92.19
408.226	93.19
408.449	96.19
408.673	83.19
408.896	106.19
409.12	102.19
409.344	91.19
409.567	75.19
409.791	95.19
410.014	92.19
410.238	89.19
410.461	98.19
410.685	84.19
410.908	107.19
411.132	93.19
411.355	101.19
411.578	88.19
411.802	84.19
412.025	80.19
412.249	97.19
412.472	89.19
412.695	102.19
412.919	83.19
413.142	93.19
413.365	73.19
413.589	98.19
413.812	80.19
414.035	79.19
414.258	85.19
414.482	92.19
414.705	103.19
414.928	102.19
415.151	86.19
415.374	88.19
415.597	92.19
415.821	86.19
416.044	92.19
416.267	109.19
416.49	95.19
416.713	99.19
416.936	98.19
417.159	82.19
417.382	85.19
417.605	82.19
417.828	94.19
418.051	80.19
418.274	103.19
418.497	87.19
418.72	84.19
418.943	101.19
419.166	93.19
419.389	85.19
419.611	94.19
419.834	91.19
420.057	85.19
420.28	99.19
420.503	104.19
420.726	85.19
420.948	90.19
421.171	95.19
421.394	99.19
421.617	89.19
421.839	80.19
422.062	98.19
422.285	89.19
422.507	102.19
422.73	103.19
422.953	88.19
423.175	86.19
423.398	92.19
423.621	88.19
423.843	96.19
424.066	92.19
424.288	78.19
424.511	95.19
424.733	90.19
424.956	118.19
425.178	108.19
425.401	108.19
425.623	100.19
425.846	92.19
426.068	100.19
426.291	89.19
426.513	80.19
426.735	89.19
426.958	94.19
427.18	95.19
427.402	143.19
427.625	162.19
427.847	119.19
428.069	110.19
428.292	99.19
428.514	101.19
428.736	87.19
428.958	79.19
429.181	78.19
429.403	79.19
429.625	87.19
429.847	74.19
430.069	109.19
430.292	104.19
430.514	76.19
430.736	88.19
430.958	85.19
431.18	84.19
431.402	95.19
431.624	79.19
431.846	76.19
432.068	92.19
432.29	101.19
432.512	96.19
432.734	92.19
432.956	92.19
433.178	96.19
433.4	97.19
433.622	85.19
433.844	102.19
434.066	95.19
434.287	109.19
434.509	95.19
434.731	79.19
434.953	92.19
435.175	90.19
435.397	92.19
435.618	83.19
435.84	95.19
436.062	132.19
436.284	118.19
436.505	102.19
436.727	98.19
436.949	87.19
437.17	87.19
437.392	88.19
437.614	93.19
437.835	107.19
438.057	112.19
438.278	111.19
438.5	108.19
438.721	139.19
438.943	101.19
439.165	81.19
439.386	98.19
439.608	97.19
439.829	102.19
440.05	124.19
440.272	143.19
440.493	102.19
440.715	90.19
440.936	76.19
441.158	100.19
441.379	83.19
441.6	84.19
441.822	108.19
442.043	115.19
442.264	101.19
442.486	103.19
442.707	104.19
442.928	97.19
443.149	120.19
443.371	132.19
443.592	126.19
443.813	110.19
444.034	108.19
444.255	91.19
444.476	94.19
444.698	97.19
444.919	85.19
445.14	119.19
445.361	134.19
445.582	110.19
445.803	129.19
446.024	139.19
446.245	128.19
446.466	119.19
446.687	98.19
446.908	87.19
447.129	77.19
447.35	73.19
447.571	84.19
447.792	86.19
448.013	95.19
448.234	97.19
448.455	105.19
448.675	98.19
448.896	125.19
449.117	94.19
449.338	112.19
449.559	139.19
449.779	139.19
450	99.19
450.221	88.19
450.442	79.19
450.662	101.19
450.883	111.19
451.104	104.19
451.324	91.19
451.545	89.19
451.766	81.19
451.986	98.19
452.207	79.19
452.428	92.19
452.648	105.19
452.869	107.19
453.089	113.19
453.31	117.19
453.53	80.19
453.751	107.19
453.971	98.19
454.192	111.19
454.412	105.19
454.633	86.19
454.853	95.19
455.073	88.19
455.294	89.19
455.514	113.19
455.734	96.19
455.955	81.19
456.175	69.19
456.395	79.19
456.616	72.19
456.836	81.19
457.056	88.19
457.276	77.19
457.497	100.19
457.717	85.19
457.937	79.19
458.157	91.19
458.377	89.19
458.598	99.19
458.818	150.19
459.038	154.19
459.258	120.19
459.478	99.19
459.698	109.19
459.918	89.19
460.138	89.19
460.358	79.19
460.578	99.19
460.798	92.19
461.018	98.19
461.238	97.19
461.458	89.19
461.678	92.19
461.898	85.19
462.118	79.19
462.338	79.19
462.558	93.19
462.777	80.19
462.997	99.19
463.217	74.19
463.437	87.19
463.657	85.19
463.876	71.19
464.096	98.19
464.316	81.19
464.536	99.19
464.755	95.19
464.975	113.19
465.195	156.19
465.414	165.19
465.634	95.19
465.854	87.19
466.073	79.19
466.293	92.19
466.512	89.19
466.732	89.19
466.951	84.19
467.171	95.19
467.391	91.19
467.61	91.19
467.829	100.19
468.049	102.19
468.268	78.19
468.488	100.19
468.707	95.19
468.927	77.19
469.146	87.19
469.365	95.19
469.585	91.19
469.804	94.19
470.023	94.19
470.243	79.19
470.462	86.19
470.681	118.19
470.901	89.19
471.12	89.19
471.339	81.19
471.558	93.19
471.777	87.19
471.997	75.19
472.216	88.19
472.435	91.19
472.654	84.19
472.873	79.19
473.092	93.19
473.311	89.19
473.53	91.19
473.749	99.19
473.968	103.19
474.187	94.19
474.406	95.19
474.625	88.19
474.844	91.19
475.063	89.19
475.282	105.19
475.501	89.19
475.72	101.19
475.939	89.19
476.158	88.19
476.377	86.19
476.596	75.19
476.814	91.19
477.033	99.19
477.252	87.19
477.471	95.19
477.69	96.19
477.908	86.19
478.127	93.19
478.346	92.19
478.564	99.19
478.783	107.19
479.002	88.19
479.22	96.19
479.439	104.19
479.658	96.19
479.876	97.19
480.095	101.19
480.313	89.19
480.532	97.19
480.751	82.19
480.969	84.19
481.188	99.19
481.406	89.19
481.624	94.19
481.843	91.19
482.061	101.19
482.28	77.19
482.498	87.19
482.717	81.19
482.935	89.19
483.153	96.19
483.372	96.19
483.59	81.19
483.808	81.19
484.027	92.19
484.245	99.19
484.463	95.19
484.681	103.19
484.9	84.19
485.118	98.19
485.336	94.19
485.554	118.19
485.772	98.19
485.99	91.19
486.209	81.19
486.427	101.19
486.645	107.19
486.863	114.19
487.081	95.19
487.299	97.19
487.517	104.19
487.735	95.19
487.953	98.19
488.171	100.19
488.389	104.19
488.607	102.19
488.825	95.19
489.043	82.19
489.261	81.19
489.479	108.19
489.696	108.19
489.914	96.19
490.132	89.19
490.35	98.19
490.568	91.19
490.786	91.19
491.003	96.19
491.221	92.19
491.439	94.19
491.657	84.19
491.874	85.19
492.092	83.19
492.31	81.19
492.527	90.19
492.745	83.19
492.963	95.19
493.18	94.19
493.398	95.19
493.615	92.19
493.833	101.19
494.05	105.19
494.268	105.19
494.485	94.19
494.703	81.19
494.92	97.19
495.138	92.19
495.355	87.19
495.573	75.19
495.79	86.19
496.008	97.19
496.225	97.19
496.442	100.19
496.66	86.19
496.877	100.19
497.094	103.19
497.312	107.19
497.529	89.19
497.746	91.19
497.963	105.19
498.181	86.19
498.398	91.19
498.615	111.19
498.832	101.19
499.049	104.19
499.267	95.19
499.484	101.19
499.701	93.19
499.918	100.19
500.135	90.19
500.352	108.19
500.569	89.19
500.786	93.19
501.003	85.19
501.22	79.19
501.437	90.19
501.654	99.19
501.871	102.19
502.088	89.19
502.305	89.19
502.522	93.19
502.739	88.19
502.956	99.19
503.172	85.19
503.389	102.19
503.606	104.19
503.823	93.19
504.04	88.19
504.256	92.19
504.473	91.19
504.69	96.19
504.907	88.19
505.123	84.19
505.34	76.19
505.557	91.19
505.773	85.19
505.99	101.19
506.207	92.19
506.423	93.19
506.64	93.19
506.856	89.19
507.073	102.19
507.289	101.19
507.506	95.19
507.722	105.19
507.939	113.19
508.155	105.19
508.372	87.19
508.588	97.19
508.805	81.19
509.021	87.19
509.238	104.19
509.454	92.19
509.67	102.19
509.887	102.19
510.103	117.19
510.319	209.19
510.536	719.19
510.752	2240.19
510.968	622.19
511.184	159.19
511.401	118.19
511.617	102.19
511.833	111.19
512.049	94.19
512.265	90.19
512.481	92.19
512.698	100.19
512.914	96.19
513.13	95.19
513.346	100.19
513.562	87.19
513.778	91.19
513.994	101.19
514.21	88.19
514.426	112.19
514.642	118.19
514.858	117.19
515.074	165.19
515.29	454.19
