Data from Uncirc_2005_H10_HRD10591_00077.txt Node
Date: Wed Jan 03 10:28:40 EST 2024
User: Yrep
Spectrometer: HR+D1059
Trigger mode: 1
Integration Time (sec): 1.000000E-1
Scans to average: 1
Electric dark correction enabled: true
Nonlinearity correction enabled: false
Boxcar width: 0
XAxis mode: Wavelengths
Number of Pixels in Spectrum: 2048
>>>>>Begin Spectral Data<<<<<
223.165	-12.94
223.4	-12.94
223.635	-12.94
223.869	-10.94
224.104	-23.94
224.338	-5.94
224.573	-18.94
224.808	-6.94
225.042	6.06
225.277	-7.94
225.511	0.06
225.746	-4.94
225.98	7.06
226.215	10.06
226.449	15.06
226.683	16.06
226.918	15.06
227.152	23.06
227.387	42.06
227.621	32.06
227.856	58.06
228.09	43.06
228.324	56.06
228.559	64.06
228.793	62.06
229.027	62.06
229.262	69.06
229.496	79.06
229.73	84.06
229.964	75.06
230.199	66.06
230.433	55.06
230.667	83.06
230.901	84.06
231.136	59.06
231.37	75.06
231.604	82.06
231.838	72.06
232.072	83.06
232.306	66.06
232.541	71.06
232.775	94.06
233.009	90.06
233.243	80.06
233.477	83.06
233.711	88.06
233.945	74.06
234.179	78.06
234.413	76.06
234.647	95.06
234.881	79.06
235.115	83.06
235.349	76.06
235.583	70.06
235.817	76.06
236.051	81.06
236.285	85.06
236.519	77.06
236.753	75.06
236.987	83.06
237.221	67.06
237.455	82.06
237.689	67.06
237.922	53.06
238.156	66.06
238.39	60.06
238.624	66.06
238.858	70.06
239.091	61.06
239.325	79.06
239.559	75.06
239.793	80.06
240.027	69.06
240.26	82.06
240.494	74.06
240.728	67.06
240.961	73.06
241.195	69.06
241.429	70.06
241.662	79.06
241.896	74.06
242.13	85.06
242.363	63.06
242.597	83.06
242.83	89.06
243.064	89.06
243.298	78.06
243.531	79.06
243.765	78.06
243.998	66.06
244.232	79.06
244.465	88.06
244.699	76.06
244.932	71.06
245.166	85.06
245.399	84.06
245.633	53.06
245.866	76.06
246.099	88.06
246.333	93.06
246.566	77.06
246.8	69.06
247.033	78.06
247.266	77.06
247.5	78.06
247.733	84.06
247.966	76.06
248.2	74.06
248.433	61.06
248.666	62.06
248.899	74.06
249.133	84.06
249.366	99.06
249.599	94.06
249.832	87.06
250.066	78.06
250.299	71.06
250.532	88.06
250.765	77.06
250.998	85.06
251.231	88.06
251.465	88.06
251.698	98.06
251.931	85.06
252.164	84.06
252.397	61.06
252.63	77.06
252.863	93.06
253.096	83.06
253.329	86.06
253.562	82.06
253.795	78.06
254.028	78.06
254.261	78.06
254.494	79.06
254.727	83.06
254.96	95.06
255.193	74.06
255.426	87.06
255.659	76.06
255.892	81.06
256.124	70.06
256.357	85.06
256.59	80.06
256.823	68.06
257.056	75.06
257.289	74.06
257.521	75.06
257.754	77.06
257.987	84.06
258.22	91.06
258.452	74.06
258.685	82.06
258.918	82.06
259.151	83.06
259.383	84.06
259.616	83.06
259.849	87.06
260.081	78.06
260.314	91.06
260.547	74.06
260.779	78.06
261.012	69.06
261.244	76.06
261.477	83.06
261.71	91.06
261.942	103.06
262.175	89.06
262.407	75.06
262.64	70.06
262.872	89.06
263.105	85.06
263.337	92.06
263.57	78.06
263.802	80.06
264.035	72.06
264.267	80.06
264.499	91.06
264.732	78.06
264.964	74.06
265.197	86.06
265.429	72.06
265.661	70.06
265.894	72.06
266.126	78.06
266.358	80.06
266.591	79.06
266.823	70.06
267.055	102.06
267.287	84.06
267.52	85.06
267.752	73.06
267.984	83.06
268.216	69.06
268.448	86.06
268.681	87.06
268.913	81.06
269.145	82.06
269.377	91.06
269.609	82.06
269.841	88.06
270.073	78.06
270.306	95.06
270.538	80.06
270.77	94.06
271.002	74.06
271.234	82.06
271.466	90.06
271.698	79.06
271.93	83.06
272.162	92.06
272.394	71.06
272.626	78.06
272.858	76.06
273.09	85.06
273.322	83.06
273.553	85.06
273.785	76.06
274.017	83.06
274.249	95.06
274.481	78.06
274.713	89.06
274.945	86.06
275.176	75.06
275.408	87.06
275.64	88.06
275.872	76.06
276.104	78.06
276.335	75.06
276.567	94.06
276.799	94.06
277.031	84.06
277.262	80.06
277.494	102.06
277.726	88.06
277.957	77.06
278.189	76.06
278.421	72.06
278.652	87.06
278.884	75.06
279.115	74.06
279.347	95.06
279.579	79.06
279.81	85.06
280.042	74.06
280.273	81.06
280.505	82.06
280.736	94.06
280.968	76.06
281.199	91.06
281.431	89.06
281.662	99.06
281.894	79.06
282.125	94.06
282.356	112.06
282.588	123.06
282.819	98.06
283.051	91.06
283.282	85.06
283.513	92.06
283.745	80.06
283.976	84.06
284.207	88.06
284.439	97.06
284.67	91.06
284.901	81.06
285.132	93.06
285.364	76.06
285.595	88.06
285.826	82.06
286.057	86.06
286.288	95.06
286.52	67.06
286.751	87.06
286.982	87.06
287.213	79.06
287.444	102.06
287.675	91.06
287.906	92.06
288.138	94.06
288.369	101.06
288.6	88.06
288.831	84.06
289.062	86.06
289.293	89.06
289.524	83.06
289.755	88.06
289.986	89.06
290.217	83.06
290.448	82.06
290.679	77.06
290.91	90.06
291.141	96.06
291.371	79.06
291.602	84.06
291.833	83.06
292.064	88.06
292.295	92.06
292.526	87.06
292.757	77.06
292.987	95.06
293.218	98.06
293.449	93.06
293.68	87.06
293.91	88.06
294.141	83.06
294.372	74.06
294.603	79.06
294.833	85.06
295.064	83.06
295.295	86.06
295.525	84.06
295.756	95.06
295.987	103.06
296.217	118.06
296.448	108.06
296.679	89.06
296.909	78.06
297.14	78.06
297.37	95.06
297.601	84.06
297.831	84.06
298.062	78.06
298.292	75.06
298.523	84.06
298.753	83.06
298.984	70.06
299.214	85.06
299.445	83.06
299.675	93.06
299.905	81.06
300.136	94.06
300.366	90.06
300.597	83.06
300.827	110.06
301.057	83.06
301.288	95.06
301.518	66.06
301.748	101.06
301.979	87.06
302.209	91.06
302.439	93.06
302.669	91.06
302.9	87.06
303.13	95.06
303.36	96.06
303.59	103.06
303.82	90.06
304.051	82.06
304.281	86.06
304.511	78.06
304.741	101.06
304.971	84.06
305.201	82.06
305.431	89.06
305.661	97.06
305.891	90.06
306.121	87.06
306.352	85.06
306.582	100.06
306.812	104.06
307.042	108.06
307.272	87.06
307.502	91.06
307.731	98.06
307.961	90.06
308.191	73.06
308.421	107.06
308.651	81.06
308.881	103.06
309.111	90.06
309.341	98.06
309.571	91.06
309.8	110.06
310.03	95.06
310.26	106.06
310.49	86.06
310.72	98.06
310.949	98.06
311.179	115.06
311.409	94.06
311.639	99.06
311.868	92.06
312.098	87.06
312.328	72.06
312.557	78.06
312.787	92.06
313.017	94.06
313.246	93.06
313.476	74.06
313.706	89.06
313.935	103.06
314.165	93.06
314.394	88.06
314.624	96.06
314.853	91.06
315.083	91.06
315.312	99.06
315.542	100.06
315.771	90.06
316.001	91.06
316.23	75.06
316.46	90.06
316.689	87.06
316.919	75.06
317.148	95.06
317.377	106.06
317.607	94.06
317.836	95.06
318.065	99.06
318.295	93.06
318.524	81.06
318.753	93.06
318.983	80.06
319.212	94.06
319.441	104.06
319.67	98.06
319.9	93.06
320.129	93.06
320.358	86.06
320.587	94.06
320.816	105.06
321.046	83.06
321.275	93.06
321.504	106.06
321.733	102.06
321.962	94.06
322.191	104.06
322.42	92.06
322.649	98.06
322.878	114.06
323.108	95.06
323.337	117.06
323.566	116.06
323.795	160.06
324.024	185.06
324.253	376.06
324.482	765.06
324.71	1579.06
324.939	2013.06
325.168	767.06
325.397	231.06
325.626	142.06
325.855	126.06
326.084	113.06
326.313	135.06
326.542	144.06
326.77	210.06
326.999	455.06
327.228	887.06
327.457	1642.06
327.686	1292.06
327.914	334.06
328.143	175.06
328.372	132.06
328.6	107.06
328.829	103.06
329.058	109.06
329.287	134.06
329.515	108.06
329.744	88.06
329.972	104.06
330.201	99.06
330.43	99.06
330.658	117.06
330.887	117.06
331.115	117.06
331.344	93.06
331.572	90.06
331.801	97.06
332.03	97.06
332.258	92.06
332.486	92.06
332.715	102.06
332.943	93.06
333.172	95.06
333.4	95.06
333.629	98.06
333.857	94.06
334.085	83.06
334.314	85.06
334.542	103.06
334.771	95.06
334.999	111.06
335.227	87.06
335.455	100.06
335.684	107.06
335.912	87.06
336.14	94.06
336.369	96.06
336.597	99.06
336.825	88.06
337.053	92.06
337.281	97.06
337.51	99.06
337.738	91.06
337.966	92.06
338.194	86.06
338.422	101.06
338.65	94.06
338.878	89.06
339.106	89.06
339.334	89.06
339.562	80.06
339.79	91.06
340.018	77.06
340.246	95.06
340.474	101.06
340.702	90.06
340.93	108.06
341.158	88.06
341.386	96.06
341.614	96.06
341.842	100.06
342.07	90.06
342.298	98.06
342.526	91.06
342.754	91.06
342.981	98.06
343.209	83.06
343.437	99.06
343.665	88.06
343.893	87.06
344.12	103.06
344.348	95.06
344.576	98.06
344.804	95.06
345.031	94.06
345.259	103.06
345.487	86.06
345.714	85.06
345.942	106.06
346.17	100.06
346.397	92.06
346.625	80.06
346.853	101.06
347.08	90.06
347.308	95.06
347.535	71.06
347.763	92.06
347.99	99.06
348.218	95.06
348.445	92.06
348.673	90.06
348.9	99.06
349.128	93.06
349.355	84.06
349.583	107.06
349.81	93.06
350.037	88.06
350.265	90.06
350.492	95.06
350.72	76.06
350.947	97.06
351.174	101.06
351.402	108.06
351.629	98.06
351.856	90.06
352.083	98.06
352.311	114.06
352.538	86.06
352.765	110.06
352.992	104.06
353.22	103.06
353.447	100.06
353.674	93.06
353.901	83.06
354.128	101.06
354.355	112.06
354.583	97.06
354.81	99.06
355.037	101.06
355.264	87.06
355.491	97.06
355.718	91.06
355.945	75.06
356.172	101.06
356.399	102.06
356.626	89.06
356.853	83.06
357.08	90.06
357.307	100.06
357.534	97.06
357.761	97.06
357.988	99.06
358.215	104.06
358.441	92.06
358.668	98.06
358.895	88.06
359.122	93.06
359.349	88.06
359.576	86.06
359.802	99.06
360.029	94.06
360.256	107.06
360.483	97.06
360.709	95.06
360.936	106.06
361.163	99.06
361.39	93.06
361.616	94.06
361.843	94.06
362.07	111.06
362.296	93.06
362.523	86.06
362.749	82.06
362.976	89.06
363.203	85.06
363.429	95.06
363.656	83.06
363.882	78.06
364.109	92.06
364.335	93.06
364.562	88.06
364.788	87.06
365.015	85.06
365.241	98.06
365.468	107.06
365.694	105.06
365.92	88.06
366.147	88.06
366.373	95.06
366.599	101.06
366.826	92.06
367.052	80.06
367.278	109.06
367.505	93.06
367.731	84.06
367.957	100.06
368.184	91.06
368.41	113.06
368.636	104.06
368.862	117.06
369.089	104.06
369.315	80.06
369.541	87.06
369.767	97.06
369.993	101.06
370.219	102.06
370.445	94.06
370.672	78.06
370.898	99.06
371.124	87.06
371.35	111.06
371.576	87.06
371.802	83.06
372.028	98.06
372.254	84.06
372.48	74.06
372.706	97.06
372.932	93.06
373.158	81.06
373.384	96.06
373.61	87.06
373.835	92.06
374.061	98.06
374.287	90.06
374.513	99.06
374.739	88.06
374.965	86.06
375.191	91.06
375.416	96.06
375.642	83.06
375.868	85.06
376.094	86.06
376.319	86.06
376.545	97.06
376.771	82.06
376.997	94.06
377.222	83.06
377.448	93.06
377.674	82.06
377.899	86.06
378.125	86.06
378.35	98.06
378.576	83.06
378.802	92.06
379.027	84.06
379.253	89.06
379.478	92.06
379.704	97.06
379.929	102.06
380.155	86.06
380.38	72.06
380.606	87.06
380.831	88.06
381.057	99.06
381.282	84.06
381.507	104.06
381.733	97.06
381.958	93.06
382.184	93.06
382.409	95.06
382.634	94.06
382.86	102.06
383.085	96.06
383.31	100.06
383.535	97.06
383.761	100.06
383.986	84.06
384.211	99.06
384.436	80.06
384.662	100.06
384.887	97.06
385.112	97.06
385.337	102.06
385.562	111.06
385.787	106.06
386.013	115.06
386.238	103.06
386.463	90.06
386.688	102.06
386.913	91.06
387.138	114.06
387.363	112.06
387.588	89.06
387.813	87.06
388.038	95.06
388.263	109.06
388.488	114.06
388.713	90.06
388.938	93.06
389.163	111.06
389.387	88.06
389.612	98.06
389.837	88.06
390.062	90.06
390.287	96.06
390.512	98.06
390.736	88.06
390.961	95.06
391.186	86.06
391.411	92.06
391.636	104.06
391.86	93.06
392.085	100.06
392.31	88.06
392.534	84.06
392.759	80.06
392.984	86.06
393.208	82.06
393.433	86.06
393.658	86.06
393.882	86.06
394.107	102.06
394.331	84.06
394.556	79.06
394.78	108.06
395.005	81.06
395.229	91.06
395.454	70.06
395.678	85.06
395.903	77.06
396.127	81.06
396.352	82.06
396.576	83.06
396.801	95.06
397.025	85.06
397.249	90.06
397.474	87.06
397.698	76.06
397.922	108.06
398.147	77.06
398.371	75.06
398.595	82.06
398.82	85.06
399.044	92.06
399.268	85.06
399.492	82.06
399.717	95.06
399.941	96.06
400.165	94.06
400.389	98.06
400.613	99.06
400.837	95.06
401.062	94.06
401.286	97.06
401.51	90.06
401.734	84.06
401.958	99.06
402.182	119.06
402.406	113.06
402.63	114.06
402.854	99.06
403.078	84.06
403.302	82.06
403.526	87.06
403.75	85.06
403.974	93.06
404.198	79.06
404.422	101.06
404.645	84.06
404.869	92.06
405.093	88.06
405.317	90.06
405.541	92.06
405.765	94.06
405.988	115.06
406.212	148.06
406.436	190.06
406.66	130.06
406.883	95.06
407.107	94.06
407.331	67.06
407.555	95.06
407.778	83.06
408.002	90.06
408.226	77.06
408.449	94.06
408.673	93.06
408.896	105.06
409.12	107.06
409.344	104.06
409.567	83.06
409.791	93.06
410.014	86.06
410.238	84.06
410.461	91.06
410.685	93.06
410.908	106.06
411.132	100.06
411.355	99.06
411.578	94.06
411.802	78.06
412.025	86.06
412.249	88.06
412.472	78.06
412.695	96.06
412.919	85.06
413.142	84.06
413.365	77.06
413.589	87.06
413.812	96.06
414.035	88.06
414.258	91.06
414.482	82.06
414.705	85.06
414.928	88.06
415.151	97.06
415.374	90.06
415.597	87.06
415.821	83.06
416.044	81.06
416.267	88.06
416.49	93.06
416.713	93.06
416.936	78.06
417.159	98.06
417.382	81.06
417.605	75.06
417.828	75.06
418.051	87.06
418.274	101.06
418.497	96.06
418.72	86.06
418.943	96.06
419.166	77.06
419.389	95.06
419.611	83.06
419.834	98.06
420.057	83.06
420.28	86.06
420.503	102.06
420.726	85.06
420.948	87.06
421.171	89.06
421.394	98.06
421.617	94.06
421.839	82.06
422.062	93.06
422.285	100.06
422.507	96.06
422.73	101.06
422.953	83.06
423.175	72.06
423.398	81.06
423.621	94.06
423.843	88.06
424.066	79.06
424.288	81.06
424.511	100.06
424.733	100.06
424.956	109.06
425.178	86.06
425.401	99.06
425.623	87.06
425.846	80.06
426.068	81.06
426.291	74.06
426.513	84.06
426.735	96.06
426.958	93.06
427.18	96.06
427.402	127.06
427.625	141.06
427.847	109.06
428.069	95.06
428.292	84.06
428.514	88.06
428.736	79.06
428.958	92.06
429.181	78.06
429.403	90.06
429.625	83.06
429.847	117.06
430.069	97.06
430.292	88.06
430.514	75.06
430.736	85.06
430.958	84.06
431.18	91.06
431.402	73.06
431.624	81.06
431.846	87.06
432.068	85.06
432.29	86.06
432.512	89.06
432.734	100.06
432.956	79.06
433.178	88.06
433.4	89.06
433.622	91.06
433.844	93.06
434.066	94.06
434.287	102.06
434.509	79.06
434.731	84.06
434.953	87.06
435.175	86.06
435.397	88.06
435.618	86.06
435.84	96.06
436.062	111.06
436.284	116.06
436.505	100.06
436.727	108.06
436.949	84.06
437.17	85.06
437.392	77.06
437.614	84.06
437.835	98.06
438.057	98.06
438.278	114.06
438.5	112.06
438.721	100.06
438.943	99.06
439.165	92.06
439.386	88.06
439.608	85.06
439.829	96.06
440.05	122.06
440.272	136.06
440.493	81.06
440.715	79.06
440.936	91.06
441.158	92.06
441.379	91.06
441.6	96.06
441.822	93.06
442.043	78.06
442.264	88.06
442.486	89.06
442.707	94.06
442.928	106.06
443.149	126.06
443.371	138.06
443.592	103.06
443.813	114.06
444.034	97.06
444.255	71.06
444.476	87.06
444.698	81.06
444.919	77.06
445.14	138.06
445.361	111.06
445.582	107.06
445.803	119.06
446.024	122.06
446.245	126.06
446.466	97.06
446.687	88.06
446.908	91.06
447.129	90.06
447.35	88.06
447.571	93.06
447.792	87.06
448.013	106.06
448.234	100.06
448.455	93.06
448.675	107.06
448.896	99.06
449.117	99.06
449.338	98.06
449.559	114.06
449.779	116.06
450	113.06
450.221	96.06
450.442	90.06
450.662	93.06
450.883	85.06
451.104	98.06
451.324	77.06
451.545	83.06
451.766	84.06
451.986	95.06
452.207	87.06
452.428	78.06
452.648	98.06
452.869	97.06
453.089	109.06
453.31	98.06
453.53	87.06
453.751	101.06
453.971	104.06
454.192	94.06
454.412	84.06
454.633	91.06
454.853	87.06
455.073	90.06
455.294	84.06
455.514	87.06
455.734	88.06
455.955	99.06
456.175	96.06
456.395	97.06
456.616	84.06
456.836	79.06
457.056	96.06
457.276	87.06
457.497	90.06
457.717	69.06
457.937	93.06
458.157	72.06
458.377	87.06
458.598	101.06
458.818	131.06
459.038	146.06
459.258	108.06
459.478	87.06
459.698	95.06
459.918	88.06
460.138	70.06
460.358	96.06
460.578	96.06
460.798	85.06
461.018	89.06
461.238	93.06
461.458	89.06
461.678	83.06
461.898	81.06
462.118	83.06
462.338	85.06
462.558	88.06
462.777	90.06
462.997	90.06
463.217	82.06
463.437	86.06
463.657	82.06
463.876	70.06
464.096	90.06
464.316	101.06
464.536	96.06
464.755	88.06
464.975	99.06
465.195	139.06
465.414	130.06
465.634	101.06
465.854	101.06
466.073	92.06
466.293	85.06
466.512	84.06
466.732	88.06
466.951	86.06
467.171	88.06
467.391	104.06
467.61	91.06
467.829	96.06
468.049	85.06
468.268	87.06
468.488	86.06
468.707	78.06
468.927	79.06
469.146	82.06
469.365	92.06
469.585	97.06
469.804	70.06
470.023	103.06
470.243	87.06
470.462	91.06
470.681	110.06
470.901	90.06
471.12	102.06
471.339	96.06
471.558	79.06
471.777	85.06
471.997	84.06
472.216	94.06
472.435	85.06
472.654	92.06
472.873	79.06
473.092	94.06
473.311	69.06
473.53	78.06
473.749	88.06
473.968	103.06
474.187	107.06
474.406	90.06
474.625	88.06
474.844	92.06
475.063	83.06
475.282	80.06
475.501	83.06
475.72	88.06
475.939	92.06
476.158	93.06
476.377	101.06
476.596	73.06
476.814	95.06
477.033	77.06
477.252	80.06
477.471	83.06
477.69	91.06
477.908	94.06
478.127	89.06
478.346	83.06
478.564	78.06
478.783	92.06
479.002	83.06
479.22	98.06
479.439	99.06
479.658	102.06
479.876	101.06
480.095	80.06
480.313	77.06
480.532	87.06
480.751	96.06
480.969	85.06
481.188	88.06
481.406	98.06
481.624	102.06
481.843	81.06
482.061	79.06
482.28	90.06
482.498	81.06
482.717	96.06
482.935	83.06
483.153	92.06
483.372	90.06
483.59	88.06
483.808	81.06
484.027	95.06
484.245	88.06
484.463	91.06
484.681	101.06
484.9	93.06
485.118	87.06
485.336	108.06
485.554	97.06
485.772	92.06
485.99	101.06
486.209	95.06
486.427	95.06
486.645	114.06
486.863	116.06
487.081	83.06
487.299	94.06
487.517	99.06
487.735	92.06
487.953	82.06
488.171	100.06
488.389	89.06
488.607	95.06
488.825	101.06
489.043	94.06
489.261	97.06
489.479	82.06
489.696	95.06
489.914	103.06
490.132	87.06
490.35	78.06
490.568	82.06
490.786	93.06
491.003	93.06
491.221	88.06
491.439	98.06
491.657	91.06
491.874	103.06
492.092	92.06
492.31	94.06
492.527	81.06
492.745	81.06
492.963	96.06
493.18	84.06
493.398	100.06
493.615	102.06
493.833	98.06
494.05	92.06
494.268	81.06
494.485	85.06
494.703	86.06
494.92	84.06
495.138	84.06
495.355	82.06
495.573	97.06
495.79	89.06
496.008	83.06
496.225	84.06
496.442	98.06
496.66	86.06
496.877	91.06
497.094	91.06
497.312	94.06
497.529	102.06
497.746	76.06
497.963	104.06
498.181	84.06
498.398	105.06
498.615	115.06
498.832	114.06
499.049	82.06
499.267	91.06
499.484	92.06
499.701	86.06
499.918	88.06
500.135	82.06
500.352	77.06
500.569	68.06
500.786	86.06
501.003	88.06
501.22	102.06
501.437	87.06
501.654	97.06
501.871	95.06
502.088	93.06
502.305	92.06
502.522	77.06
502.739	93.06
502.956	89.06
503.172	97.06
503.389	75.06
503.606	98.06
503.823	92.06
504.04	106.06
504.256	92.06
504.473	92.06
504.69	99.06
504.907	84.06
505.123	92.06
505.34	79.06
505.557	92.06
505.773	89.06
505.99	93.06
506.207	93.06
506.423	84.06
506.64	99.06
506.856	90.06
507.073	99.06
507.289	85.06
507.506	90.06
507.722	108.06
507.939	112.06
508.155	88.06
508.372	101.06
508.588	90.06
508.805	102.06
509.021	92.06
509.238	96.06
509.454	96.06
509.67	112.06
509.887	108.06
510.103	116.06
510.319	190.06
510.536	662.06
510.752	2038.06
510.968	574.06
511.184	137.06
511.401	102.06
511.617	98.06
511.833	109.06
512.049	97.06
512.265	99.06
512.481	81.06
512.698	81.06
512.914	81.06
513.13	85.06
513.346	83.06
513.562	102.06
513.778	100.06
513.994	98.06
514.21	93.06
514.426	111.06
514.642	122.06
514.858	112.06
515.074	152.06
515.29	380.06
515.506	1234.06
515.721	454.06
515.937	127.06
516.153	104.06
516.369	94.06
516.585	98.06
