Data from Uncirc_2005_H10_HRD10591_00098.txt Node
Date: Wed Jan 03 10:28:44 EST 2024
User: Yrep
Spectrometer: HR+D1059
Trigger mode: 1
Integration Time (sec): 1.000000E-1
Scans to average: 1
Electric dark correction enabled: true
Nonlinearity correction enabled: false
Boxcar width: 0
XAxis mode: Wavelengths
Number of Pixels in Spectrum: 2048
>>>>>Begin Spectral Data<<<<<
223.165	-17.25
223.4	-17.25
223.635	-17.25
223.869	-32.25
224.104	-20.25
224.338	-18.25
224.573	-11.25
224.808	-14.25
225.042	-2.25
225.277	-13.25
225.511	-5.25
225.746	-0.25
225.98	8.75
226.215	9.75
226.449	26.75
226.683	33.75
226.918	29.75
227.152	25.75
227.387	32.75
227.621	29.75
227.856	43.75
228.09	58.75
228.324	40.75
228.559	50.75
228.793	51.75
229.027	68.75
229.262	71.75
229.496	83.75
229.73	70.75
229.964	72.75
230.199	81.75
230.433	74.75
230.667	78.75
230.901	84.75
231.136	72.75
231.37	68.75
231.604	89.75
231.838	83.75
232.072	88.75
232.306	80.75
232.541	80.75
232.775	70.75
233.009	76.75
233.243	69.75
233.477	77.75
233.711	92.75
233.945	74.75
234.179	78.75
234.413	76.75
234.647	79.75
234.881	86.75
235.115	78.75
235.349	69.75
235.583	77.75
235.817	80.75
236.051	86.75
236.285	67.75
236.519	75.75
236.753	78.75
236.987	75.75
237.221	85.75
237.455	84.75
237.689	80.75
237.922	68.75
238.156	74.75
238.39	82.75
238.624	85.75
238.858	75.75
239.091	69.75
239.325	82.75
239.559	72.75
239.793	75.75
240.027	58.75
240.26	68.75
240.494	70.75
240.728	78.75
240.961	69.75
241.195	84.75
241.429	78.75
241.662	55.75
241.896	65.75
242.13	82.75
242.363	50.75
242.597	61.75
242.83	61.75
243.064	73.75
243.298	84.75
243.531	77.75
243.765	80.75
243.998	82.75
244.232	76.75
244.465	70.75
244.699	95.75
244.932	80.75
245.166	85.75
245.399	74.75
245.633	76.75
245.866	75.75
246.099	77.75
246.333	77.75
246.566	78.75
246.8	69.75
247.033	73.75
247.266	62.75
247.5	100.75
247.733	77.75
247.966	78.75
248.2	71.75
248.433	81.75
248.666	87.75
248.899	80.75
249.133	95.75
249.366	102.75
249.599	106.75
249.832	96.75
250.066	80.75
250.299	78.75
250.532	76.75
250.765	77.75
250.998	73.75
251.231	94.75
251.465	91.75
251.698	72.75
251.931	75.75
252.164	74.75
252.397	92.75
252.63	73.75
252.863	74.75
253.096	91.75
253.329	83.75
253.562	85.75
253.795	75.75
254.028	74.75
254.261	86.75
254.494	80.75
254.727	83.75
254.96	86.75
255.193	92.75
255.426	79.75
255.659	82.75
255.892	77.75
256.124	76.75
256.357	74.75
256.59	65.75
256.823	84.75
257.056	79.75
257.289	76.75
257.521	97.75
257.754	74.75
257.987	80.75
258.22	78.75
258.452	79.75
258.685	75.75
258.918	77.75
259.151	89.75
259.383	79.75
259.616	92.75
259.849	72.75
260.081	69.75
260.314	82.75
260.547	88.75
260.779	77.75
261.012	82.75
261.244	84.75
261.477	89.75
261.71	89.75
261.942	109.75
262.175	116.75
262.407	91.75
262.64	77.75
262.872	87.75
263.105	92.75
263.337	88.75
263.57	90.75
263.802	91.75
264.035	93.75
264.267	77.75
264.499	84.75
264.732	74.75
264.964	84.75
265.197	80.75
265.429	77.75
265.661	88.75
265.894	72.75
266.126	81.75
266.358	85.75
266.591	88.75
266.823	83.75
267.055	86.75
267.287	78.75
267.52	68.75
267.752	77.75
267.984	91.75
268.216	82.75
268.448	88.75
268.681	80.75
268.913	78.75
269.145	87.75
269.377	83.75
269.609	75.75
269.841	73.75
270.073	63.75
270.306	79.75
270.538	82.75
270.77	81.75
271.002	92.75
271.234	78.75
271.466	77.75
271.698	84.75
271.93	83.75
272.162	84.75
272.394	82.75
272.626	69.75
272.858	82.75
273.09	69.75
273.322	67.75
273.553	76.75
273.785	91.75
274.017	87.75
274.249	77.75
274.481	67.75
274.713	73.75
274.945	86.75
275.176	84.75
275.408	81.75
275.64	94.75
275.872	83.75
276.104	82.75
276.335	90.75
276.567	81.75
276.799	102.75
277.031	95.75
277.262	86.75
277.494	79.75
277.726	85.75
277.957	78.75
278.189	99.75
278.421	76.75
278.652	86.75
278.884	94.75
279.115	86.75
279.347	84.75
279.579	84.75
279.81	92.75
280.042	68.75
280.273	89.75
280.505	76.75
280.736	70.75
280.968	76.75
281.199	88.75
281.431	84.75
281.662	79.75
281.894	69.75
282.125	76.75
282.356	113.75
282.588	125.75
282.819	112.75
283.051	78.75
283.282	100.75
283.513	82.75
283.745	74.75
283.976	83.75
284.207	90.75
284.439	92.75
284.67	81.75
284.901	95.75
285.132	77.75
285.364	82.75
285.595	75.75
285.826	79.75
286.057	84.75
286.288	76.75
286.52	82.75
286.751	87.75
286.982	98.75
287.213	86.75
287.444	100.75
287.675	82.75
287.906	84.75
288.138	99.75
288.369	98.75
288.6	79.75
288.831	94.75
289.062	83.75
289.293	78.75
289.524	91.75
289.755	92.75
289.986	79.75
290.217	81.75
290.448	68.75
290.679	92.75
290.91	85.75
291.141	80.75
291.371	85.75
291.602	97.75
291.833	83.75
292.064	73.75
292.295	96.75
292.526	88.75
292.757	77.75
292.987	82.75
293.218	89.75
293.449	84.75
293.68	95.75
293.91	94.75
294.141	67.75
294.372	96.75
294.603	86.75
294.833	96.75
295.064	105.75
295.295	96.75
295.525	90.75
295.756	99.75
295.987	100.75
296.217	121.75
296.448	100.75
296.679	84.75
296.909	82.75
297.14	90.75
297.37	80.75
297.601	88.75
297.831	88.75
298.062	77.75
298.292	75.75
298.523	88.75
298.753	80.75
298.984	82.75
299.214	85.75
299.445	91.75
299.675	90.75
299.905	95.75
300.136	86.75
300.366	78.75
300.597	83.75
300.827	81.75
301.057	89.75
301.288	89.75
301.518	95.75
301.748	96.75
301.979	86.75
302.209	92.75
302.439	69.75
302.669	89.75
302.9	88.75
303.13	88.75
303.36	90.75
303.59	99.75
303.82	105.75
304.051	76.75
304.281	80.75
304.511	93.75
304.741	99.75
304.971	99.75
305.201	83.75
305.431	91.75
305.661	81.75
305.891	71.75
306.121	104.75
306.352	103.75
306.582	100.75
306.812	86.75
307.042	82.75
307.272	100.75
307.502	98.75
307.731	92.75
307.961	85.75
308.191	92.75
308.421	84.75
308.651	93.75
308.881	89.75
309.111	100.75
309.341	84.75
309.571	105.75
309.8	88.75
310.03	93.75
310.26	96.75
310.49	90.75
310.72	95.75
310.949	99.75
311.179	102.75
311.409	95.75
311.639	80.75
311.868	89.75
312.098	83.75
312.328	93.75
312.557	92.75
312.787	109.75
313.017	92.75
313.246	94.75
313.476	80.75
313.706	83.75
313.935	95.75
314.165	90.75
314.394	92.75
314.624	106.75
314.853	101.75
315.083	86.75
315.312	98.75
315.542	88.75
315.771	88.75
316.001	86.75
316.23	87.75
316.46	87.75
316.689	90.75
316.919	84.75
317.148	105.75
317.377	99.75
317.607	100.75
317.836	89.75
318.065	70.75
318.295	78.75
318.524	76.75
318.753	96.75
318.983	99.75
319.212	103.75
319.441	102.75
319.67	107.75
319.9	91.75
320.129	83.75
320.358	97.75
320.587	90.75
320.816	90.75
321.046	102.75
321.275	117.75
321.504	104.75
321.733	98.75
321.962	89.75
322.191	86.75
322.42	99.75
322.649	92.75
322.878	105.75
323.108	101.75
323.337	95.75
323.566	112.75
323.795	121.75
324.024	184.75
324.253	374.75
324.482	791.75
324.71	1586.75
324.939	2071.75
325.168	756.75
325.397	244.75
325.626	128.75
325.855	124.75
326.084	125.75
326.313	115.75
326.542	150.75
326.77	231.75
326.999	441.75
327.228	921.75
327.457	1636.75
327.686	1291.75
327.914	339.75
328.143	181.75
328.372	146.75
328.6	117.75
328.829	104.75
329.058	121.75
329.287	113.75
329.515	95.75
329.744	98.75
329.972	91.75
330.201	101.75
330.43	103.75
330.658	122.75
330.887	129.75
331.115	98.75
331.344	100.75
331.572	96.75
331.801	84.75
332.03	89.75
332.258	82.75
332.486	84.75
332.715	97.75
332.943	93.75
333.172	89.75
333.4	90.75
333.629	107.75
333.857	100.75
334.085	92.75
334.314	83.75
334.542	82.75
334.771	86.75
334.999	93.75
335.227	102.75
335.455	83.75
335.684	94.75
335.912	91.75
336.14	80.75
336.369	101.75
336.597	91.75
336.825	90.75
337.053	94.75
337.281	95.75
337.51	77.75
337.738	79.75
337.966	101.75
338.194	89.75
338.422	98.75
338.65	95.75
338.878	105.75
339.106	83.75
339.334	82.75
339.562	84.75
339.79	81.75
340.018	85.75
340.246	84.75
340.474	82.75
340.702	89.75
340.93	88.75
341.158	87.75
341.386	99.75
341.614	95.75
341.842	86.75
342.07	93.75
342.298	81.75
342.526	87.75
342.754	97.75
342.981	93.75
343.209	85.75
343.437	99.75
343.665	92.75
343.893	86.75
344.12	96.75
344.348	82.75
344.576	90.75
344.804	91.75
345.031	86.75
345.259	92.75
345.487	100.75
345.714	74.75
345.942	92.75
346.17	91.75
346.397	84.75
346.625	97.75
346.853	102.75
347.08	105.75
347.308	92.75
347.535	86.75
347.763	94.75
347.99	104.75
348.218	91.75
348.445	88.75
348.673	85.75
348.9	94.75
349.128	103.75
349.355	97.75
349.583	93.75
349.81	89.75
350.037	98.75
350.265	83.75
350.492	92.75
350.72	82.75
350.947	97.75
351.174	102.75
351.402	111.75
351.629	103.75
351.856	95.75
352.083	92.75
352.311	96.75
352.538	99.75
352.765	120.75
352.992	111.75
353.22	115.75
353.447	96.75
353.674	103.75
353.901	102.75
354.128	108.75
354.355	85.75
354.583	99.75
354.81	105.75
355.037	99.75
355.264	91.75
355.491	105.75
355.718	86.75
355.945	87.75
356.172	92.75
356.399	101.75
356.626	98.75
356.853	79.75
357.08	91.75
357.307	84.75
357.534	84.75
357.761	98.75
357.988	88.75
358.215	100.75
358.441	84.75
358.668	93.75
358.895	75.75
359.122	103.75
359.349	88.75
359.576	96.75
359.802	87.75
360.029	91.75
360.256	101.75
360.483	99.75
360.709	86.75
360.936	97.75
361.163	86.75
361.39	70.75
361.616	97.75
361.843	82.75
362.07	91.75
362.296	96.75
362.523	76.75
362.749	88.75
362.976	73.75
363.203	82.75
363.429	89.75
363.656	90.75
363.882	66.75
364.109	84.75
364.335	86.75
364.562	81.75
364.788	95.75
365.015	98.75
365.241	84.75
365.468	91.75
365.694	100.75
365.92	109.75
366.147	92.75
366.373	91.75
366.599	98.75
366.826	92.75
367.052	97.75
367.278	85.75
367.505	84.75
367.731	96.75
367.957	90.75
368.184	85.75
368.41	91.75
368.636	88.75
368.862	103.75
369.089	100.75
369.315	86.75
369.541	104.75
369.767	94.75
369.993	89.75
370.219	86.75
370.445	85.75
370.672	77.75
370.898	81.75
371.124	83.75
371.35	83.75
371.576	85.75
371.802	83.75
372.028	84.75
372.254	85.75
372.48	77.75
372.706	87.75
372.932	91.75
373.158	96.75
373.384	89.75
373.61	73.75
373.835	79.75
374.061	83.75
374.287	86.75
374.513	103.75
374.739	88.75
374.965	81.75
375.191	82.75
375.416	82.75
375.642	92.75
375.868	93.75
376.094	90.75
376.319	84.75
376.545	94.75
376.771	84.75
376.997	82.75
377.222	76.75
377.448	81.75
377.674	90.75
377.899	86.75
378.125	76.75
378.35	91.75
378.576	79.75
378.802	76.75
379.027	73.75
379.253	82.75
379.478	97.75
379.704	105.75
379.929	94.75
380.155	96.75
380.38	92.75
380.606	91.75
380.831	102.75
381.057	96.75
381.282	95.75
381.507	95.75
381.733	100.75
381.958	95.75
382.184	96.75
382.409	94.75
382.634	102.75
382.86	91.75
383.085	98.75
383.31	92.75
383.535	92.75
383.761	79.75
383.986	107.75
384.211	91.75
384.436	82.75
384.662	90.75
384.887	100.75
385.112	95.75
385.337	106.75
385.562	91.75
385.787	97.75
386.013	102.75
386.238	105.75
386.463	115.75
386.688	114.75
386.913	94.75
387.138	109.75
387.363	108.75
387.588	110.75
387.813	101.75
388.038	106.75
388.263	114.75
388.488	120.75
388.713	100.75
388.938	98.75
389.163	86.75
389.387	104.75
389.612	101.75
389.837	93.75
390.062	101.75
390.287	95.75
390.512	81.75
390.736	99.75
390.961	102.75
391.186	96.75
391.411	96.75
391.636	100.75
391.86	73.75
392.085	89.75
392.31	95.75
392.534	86.75
392.759	79.75
392.984	80.75
393.208	81.75
393.433	90.75
393.658	101.75
393.882	90.75
394.107	82.75
394.331	93.75
394.556	81.75
394.78	81.75
395.005	80.75
395.229	75.75
395.454	93.75
395.678	88.75
395.903	80.75
396.127	90.75
396.352	89.75
396.576	84.75
396.801	78.75
397.025	80.75
397.249	76.75
397.474	78.75
397.698	85.75
397.922	93.75
398.147	90.75
398.371	86.75
398.595	100.75
398.82	77.75
399.044	86.75
399.268	81.75
399.492	77.75
399.717	79.75
399.941	101.75
400.165	82.75
400.389	100.75
400.613	82.75
400.837	96.75
401.062	101.75
401.286	82.75
401.51	92.75
401.734	92.75
401.958	94.75
402.182	130.75
402.406	141.75
402.63	104.75
402.854	92.75
403.078	86.75
403.302	84.75
403.526	84.75
403.75	82.75
403.974	74.75
404.198	74.75
404.422	85.75
404.645	93.75
404.869	91.75
405.093	94.75
405.317	86.75
405.541	103.75
405.765	96.75
405.988	110.75
406.212	147.75
406.436	184.75
406.66	121.75
406.883	86.75
407.107	77.75
407.331	90.75
407.555	108.75
407.778	94.75
408.002	90.75
408.226	96.75
408.449	103.75
408.673	87.75
408.896	98.75
409.12	92.75
409.344	80.75
409.567	79.75
409.791	89.75
410.014	78.75
410.238	82.75
410.461	85.75
410.685	74.75
410.908	97.75
411.132	85.75
411.355	88.75
411.578	82.75
411.802	81.75
412.025	89.75
412.249	89.75
412.472	86.75
412.695	84.75
412.919	88.75
413.142	88.75
413.365	102.75
413.589	80.75
413.812	82.75
414.035	94.75
414.258	100.75
414.482	82.75
414.705	79.75
414.928	81.75
415.151	80.75
415.374	82.75
415.597	86.75
415.821	78.75
416.044	80.75
416.267	96.75
416.49	89.75
416.713	89.75
416.936	85.75
417.159	93.75
417.382	86.75
417.605	82.75
417.828	83.75
418.051	87.75
418.274	93.75
418.497	107.75
418.72	85.75
418.943	91.75
419.166	86.75
419.389	95.75
419.611	85.75
419.834	96.75
420.057	92.75
420.28	76.75
420.503	93.75
420.726	85.75
420.948	85.75
421.171	83.75
421.394	82.75
421.617	89.75
421.839	77.75
422.062	89.75
422.285	99.75
422.507	106.75
422.73	85.75
422.953	82.75
423.175	97.75
423.398	84.75
423.621	96.75
423.843	81.75
424.066	84.75
424.288	91.75
424.511	86.75
424.733	93.75
424.956	112.75
425.178	100.75
425.401	90.75
425.623	95.75
425.846	79.75
426.068	87.75
426.291	93.75
426.513	99.75
426.735	96.75
426.958	108.75
427.18	105.75
427.402	110.75
427.625	136.75
427.847	120.75
428.069	90.75
428.292	93.75
428.514	89.75
428.736	82.75
428.958	94.75
429.181	95.75
429.403	80.75
429.625	86.75
429.847	91.75
430.069	98.75
430.292	77.75
430.514	79.75
430.736	81.75
430.958	86.75
431.18	85.75
431.402	89.75
431.624	86.75
431.846	80.75
432.068	78.75
432.29	86.75
432.512	94.75
432.734	66.75
432.956	88.75
433.178	93.75
433.4	94.75
433.622	97.75
433.844	90.75
434.066	84.75
434.287	88.75
434.509	88.75
434.731	76.75
434.953	94.75
435.175	94.75
435.397	99.75
435.618	98.75
435.84	97.75
436.062	114.75
436.284	103.75
436.505	99.75
436.727	94.75
436.949	87.75
437.17	86.75
437.392	95.75
437.614	94.75
437.835	107.75
438.057	96.75
438.278	108.75
438.5	96.75
438.721	110.75
438.943	97.75
439.165	98.75
439.386	79.75
439.608	95.75
439.829	92.75
440.05	109.75
440.272	124.75
440.493	97.75
440.715	93.75
440.936	87.75
441.158	76.75
441.379	85.75
441.6	95.75
441.822	91.75
442.043	94.75
442.264	101.75
442.486	86.75
442.707	83.75
442.928	103.75
443.149	110.75
443.371	125.75
443.592	104.75
443.813	111.75
444.034	105.75
444.255	91.75
444.476	84.75
444.698	85.75
444.919	94.75
445.14	108.75
445.361	118.75
445.582	113.75
445.803	122.75
446.024	109.75
446.245	112.75
446.466	89.75
446.687	86.75
446.908	92.75
447.129	94.75
447.35	89.75
447.571	89.75
447.792	83.75
448.013	98.75
448.234	99.75
448.455	94.75
448.675	114.75
448.896	121.75
449.117	88.75
449.338	94.75
449.559	133.75
449.779	115.75
450	99.75
450.221	89.75
450.442	86.75
450.662	96.75
450.883	105.75
451.104	88.75
451.324	90.75
451.545	77.75
451.766	82.75
451.986	93.75
452.207	83.75
452.428	89.75
452.648	94.75
452.869	113.75
453.089	94.75
453.31	112.75
453.53	110.75
453.751	93.75
453.971	108.75
454.192	102.75
454.412	87.75
454.633	97.75
454.853	86.75
455.073	74.75
455.294	96.75
455.514	107.75
455.734	99.75
455.955	110.75
456.175	92.75
456.395	67.75
456.616	72.75
456.836	88.75
457.056	92.75
457.276	76.75
457.497	85.75
457.717	69.75
457.937	82.75
458.157	96.75
458.377	83.75
458.598	98.75
458.818	134.75
459.038	136.75
459.258	100.75
459.478	87.75
459.698	84.75
459.918	58.75
460.138	83.75
460.358	97.75
460.578	87.75
460.798	86.75
461.018	81.75
461.238	79.75
461.458	79.75
461.678	93.75
461.898	72.75
462.118	76.75
462.338	73.75
462.558	90.75
462.777	86.75
462.997	83.75
463.217	74.75
463.437	79.75
463.657	82.75
463.876	90.75
464.096	90.75
464.316	83.75
464.536	87.75
464.755	100.75
464.975	108.75
465.195	137.75
465.414	136.75
465.634	101.75
465.854	96.75
466.073	84.75
466.293	84.75
466.512	85.75
466.732	97.75
466.951	85.75
467.171	95.75
467.391	91.75
467.61	87.75
467.829	90.75
468.049	90.75
468.268	89.75
468.488	95.75
468.707	90.75
468.927	81.75
469.146	80.75
469.365	90.75
469.585	81.75
469.804	82.75
470.023	102.75
470.243	84.75
470.462	94.75
470.681	91.75
470.901	91.75
471.12	86.75
471.339	82.75
471.558	84.75
471.777	96.75
471.997	86.75
472.216	83.75
472.435	102.75
472.654	92.75
472.873	79.75
473.092	90.75
473.311	90.75
473.53	91.75
473.749	88.75
473.968	87.75
474.187	112.75
474.406	96.75
474.625	82.75
474.844	84.75
475.063	88.75
475.282	82.75
475.501	89.75
475.72	84.75
475.939	85.75
476.158	80.75
476.377	70.75
476.596	83.75
476.814	90.75
477.033	103.75
477.252	82.75
477.471	88.75
477.69	85.75
477.908	84.75
478.127	77.75
478.346	97.75
478.564	84.75
478.783	68.75
479.002	83.75
479.22	90.75
479.439	96.75
479.658	99.75
479.876	94.75
480.095	75.75
480.313	74.75
480.532	98.75
480.751	95.75
480.969	85.75
481.188	102.75
481.406	93.75
481.624	91.75
481.843	82.75
482.061	87.75
482.28	86.75
482.498	85.75
482.717	81.75
482.935	96.75
483.153	87.75
483.372	84.75
483.59	78.75
483.808	88.75
484.027	94.75
484.245	95.75
484.463	88.75
484.681	91.75
484.9	97.75
485.118	103.75
485.336	77.75
485.554	89.75
485.772	90.75
485.99	99.75
486.209	113.75
486.427	95.75
486.645	101.75
486.863	93.75
487.081	87.75
487.299	88.75
487.517	89.75
487.735	89.75
487.953	100.75
488.171	94.75
488.389	95.75
488.607	105.75
488.825	88.75
489.043	86.75
489.261	77.75
489.479	76.75
489.696	93.75
489.914	75.75
490.132	91.75
490.35	92.75
490.568	99.75
490.786	85.75
491.003	85.75
491.221	82.75
491.439	65.75
491.657	73.75
491.874	78.75
492.092	66.75
492.31	88.75
492.527	84.75
492.745	74.75
492.963	96.75
493.18	80.75
493.398	106.75
493.615	109.75
493.833	90.75
494.05	97.75
494.268	87.75
494.485	92.75
494.703	86.75
494.92	89.75
495.138	100.75
495.355	95.75
495.573	96.75
495.79	93.75
496.008	77.75
496.225	87.75
496.442	80.75
496.66	93.75
496.877	87.75
497.094	81.75
497.312	81.75
497.529	92.75
497.746	91.75
497.963	94.75
498.181	96.75
498.398	93.75
498.615	104.75
498.832	97.75
499.049	95.75
499.267	82.75
499.484	74.75
499.701	78.75
499.918	100.75
500.135	92.75
500.352	90.75
500.569	101.75
500.786	88.75
501.003	94.75
501.22	83.75
501.437	86.75
501.654	102.75
501.871	101.75
502.088	86.75
502.305	85.75
502.522	98.75
502.739	81.75
502.956	89.75
503.172	90.75
503.389	87.75
503.606	98.75
503.823	72.75
504.04	82.75
504.256	87.75
504.473	99.75
504.69	92.75
504.907	86.75
505.123	81.75
505.34	85.75
505.557	84.75
505.773	85.75
505.99	82.75
506.207	96.75
506.423	98.75
506.64	96.75
506.856	80.75
507.073	87.75
507.289	100.75
507.506	84.75
507.722	92.75
507.939	93.75
508.155	85.75
508.372	94.75
508.588	92.75
508.805	97.75
509.021	94.75
509.238	103.75
509.454	105.75
509.67	97.75
509.887	107.75
510.103	124.75
510.319	202.75
510.536	703.75
510.752	2050.75
510.968	596.75
511.184	157.75
511.401	104.75
511.617	86.75
511.833	93.75
512.049	81.75
512.265	93.75
512.481	84.75
512.698	100.75
512.914	78.75
513.13	89.75
513.346	93.75
513.562	77.75
513.778	96.75
513.994	101.75
514.21	105.75
514.426	101.75
514.642	123.75
514.858	109.75
515.074	146.75
515.29	396.75
515.506	1242.75
515.721	472.75
515.937	148.75
516.153	92.75
516.369	90.75
516.585	93.75
516.801	90.75
