Data from Uncirc_2005_H10_HRD10591_00099.txt Node
Date: Wed Jan 03 10:28:44 EST 2024
User: Yrep
Spectrometer: HR+D1059
Trigger mode: 1
Integration Time (sec): 1.000000E-1
Scans to average: 1
Electric dark correction enabled: true
Nonlinearity correction enabled: false
Boxcar width: 0
XAxis mode: Wavelengths
Number of Pixels in Spectrum: 2048
>>>>>Begin Spectral Data<<<<<
223.165	-6.5
223.4	-6.5
223.635	-6.5
223.869	-17.5
224.104	-26.5
224.338	-0.5
224.573	-12.5
224.808	-15.5
225.042	5.5
225.277	-15.5
225.511	-1.5
225.746	10.5
225.98	5.5
226.215	2.5
226.449	6.5
226.683	11.5
226.918	28.5
227.152	25.5
227.387	44.5
227.621	36.5
227.856	41.5
228.09	39.5
228.324	50.5
228.559	75.5
228.793	54.5
229.027	56.5
229.262	68.5
229.496	71.5
229.73	77.5
229.964	84.5
230.199	80.5
230.433	78.5
230.667	77.5
230.901	68.5
231.136	68.5
231.37	73.5
231.604	70.5
231.838	81.5
232.072	80.5
232.306	82.5
232.541	84.5
232.775	71.5
233.009	83.5
233.243	93.5
233.477	89.5
233.711	79.5
233.945	76.5
234.179	86.5
234.413	71.5
234.647	70.5
234.881	79.5
235.115	89.5
235.349	68.5
235.583	77.5
235.817	91.5
236.051	83.5
236.285	79.5
236.519	74.5
236.753	74.5
236.987	67.5
237.221	74.5
237.455	86.5
237.689	80.5
237.922	70.5
238.156	77.5
238.39	66.5
238.624	68.5
238.858	79.5
239.091	72.5
239.325	62.5
239.559	62.5
239.793	80.5
240.027	79.5
240.26	72.5
240.494	74.5
240.728	75.5
240.961	74.5
241.195	83.5
241.429	82.5
241.662	62.5
241.896	75.5
242.13	87.5
242.363	77.5
242.597	61.5
242.83	78.5
243.064	79.5
243.298	88.5
243.531	82.5
243.765	79.5
243.998	86.5
244.232	95.5
244.465	77.5
244.699	68.5
244.932	71.5
245.166	65.5
245.399	80.5
245.633	88.5
245.866	64.5
246.099	71.5
246.333	65.5
246.566	62.5
246.8	86.5
247.033	77.5
247.266	73.5
247.5	69.5
247.733	87.5
247.966	60.5
248.2	75.5
248.433	74.5
248.666	68.5
248.899	83.5
249.133	82.5
249.366	95.5
249.599	100.5
249.832	78.5
250.066	81.5
250.299	61.5
250.532	68.5
250.765	80.5
250.998	73.5
251.231	87.5
251.465	70.5
251.698	87.5
251.931	84.5
252.164	73.5
252.397	90.5
252.63	79.5
252.863	83.5
253.096	73.5
253.329	75.5
253.562	76.5
253.795	77.5
254.028	72.5
254.261	82.5
254.494	82.5
254.727	67.5
254.96	80.5
255.193	95.5
255.426	92.5
255.659	83.5
255.892	84.5
256.124	74.5
256.357	84.5
256.59	79.5
256.823	72.5
257.056	75.5
257.289	91.5
257.521	69.5
257.754	73.5
257.987	70.5
258.22	85.5
258.452	89.5
258.685	77.5
258.918	76.5
259.151	85.5
259.383	82.5
259.616	85.5
259.849	81.5
260.081	80.5
260.314	85.5
260.547	80.5
260.779	88.5
261.012	77.5
261.244	96.5
261.477	92.5
261.71	91.5
261.942	108.5
262.175	110.5
262.407	87.5
262.64	90.5
262.872	91.5
263.105	81.5
263.337	82.5
263.57	78.5
263.802	89.5
264.035	92.5
264.267	77.5
264.499	80.5
264.732	76.5
264.964	87.5
265.197	75.5
265.429	80.5
265.661	87.5
265.894	82.5
266.126	82.5
266.358	84.5
266.591	88.5
266.823	78.5
267.055	89.5
267.287	79.5
267.52	64.5
267.752	87.5
267.984	85.5
268.216	90.5
268.448	92.5
268.681	89.5
268.913	70.5
269.145	70.5
269.377	72.5
269.609	75.5
269.841	82.5
270.073	79.5
270.306	85.5
270.538	83.5
270.77	98.5
271.002	90.5
271.234	85.5
271.466	90.5
271.698	72.5
271.93	79.5
272.162	99.5
272.394	82.5
272.626	83.5
272.858	92.5
273.09	58.5
273.322	94.5
273.553	83.5
273.785	70.5
274.017	92.5
274.249	80.5
274.481	91.5
274.713	78.5
274.945	92.5
275.176	79.5
275.408	73.5
275.64	81.5
275.872	104.5
276.104	83.5
276.335	99.5
276.567	106.5
276.799	87.5
277.031	111.5
277.262	83.5
277.494	87.5
277.726	102.5
277.957	82.5
278.189	82.5
278.421	90.5
278.652	87.5
278.884	91.5
279.115	77.5
279.347	86.5
279.579	90.5
279.81	79.5
280.042	92.5
280.273	91.5
280.505	91.5
280.736	81.5
280.968	72.5
281.199	85.5
281.431	77.5
281.662	86.5
281.894	85.5
282.125	95.5
282.356	124.5
282.588	123.5
282.819	108.5
283.051	86.5
283.282	93.5
283.513	68.5
283.745	70.5
283.976	84.5
284.207	71.5
284.439	84.5
284.67	96.5
284.901	75.5
285.132	77.5
285.364	92.5
285.595	80.5
285.826	75.5
286.057	79.5
286.288	92.5
286.52	87.5
286.751	88.5
286.982	83.5
287.213	85.5
287.444	86.5
287.675	75.5
287.906	77.5
288.138	92.5
288.369	94.5
288.6	92.5
288.831	81.5
289.062	92.5
289.293	89.5
289.524	99.5
289.755	89.5
289.986	95.5
290.217	83.5
290.448	93.5
290.679	88.5
290.91	80.5
291.141	93.5
291.371	96.5
291.602	88.5
291.833	102.5
292.064	78.5
292.295	79.5
292.526	85.5
292.757	81.5
292.987	92.5
293.218	82.5
293.449	86.5
293.68	95.5
293.91	76.5
294.141	89.5
294.372	81.5
294.603	102.5
294.833	95.5
295.064	83.5
295.295	88.5
295.525	95.5
295.756	94.5
295.987	117.5
296.217	141.5
296.448	119.5
296.679	102.5
296.909	101.5
297.14	77.5
297.37	90.5
297.601	80.5
297.831	75.5
298.062	92.5
298.292	96.5
298.523	87.5
298.753	83.5
298.984	94.5
299.214	89.5
299.445	74.5
299.675	108.5
299.905	106.5
300.136	88.5
300.366	90.5
300.597	111.5
300.827	90.5
301.057	90.5
301.288	103.5
301.518	105.5
301.748	103.5
301.979	86.5
302.209	93.5
302.439	89.5
302.669	95.5
302.9	86.5
303.13	88.5
303.36	91.5
303.59	92.5
303.82	92.5
304.051	89.5
304.281	93.5
304.511	82.5
304.741	76.5
304.971	81.5
305.201	93.5
305.431	93.5
305.661	89.5
305.891	101.5
306.121	108.5
306.352	112.5
306.582	105.5
306.812	91.5
307.042	88.5
307.272	84.5
307.502	103.5
307.731	101.5
307.961	117.5
308.191	90.5
308.421	83.5
308.651	81.5
308.881	77.5
309.111	95.5
309.341	101.5
309.571	100.5
309.8	96.5
310.03	97.5
310.26	102.5
310.49	86.5
310.72	101.5
310.949	104.5
311.179	93.5
311.409	90.5
311.639	107.5
311.868	80.5
312.098	97.5
312.328	100.5
312.557	97.5
312.787	105.5
313.017	97.5
313.246	87.5
313.476	96.5
313.706	111.5
313.935	92.5
314.165	89.5
314.394	90.5
314.624	81.5
314.853	98.5
315.083	82.5
315.312	90.5
315.542	86.5
315.771	87.5
316.001	70.5
316.23	94.5
316.46	87.5
316.689	103.5
316.919	99.5
317.148	96.5
317.377	100.5
317.607	100.5
317.836	96.5
318.065	89.5
318.295	69.5
318.524	102.5
318.753	85.5
318.983	88.5
319.212	96.5
319.441	110.5
319.67	115.5
319.9	101.5
320.129	90.5
320.358	92.5
320.587	86.5
320.816	96.5
321.046	92.5
321.275	98.5
321.504	87.5
321.733	95.5
321.962	99.5
322.191	115.5
322.42	101.5
322.649	113.5
322.878	121.5
323.108	106.5
323.337	121.5
323.566	156.5
323.795	163.5
324.024	232.5
324.253	475.5
324.482	982.5
324.71	2140.5
324.939	2827.5
325.168	1009.5
325.397	291.5
325.626	164.5
325.855	141.5
326.084	126.5
326.313	141.5
326.542	153.5
326.77	252.5
326.999	560.5
327.228	1165.5
327.457	2165.5
327.686	1700.5
327.914	450.5
328.143	201.5
328.372	149.5
328.6	125.5
328.829	116.5
329.058	136.5
329.287	131.5
329.515	115.5
329.744	98.5
329.972	108.5
330.201	100.5
330.43	92.5
330.658	120.5
330.887	120.5
331.115	114.5
331.344	101.5
331.572	97.5
331.801	109.5
332.03	102.5
332.258	88.5
332.486	84.5
332.715	90.5
332.943	94.5
333.172	94.5
333.4	99.5
333.629	107.5
333.857	108.5
334.085	105.5
334.314	86.5
334.542	99.5
334.771	98.5
334.999	100.5
335.227	100.5
335.455	93.5
335.684	92.5
335.912	101.5
336.14	99.5
336.369	109.5
336.597	87.5
336.825	101.5
337.053	95.5
337.281	95.5
337.51	99.5
337.738	101.5
337.966	100.5
338.194	82.5
338.422	96.5
338.65	92.5
338.878	89.5
339.106	90.5
339.334	89.5
339.562	87.5
339.79	87.5
340.018	93.5
340.246	91.5
340.474	101.5
340.702	76.5
340.93	90.5
341.158	92.5
341.386	94.5
341.614	104.5
341.842	100.5
342.07	93.5
342.298	86.5
342.526	72.5
342.754	90.5
342.981	75.5
343.209	76.5
343.437	84.5
343.665	71.5
343.893	92.5
344.12	92.5
344.348	86.5
344.576	97.5
344.804	104.5
345.031	93.5
345.259	104.5
345.487	104.5
345.714	91.5
345.942	98.5
346.17	96.5
346.397	75.5
346.625	93.5
346.853	87.5
347.08	96.5
347.308	84.5
347.535	105.5
347.763	109.5
347.99	100.5
348.218	111.5
348.445	112.5
348.673	98.5
348.9	82.5
349.128	96.5
349.355	82.5
349.583	102.5
349.81	93.5
350.037	87.5
350.265	92.5
350.492	85.5
350.72	92.5
350.947	105.5
351.174	114.5
351.402	106.5
351.629	99.5
351.856	112.5
352.083	88.5
352.311	108.5
352.538	107.5
352.765	99.5
352.992	119.5
353.22	103.5
353.447	95.5
353.674	105.5
353.901	104.5
354.128	88.5
354.355	95.5
354.583	98.5
354.81	90.5
355.037	104.5
355.264	101.5
355.491	79.5
355.718	77.5
355.945	94.5
356.172	87.5
356.399	79.5
356.626	80.5
356.853	101.5
357.08	96.5
357.307	78.5
357.534	96.5
357.761	95.5
357.988	85.5
358.215	89.5
358.441	89.5
358.668	92.5
358.895	89.5
359.122	97.5
359.349	95.5
359.576	90.5
359.802	97.5
360.029	117.5
360.256	116.5
360.483	109.5
360.709	96.5
360.936	92.5
361.163	99.5
361.39	88.5
361.616	97.5
361.843	82.5
362.07	101.5
362.296	102.5
362.523	79.5
362.749	83.5
362.976	86.5
363.203	91.5
363.429	77.5
363.656	85.5
363.882	99.5
364.109	98.5
364.335	81.5
364.562	90.5
364.788	91.5
365.015	96.5
365.241	104.5
365.468	111.5
365.694	103.5
365.92	98.5
366.147	96.5
366.373	81.5
366.599	86.5
366.826	83.5
367.052	90.5
367.278	85.5
367.505	96.5
367.731	93.5
367.957	87.5
368.184	106.5
368.41	110.5
368.636	107.5
368.862	124.5
369.089	88.5
369.315	95.5
369.541	82.5
369.767	91.5
369.993	79.5
370.219	76.5
370.445	93.5
370.672	84.5
370.898	101.5
371.124	93.5
371.35	73.5
371.576	79.5
371.802	83.5
372.028	74.5
372.254	76.5
372.48	69.5
372.706	86.5
372.932	82.5
373.158	91.5
373.384	89.5
373.61	86.5
373.835	104.5
374.061	80.5
374.287	81.5
374.513	84.5
374.739	91.5
374.965	81.5
375.191	91.5
375.416	89.5
375.642	102.5
375.868	103.5
376.094	94.5
376.319	85.5
376.545	83.5
376.771	89.5
376.997	89.5
377.222	90.5
377.448	86.5
377.674	97.5
377.899	85.5
378.125	92.5
378.35	90.5
378.576	79.5
378.802	89.5
379.027	92.5
379.253	76.5
379.478	76.5
379.704	83.5
379.929	80.5
380.155	86.5
380.38	101.5
380.606	99.5
380.831	82.5
381.057	92.5
381.282	98.5
381.507	103.5
381.733	98.5
381.958	101.5
382.184	97.5
382.409	105.5
382.634	99.5
382.86	96.5
383.085	95.5
383.31	94.5
383.535	101.5
383.761	86.5
383.986	93.5
384.211	98.5
384.436	106.5
384.662	102.5
384.887	92.5
385.112	110.5
385.337	97.5
385.562	104.5
385.787	96.5
386.013	110.5
386.238	109.5
386.463	108.5
386.688	99.5
386.913	113.5
387.138	95.5
387.363	95.5
387.588	95.5
387.813	97.5
388.038	100.5
388.263	89.5
388.488	113.5
388.713	97.5
388.938	104.5
389.163	102.5
389.387	102.5
389.612	90.5
389.837	100.5
390.062	96.5
390.287	89.5
390.512	84.5
390.736	91.5
390.961	93.5
391.186	90.5
391.411	86.5
391.636	90.5
391.86	101.5
392.085	77.5
392.31	78.5
392.534	86.5
392.759	93.5
392.984	97.5
393.208	89.5
393.433	83.5
393.658	82.5
393.882	78.5
394.107	73.5
394.331	82.5
394.556	98.5
394.78	98.5
395.005	87.5
395.229	78.5
395.454	83.5
395.678	86.5
395.903	90.5
396.127	74.5
396.352	91.5
396.576	87.5
396.801	89.5
397.025	95.5
397.249	73.5
397.474	90.5
397.698	82.5
397.922	67.5
398.147	90.5
398.371	76.5
398.595	108.5
398.82	80.5
399.044	75.5
399.268	89.5
399.492	79.5
399.717	85.5
399.941	86.5
400.165	73.5
400.389	79.5
400.613	84.5
400.837	90.5
401.062	101.5
401.286	101.5
401.51	91.5
401.734	113.5
401.958	110.5
402.182	128.5
402.406	179.5
402.63	131.5
402.854	85.5
403.078	85.5
403.302	86.5
403.526	91.5
403.75	89.5
403.974	99.5
404.198	85.5
404.422	77.5
404.645	84.5
404.869	93.5
405.093	100.5
405.317	97.5
405.541	98.5
405.765	105.5
405.988	125.5
406.212	173.5
406.436	239.5
406.66	133.5
406.883	104.5
407.107	101.5
407.331	94.5
407.555	101.5
407.778	94.5
408.002	96.5
408.226	92.5
408.449	93.5
408.673	94.5
408.896	96.5
409.12	101.5
409.344	89.5
409.567	89.5
409.791	90.5
410.014	87.5
410.238	90.5
410.461	96.5
410.685	95.5
410.908	86.5
411.132	104.5
411.355	107.5
411.578	88.5
411.802	78.5
412.025	87.5
412.249	102.5
412.472	89.5
412.695	86.5
412.919	85.5
413.142	91.5
413.365	92.5
413.589	99.5
413.812	93.5
414.035	94.5
414.258	89.5
414.482	89.5
414.705	89.5
414.928	99.5
415.151	90.5
415.374	94.5
415.597	92.5
415.821	83.5
416.044	82.5
416.267	96.5
416.49	75.5
416.713	80.5
416.936	101.5
417.159	77.5
417.382	100.5
417.605	97.5
417.828	96.5
418.051	97.5
418.274	83.5
418.497	93.5
418.72	83.5
418.943	82.5
419.166	80.5
419.389	91.5
419.611	94.5
419.834	85.5
420.057	91.5
420.28	104.5
420.503	94.5
420.726	88.5
420.948	82.5
421.171	91.5
421.394	82.5
421.617	96.5
421.839	89.5
422.062	102.5
422.285	90.5
422.507	105.5
422.73	106.5
422.953	100.5
423.175	83.5
423.398	83.5
423.621	87.5
423.843	92.5
424.066	95.5
424.288	85.5
424.511	91.5
424.733	104.5
424.956	107.5
425.178	107.5
425.401	108.5
425.623	101.5
425.846	94.5
426.068	96.5
426.291	89.5
426.513	91.5
426.735	82.5
426.958	97.5
427.18	115.5
427.402	150.5
427.625	169.5
427.847	130.5
428.069	94.5
428.292	79.5
428.514	99.5
428.736	93.5
428.958	88.5
429.181	78.5
429.403	85.5
429.625	83.5
429.847	93.5
430.069	92.5
430.292	94.5
430.514	78.5
430.736	71.5
430.958	77.5
431.18	81.5
431.402	97.5
431.624	89.5
431.846	80.5
432.068	83.5
432.29	84.5
432.512	92.5
432.734	85.5
432.956	104.5
433.178	96.5
433.4	95.5
433.622	110.5
433.844	83.5
434.066	75.5
434.287	89.5
434.509	92.5
434.731	99.5
434.953	82.5
435.175	78.5
435.397	83.5
435.618	96.5
435.84	95.5
436.062	127.5
436.284	122.5
436.505	100.5
436.727	103.5
436.949	99.5
437.17	99.5
437.392	91.5
437.614	99.5
437.835	101.5
438.057	128.5
438.278	108.5
438.5	122.5
438.721	137.5
438.943	100.5
439.165	86.5
439.386	85.5
439.608	85.5
439.829	87.5
440.05	110.5
440.272	149.5
440.493	103.5
440.715	97.5
440.936	97.5
441.158	84.5
441.379	82.5
441.6	90.5
441.822	82.5
442.043	98.5
442.264	125.5
442.486	108.5
442.707	107.5
442.928	114.5
443.149	145.5
443.371	138.5
443.592	129.5
443.813	124.5
444.034	113.5
444.255	97.5
444.476	100.5
444.698	92.5
444.919	97.5
445.14	131.5
445.361	128.5
445.582	110.5
445.803	128.5
446.024	137.5
446.245	140.5
446.466	109.5
446.687	86.5
446.908	83.5
447.129	108.5
447.35	97.5
447.571	83.5
447.792	94.5
448.013	95.5
448.234	110.5
448.455	94.5
448.675	124.5
448.896	133.5
449.117	106.5
449.338	100.5
449.559	130.5
449.779	144.5
450	99.5
450.221	90.5
450.442	89.5
450.662	84.5
450.883	108.5
451.104	117.5
451.324	90.5
451.545	90.5
451.766	95.5
451.986	91.5
452.207	88.5
452.428	91.5
452.648	102.5
452.869	114.5
453.089	115.5
453.31	110.5
453.53	83.5
453.751	86.5
453.971	112.5
454.192	118.5
454.412	83.5
454.633	85.5
454.853	93.5
455.073	100.5
455.294	85.5
455.514	105.5
455.734	86.5
455.955	74.5
456.175	84.5
456.395	84.5
456.616	90.5
456.836	81.5
457.056	76.5
457.276	85.5
457.497	91.5
457.717	90.5
457.937	89.5
458.157	81.5
458.377	91.5
458.598	99.5
458.818	157.5
459.038	172.5
459.258	109.5
459.478	104.5
459.698	89.5
459.918	82.5
460.138	94.5
460.358	84.5
460.578	72.5
460.798	90.5
461.018	97.5
461.238	90.5
461.458	87.5
461.678	73.5
461.898	95.5
462.118	92.5
462.338	93.5
462.558	92.5
462.777	69.5
462.997	90.5
463.217	64.5
463.437	83.5
463.657	86.5
463.876	84.5
464.096	83.5
464.316	93.5
464.536	86.5
464.755	83.5
464.975	104.5
465.195	176.5
465.414	169.5
465.634	91.5
465.854	85.5
466.073	98.5
466.293	76.5
466.512	89.5
466.732	91.5
466.951	82.5
467.171	106.5
467.391	91.5
467.61	99.5
467.829	100.5
468.049	90.5
468.268	95.5
468.488	82.5
468.707	86.5
468.927	71.5
469.146	80.5
469.365	85.5
469.585	83.5
469.804	92.5
470.023	100.5
470.243	99.5
470.462	99.5
470.681	123.5
470.901	89.5
471.12	92.5
471.339	89.5
471.558	85.5
471.777	97.5
471.997	80.5
472.216	85.5
472.435	87.5
472.654	92.5
472.873	103.5
473.092	100.5
473.311	88.5
473.53	87.5
473.749	93.5
473.968	100.5
474.187	97.5
474.406	104.5
474.625	95.5
474.844	96.5
475.063	86.5
475.282	98.5
475.501	84.5
475.72	86.5
475.939	83.5
476.158	93.5
476.377	84.5
476.596	94.5
476.814	98.5
477.033	89.5
477.252	72.5
477.471	85.5
477.69	82.5
477.908	89.5
478.127	79.5
478.346	88.5
478.564	104.5
478.783	94.5
479.002	101.5
479.22	94.5
479.439	98.5
479.658	87.5
479.876	99.5
480.095	93.5
480.313	74.5
480.532	78.5
480.751	94.5
480.969	89.5
481.188	86.5
481.406	97.5
481.624	84.5
481.843	80.5
482.061	83.5
482.28	81.5
482.498	88.5
482.717	86.5
482.935	93.5
483.153	86.5
483.372	92.5
483.59	87.5
483.808	86.5
484.027	104.5
484.245	86.5
484.463	88.5
484.681	82.5
484.9	111.5
485.118	98.5
485.336	105.5
485.554	83.5
485.772	86.5
485.99	93.5
486.209	110.5
486.427	101.5
486.645	110.5
486.863	107.5
487.081	97.5
487.299	96.5
487.517	83.5
487.735	85.5
487.953	84.5
488.171	89.5
488.389	92.5
488.607	95.5
488.825	97.5
489.043	95.5
489.261	90.5
489.479	86.5
489.696	86.5
489.914	77.5
490.132	91.5
490.35	88.5
490.568	80.5
490.786	83.5
491.003	82.5
491.221	74.5
491.439	85.5
491.657	83.5
491.874	96.5
492.092	86.5
492.31	84.5
492.527	84.5
492.745	79.5
492.963	74.5
493.18	95.5
493.398	90.5
493.615	86.5
493.833	87.5
494.05	83.5
494.268	97.5
494.485	81.5
494.703	86.5
494.92	86.5
495.138	83.5
495.355	93.5
495.573	86.5
495.79	88.5
496.008	82.5
496.225	91.5
496.442	72.5
496.66	97.5
496.877	86.5
497.094	80.5
497.312	97.5
497.529	86.5
497.746	89.5
497.963	97.5
498.181	94.5
498.398	91.5
498.615	101.5
498.832	102.5
499.049	97.5
499.267	86.5
499.484	104.5
499.701	89.5
499.918	92.5
500.135	89.5
500.352	72.5
500.569	79.5
500.786	72.5
501.003	76.5
501.22	95.5
501.437	86.5
501.654	88.5
501.871	101.5
502.088	87.5
502.305	99.5
502.522	85.5
502.739	95.5
502.956	85.5
503.172	97.5
503.389	83.5
503.606	105.5
503.823	87.5
504.04	93.5
504.256	84.5
504.473	107.5
504.69	80.5
504.907	104.5
505.123	85.5
505.34	80.5
505.557	92.5
505.773	100.5
505.99	101.5
506.207	83.5
506.423	97.5
506.64	88.5
506.856	90.5
507.073	87.5
507.289	91.5
507.506	96.5
507.722	115.5
507.939	113.5
508.155	89.5
508.372	87.5
508.588	86.5
508.805	104.5
509.021	110.5
509.238	94.5
509.454	100.5
509.67	99.5
509.887	121.5
510.103	122.5
510.319	232.5
510.536	848.5
510.752	2693.5
510.968	730.5
511.184	165.5
511.401	116.5
511.617	83.5
511.833	101.5
512.049	91.5
512.265	100.5
512.481	100.5
512.698	80.5
512.914	75.5
513.13	87.5
513.346	99.5
513.562	89.5
513.778	108.5
513.994	86.5
514.21	98.5
514.426	109.5
514.642	133.5
514.858	124.5
515.074	163.5
515.29	526.5
515.506	1763.5
515.721	603.5
515.937	164.5
516.153	122.5
516.369	98.5
516.585	98.5
516.801	104.5
517.016	90.5
517.232	88.5
517.448	77.5
517.664	91.5
517.879	88.5
518.095	105.5
518.311	105.5
518.527	92.5
518.742	81.5
518.958	92.5
519.173	97.5
519.389	94.5
519.605	91.5
519.82	103.5
520.036	88.5
520.251	125.5
520.467	111.5
520.682	112.5
520.898	112.5
521.113	131.5
521.329	140.5
521.544	224.5
521.76	650.5
521.975	2877.5
522.19	1754.5
522.406	357.5
522.621	140.5
522.836	97.5
523.052	95.5
523.267	99.5
523.482	99.5
523.698	104.5
523.913	122.5
524.128	108.5
524.343	98.5
524.559	99.5
524.774	88.5
524.989	82.5
525.204	103.5
525.419	96.5
525.634	97.5
525.849	82.5
526.064	99.5
526.28	96.5
526.495	94.5
526.71	94.5
526.925	85.5
527.14	88.5
527.355	90.5
527.57	96.5
527.785	94.5
527.999	88.5
528.214	89.5
528.429	98.5
528.644	84.5
528.859	91.5
529.074	88.5
529.289	122.5
529.503	180.5
529.718	97.5
529.933	101.5
530.148	90.5
530.363	93.5
530.577	85.5
530.792	87.5
531.007	93.5
531.221	105.5
531.436	86.5
531.651	83.5
531.865	90.5
532.08	94.5
532.295	83.5
532.509	89.5
532.724	80.5
532.938	87.5
533.153	99.5
533.367	88.5
533.582	85.5
533.796	87.5
534.011	97.5
534.225	85.5
534.44	85.5
534.654	91.5
534.868	88.5
535.083	90.5
535.297	87.5
535.511	106.5
