Data from Uncirc_2005_H10_HRD10591_00072.txt Node
Date: Wed Jan 03 10:28:39 EST 2024
User: Yrep
Spectrometer: HR+D1059
Trigger mode: 1
Integration Time (sec): 1.000000E-1
Scans to average: 1
Electric dark correction enabled: true
Nonlinearity correction enabled: false
Boxcar width: 0
XAxis mode: Wavelengths
Number of Pixels in Spectrum: 2048
>>>>>Begin Spectral Data<<<<<
223.165	-23
223.4	-23
223.635	-23
223.869	-17
224.104	-17
224.338	-17
224.573	-22
224.808	-14
225.042	-22
225.277	-9
225.511	6
225.746	1
225.98	16
226.215	10
226.449	31
226.683	22
226.918	26
227.152	29
227.387	27
227.621	41
227.856	36
228.09	45
228.324	47
228.559	54
228.793	57
229.027	58
229.262	78
229.496	68
229.73	87
229.964	109
230.199	72
230.433	81
230.667	86
230.901	81
231.136	80
231.37	81
231.604	78
231.838	71
232.072	76
232.306	85
232.541	90
232.775	102
233.009	79
233.243	85
233.477	75
233.711	88
233.945	86
234.179	82
234.413	89
234.647	88
234.881	94
235.115	82
235.349	82
235.583	84
235.817	79
236.051	82
236.285	66
236.519	84
236.753	76
236.987	85
237.221	94
237.455	106
237.689	80
237.922	82
238.156	83
238.39	90
238.624	79
238.858	71
239.091	76
239.325	84
239.559	81
239.793	79
240.027	84
240.26	90
240.494	86
240.728	75
240.961	77
241.195	78
241.429	76
241.662	70
241.896	78
242.13	69
242.363	65
242.597	86
242.83	76
243.064	82
243.298	86
243.531	98
243.765	77
243.998	70
244.232	80
244.465	68
244.699	95
244.932	84
245.166	92
245.399	70
245.633	87
245.866	84
246.099	82
246.333	89
246.566	71
246.8	68
247.033	71
247.266	80
247.5	81
247.733	85
247.966	82
248.2	76
248.433	71
248.666	87
248.899	91
249.133	84
249.366	78
249.599	91
249.832	87
250.066	96
250.299	79
250.532	84
250.765	73
250.998	80
251.231	81
251.465	83
251.698	90
251.931	76
252.164	95
252.397	87
252.63	85
252.863	83
253.096	70
253.329	80
253.562	83
253.795	82
254.028	77
254.261	69
254.494	81
254.727	92
254.96	82
255.193	86
255.426	75
255.659	92
255.892	97
256.124	94
256.357	77
256.59	81
256.823	74
257.056	89
257.289	83
257.521	89
257.754	87
257.987	83
258.22	77
258.452	85
258.685	79
258.918	62
259.151	70
259.383	89
259.616	85
259.849	90
260.081	79
260.314	89
260.547	77
260.779	79
261.012	84
261.244	86
261.477	93
261.71	86
261.942	109
262.175	129
262.407	94
262.64	89
262.872	86
263.105	77
263.337	87
263.57	74
263.802	85
264.035	88
264.267	85
264.499	85
264.732	90
264.964	85
265.197	84
265.429	87
265.661	72
265.894	76
266.126	90
266.358	93
266.591	98
266.823	88
267.055	84
267.287	102
267.52	96
267.752	86
267.984	81
268.216	90
268.448	80
268.681	84
268.913	82
269.145	84
269.377	94
269.609	88
269.841	88
270.073	78
270.306	98
270.538	76
270.77	82
271.002	85
271.234	84
271.466	85
271.698	74
271.93	97
272.162	88
272.394	101
272.626	84
272.858	83
273.09	82
273.322	87
273.553	83
273.785	77
274.017	95
274.249	86
274.481	82
274.713	92
274.945	88
275.176	87
275.408	89
275.64	90
275.872	91
276.104	106
276.335	105
276.567	94
276.799	114
277.031	105
277.262	89
277.494	96
277.726	84
277.957	85
278.189	95
278.421	87
278.652	100
278.884	72
279.115	81
279.347	104
279.579	93
279.81	84
280.042	85
280.273	84
280.505	84
280.736	81
280.968	86
281.199	86
281.431	95
281.662	83
281.894	97
282.125	103
282.356	119
282.588	126
282.819	107
283.051	95
283.282	82
283.513	91
283.745	87
283.976	95
284.207	95
284.439	88
284.67	93
284.901	95
285.132	94
285.364	90
285.595	95
285.826	93
286.057	97
286.288	86
286.52	93
286.751	97
286.982	90
287.213	102
287.444	93
287.675	100
287.906	73
288.138	91
288.369	89
288.6	92
288.831	89
289.062	78
289.293	87
289.524	93
289.755	82
289.986	80
290.217	92
290.448	90
290.679	81
290.91	86
291.141	84
291.371	93
291.602	96
291.833	85
292.064	101
292.295	88
292.526	89
292.757	80
292.987	86
293.218	88
293.449	98
293.68	72
293.91	97
294.141	80
294.372	75
294.603	89
294.833	72
295.064	90
295.295	87
295.525	99
295.756	112
295.987	120
296.217	124
296.448	119
296.679	87
296.909	100
297.14	92
297.37	72
297.601	80
297.831	87
298.062	87
298.292	73
298.523	88
298.753	84
298.984	89
299.214	92
299.445	95
299.675	90
299.905	89
300.136	103
300.366	96
300.597	88
300.827	90
301.057	117
301.288	111
301.518	91
301.748	90
301.979	88
302.209	99
302.439	98
302.669	93
302.9	92
303.13	90
303.36	98
303.59	93
303.82	103
304.051	84
304.281	79
304.511	82
304.741	102
304.971	85
305.201	96
305.431	106
305.661	78
305.891	97
306.121	107
306.352	98
306.582	110
306.812	98
307.042	104
307.272	107
307.502	111
307.731	87
307.961	106
308.191	77
308.421	76
308.651	86
308.881	82
309.111	90
309.341	87
309.571	101
309.8	85
310.03	92
310.26	97
310.49	101
310.72	93
310.949	112
311.179	96
311.409	108
311.639	110
311.868	107
312.098	96
312.328	89
312.557	80
312.787	90
313.017	108
313.246	95
313.476	84
313.706	91
313.935	109
314.165	108
314.394	83
314.624	103
314.853	90
315.083	83
315.312	89
315.542	99
315.771	104
316.001	92
316.23	80
316.46	89
316.689	90
316.919	96
317.148	86
317.377	93
317.607	93
317.836	86
318.065	85
318.295	83
318.524	97
318.753	80
318.983	92
319.212	105
319.441	120
319.67	112
319.9	95
320.129	70
320.358	90
320.587	101
320.816	101
321.046	96
321.275	106
321.504	111
321.733	94
321.962	87
322.191	90
322.42	116
322.649	108
322.878	103
323.108	110
323.337	127
323.566	121
323.795	152
324.024	185
324.253	392
324.482	812
324.71	1637
324.939	2144
325.168	780
325.397	223
325.626	144
325.855	109
326.084	127
326.313	121
326.542	138
326.77	225
326.999	463
327.228	928
327.457	1696
327.686	1338
327.914	341
328.143	180
328.372	136
328.6	121
328.829	103
329.058	120
329.287	112
329.515	95
329.744	101
329.972	101
330.201	98
330.43	114
330.658	106
330.887	146
331.115	115
331.344	117
331.572	118
331.801	86
332.03	105
332.258	85
332.486	89
332.715	85
332.943	88
333.172	93
333.4	94
333.629	111
333.857	108
334.085	97
334.314	98
334.542	96
334.771	110
334.999	101
335.227	94
335.455	98
335.684	96
335.912	98
336.14	89
336.369	96
336.597	88
336.825	95
337.053	96
337.281	107
337.51	93
337.738	108
337.966	92
338.194	83
338.422	87
338.65	85
338.878	83
339.106	108
339.334	86
339.562	96
339.79	93
340.018	94
340.246	102
340.474	90
340.702	97
340.93	85
341.158	89
341.386	109
341.614	83
341.842	85
342.07	103
342.298	86
342.526	86
342.754	95
342.981	91
343.209	88
343.437	107
343.665	101
343.893	101
344.12	100
344.348	83
344.576	83
344.804	93
345.031	87
345.259	115
345.487	104
345.714	88
345.942	94
346.17	82
346.397	94
346.625	84
346.853	95
347.08	98
347.308	85
347.535	92
347.763	96
347.99	85
348.218	101
348.445	98
348.673	88
348.9	84
349.128	97
349.355	93
349.583	98
349.81	93
350.037	101
350.265	106
350.492	99
350.72	102
350.947	99
351.174	102
351.402	104
351.629	89
351.856	102
352.083	115
352.311	101
352.538	100
352.765	108
352.992	109
353.22	99
353.447	107
353.674	110
353.901	93
354.128	112
354.355	105
354.583	111
354.81	99
355.037	102
355.264	97
355.491	103
355.718	86
355.945	93
356.172	94
356.399	99
356.626	96
356.853	101
357.08	101
357.307	93
357.534	87
357.761	99
357.988	104
358.215	113
358.441	102
358.668	95
358.895	102
359.122	98
359.349	100
359.576	89
359.802	102
360.029	92
360.256	101
360.483	80
360.709	84
360.936	90
361.163	87
361.39	89
361.616	97
361.843	96
362.07	84
362.296	96
362.523	89
362.749	110
362.976	100
363.203	80
363.429	89
363.656	88
363.882	86
364.109	107
364.335	95
364.562	109
364.788	90
365.015	101
365.241	85
365.468	100
365.694	95
365.92	89
366.147	85
366.373	96
366.599	90
366.826	105
367.052	90
367.278	100
367.505	99
367.731	104
367.957	97
368.184	92
368.41	96
368.636	101
368.862	108
369.089	106
369.315	96
369.541	91
369.767	99
369.993	77
370.219	84
370.445	90
370.672	83
370.898	97
371.124	88
371.35	93
371.576	90
371.802	93
372.028	94
372.254	85
372.48	88
372.706	84
372.932	89
373.158	90
373.384	94
373.61	84
373.835	85
374.061	100
374.287	93
374.513	74
374.739	84
374.965	85
375.191	84
375.416	96
375.642	93
375.868	89
376.094	100
376.319	90
376.545	81
376.771	87
376.997	107
377.222	103
377.448	113
377.674	102
377.899	104
378.125	92
378.35	98
378.576	96
378.802	92
379.027	95
379.253	94
379.478	83
379.704	102
379.929	97
380.155	88
380.38	105
380.606	96
380.831	105
381.057	99
381.282	93
381.507	96
381.733	101
381.958	94
382.184	101
382.409	106
382.634	110
382.86	107
383.085	94
383.31	91
383.535	87
383.761	99
383.986	99
384.211	98
384.436	87
384.662	115
384.887	99
385.112	106
385.337	103
385.562	93
385.787	98
386.013	104
386.238	131
386.463	102
386.688	104
386.913	105
387.138	98
387.363	105
387.588	104
387.813	110
388.038	96
388.263	108
388.488	111
388.713	87
388.938	108
389.163	99
389.387	89
389.612	97
389.837	94
390.062	89
390.287	104
390.512	92
390.736	102
390.961	92
391.186	91
391.411	97
391.636	101
391.86	78
392.085	96
392.31	89
392.534	90
392.759	96
392.984	76
393.208	76
393.433	101
393.658	94
393.882	97
394.107	79
394.331	85
394.556	86
394.78	85
395.005	94
395.229	84
395.454	99
395.678	82
395.903	108
396.127	99
396.352	104
396.576	97
396.801	89
397.025	90
397.249	101
397.474	104
397.698	87
397.922	89
398.147	99
398.371	84
398.595	97
398.82	84
399.044	80
399.268	74
399.492	96
399.717	84
399.941	86
400.165	97
400.389	97
400.613	88
400.837	89
401.062	86
401.286	88
401.51	83
401.734	97
401.958	90
402.182	113
402.406	128
402.63	99
402.854	88
403.078	89
403.302	94
403.526	95
403.75	98
403.974	90
404.198	85
404.422	79
404.645	84
404.869	85
405.093	87
405.317	85
405.541	89
405.765	92
405.988	109
406.212	172
406.436	191
406.66	130
406.883	82
407.107	95
407.331	102
407.555	82
407.778	95
408.002	92
408.226	105
408.449	97
408.673	91
408.896	100
409.12	100
409.344	96
409.567	85
409.791	98
410.014	99
410.238	85
410.461	82
410.685	89
410.908	86
411.132	110
411.355	99
411.578	86
411.802	90
412.025	77
412.249	81
412.472	70
412.695	88
412.919	80
413.142	95
413.365	85
413.589	80
413.812	84
414.035	87
414.258	82
414.482	90
414.705	84
414.928	100
415.151	90
415.374	97
415.597	99
415.821	92
416.044	98
416.267	88
416.49	83
416.713	80
416.936	92
417.159	86
417.382	93
417.605	85
417.828	87
418.051	90
418.274	90
418.497	102
418.72	100
418.943	86
419.166	85
419.389	90
419.611	92
419.834	90
420.057	85
420.28	89
420.503	96
420.726	82
420.948	99
421.171	81
421.394	96
421.617	96
421.839	93
422.062	89
422.285	85
422.507	94
422.73	118
422.953	97
423.175	77
423.398	83
423.621	89
423.843	88
424.066	77
424.288	92
424.511	97
424.733	103
424.956	109
425.178	95
425.401	98
425.623	101
425.846	110
426.068	89
426.291	98
426.513	89
426.735	89
426.958	91
427.18	105
427.402	129
427.625	154
427.847	129
428.069	110
428.292	90
428.514	86
428.736	87
428.958	84
429.181	99
429.403	89
429.625	89
429.847	90
430.069	81
430.292	85
430.514	85
430.736	81
430.958	82
431.18	81
431.402	76
431.624	73
431.846	78
432.068	81
432.29	92
432.512	100
432.734	80
432.956	83
433.178	94
433.4	100
433.622	96
433.844	73
434.066	78
434.287	94
434.509	101
434.731	103
434.953	85
435.175	100
435.397	90
435.618	92
435.84	100
436.062	108
436.284	116
436.505	94
436.727	102
436.949	96
437.17	89
437.392	88
437.614	100
437.835	112
438.057	113
438.278	103
438.5	100
438.721	105
438.943	106
439.165	76
439.386	86
439.608	82
439.829	102
440.05	109
440.272	130
440.493	86
440.715	85
440.936	95
441.158	86
441.379	95
441.6	98
441.822	97
442.043	109
442.264	107
442.486	100
442.707	95
442.928	109
443.149	125
443.371	112
443.592	93
443.813	114
444.034	120
444.255	111
444.476	87
444.698	94
444.919	78
445.14	119
445.361	120
445.582	120
445.803	141
446.024	140
446.245	129
446.466	117
446.687	92
446.908	97
447.129	100
447.35	97
447.571	92
447.792	99
448.013	106
448.234	98
448.455	111
448.675	108
448.896	129
449.117	103
449.338	102
449.559	115
449.779	120
450	94
450.221	90
450.442	95
450.662	80
450.883	88
451.104	110
451.324	102
451.545	88
451.766	104
451.986	86
452.207	100
452.428	101
452.648	96
452.869	124
453.089	120
453.31	119
453.53	84
453.751	90
453.971	111
454.192	112
454.412	109
454.633	88
454.853	106
455.073	102
455.294	87
455.514	111
455.734	94
455.955	95
456.175	98
456.395	81
456.616	79
456.836	88
457.056	85
457.276	80
457.497	99
457.717	96
457.937	87
458.157	85
458.377	96
458.598	104
458.818	127
459.038	136
459.258	108
459.478	87
459.698	91
459.918	90
460.138	102
460.358	93
460.578	81
460.798	93
461.018	92
461.238	99
461.458	99
461.678	85
461.898	80
462.118	84
462.338	90
462.558	92
462.777	76
462.997	87
463.217	75
463.437	93
463.657	94
463.876	97
464.096	90
464.316	88
464.536	95
464.755	102
464.975	90
465.195	144
465.414	153
465.634	108
465.854	84
466.073	84
466.293	79
466.512	87
466.732	82
466.951	100
467.171	103
467.391	99
467.61	116
467.829	104
468.049	87
468.268	92
468.488	76
468.707	84
468.927	92
469.146	84
469.365	88
469.585	98
469.804	99
470.023	104
470.243	101
470.462	108
470.681	98
470.901	95
471.12	96
471.339	86
471.558	88
471.777	96
471.997	85
472.216	90
472.435	83
472.654	89
472.873	99
473.092	83
473.311	81
473.53	80
473.749	87
473.968	93
474.187	100
474.406	94
474.625	89
474.844	84
475.063	78
475.282	103
475.501	79
475.72	103
475.939	83
476.158	80
476.377	93
476.596	79
476.814	96
477.033	96
477.252	95
477.471	90
477.69	88
477.908	71
478.127	96
478.346	87
478.564	91
478.783	74
479.002	108
479.22	87
479.439	120
479.658	112
479.876	103
480.095	81
480.313	91
480.532	94
480.751	88
480.969	82
481.188	107
481.406	88
481.624	87
481.843	86
482.061	87
482.28	87
482.498	91
482.717	87
482.935	98
483.153	94
483.372	78
483.59	101
483.808	101
484.027	85
484.245	98
484.463	90
484.681	103
484.9	101
485.118	89
485.336	103
485.554	96
485.772	105
485.99	100
486.209	104
486.427	112
486.645	100
486.863	106
487.081	102
487.299	88
487.517	98
487.735	94
487.953	93
488.171	106
488.389	98
488.607	111
488.825	89
489.043	95
489.261	90
489.479	101
489.696	92
489.914	98
490.132	94
490.35	97
490.568	88
490.786	78
491.003	87
491.221	92
491.439	88
491.657	101
491.874	107
492.092	86
492.31	100
492.527	96
492.745	73
492.963	87
493.18	105
493.398	103
493.615	88
493.833	97
494.05	96
494.268	93
494.485	105
494.703	100
494.92	97
495.138	94
495.355	108
495.573	96
495.79	96
496.008	118
496.225	98
496.442	87
496.66	98
496.877	94
497.094	102
497.312	100
497.529	79
497.746	93
497.963	106
498.181	103
498.398	87
498.615	105
498.832	105
499.049	90
499.267	99
499.484	94
499.701	90
499.918	90
500.135	85
500.352	85
500.569	82
500.786	102
501.003	79
501.22	78
501.437	99
501.654	98
501.871	107
502.088	102
502.305	95
502.522	93
502.739	93
502.956	83
503.172	86
503.389	88
503.606	104
503.823	113
504.04	85
504.256	110
504.473	78
504.69	89
504.907	103
505.123	85
505.34	68
505.557	86
505.773	99
505.99	97
506.207	103
506.423	97
506.64	99
506.856	94
507.073	101
507.289	102
507.506	87
507.722	102
507.939	95
508.155	96
508.372	89
508.588	90
508.805	109
509.021	89
509.238	101
509.454	112
509.67	111
509.887	106
510.103	129
510.319	200
510.536	709
510.752	2071
510.968	606
511.184	157
511.401	105
511.617	111
511.833	99
512.049	108
512.265	97
512.481	110
512.698	104
512.914	102
513.13	82
513.346	86
513.562	111
513.778	112
513.994	97
514.21	109
514.426	117
514.642	134
514.858	127
515.074	158
515.29	405
515.506	1312
515.721	499
515.937	142
516.153	115
516.369	110
516.585	97
516.801	85
517.016	94
517.232	81
517.448	92
517.664	110
517.879	85
518.095	102
518.311	96
518.527	95
518.742	82
518.958	96
519.173	85
519.389	99
519.605	96
519.82	98
520.036	102
520.251	112
520.467	121
520.682	106
520.898	103
521.113	124
521.329	132
521.544	207
521.76	508
521.975	2084
522.19	1294
522.406	294
522.621	113
522.836	110
523.052	97
523.267	93
523.482	93
523.698	105
523.913	129
524.128	101
524.343	93
524.559	90
524.774	91
524.989	108
525.204	84
525.419	92
525.634	93
525.849	104
526.064	100
526.28	88
526.495	94
526.71	90
526.925	88
527.14	90
527.355	82
527.57	89
527.785	79
527.999	100
528.214	88
528.429	88
528.644	78
528.859	90
529.074	102
529.289	115
529.503	172
529.718	99
529.933	93
530.148	96
530.363	93
530.577	94
530.792	88
531.007	99
531.221	103
531.436	88
531.651	108
531.865	100
532.08	97
532.295	80
532.509	89
532.724	95
532.938	90
533.153	102
533.367	88
533.582	93
533.796	73
534.011	91
534.225	91
534.44	100
534.654	98
534.868	104
535.083	98
535.297	102
535.511	92
535.726	108
535.94	98
536.154	94
536.369	97
536.583	89
536.797	103
537.011	97
537.225	85
537.44	90
537.654	95
537.868	92
538.082	84
538.296	87
538.51	83
538.724	94
538.938	83
539.153	93
539.367	114
539.581	97
539.795	94
540.009	99
540.222	106
540.436	80
540.65	82
540.864	89
541.078	84
541.292	86
541.506	96
541.72	88
541.934	90
542.147	84
542.361	87
542.575	88
542.789	71
543.002	83
543.216	111
543.43	117
543.644	93
543.857	105
544.071	82
544.285	95
544.498	88
544.712	84
544.925	92
545.139	109
545.352	86
545.566	91
545.779	82
545.993	81
546.206	90
546.42	100
546.633	99
546.847	108
547.06	83
547.274	96
547.487	97
547.7	99
547.914	96
548.127	84
548.34	93
548.554	85
548.767	86
548.98	94
549.193	100
549.407	88
549.62	89
549.833	87
550.046	90
550.259	100
550.473	88
550.686	94
550.899	86
551.112	96
551.325	109
551.538	75
551.751	83
551.964	81
552.177	94
552.39	88
552.603	96
552.816	105
553.029	97
553.242	96
553.455	90
553.667	100
553.88	104
554.093	93
554.306	96
554.519	93
554.732	101
554.944	89
555.157	92
555.37	89
555.583	85
555.795	90
556.008	80
556.221	90
556.433	92
556.646	89
556.859	95
557.071	93
557.284	110
557.496	95
557.709	103
557.921	102
558.134	98
558.346	90
558.559	100
558.771	102
558.984	96
559.196	82
559.409	87
559.621	90
559.833	88
560.046	109
560.258	92
560.47	87
560.683	82
560.895	90
561.107	99
561.32	94
561.532	95
561.744	110
561.956	101
562.168	101
562.381	100
562.593	105
562.805	94
563.017	101
563.229	88
563.441	100
563.653	92
563.865	97
564.077	103
564.289	94
564.501	81
564.713	82
564.925	90
565.137	96
565.349	84
565.561	92
565.773	82
565.985	88
566.197	114
566.408	96
566.62	76
566.832	85
567.044	101
567.255	87
567.467	89
567.679	80
567.891	90
568.102	91
568.314	78
568.526	82
568.737	90
568.949	113
569.161	96
569.372	87
569.584	100
569.795	88
570.007	113
570.218	228
570.43	119
570.641	88
570.853	103
571.064	94
571.276	78
571.487	81
571.698	95
571.91	77
572.121	98
572.333	100
572.544	86
572.755	94
572.966	105
573.178	97
573.389	99
573.6	81
573.811	89
574.023	81
574.234	88
574.445	95
574.656	85
574.867	97
575.078	84
575.289	87
575.501	74
575.712	96
575.923	103
576.134	83
576.345	88
576.556	91
576.767	97
576.978	85
577.188	94
577.399	105
577.61	105
577.821	99
578.032	116
578.243	251
578.454	706
578.665	221
578.875	108
579.086	86
579.297	100
579.508	87
579.718	81
579.929	103
580.14	85
580.35	82
580.561	99
580.772	85
580.982	97
581.193	86
581.403	89
581.614	79
581.825	76
582.035	89
582.246	103
582.456	95
582.667	74
582.877	90
