Data from Uncirc_2005_H10_HRD10591_00090.txt Node
Date: Wed Jan 03 10:28:42 EST 2024
User: Yrep
Spectrometer: HR+D1059
Trigger mode: 1
Integration Time (sec): 1.000000E-1
Scans to average: 1
Electric dark correction enabled: true
Nonlinearity correction enabled: false
Boxcar width: 0
XAxis mode: Wavelengths
Number of Pixels in Spectrum: 2048
>>>>>Begin Spectral Data<<<<<
223.165	-15.69
223.4	-15.69
223.635	-15.69
223.869	-13.69
224.104	-10.69
224.338	-31.69
224.573	-8.69
224.808	-13.69
225.042	-12.69
225.277	-10.69
225.511	3.31
225.746	0.31
225.98	0.31
226.215	13.31
226.449	17.31
226.683	28.31
226.918	23.31
227.152	31.31
227.387	37.31
227.621	33.31
227.856	38.31
228.09	58.31
228.324	59.31
228.559	62.31
228.793	53.31
229.027	47.31
229.262	63.31
229.496	66.31
229.73	76.31
229.964	81.31
230.199	83.31
230.433	77.31
230.667	84.31
230.901	85.31
231.136	72.31
231.37	74.31
231.604	64.31
231.838	82.31
232.072	96.31
232.306	79.31
232.541	64.31
232.775	77.31
233.009	80.31
233.243	77.31
233.477	77.31
233.711	71.31
233.945	74.31
234.179	79.31
234.413	82.31
234.647	78.31
234.881	69.31
235.115	77.31
235.349	78.31
235.583	83.31
235.817	62.31
236.051	69.31
236.285	86.31
236.519	82.31
236.753	82.31
236.987	76.31
237.221	75.31
237.455	74.31
237.689	84.31
237.922	61.31
238.156	76.31
238.39	84.31
238.624	95.31
238.858	63.31
239.091	70.31
239.325	74.31
239.559	79.31
239.793	74.31
240.027	82.31
240.26	78.31
240.494	83.31
240.728	76.31
240.961	84.31
241.195	76.31
241.429	83.31
241.662	69.31
241.896	71.31
242.13	79.31
242.363	61.31
242.597	71.31
242.83	78.31
243.064	52.31
243.298	71.31
243.531	83.31
243.765	74.31
243.998	86.31
244.232	86.31
244.465	85.31
244.699	60.31
244.932	87.31
245.166	85.31
245.399	78.31
245.633	84.31
245.866	84.31
246.099	72.31
246.333	81.31
246.566	84.31
246.8	85.31
247.033	80.31
247.266	67.31
247.5	75.31
247.733	75.31
247.966	88.31
248.2	73.31
248.433	75.31
248.666	86.31
248.899	84.31
249.133	91.31
249.366	92.31
249.599	103.31
249.832	79.31
250.066	86.31
250.299	88.31
250.532	88.31
250.765	83.31
250.998	75.31
251.231	81.31
251.465	93.31
251.698	75.31
251.931	91.31
252.164	82.31
252.397	79.31
252.63	79.31
252.863	83.31
253.096	71.31
253.329	68.31
253.562	71.31
253.795	82.31
254.028	87.31
254.261	87.31
254.494	93.31
254.727	79.31
254.96	78.31
255.193	83.31
255.426	85.31
255.659	78.31
255.892	75.31
256.124	76.31
256.357	84.31
256.59	79.31
256.823	91.31
257.056	74.31
257.289	83.31
257.521	82.31
257.754	81.31
257.987	69.31
258.22	79.31
258.452	83.31
258.685	96.31
258.918	81.31
259.151	85.31
259.383	85.31
259.616	86.31
259.849	89.31
260.081	77.31
260.314	77.31
260.547	88.31
260.779	84.31
261.012	80.31
261.244	98.31
261.477	85.31
261.71	87.31
261.942	79.31
262.175	95.31
262.407	85.31
262.64	82.31
262.872	75.31
263.105	78.31
263.337	80.31
263.57	78.31
263.802	76.31
264.035	80.31
264.267	79.31
264.499	78.31
264.732	86.31
264.964	99.31
265.197	89.31
265.429	98.31
265.661	75.31
265.894	72.31
266.126	66.31
266.358	90.31
266.591	75.31
266.823	65.31
267.055	83.31
267.287	95.31
267.52	88.31
267.752	74.31
267.984	78.31
268.216	88.31
268.448	96.31
268.681	86.31
268.913	79.31
269.145	77.31
269.377	87.31
269.609	83.31
269.841	72.31
270.073	92.31
270.306	85.31
270.538	88.31
270.77	78.31
271.002	80.31
271.234	80.31
271.466	82.31
271.698	65.31
271.93	80.31
272.162	81.31
272.394	92.31
272.626	84.31
272.858	81.31
273.09	96.31
273.322	75.31
273.553	80.31
273.785	85.31
274.017	86.31
274.249	82.31
274.481	83.31
274.713	85.31
274.945	104.31
275.176	88.31
275.408	97.31
275.64	93.31
275.872	82.31
276.104	92.31
276.335	84.31
276.567	93.31
276.799	108.31
277.031	87.31
277.262	79.31
277.494	79.31
277.726	91.31
277.957	84.31
278.189	79.31
278.421	91.31
278.652	80.31
278.884	81.31
279.115	76.31
279.347	78.31
279.579	82.31
279.81	85.31
280.042	73.31
280.273	76.31
280.505	83.31
280.736	90.31
280.968	96.31
281.199	105.31
281.431	84.31
281.662	79.31
281.894	86.31
282.125	98.31
282.356	106.31
282.588	111.31
282.819	105.31
283.051	82.31
283.282	84.31
283.513	87.31
283.745	101.31
283.976	88.31
284.207	95.31
284.439	91.31
284.67	94.31
284.901	86.31
285.132	97.31
285.364	92.31
285.595	82.31
285.826	86.31
286.057	72.31
286.288	88.31
286.52	101.31
286.751	82.31
286.982	85.31
287.213	78.31
287.444	91.31
287.675	102.31
287.906	98.31
288.138	88.31
288.369	90.31
288.6	92.31
288.831	77.31
289.062	94.31
289.293	78.31
289.524	85.31
289.755	84.31
289.986	82.31
290.217	79.31
290.448	63.31
290.679	77.31
290.91	87.31
291.141	72.31
291.371	95.31
291.602	79.31
291.833	81.31
292.064	88.31
292.295	84.31
292.526	81.31
292.757	81.31
292.987	79.31
293.218	110.31
293.449	84.31
293.68	76.31
293.91	89.31
294.141	81.31
294.372	83.31
294.603	91.31
294.833	98.31
295.064	105.31
295.295	90.31
295.525	79.31
295.756	86.31
295.987	102.31
296.217	121.31
296.448	130.31
296.679	86.31
296.909	81.31
297.14	83.31
297.37	81.31
297.601	91.31
297.831	80.31
298.062	91.31
298.292	93.31
298.523	92.31
298.753	90.31
298.984	76.31
299.214	84.31
299.445	86.31
299.675	94.31
299.905	92.31
300.136	78.31
300.366	91.31
300.597	99.31
300.827	88.31
301.057	110.31
301.288	101.31
301.518	85.31
301.748	83.31
301.979	103.31
302.209	77.31
302.439	89.31
302.669	80.31
302.9	92.31
303.13	103.31
303.36	100.31
303.59	95.31
303.82	107.31
304.051	84.31
304.281	92.31
304.511	76.31
304.741	89.31
304.971	86.31
305.201	82.31
305.431	89.31
305.661	82.31
305.891	80.31
306.121	90.31
306.352	83.31
306.582	97.31
306.812	88.31
307.042	94.31
307.272	92.31
307.502	91.31
307.731	91.31
307.961	104.31
308.191	82.31
308.421	83.31
308.651	88.31
308.881	83.31
309.111	85.31
309.341	92.31
309.571	90.31
309.8	77.31
310.03	90.31
310.26	84.31
310.49	88.31
310.72	94.31
310.949	100.31
311.179	90.31
311.409	94.31
311.639	99.31
311.868	80.31
312.098	99.31
312.328	96.31
312.557	99.31
312.787	111.31
313.017	98.31
313.246	85.31
313.476	105.31
313.706	95.31
313.935	77.31
314.165	91.31
314.394	101.31
314.624	97.31
314.853	91.31
315.083	93.31
315.312	96.31
315.542	98.31
315.771	98.31
316.001	90.31
316.23	77.31
316.46	80.31
316.689	101.31
316.919	95.31
317.148	94.31
317.377	99.31
317.607	96.31
317.836	91.31
318.065	96.31
318.295	90.31
318.524	83.31
318.753	91.31
318.983	92.31
319.212	108.31
319.441	106.31
319.67	95.31
319.9	76.31
320.129	87.31
320.358	94.31
320.587	97.31
320.816	100.31
321.046	92.31
321.275	96.31
321.504	96.31
321.733	77.31
321.962	88.31
322.191	102.31
322.42	93.31
322.649	111.31
322.878	97.31
323.108	126.31
323.337	122.31
323.566	128.31
323.795	161.31
324.024	182.31
324.253	394.31
324.482	799.31
324.71	1604.31
324.939	2125.31
325.168	792.31
325.397	245.31
325.626	137.31
325.855	126.31
326.084	117.31
326.313	140.31
326.542	146.31
326.77	240.31
326.999	447.31
327.228	905.31
327.457	1658.31
327.686	1291.31
327.914	337.31
328.143	178.31
328.372	146.31
328.6	123.31
328.829	120.31
329.058	132.31
329.287	117.31
329.515	93.31
329.744	85.31
329.972	105.31
330.201	102.31
330.43	116.31
330.658	114.31
330.887	138.31
331.115	120.31
331.344	112.31
331.572	106.31
331.801	98.31
332.03	100.31
332.258	92.31
332.486	87.31
332.715	84.31
332.943	108.31
333.172	92.31
333.4	104.31
333.629	101.31
333.857	111.31
334.085	93.31
334.314	94.31
334.542	107.31
334.771	100.31
334.999	95.31
335.227	98.31
335.455	85.31
335.684	82.31
335.912	98.31
336.14	100.31
336.369	93.31
336.597	95.31
336.825	107.31
337.053	99.31
337.281	99.31
337.51	79.31
337.738	87.31
337.966	102.31
338.194	84.31
338.422	94.31
338.65	102.31
338.878	100.31
339.106	94.31
339.334	87.31
339.562	91.31
339.79	83.31
340.018	92.31
340.246	92.31
340.474	98.31
340.702	94.31
340.93	104.31
341.158	93.31
341.386	104.31
341.614	96.31
341.842	87.31
342.07	91.31
342.298	91.31
342.526	73.31
342.754	92.31
342.981	102.31
343.209	83.31
343.437	86.31
343.665	88.31
343.893	83.31
344.12	92.31
344.348	94.31
344.576	99.31
344.804	90.31
345.031	87.31
345.259	94.31
345.487	90.31
345.714	97.31
345.942	110.31
346.17	94.31
346.397	85.31
346.625	80.31
346.853	84.31
347.08	86.31
347.308	77.31
347.535	98.31
347.763	100.31
347.99	84.31
348.218	86.31
348.445	103.31
348.673	102.31
348.9	86.31
349.128	94.31
349.355	85.31
349.583	93.31
349.81	100.31
350.037	102.31
350.265	88.31
350.492	92.31
350.72	98.31
350.947	101.31
351.174	87.31
351.402	100.31
351.629	112.31
351.856	93.31
352.083	103.31
352.311	103.31
352.538	93.31
352.765	122.31
352.992	118.31
353.22	85.31
353.447	122.31
353.674	95.31
353.901	79.31
354.128	77.31
354.355	102.31
354.583	84.31
354.81	103.31
355.037	100.31
355.264	85.31
355.491	95.31
355.718	76.31
355.945	91.31
356.172	83.31
356.399	91.31
356.626	90.31
356.853	92.31
357.08	102.31
357.307	90.31
357.534	87.31
357.761	86.31
357.988	95.31
358.215	90.31
358.441	103.31
358.668	88.31
358.895	77.31
359.122	70.31
359.349	93.31
359.576	86.31
359.802	102.31
360.029	119.31
360.256	94.31
360.483	101.31
360.709	106.31
360.936	98.31
361.163	88.31
361.39	93.31
361.616	82.31
361.843	87.31
362.07	90.31
362.296	85.31
362.523	98.31
362.749	96.31
362.976	69.31
363.203	80.31
363.429	78.31
363.656	97.31
363.882	84.31
364.109	82.31
364.335	87.31
364.562	87.31
364.788	77.31
365.015	106.31
365.241	100.31
365.468	103.31
365.694	115.31
365.92	97.31
366.147	85.31
366.373	103.31
366.599	83.31
366.826	77.31
367.052	62.31
367.278	98.31
367.505	85.31
367.731	86.31
367.957	76.31
368.184	94.31
368.41	85.31
368.636	112.31
368.862	119.31
369.089	101.31
369.315	79.31
369.541	87.31
369.767	78.31
369.993	96.31
370.219	88.31
370.445	93.31
370.672	89.31
370.898	107.31
371.124	91.31
371.35	80.31
371.576	91.31
371.802	83.31
372.028	73.31
372.254	94.31
372.48	94.31
372.706	75.31
372.932	99.31
373.158	88.31
373.384	79.31
373.61	101.31
373.835	108.31
374.061	99.31
374.287	84.31
374.513	85.31
374.739	100.31
374.965	93.31
375.191	89.31
375.416	99.31
375.642	94.31
375.868	107.31
376.094	88.31
376.319	94.31
376.545	97.31
376.771	90.31
376.997	99.31
377.222	93.31
377.448	93.31
377.674	92.31
377.899	92.31
378.125	86.31
378.35	92.31
378.576	95.31
378.802	83.31
379.027	95.31
379.253	85.31
379.478	98.31
379.704	88.31
379.929	83.31
380.155	91.31
380.38	101.31
380.606	100.31
380.831	95.31
381.057	91.31
381.282	88.31
381.507	98.31
381.733	105.31
381.958	98.31
382.184	89.31
382.409	97.31
382.634	109.31
382.86	92.31
383.085	103.31
383.31	100.31
383.535	93.31
383.761	95.31
383.986	109.31
384.211	102.31
384.436	102.31
384.662	109.31
384.887	101.31
385.112	109.31
385.337	119.31
385.562	109.31
385.787	103.31
386.013	106.31
386.238	100.31
386.463	91.31
386.688	106.31
386.913	99.31
387.138	110.31
387.363	115.31
387.588	105.31
387.813	86.31
388.038	111.31
388.263	109.31
388.488	109.31
388.713	105.31
388.938	97.31
389.163	79.31
389.387	104.31
389.612	102.31
389.837	99.31
390.062	80.31
390.287	81.31
390.512	87.31
390.736	95.31
390.961	105.31
391.186	86.31
391.411	76.31
391.636	94.31
391.86	84.31
392.085	77.31
392.31	89.31
392.534	93.31
392.759	94.31
392.984	94.31
393.208	94.31
393.433	96.31
393.658	79.31
393.882	95.31
394.107	90.31
394.331	88.31
394.556	87.31
394.78	71.31
395.005	84.31
395.229	82.31
395.454	83.31
395.678	86.31
395.903	86.31
396.127	78.31
396.352	88.31
396.576	76.31
396.801	91.31
397.025	94.31
397.249	82.31
397.474	103.31
397.698	90.31
397.922	88.31
398.147	88.31
398.371	77.31
398.595	84.31
398.82	84.31
399.044	79.31
399.268	88.31
399.492	99.31
399.717	97.31
399.941	88.31
400.165	84.31
400.389	86.31
400.613	87.31
400.837	84.31
401.062	87.31
401.286	88.31
401.51	85.31
401.734	89.31
401.958	99.31
402.182	127.31
402.406	148.31
402.63	117.31
402.854	91.31
403.078	95.31
403.302	85.31
403.526	99.31
403.75	81.31
403.974	92.31
404.198	95.31
404.422	74.31
404.645	80.31
404.869	98.31
405.093	98.31
405.317	112.31
405.541	95.31
405.765	98.31
405.988	118.31
406.212	160.31
406.436	188.31
406.66	140.31
406.883	97.31
407.107	96.31
407.331	90.31
407.555	98.31
407.778	92.31
408.002	88.31
408.226	96.31
408.449	91.31
408.673	89.31
408.896	95.31
409.12	91.31
409.344	92.31
409.567	87.31
409.791	76.31
410.014	83.31
410.238	80.31
410.461	96.31
410.685	85.31
410.908	98.31
411.132	99.31
411.355	102.31
411.578	87.31
411.802	100.31
412.025	106.31
412.249	86.31
412.472	83.31
412.695	80.31
412.919	93.31
413.142	93.31
413.365	100.31
413.589	91.31
413.812	86.31
414.035	98.31
414.258	84.31
414.482	90.31
414.705	87.31
414.928	92.31
415.151	91.31
415.374	97.31
415.597	79.31
415.821	99.31
416.044	91.31
416.267	94.31
416.49	95.31
416.713	98.31
416.936	101.31
417.159	78.31
417.382	86.31
417.605	85.31
417.828	95.31
418.051	75.31
418.274	94.31
418.497	96.31
418.72	98.31
418.943	86.31
419.166	80.31
419.389	94.31
419.611	103.31
419.834	85.31
420.057	93.31
420.28	77.31
420.503	84.31
420.726	82.31
420.948	100.31
421.171	94.31
421.394	98.31
421.617	93.31
421.839	93.31
422.062	100.31
422.285	92.31
422.507	87.31
422.73	104.31
422.953	103.31
423.175	90.31
423.398	85.31
423.621	85.31
423.843	83.31
424.066	79.31
424.288	96.31
424.511	102.31
424.733	92.31
424.956	103.31
425.178	101.31
425.401	85.31
425.623	95.31
425.846	87.31
426.068	89.31
426.291	93.31
426.513	100.31
426.735	94.31
426.958	96.31
427.18	113.31
427.402	126.31
427.625	156.31
427.847	114.31
428.069	98.31
428.292	81.31
428.514	102.31
428.736	87.31
428.958	95.31
429.181	83.31
429.403	83.31
429.625	91.31
429.847	88.31
430.069	110.31
430.292	100.31
430.514	83.31
430.736	101.31
430.958	91.31
431.18	88.31
431.402	87.31
431.624	92.31
431.846	93.31
432.068	92.31
432.29	88.31
432.512	82.31
432.734	82.31
432.956	103.31
433.178	99.31
433.4	94.31
433.622	87.31
433.844	79.31
434.066	92.31
434.287	85.31
434.509	101.31
434.731	102.31
434.953	89.31
435.175	95.31
435.397	89.31
435.618	79.31
435.84	95.31
436.062	122.31
436.284	94.31
436.505	98.31
436.727	103.31
436.949	90.31
437.17	86.31
437.392	82.31
437.614	90.31
437.835	112.31
438.057	106.31
438.278	95.31
438.5	97.31
438.721	108.31
438.943	87.31
439.165	79.31
439.386	101.31
439.608	92.31
439.829	91.31
440.05	134.31
440.272	129.31
440.493	103.31
440.715	88.31
440.936	96.31
441.158	97.31
441.379	80.31
441.6	94.31
441.822	92.31
442.043	94.31
442.264	100.31
442.486	111.31
442.707	88.31
442.928	105.31
443.149	107.31
443.371	111.31
443.592	87.31
443.813	97.31
444.034	92.31
444.255	103.31
444.476	87.31
444.698	87.31
444.919	85.31
445.14	144.31
445.361	111.31
445.582	106.31
445.803	128.31
446.024	111.31
446.245	120.31
446.466	98.31
446.687	93.31
446.908	86.31
447.129	91.31
447.35	94.31
447.571	83.31
447.792	81.31
448.013	101.31
448.234	106.31
448.455	85.31
448.675	97.31
448.896	102.31
449.117	88.31
449.338	88.31
449.559	119.31
449.779	131.31
450	98.31
450.221	94.31
450.442	97.31
450.662	85.31
450.883	83.31
451.104	94.31
451.324	99.31
451.545	96.31
451.766	96.31
451.986	86.31
452.207	86.31
452.428	87.31
452.648	98.31
452.869	107.31
453.089	100.31
453.31	102.31
453.53	100.31
453.751	87.31
453.971	88.31
454.192	98.31
454.412	83.31
454.633	82.31
454.853	86.31
455.073	99.31
455.294	87.31
455.514	102.31
455.734	86.31
455.955	79.31
456.175	87.31
456.395	90.31
456.616	85.31
456.836	84.31
457.056	92.31
457.276	83.31
457.497	83.31
457.717	96.31
457.937	92.31
458.157	75.31
458.377	89.31
458.598	98.31
458.818	141.31
459.038	148.31
459.258	103.31
459.478	98.31
459.698	79.31
459.918	83.31
460.138	86.31
460.358	85.31
460.578	92.31
460.798	99.31
461.018	95.31
461.238	92.31
461.458	77.31
461.678	90.31
461.898	82.31
462.118	91.31
462.338	90.31
462.558	90.31
462.777	81.31
462.997	97.31
463.217	84.31
463.437	73.31
463.657	87.31
463.876	93.31
464.096	96.31
464.316	105.31
464.536	94.31
464.755	91.31
464.975	107.31
465.195	143.31
465.414	138.31
465.634	82.31
465.854	82.31
466.073	95.31
466.293	90.31
466.512	95.31
466.732	88.31
466.951	87.31
467.171	81.31
467.391	75.31
467.61	83.31
467.829	89.31
468.049	99.31
468.268	80.31
468.488	111.31
468.707	83.31
468.927	75.31
469.146	79.31
469.365	70.31
469.585	87.31
469.804	92.31
470.023	91.31
470.243	103.31
470.462	95.31
470.681	102.31
470.901	102.31
471.12	74.31
471.339	76.31
471.558	92.31
471.777	76.31
471.997	77.31
472.216	87.31
472.435	99.31
472.654	96.31
472.873	90.31
473.092	80.31
473.311	79.31
473.53	85.31
473.749	91.31
473.968	87.31
474.187	102.31
474.406	100.31
474.625	88.31
474.844	78.31
475.063	86.31
475.282	88.31
475.501	75.31
475.72	95.31
475.939	90.31
476.158	80.31
476.377	86.31
476.596	90.31
476.814	93.31
477.033	76.31
477.252	88.31
477.471	83.31
477.69	102.31
477.908	92.31
478.127	87.31
478.346	77.31
478.564	76.31
478.783	83.31
479.002	77.31
479.22	96.31
479.439	88.31
479.658	86.31
479.876	93.31
480.095	78.31
480.313	103.31
480.532	93.31
480.751	93.31
480.969	81.31
481.188	114.31
481.406	93.31
481.624	88.31
481.843	98.31
482.061	80.31
482.28	88.31
482.498	76.31
482.717	75.31
482.935	88.31
483.153	92.31
483.372	102.31
483.59	100.31
483.808	90.31
484.027	89.31
484.245	93.31
484.463	83.31
484.681	96.31
484.9	93.31
485.118	106.31
485.336	97.31
485.554	94.31
485.772	97.31
485.99	109.31
486.209	102.31
486.427	93.31
486.645	103.31
486.863	104.31
487.081	104.31
487.299	102.31
487.517	108.31
487.735	102.31
487.953	82.31
488.171	96.31
488.389	100.31
488.607	99.31
488.825	111.31
489.043	93.31
489.261	95.31
489.479	107.31
489.696	91.31
489.914	73.31
490.132	86.31
490.35	98.31
490.568	91.31
490.786	81.31
491.003	86.31
491.221	78.31
491.439	93.31
491.657	74.31
491.874	108.31
492.092	101.31
492.31	87.31
492.527	100.31
492.745	99.31
492.963	79.31
493.18	94.31
493.398	104.31
493.615	91.31
493.833	93.31
494.05	85.31
494.268	82.31
494.485	84.31
494.703	97.31
494.92	91.31
495.138	99.31
495.355	95.31
495.573	94.31
495.79	83.31
496.008	93.31
496.225	95.31
496.442	85.31
496.66	94.31
496.877	98.31
497.094	88.31
497.312	82.31
497.529	95.31
497.746	101.31
497.963	80.31
498.181	83.31
498.398	109.31
498.615	108.31
498.832	88.31
499.049	98.31
499.267	94.31
499.484	79.31
499.701	98.31
499.918	90.31
500.135	81.31
500.352	97.31
500.569	95.31
500.786	103.31
501.003	98.31
501.22	89.31
501.437	103.31
501.654	98.31
501.871	75.31
502.088	91.31
502.305	96.31
502.522	88.31
502.739	94.31
502.956	95.31
503.172	92.31
503.389	95.31
503.606	97.31
503.823	105.31
504.04	96.31
504.256	83.31
504.473	87.31
504.69	100.31
504.907	90.31
505.123	88.31
505.34	89.31
505.557	103.31
505.773	78.31
505.99	83.31
506.207	91.31
506.423	94.31
506.64	101.31
506.856	94.31
507.073	95.31
507.289	99.31
507.506	87.31
507.722	103.31
507.939	99.31
508.155	95.31
508.372	113.31
508.588	80.31
508.805	94.31
509.021	91.31
509.238	103.31
509.454	88.31
509.67	111.31
509.887	114.31
510.103	138.31
510.319	203.31
510.536	729.31
510.752	2131.31
510.968	615.31
511.184	150.31
511.401	99.31
511.617	93.31
511.833	73.31
512.049	79.31
512.265	86.31
512.481	99.31
512.698	99.31
512.914	86.31
513.13	93.31
513.346	99.31
513.562	100.31
513.778	111.31
513.994	101.31
514.21	92.31
514.426	113.31
514.642	125.31
514.858	108.31
515.074	160.31
515.29	410.31
515.506	1352.31
515.721	516.31
515.937	156.31
516.153	96.31
