Data from Uncirc_2005_H10_HRD10591_00039.txt Node
Date: Wed Jan 03 10:28:32 EST 2024
User: Yrep
Spectrometer: HR+D1059
Trigger mode: 1
Integration Time (sec): 1.000000E-1
Scans to average: 1
Electric dark correction enabled: true
Nonlinearity correction enabled: false
Boxcar width: 0
XAxis mode: Wavelengths
Number of Pixels in Spectrum: 2048
>>>>>Begin Spectral Data<<<<<
223.165	-17.75
223.4	-17.75
223.635	-17.75
223.869	-26.75
224.104	-18.75
224.338	-19.75
224.573	-15.75
224.808	-24.75
225.042	1.25
225.277	2.25
225.511	-0.75
225.746	8.25
225.98	14.25
226.215	23.25
226.449	16.25
226.683	12.25
226.918	22.25
227.152	24.25
227.387	16.25
227.621	36.25
227.856	28.25
228.09	48.25
228.324	41.25
228.559	47.25
228.793	53.25
229.027	62.25
229.262	49.25
229.496	82.25
229.73	68.25
229.964	69.25
230.199	67.25
230.433	66.25
230.667	68.25
230.901	68.25
231.136	71.25
231.37	84.25
231.604	76.25
231.838	75.25
232.072	77.25
232.306	71.25
232.541	68.25
232.775	80.25
233.009	81.25
233.243	92.25
233.477	76.25
233.711	91.25
233.945	71.25
234.179	76.25
234.413	73.25
234.647	73.25
234.881	76.25
235.115	73.25
235.349	81.25
235.583	80.25
235.817	68.25
236.051	76.25
236.285	82.25
236.519	67.25
236.753	83.25
236.987	79.25
237.221	74.25
237.455	68.25
237.689	66.25
237.922	68.25
238.156	69.25
238.39	84.25
238.624	69.25
238.858	68.25
239.091	83.25
239.325	75.25
239.559	79.25
239.793	80.25
240.027	92.25
240.26	63.25
240.494	71.25
240.728	81.25
240.961	68.25
241.195	84.25
241.429	73.25
241.662	83.25
241.896	78.25
242.13	72.25
242.363	77.25
242.597	68.25
242.83	82.25
243.064	64.25
243.298	80.25
243.531	84.25
243.765	66.25
243.998	77.25
244.232	79.25
244.465	69.25
244.699	77.25
244.932	68.25
245.166	81.25
245.399	92.25
245.633	74.25
245.866	79.25
246.099	81.25
246.333	88.25
246.566	65.25
246.8	68.25
247.033	72.25
247.266	72.25
247.5	70.25
247.733	81.25
247.966	81.25
248.2	84.25
248.433	73.25
248.666	85.25
248.899	68.25
249.133	84.25
249.366	84.25
249.599	75.25
249.832	70.25
250.066	80.25
250.299	72.25
250.532	74.25
250.765	72.25
250.998	73.25
251.231	88.25
251.465	84.25
251.698	75.25
251.931	75.25
252.164	83.25
252.397	72.25
252.63	73.25
252.863	66.25
253.096	79.25
253.329	80.25
253.562	84.25
253.795	91.25
254.028	90.25
254.261	99.25
254.494	75.25
254.727	76.25
254.96	84.25
255.193	72.25
255.426	63.25
255.659	67.25
255.892	86.25
256.124	85.25
256.357	89.25
256.59	90.25
256.823	73.25
257.056	86.25
257.289	84.25
257.521	80.25
257.754	72.25
257.987	68.25
258.22	85.25
258.452	83.25
258.685	78.25
258.918	91.25
259.151	89.25
259.383	77.25
259.616	74.25
259.849	99.25
260.081	94.25
260.314	83.25
260.547	73.25
260.779	74.25
261.012	84.25
261.244	90.25
261.477	81.25
261.71	87.25
261.942	114.25
262.175	99.25
262.407	73.25
262.64	78.25
262.872	84.25
263.105	89.25
263.337	84.25
263.57	76.25
263.802	90.25
264.035	81.25
264.267	92.25
264.499	68.25
264.732	95.25
264.964	91.25
265.197	84.25
265.429	86.25
265.661	94.25
265.894	97.25
266.126	78.25
266.358	76.25
266.591	77.25
266.823	81.25
267.055	76.25
267.287	73.25
267.52	84.25
267.752	79.25
267.984	93.25
268.216	82.25
268.448	76.25
268.681	78.25
268.913	85.25
269.145	78.25
269.377	90.25
269.609	64.25
269.841	79.25
270.073	61.25
270.306	86.25
270.538	90.25
270.77	80.25
271.002	77.25
271.234	88.25
271.466	84.25
271.698	86.25
271.93	98.25
272.162	88.25
272.394	79.25
272.626	93.25
272.858	88.25
273.09	84.25
273.322	96.25
273.553	81.25
273.785	79.25
274.017	77.25
274.249	88.25
274.481	69.25
274.713	94.25
274.945	87.25
275.176	85.25
275.408	89.25
275.64	85.25
275.872	72.25
276.104	94.25
276.335	82.25
276.567	88.25
276.799	96.25
277.031	98.25
277.262	86.25
277.494	84.25
277.726	89.25
277.957	76.25
278.189	88.25
278.421	79.25
278.652	74.25
278.884	79.25
279.115	85.25
279.347	90.25
279.579	85.25
279.81	72.25
280.042	85.25
280.273	90.25
280.505	68.25
280.736	70.25
280.968	79.25
281.199	91.25
281.431	93.25
281.662	92.25
281.894	74.25
282.125	93.25
282.356	100.25
282.588	114.25
282.819	111.25
283.051	96.25
283.282	84.25
283.513	78.25
283.745	81.25
283.976	94.25
284.207	92.25
284.439	72.25
284.67	82.25
284.901	78.25
285.132	83.25
285.364	90.25
285.595	87.25
285.826	74.25
286.057	93.25
286.288	77.25
286.52	93.25
286.751	65.25
286.982	100.25
287.213	67.25
287.444	92.25
287.675	77.25
287.906	89.25
288.138	86.25
288.369	77.25
288.6	77.25
288.831	82.25
289.062	88.25
289.293	74.25
289.524	89.25
289.755	68.25
289.986	85.25
290.217	87.25
290.448	82.25
290.679	79.25
290.91	86.25
291.141	69.25
291.371	78.25
291.602	94.25
291.833	88.25
292.064	93.25
292.295	93.25
292.526	82.25
292.757	93.25
292.987	85.25
293.218	85.25
293.449	90.25
293.68	87.25
293.91	83.25
294.141	91.25
294.372	88.25
294.603	86.25
294.833	82.25
295.064	95.25
295.295	91.25
295.525	90.25
295.756	86.25
295.987	101.25
296.217	128.25
296.448	124.25
296.679	87.25
296.909	89.25
297.14	88.25
297.37	89.25
297.601	89.25
297.831	89.25
298.062	93.25
298.292	96.25
298.523	82.25
298.753	83.25
298.984	78.25
299.214	81.25
299.445	90.25
299.675	92.25
299.905	93.25
300.136	74.25
300.366	89.25
300.597	89.25
300.827	97.25
301.057	90.25
301.288	93.25
301.518	84.25
301.748	83.25
301.979	88.25
302.209	92.25
302.439	67.25
302.669	81.25
302.9	83.25
303.13	71.25
303.36	92.25
303.59	93.25
303.82	97.25
304.051	86.25
304.281	91.25
304.511	84.25
304.741	81.25
304.971	84.25
305.201	90.25
305.431	95.25
305.661	80.25
305.891	91.25
306.121	85.25
306.352	76.25
306.582	110.25
306.812	79.25
307.042	78.25
307.272	83.25
307.502	105.25
307.731	80.25
307.961	79.25
308.191	84.25
308.421	72.25
308.651	100.25
308.881	82.25
309.111	95.25
309.341	88.25
309.571	99.25
309.8	93.25
310.03	96.25
310.26	93.25
310.49	89.25
310.72	100.25
310.949	84.25
311.179	77.25
311.409	89.25
311.639	102.25
311.868	91.25
312.098	88.25
312.328	97.25
312.557	73.25
312.787	90.25
313.017	88.25
313.246	98.25
313.476	79.25
313.706	88.25
313.935	98.25
314.165	92.25
314.394	101.25
314.624	108.25
314.853	82.25
315.083	91.25
315.312	96.25
315.542	92.25
315.771	94.25
316.001	104.25
316.23	97.25
316.46	93.25
316.689	73.25
316.919	97.25
317.148	94.25
317.377	86.25
317.607	99.25
317.836	96.25
318.065	90.25
318.295	87.25
318.524	81.25
318.753	95.25
318.983	84.25
319.212	85.25
319.441	96.25
319.67	93.25
319.9	93.25
320.129	86.25
320.358	81.25
320.587	84.25
320.816	92.25
321.046	97.25
321.275	95.25
321.504	97.25
321.733	93.25
321.962	90.25
322.191	100.25
322.42	87.25
322.649	97.25
322.878	106.25
323.108	94.25
323.337	110.25
323.566	105.25
323.795	151.25
324.024	188.25
324.253	366.25
324.482	784.25
324.71	1593.25
324.939	2074.25
325.168	753.25
325.397	237.25
325.626	144.25
325.855	130.25
326.084	114.25
326.313	117.25
326.542	137.25
326.77	214.25
326.999	429.25
327.228	881.25
327.457	1624.25
327.686	1298.25
327.914	330.25
328.143	166.25
328.372	131.25
328.6	109.25
328.829	110.25
329.058	110.25
329.287	114.25
329.515	118.25
329.744	102.25
329.972	106.25
330.201	108.25
330.43	97.25
330.658	109.25
330.887	110.25
331.115	112.25
331.344	92.25
331.572	98.25
331.801	100.25
332.03	93.25
332.258	74.25
332.486	76.25
332.715	72.25
332.943	101.25
333.172	85.25
333.4	90.25
333.629	90.25
333.857	92.25
334.085	105.25
334.314	85.25
334.542	82.25
334.771	98.25
334.999	85.25
335.227	86.25
335.455	98.25
335.684	103.25
335.912	104.25
336.14	97.25
336.369	98.25
336.597	95.25
336.825	81.25
337.053	97.25
337.281	99.25
337.51	92.25
337.738	82.25
337.966	76.25
338.194	86.25
338.422	91.25
338.65	96.25
338.878	84.25
339.106	80.25
339.334	86.25
339.562	84.25
339.79	90.25
340.018	92.25
340.246	86.25
340.474	85.25
340.702	77.25
340.93	86.25
341.158	74.25
341.386	87.25
341.614	88.25
341.842	104.25
342.07	93.25
342.298	93.25
342.526	90.25
342.754	88.25
342.981	76.25
343.209	101.25
343.437	95.25
343.665	104.25
343.893	106.25
344.12	85.25
344.348	89.25
344.576	85.25
344.804	86.25
345.031	82.25
345.259	98.25
345.487	77.25
345.714	90.25
345.942	85.25
346.17	87.25
346.397	84.25
346.625	80.25
346.853	91.25
347.08	82.25
347.308	91.25
347.535	93.25
347.763	93.25
347.99	69.25
348.218	79.25
348.445	98.25
348.673	94.25
348.9	82.25
349.128	88.25
349.355	100.25
349.583	97.25
349.81	104.25
350.037	93.25
350.265	99.25
350.492	96.25
350.72	91.25
350.947	108.25
351.174	95.25
351.402	114.25
351.629	94.25
351.856	95.25
352.083	97.25
352.311	109.25
352.538	102.25
352.765	101.25
352.992	88.25
353.22	104.25
353.447	93.25
353.674	117.25
353.901	92.25
354.128	101.25
354.355	95.25
354.583	93.25
354.81	77.25
355.037	95.25
355.264	92.25
355.491	93.25
355.718	83.25
355.945	86.25
356.172	93.25
356.399	99.25
356.626	94.25
356.853	99.25
357.08	89.25
357.307	75.25
357.534	82.25
357.761	85.25
357.988	82.25
358.215	91.25
358.441	94.25
358.668	97.25
358.895	88.25
359.122	87.25
359.349	94.25
359.576	87.25
359.802	84.25
360.029	110.25
360.256	92.25
360.483	100.25
360.709	73.25
360.936	100.25
361.163	95.25
361.39	89.25
361.616	86.25
361.843	83.25
362.07	95.25
362.296	101.25
362.523	79.25
362.749	79.25
362.976	86.25
363.203	91.25
363.429	80.25
363.656	81.25
363.882	82.25
364.109	82.25
364.335	78.25
364.562	102.25
364.788	104.25
365.015	94.25
365.241	91.25
365.468	96.25
365.694	107.25
365.92	90.25
366.147	85.25
366.373	93.25
366.599	93.25
366.826	92.25
367.052	77.25
367.278	96.25
367.505	90.25
367.731	84.25
367.957	104.25
368.184	96.25
368.41	93.25
368.636	100.25
368.862	127.25
369.089	92.25
369.315	92.25
369.541	97.25
369.767	84.25
369.993	89.25
370.219	87.25
370.445	97.25
370.672	75.25
370.898	94.25
371.124	89.25
371.35	81.25
371.576	79.25
371.802	94.25
372.028	91.25
372.254	97.25
372.48	101.25
372.706	90.25
372.932	88.25
373.158	79.25
373.384	84.25
373.61	77.25
373.835	89.25
374.061	85.25
374.287	96.25
374.513	85.25
374.739	89.25
374.965	87.25
375.191	85.25
375.416	88.25
375.642	78.25
375.868	93.25
376.094	85.25
376.319	85.25
376.545	99.25
376.771	71.25
376.997	86.25
377.222	79.25
377.448	79.25
377.674	75.25
377.899	84.25
378.125	84.25
378.35	92.25
378.576	88.25
378.802	95.25
379.027	92.25
379.253	97.25
379.478	64.25
379.704	100.25
379.929	102.25
380.155	98.25
380.38	90.25
380.606	86.25
380.831	104.25
381.057	92.25
381.282	91.25
381.507	95.25
381.733	101.25
381.958	96.25
382.184	85.25
382.409	82.25
382.634	101.25
382.86	110.25
383.085	99.25
383.31	103.25
383.535	125.25
383.761	90.25
383.986	92.25
384.211	107.25
384.436	95.25
384.662	108.25
384.887	85.25
385.112	108.25
385.337	115.25
385.562	95.25
385.787	109.25
386.013	101.25
386.238	106.25
386.463	109.25
386.688	105.25
386.913	115.25
387.138	100.25
387.363	121.25
387.588	104.25
387.813	102.25
388.038	105.25
388.263	109.25
388.488	104.25
388.713	95.25
388.938	100.25
389.163	90.25
389.387	91.25
389.612	95.25
389.837	88.25
390.062	100.25
390.287	80.25
390.512	86.25
390.736	83.25
390.961	91.25
391.186	105.25
391.411	98.25
391.636	93.25
391.86	73.25
392.085	86.25
392.31	87.25
392.534	84.25
392.759	74.25
392.984	79.25
393.208	77.25
393.433	89.25
393.658	93.25
393.882	79.25
394.107	75.25
394.331	81.25
394.556	83.25
394.78	83.25
395.005	93.25
395.229	89.25
395.454	77.25
395.678	85.25
395.903	73.25
396.127	94.25
396.352	78.25
396.576	86.25
396.801	86.25
397.025	90.25
397.249	89.25
397.474	78.25
397.698	88.25
397.922	81.25
398.147	80.25
398.371	88.25
398.595	82.25
398.82	82.25
399.044	81.25
399.268	85.25
399.492	98.25
399.717	82.25
399.941	85.25
400.165	77.25
400.389	85.25
400.613	85.25
400.837	93.25
401.062	96.25
401.286	96.25
401.51	81.25
401.734	90.25
401.958	101.25
402.182	114.25
402.406	138.25
402.63	104.25
402.854	86.25
403.078	87.25
403.302	84.25
403.526	88.25
403.75	78.25
403.974	94.25
404.198	92.25
404.422	86.25
404.645	86.25
404.869	83.25
405.093	88.25
405.317	98.25
405.541	86.25
405.765	83.25
405.988	115.25
406.212	122.25
406.436	182.25
406.66	130.25
406.883	98.25
407.107	89.25
407.331	86.25
407.555	95.25
407.778	74.25
408.002	103.25
408.226	78.25
408.449	93.25
408.673	89.25
408.896	92.25
409.12	92.25
409.344	92.25
409.567	93.25
409.791	94.25
410.014	84.25
410.238	84.25
410.461	102.25
410.685	101.25
410.908	85.25
411.132	107.25
411.355	95.25
411.578	85.25
411.802	84.25
412.025	77.25
412.249	84.25
412.472	70.25
412.695	97.25
412.919	75.25
413.142	93.25
413.365	88.25
413.589	89.25
413.812	83.25
414.035	92.25
414.258	89.25
414.482	95.25
414.705	96.25
414.928	89.25
415.151	88.25
415.374	102.25
415.597	82.25
415.821	91.25
416.044	83.25
416.267	85.25
416.49	87.25
416.713	84.25
416.936	90.25
417.159	80.25
417.382	95.25
417.605	97.25
417.828	87.25
418.051	87.25
418.274	72.25
418.497	84.25
418.72	91.25
418.943	104.25
419.166	84.25
419.389	76.25
419.611	81.25
419.834	82.25
420.057	77.25
420.28	86.25
420.503	94.25
420.726	89.25
420.948	84.25
421.171	82.25
421.394	95.25
421.617	94.25
421.839	90.25
422.062	92.25
422.285	88.25
422.507	104.25
422.73	82.25
422.953	81.25
423.175	88.25
423.398	94.25
423.621	84.25
423.843	86.25
424.066	79.25
424.288	104.25
424.511	84.25
424.733	81.25
424.956	85.25
425.178	87.25
425.401	88.25
425.623	89.25
425.846	94.25
426.068	102.25
426.291	90.25
426.513	83.25
426.735	88.25
426.958	105.25
427.18	99.25
427.402	117.25
427.625	141.25
427.847	108.25
428.069	97.25
428.292	97.25
428.514	84.25
428.736	72.25
428.958	72.25
429.181	91.25
429.403	85.25
429.625	81.25
429.847	75.25
430.069	79.25
430.292	95.25
430.514	102.25
430.736	89.25
430.958	87.25
431.18	89.25
431.402	80.25
431.624	57.25
431.846	79.25
432.068	69.25
432.29	80.25
432.512	91.25
432.734	102.25
432.956	88.25
433.178	90.25
433.4	90.25
433.622	70.25
433.844	79.25
434.066	85.25
434.287	91.25
434.509	70.25
434.731	80.25
434.953	89.25
435.175	92.25
435.397	92.25
435.618	87.25
435.84	85.25
436.062	110.25
436.284	115.25
436.505	89.25
436.727	106.25
436.949	83.25
437.17	88.25
437.392	77.25
437.614	89.25
437.835	94.25
438.057	105.25
438.278	109.25
438.5	101.25
438.721	101.25
438.943	95.25
439.165	73.25
439.386	73.25
439.608	67.25
439.829	88.25
440.05	117.25
440.272	138.25
440.493	95.25
440.715	98.25
440.936	76.25
441.158	86.25
441.379	82.25
441.6	91.25
441.822	92.25
442.043	84.25
442.264	88.25
442.486	103.25
442.707	89.25
442.928	93.25
443.149	108.25
443.371	124.25
443.592	114.25
443.813	106.25
444.034	98.25
444.255	88.25
444.476	82.25
444.698	81.25
444.919	80.25
445.14	108.25
445.361	127.25
445.582	99.25
445.803	106.25
446.024	126.25
446.245	130.25
446.466	93.25
446.687	98.25
446.908	85.25
447.129	100.25
447.35	85.25
447.571	88.25
447.792	92.25
448.013	103.25
448.234	100.25
448.455	113.25
448.675	111.25
448.896	102.25
449.117	103.25
449.338	104.25
449.559	115.25
449.779	120.25
450	86.25
450.221	96.25
450.442	83.25
450.662	90.25
450.883	89.25
451.104	100.25
451.324	92.25
451.545	91.25
451.766	85.25
451.986	96.25
452.207	83.25
452.428	96.25
452.648	107.25
452.869	99.25
453.089	112.25
453.31	111.25
453.53	87.25
453.751	100.25
453.971	94.25
454.192	99.25
454.412	97.25
454.633	77.25
454.853	89.25
455.073	86.25
455.294	76.25
455.514	90.25
455.734	80.25
455.955	80.25
456.175	94.25
456.395	92.25
456.616	102.25
456.836	83.25
457.056	94.25
457.276	89.25
457.497	99.25
457.717	77.25
457.937	83.25
458.157	90.25
458.377	95.25
458.598	116.25
458.818	122.25
459.038	115.25
459.258	110.25
459.478	94.25
459.698	106.25
459.918	82.25
460.138	86.25
460.358	79.25
460.578	90.25
460.798	104.25
461.018	86.25
461.238	78.25
461.458	95.25
461.678	82.25
461.898	75.25
462.118	78.25
462.338	85.25
462.558	96.25
462.777	72.25
462.997	93.25
463.217	84.25
463.437	91.25
463.657	92.25
463.876	84.25
464.096	88.25
464.316	76.25
464.536	85.25
464.755	89.25
464.975	106.25
465.195	145.25
465.414	134.25
465.634	88.25
465.854	86.25
466.073	73.25
466.293	84.25
466.512	84.25
466.732	85.25
466.951	81.25
467.171	91.25
467.391	96.25
467.61	97.25
467.829	92.25
468.049	89.25
468.268	89.25
468.488	82.25
468.707	80.25
468.927	84.25
469.146	93.25
469.365	84.25
469.585	86.25
469.804	91.25
470.023	86.25
470.243	91.25
470.462	115.25
470.681	102.25
470.901	68.25
471.12	86.25
471.339	79.25
471.558	84.25
471.777	81.25
471.997	88.25
472.216	86.25
472.435	98.25
472.654	95.25
472.873	96.25
473.092	82.25
473.311	88.25
473.53	81.25
473.749	99.25
473.968	94.25
474.187	98.25
474.406	90.25
474.625	84.25
474.844	96.25
475.063	85.25
475.282	93.25
475.501	83.25
475.72	81.25
475.939	81.25
476.158	86.25
476.377	84.25
476.596	89.25
476.814	95.25
477.033	83.25
477.252	84.25
477.471	72.25
477.69	89.25
477.908	93.25
478.127	84.25
478.346	100.25
478.564	102.25
478.783	83.25
479.002	102.25
479.22	84.25
479.439	98.25
479.658	106.25
479.876	75.25
480.095	88.25
480.313	73.25
480.532	88.25
480.751	81.25
480.969	86.25
481.188	91.25
481.406	108.25
481.624	92.25
481.843	98.25
482.061	85.25
482.28	89.25
482.498	94.25
482.717	86.25
482.935	89.25
483.153	78.25
483.372	100.25
483.59	87.25
483.808	76.25
484.027	84.25
484.245	87.25
484.463	94.25
484.681	100.25
484.9	90.25
485.118	90.25
485.336	94.25
485.554	98.25
485.772	114.25
485.99	102.25
486.209	94.25
486.427	103.25
486.645	101.25
486.863	94.25
487.081	102.25
487.299	92.25
487.517	94.25
487.735	98.25
487.953	104.25
488.171	80.25
488.389	99.25
488.607	99.25
488.825	91.25
489.043	79.25
489.261	89.25
489.479	90.25
489.696	84.25
489.914	96.25
490.132	75.25
490.35	85.25
490.568	87.25
490.786	89.25
491.003	86.25
491.221	75.25
491.439	85.25
491.657	115.25
491.874	94.25
492.092	82.25
492.31	90.25
492.527	80.25
492.745	89.25
492.963	86.25
493.18	98.25
493.398	93.25
493.615	79.25
493.833	103.25
494.05	94.25
494.268	84.25
494.485	94.25
494.703	99.25
494.92	108.25
495.138	99.25
495.355	93.25
495.573	89.25
495.79	89.25
496.008	90.25
496.225	67.25
496.442	84.25
496.66	77.25
496.877	93.25
497.094	95.25
497.312	95.25
497.529	102.25
497.746	85.25
497.963	100.25
498.181	81.25
498.398	88.25
498.615	114.25
498.832	104.25
499.049	81.25
499.267	77.25
499.484	79.25
499.701	88.25
499.918	92.25
500.135	72.25
500.352	86.25
500.569	100.25
500.786	91.25
501.003	98.25
501.22	89.25
501.437	81.25
501.654	82.25
501.871	85.25
502.088	93.25
502.305	90.25
502.522	93.25
502.739	85.25
502.956	74.25
503.172	82.25
503.389	86.25
503.606	98.25
503.823	103.25
504.04	89.25
504.256	94.25
504.473	98.25
504.69	78.25
504.907	97.25
505.123	92.25
505.34	72.25
505.557	84.25
505.773	97.25
505.99	88.25
506.207	90.25
506.423	96.25
506.64	93.25
506.856	85.25
507.073	82.25
507.289	97.25
507.506	91.25
507.722	114.25
507.939	111.25
508.155	86.25
508.372	81.25
508.588	106.25
508.805	92.25
509.021	100.25
509.238	86.25
509.454	99.25
509.67	86.25
509.887	112.25
510.103	108.25
510.319	201.25
510.536	682.25
510.752	2080.25
510.968	577.25
511.184	158.25
511.401	112.25
511.617	89.25
511.833	96.25
512.049	88.25
512.265	88.25
512.481	89.25
512.698	81.25
512.914	83.25
513.13	90.25
513.346	104.25
513.562	96.25
513.778	98.25
513.994	96.25
514.21	74.25
514.426	106.25
514.642	117.25
514.858	121.25
515.074	140.25
515.29	381.25
515.506	1269.25
515.721	476.25
515.937	146.25
516.153	108.25
516.369	86.25
516.585	86.25
516.801	85.25
