Data from Uncirc_2005_H10_HRD10591_00057.txt Node
Date: Wed Jan 03 10:28:36 EST 2024
User: Yrep
Spectrometer: HR+D1059
Trigger mode: 1
Integration Time (sec): 1.000000E-1
Scans to average: 1
Electric dark correction enabled: true
Nonlinearity correction enabled: false
Boxcar width: 0
XAxis mode: Wavelengths
Number of Pixels in Spectrum: 2048
>>>>>Begin Spectral Data<<<<<
223.165	-13
223.4	-13
223.635	-13
223.869	-24
224.104	-22
224.338	-2
224.573	-6
224.808	-20
225.042	-2
225.277	-24
225.511	8
225.746	-2
225.98	16
226.215	16
226.449	17
226.683	9
226.918	21
227.152	28
227.387	50
227.621	39
227.856	49
228.09	50
228.324	49
228.559	55
228.793	171
229.027	452
229.262	536
229.496	611
229.73	852
229.964	858
230.199	554
230.433	473
230.667	454
230.901	488
231.136	429
231.37	439
231.604	464
231.838	467
232.072	457
232.306	451
232.541	452
232.775	464
233.009	459
233.243	484
233.477	449
233.711	492
233.945	517
234.179	514
234.413	489
234.647	516
234.881	499
235.115	522
235.349	546
235.583	557
235.817	606
236.051	648
236.285	609
236.519	600
236.753	703
236.987	926
237.221	1430
237.455	1556
237.689	894
237.922	743
238.156	707
238.39	677
238.624	637
238.858	645
239.091	624
239.325	675
239.559	666
239.793	701
240.027	772
240.26	946
240.494	976
240.728	955
240.961	932
241.195	816
241.429	771
241.662	771
241.896	766
242.13	755
242.363	786
242.597	770
242.83	798
243.064	832
243.298	843
243.531	828
243.765	817
243.998	834
244.232	836
244.465	887
244.699	869
244.932	899
245.166	880
245.399	894
245.633	886
245.866	909
246.099	898
246.333	925
246.566	970
246.8	985
247.033	1010
247.266	1060
247.5	1123
247.733	1148
247.966	1160
248.2	1134
248.433	1146
248.666	1219
248.899	1359
249.133	1454
249.366	1442
249.599	1361
249.832	1201
250.066	1206
250.299	1235
250.532	1370
250.765	1526
250.998	1745
251.231	1677
251.465	1517
251.698	1436
251.931	1403
252.164	1374
252.397	1391
252.63	1429
252.863	1558
253.096	1676
253.329	1755
253.562	1654
253.795	1578
254.028	1561
254.261	1651
254.494	1820
254.727	2180
254.96	2285
255.193	1952
255.426	1751
255.659	1649
255.892	1578
256.124	1549
256.357	1557
256.59	1523
256.823	1470
257.056	1464
257.289	1486
257.521	1544
257.754	1560
257.987	1507
258.22	1526
258.452	1511
258.685	1538
258.918	1586
259.151	1615
259.383	1676
259.616	1731
259.849	1797
260.081	1953
260.314	2114
260.547	2059
260.779	1874
261.012	1753
261.244	1690
261.477	1663
261.71	1732
261.942	1738
262.175	1791
262.407	1744
262.64	1639
262.872	1666
263.105	1646
263.337	1626
263.57	1653
263.802	1664
264.035	1678
264.267	1658
264.499	1667
264.732	1672
264.964	1687
265.197	1696
265.429	1707
265.661	1697
265.894	1688
266.126	1725
266.358	1774
266.591	1769
266.823	1860
267.055	1901
267.287	1880
267.52	1830
267.752	1820
267.984	1873
268.216	1894
268.448	1948
268.681	1987
268.913	2104
269.145	2382
269.377	2416
269.609	2346
269.841	2283
270.073	2389
270.306	2710
270.538	2840
270.77	2783
271.002	2528
271.234	2517
271.466	2695
271.698	2792
271.93	2801
272.162	2821
272.394	2679
272.626	2552
272.858	2397
273.09	2311
273.322	2286
273.553	2204
273.785	2242
274.017	2250
274.249	2236
274.481	2243
274.713	2299
274.945	2278
275.176	2265
275.408	2258
275.64	2272
275.872	2270
276.104	2250
276.335	2325
276.567	2395
276.799	2543
277.031	2768
277.262	2933
277.494	2807
277.726	2615
277.957	2509
278.189	2432
278.421	2332
278.652	2350
278.884	2365
279.115	2397
279.347	2383
279.579	2353
279.81	2373
280.042	2375
280.273	2357
280.505	2375
280.736	2399
280.968	2407
281.199	2433
281.431	2460
281.662	2467
281.894	2423
282.125	2570
282.356	2647
282.588	2842
282.819	2632
283.051	2528
283.282	2514
283.513	2570
283.745	2594
283.976	2675
284.207	2662
284.439	2606
284.67	2644
284.901	2631
285.132	2602
285.364	2627
285.595	2587
285.826	2594
286.057	2639
286.288	2666
286.52	2636
286.751	2687
286.982	2710
287.213	2715
287.444	2703
287.675	2854
287.906	2870
288.138	2953
288.369	2859
288.6	2940
288.831	2835
289.062	2843
289.293	2775
289.524	2787
289.755	2735
289.986	2794
290.217	2814
290.448	2790
290.679	2811
290.91	2797
291.141	2772
291.371	2769
291.602	2808
291.833	2786
292.064	2814
292.295	2813
292.526	2770
292.757	2837
292.987	2798
293.218	2775
293.449	2842
293.68	2822
293.91	2823
294.141	2832
294.372	2780
294.603	2861
294.833	2866
295.064	2867
295.295	2851
295.525	2834
295.756	2957
295.987	3000
296.217	3180
296.448	3171
296.679	2941
296.909	2922
297.14	2942
297.37	3030
297.601	3048
297.831	3017
298.062	3068
298.292	3069
298.523	3071
298.753	3121
298.984	3096
299.214	3110
299.445	3079
299.675	3063
299.905	3097
300.136	3136
300.366	3174
300.597	3183
300.827	3211
301.057	3267
301.288	3370
301.518	3278
301.748	3330
301.979	3422
302.209	3393
302.439	3418
302.669	3290
302.9	3319
303.13	3287
303.36	3282
303.59	3349
303.82	3394
304.051	3305
304.281	3289
304.511	3275
304.741	3276
304.971	3273
305.201	3245
305.431	3301
305.661	3287
305.891	3238
306.121	3286
306.352	3332
306.582	3397
306.812	3244
307.042	3236
307.272	3235
307.502	3263
307.731	3265
307.961	3234
308.191	3278
308.421	3287
308.651	3314
308.881	3335
309.111	3330
309.341	3375
309.571	3464
309.8	3499
310.03	3605
310.26	3624
310.49	3581
310.72	3723
310.949	3882
311.179	3787
311.409	3675
311.639	3615
311.868	3616
312.098	3658
312.328	3781
312.557	3963
312.787	4011
313.017	3898
313.246	3823
313.476	3713
313.706	3786
313.935	3884
314.165	4033
314.394	3953
314.624	3930
314.853	3815
315.083	3772
315.312	3793
315.542	3714
315.771	3696
316.001	3670
316.23	3727
316.46	3644
316.689	3728
316.919	3706
317.148	3774
317.377	3774
317.607	3750
317.836	3634
318.065	3649
318.295	3739
318.524	3646
318.753	3616
318.983	3663
319.212	3681
319.441	3724
319.67	3800
319.9	3735
320.129	3727
320.358	3700
320.587	3747
320.816	3825
321.046	3863
321.275	3875
321.504	3841
321.733	3903
321.962	3942
322.191	3976
322.42	4119
322.649	4227
322.878	4322
323.108	4349
323.337	4602
323.566	4738
323.795	4998
324.024	5644
324.253	7451
324.482	11399
324.71	15488
324.939	15608
325.168	13530
325.397	6721
325.626	5276
325.855	4876
326.084	4806
326.313	4867
326.542	4958
326.77	5632
326.999	7162
327.228	10596
327.457	14730
327.686	14065
327.914	7546
328.143	5937
328.372	5536
328.6	5292
328.829	5350
329.058	5439
329.287	5465
329.515	4988
329.744	4758
329.972	4753
330.201	4954
330.43	5151
330.658	5501
330.887	5990
331.115	5475
331.344	4991
331.572	4940
331.801	5016
332.03	5014
332.258	4969
332.486	4952
332.715	5039
332.943	5262
333.172	5354
333.4	5529
333.629	5539
333.857	5611
334.085	5534
334.314	5473
334.542	5392
334.771	5383
334.999	5278
335.227	5202
335.455	5139
335.684	5079
335.912	4947
336.14	4967
336.369	4924
336.597	5016
336.825	4916
337.053	4811
337.281	4812
337.51	4750
337.738	4752
337.966	4661
338.194	4715
338.422	4647
338.65	4583
338.878	4516
339.106	4467
339.334	4579
339.562	4524
339.79	4418
340.018	4418
340.246	4352
340.474	4436
340.702	4359
340.93	4350
341.158	4428
341.386	4449
341.614	4460
341.842	4392
342.07	4355
342.298	4282
342.526	4280
342.754	4304
342.981	4334
343.209	4458
343.437	4668
343.665	4939
343.893	5185
344.12	5231
344.348	4931
344.576	4758
344.804	4737
345.031	4642
345.259	4633
345.487	4469
345.714	4369
345.942	4213
346.17	4195
346.397	4234
346.625	4219
346.853	4157
347.08	4133
347.308	4215
347.535	4287
347.763	4382
347.99	4330
348.218	4316
348.445	4354
348.673	4279
348.9	4167
349.128	4143
349.355	4094
349.583	4061
349.81	4044
350.037	4081
350.265	4064
350.492	4045
350.72	4082
350.947	4085
351.174	4184
351.402	4249
351.629	4132
351.856	4211
352.083	4231
352.311	4267
352.538	4312
352.765	4311
352.992	4219
353.22	4160
353.447	4142
353.674	4098
353.901	3992
354.128	4033
354.355	3930
354.583	3957
354.81	3947
355.037	3947
355.264	3938
355.491	3929
355.718	3956
355.945	3898
356.172	3970
356.399	3950
356.626	3985
356.853	3964
357.08	3924
357.307	3930
357.534	3981
357.761	4045
357.988	4029
358.215	3925
358.441	3935
358.668	4000
358.895	4042
359.122	4053
359.349	4188
359.576	4329
359.802	4523
360.029	4692
360.256	4706
360.483	4444
360.709	4229
360.936	4247
361.163	4207
361.39	4253
361.616	4288
361.843	4238
362.07	4253
362.296	4331
362.523	4241
362.749	4157
362.976	4152
363.203	4086
363.429	4092
363.656	4096
363.882	4086
364.109	4053
364.335	4019
364.562	4044
364.788	4023
365.015	4089
365.241	4072
365.468	4100
365.694	4126
365.92	4107
366.147	4051
366.373	4058
366.599	4063
366.826	4021
367.052	3908
367.278	4094
367.505	4062
367.731	4106
367.957	4060
368.184	4186
368.41	4199
368.636	4227
368.862	4274
369.089	4132
369.315	4128
369.541	4123
369.767	4178
369.993	4174
370.219	4236
370.445	4210
370.672	4239
370.898	4219
371.124	4264
371.35	4332
371.576	4268
371.802	4292
372.028	4272
372.254	4277
372.48	4315
372.706	4423
372.932	4431
373.158	4388
373.384	4357
373.61	4312
373.835	4344
374.061	4458
374.287	4469
374.513	4509
374.739	4682
374.965	4753
375.191	4705
375.416	4708
375.642	4554
375.868	4496
376.094	4459
376.319	4384
376.545	4344
376.771	4315
376.997	4382
377.222	4296
377.448	4358
377.674	4292
377.899	4314
378.125	4350
378.35	4290
378.576	4270
378.802	4286
379.027	4308
379.253	4225
379.478	4178
379.704	4315
379.929	4319
380.155	4330
380.38	4342
380.606	4367
380.831	4327
381.057	4362
381.282	4371
381.507	4371
381.733	4363
381.958	4459
382.184	4501
382.409	4552
382.634	4578
382.86	4509
383.085	4639
383.31	4668
383.535	4765
383.761	4757
383.986	4886
384.211	4912
384.436	5045
384.662	5152
384.887	5192
385.112	5148
385.337	5226
385.562	5302
385.787	5252
386.013	5321
386.238	5367
386.463	5370
386.688	5230
386.913	5194
387.138	5139
387.363	5164
387.588	5108
387.813	5111
388.038	5192
388.263	5207
388.488	5182
388.713	5178
388.938	5200
389.163	5142
389.387	5128
389.612	5034
389.837	5135
390.062	5030
390.287	5099
390.512	5086
390.736	5216
390.961	5273
391.186	5296
391.411	5518
391.636	5638
391.86	5757
392.085	5851
392.31	5675
392.534	5643
392.759	5474
392.984	5435
393.208	5421
393.433	5349
393.658	5318
393.882	5371
394.107	5390
394.331	5451
394.556	5442
394.78	5469
395.005	5533
395.229	5525
395.454	5663
395.678	5852
395.903	5866
396.127	5894
396.352	5727
396.576	5509
396.801	5438
397.025	5604
397.249	5677
397.474	5768
397.698	5854
397.922	5977
398.147	6094
398.371	6180
398.595	6306
398.82	6626
399.044	7139
399.268	7930
399.492	8992
399.717	9675
399.941	9427
400.165	8755
400.389	8062
400.613	7229
400.837	6844
401.062	6607
401.286	6581
401.51	6506
401.734	6466
401.958	6701
402.182	6758
402.406	6877
402.63	7004
402.854	6974
403.078	7124
403.302	7309
403.526	7371
403.75	7351
403.974	7482
404.198	7472
404.422	7599
404.645	7407
404.869	7255
405.093	7449
405.317	7658
405.541	7624
405.765	7372
405.988	7202
406.212	7432
406.436	7628
406.66	7732
406.883	7782
407.107	8387
407.331	8928
407.555	9522
407.778	9152
408.002	8354
408.226	7957
408.449	7799
408.673	7690
408.896	7866
409.12	8066
409.344	7587
409.567	7263
409.791	7140
410.014	7010
410.238	7057
410.461	7078
410.685	7037
410.908	7170
411.132	7307
411.355	7433
411.578	7038
411.802	6773
412.025	6776
412.249	6854
412.472	6823
412.695	6815
412.919	6469
413.142	6404
413.365	6495
413.589	6474
413.812	6364
414.035	6298
414.258	6308
414.482	6342
414.705	6470
414.928	6378
415.151	6385
415.374	6370
415.597	6370
415.821	6202
416.044	6231
416.267	6238
416.49	6223
416.713	6129
416.936	6336
417.159	6355
417.382	6394
417.605	6320
417.828	6540
418.051	6658
418.274	6552
418.497	6390
418.72	6524
418.943	6500
419.166	6874
419.389	7179
419.611	7095
419.834	6884
420.057	6799
420.28	6511
420.503	6449
420.726	6508
420.948	6635
421.171	7163
421.394	7144
421.617	6582
421.839	6570
422.062	6684
422.285	6837
422.507	7512
422.73	8066
422.953	7471
423.175	7053
423.398	7023
423.621	7105
423.843	7274
424.066	7249
424.288	7106
424.511	7390
424.733	7860
424.956	8416
425.178	7840
425.401	7966
425.623	7894
425.846	6892
426.068	6694
426.291	6559
426.513	6568
426.735	6821
426.958	7242
427.18	8015
427.402	9149
427.625	9290
427.847	7830
428.069	6922
428.292	6444
428.514	6167
428.736	6076
428.958	6004
429.181	5844
429.403	5884
429.625	5992
429.847	6364
430.069	6888
430.292	6370
430.514	5856
430.736	5891
430.958	5732
431.18	5622
431.402	5763
431.624	5689
431.846	5795
432.068	5805
432.29	5855
432.512	5802
432.734	5791
432.956	5868
433.178	5853
433.4	5756
433.622	5793
433.844	5820
434.066	5726
434.287	5927
434.509	6120
434.731	6301
434.953	6535
435.175	6719
435.397	6709
435.618	6689
435.84	7116
436.062	7982
436.284	8017
436.505	6677
436.727	6282
436.949	6000
437.17	5961
437.392	5919
437.614	5988
437.835	6461
438.057	7534
438.278	8156
438.5	8027
438.721	8885
438.943	7779
439.165	6540
439.386	6334
439.608	6320
439.829	6500
440.05	6891
440.272	7279
440.493	6526
440.715	6247
440.936	6223
441.158	6221
441.379	6333
441.6	6679
441.822	7011
442.043	7382
442.264	8188
442.486	7896
442.707	6955
442.928	6909
443.149	6972
443.371	7318
443.592	7833
443.813	8800
444.034	8744
444.255	7591
444.476	7462
444.698	7585
444.919	7767
445.14	7532
445.361	7378
445.582	7495
445.803	8114
446.024	8828
446.245	8510
446.466	7596
446.687	6591
446.908	6184
447.129	5943
447.35	5794
447.571	5715
447.792	5627
448.013	5687
448.234	6007
448.455	6615
448.675	7903
448.896	8336
449.117	6821
449.338	7012
449.559	8439
449.779	8597
450	6594
450.221	5788
450.442	5631
450.662	5541
450.883	5632
451.104	5854
451.324	5559
451.545	5410
451.766	5252
451.986	5111
452.207	5106
452.428	5079
452.648	5192
452.869	5169
453.089	5352
453.31	5341
453.53	5123
453.751	5087
453.971	5128
454.192	5299
454.412	5025
454.633	4986
454.853	4959
455.073	5041
455.294	5445
455.514	5996
455.734	5464
455.955	4850
456.175	4719
456.395	4662
456.616	4605
456.836	4710
457.056	4586
457.276	4605
457.497	4781
457.717	4746
457.937	4827
458.157	4882
458.377	5096
458.598	5390
458.818	6105
459.038	7002
459.258	6856
459.478	5975
459.698	5883
459.918	5892
460.138	6053
460.358	6343
460.578	6318
460.798	6434
461.018	6448
461.238	6303
461.458	6234
461.678	6271
461.898	6352
462.118	6413
462.338	6734
462.558	6823
462.777	7224
462.997	7825
463.217	8116
463.437	7952
463.657	7370
463.876	7074
464.096	7244
464.316	7212
464.536	7293
464.755	7065
464.975	6960
465.195	7158
465.414	7330
465.634	6323
465.854	5973
466.073	5776
466.293	5510
466.512	5382
466.732	5285
466.951	5262
467.171	5240
467.391	5306
467.61	5428
467.829	5389
468.049	5274
468.268	5061
468.488	4944
468.707	4982
468.927	5024
469.146	5007
469.365	5073
469.585	5104
469.804	5371
470.023	5458
470.243	5482
470.462	5523
470.681	5626
470.901	5528
471.12	5379
471.339	5325
471.558	5351
471.777	5138
471.997	5127
472.216	5028
472.435	5066
472.654	5001
472.873	4975
473.092	4958
473.311	4946
473.53	5022
473.749	5140
473.968	5674
474.187	6805
474.406	6368
474.625	5396
474.844	5096
475.063	5038
475.282	5052
475.501	5146
475.72	5236
475.939	5218
476.158	5196
476.377	5283
476.596	5212
476.814	5400
477.033	5398
477.252	5435
477.471	5605
477.69	5715
477.908	5849
478.127	5997
478.346	5988
478.564	6125
478.783	6178
479.002	6365
479.22	6381
479.439	6407
479.658	6519
479.876	6676
480.095	6888
480.313	7210
480.532	7103
480.751	7008
480.969	6819
481.188	6775
481.406	6555
481.624	6289
481.843	6160
482.061	6083
482.28	5992
482.498	5954
482.717	5764
482.935	5926
483.153	5871
483.372	5866
483.59	5910
483.808	5942
484.027	5971
484.245	5932
484.463	5920
484.681	6069
484.9	6131
485.118	6185
485.336	6236
485.554	6250
485.772	6331
485.99	6270
486.209	6364
486.427	6293
486.645	6468
486.863	6595
487.081	6498
487.299	6417
487.517	6382
487.735	6307
487.953	6330
488.171	6400
488.389	6355
488.607	6246
488.825	6340
489.043	6411
489.261	6387
489.479	6542
489.696	6465
489.914	6518
490.132	6613
490.35	6613
490.568	6810
490.786	6771
491.003	6896
491.221	7138
491.439	7154
491.657	7119
491.874	7239
492.092	7311
492.31	7318
492.527	7312
492.745	7318
492.963	7392
493.18	7398
493.398	7543
493.615	7550
493.833	7599
494.05	7653
494.268	7581
494.485	7600
494.703	7584
494.92	7671
495.138	7546
495.355	7535
495.573	7627
495.79	7631
496.008	7663
496.225	7722
496.442	7626
496.66	7752
496.877	7724
497.094	7776
497.312	8032
497.529	8139
497.746	8438
497.963	8678
498.181	9034
498.398	9160
498.615	9621
498.832	10110
499.049	10559
499.267	11266
499.484	12020
499.701	12790
499.918	13496
500.135	14322
500.352	14968
500.569	14980
500.786	14855
501.003	14509
501.22	13863
501.437	13116
501.654	12268
501.871	11768
502.088	11026
502.305	10344
502.522	9831
502.739	9519
502.956	8912
503.172	8689
503.389	8396
503.606	8362
503.823	8261
504.04	8118
504.256	8340
504.473	8429
504.69	8431
504.907	8209
505.123	7707
505.34	7543
505.557	7351
505.773	7338
505.99	7291
506.207	7192
506.423	7202
506.64	7020
506.856	6967
507.073	6848
507.289	6854
507.506	6750
507.722	6895
507.939	6886
508.155	6602
508.372	6521
508.588	6432
508.805	6549
509.021	6521
509.238	6757
509.454	6767
509.67	6555
509.887	6417
510.103	6378
510.319	6418
510.536	7862
510.752	11410
510.968	7689
511.184	6182
511.401	6164
511.617	6001
511.833	6025
512.049	5865
512.265	5938
512.481	5978
512.698	5858
512.914	5886
513.13	5859
513.346	5937
513.562	5958
513.778	5918
513.994	6054
514.21	6162
514.426	6345
514.642	6718
514.858	6924
515.074	7182
515.29	8734
515.506	11720
515.721	8502
515.937	6999
516.153	6742
516.369	6755
516.585	6763
516.801	6907
517.016	7107
517.232	7269
517.448	7624
517.664	7723
517.879	7674
518.095	7580
518.311	7431
518.527	7181
518.742	6941
518.958	6751
519.173	6542
519.389	6447
519.605	6317
519.82	6339
520.036	6521
520.251	6560
520.467	6661
520.682	6544
520.898	6567
521.113	6532
521.329	6924
521.544	7741
521.76	9753
521.975	14295
522.19	11522
522.406	7320
522.621	6206
522.836	5855
523.052	5684
523.267	5486
523.482	5387
523.698	5313
523.913	5312
524.128	5283
524.343	5144
524.559	5110
524.774	5080
524.989	5083
525.204	5140
525.419	5077
525.634	4992
525.849	4904
526.064	4952
526.28	4903
526.495	4789
526.71	4858
526.925	4835
527.14	4819
527.355	4826
527.57	4757
527.785	4824
527.999	4747
528.214	4823
528.429	4812
528.644	4752
528.859	4840
529.074	4855
529.289	5142
529.503	5666
529.718	5358
529.933	5034
530.148	4881
530.363	4870
530.577	4823
530.792	4798
531.007	4776
531.221	4801
531.436	4750
531.651	4718
531.865	4752
532.08	4758
532.295	4741
532.509	4723
532.724	4641
532.938	4763
533.153	4694
533.367	4638
533.582	4693
533.796	4632
534.011	4651
534.225	4674
534.44	4572
534.654	4620
534.868	4572
535.083	4576
535.297	4601
535.511	4535
535.726	4631
535.94	4575
536.154	4515
536.369	4454
536.583	4443
536.797	4443
537.011	4421
537.225	4341
537.44	4348
537.654	4383
537.868	4384
538.082	4354
538.296	4426
538.51	4399
538.724	4346
538.938	4297
539.153	4285
539.367	4403
539.581	4398
539.795	4225
540.009	4241
540.222	4260
540.436	4276
540.65	4335
540.864	4347
541.078	4389
541.292	4292
541.506	4266
541.72	4203
541.934	4067
542.147	4176
