Data from Uncirc_2005_H10_HRD10591_00060.txt Node
Date: Wed Jan 03 10:28:36 EST 2024
User: Yrep
Spectrometer: HR+D1059
Trigger mode: 1
Integration Time (sec): 1.000000E-1
Scans to average: 1
Electric dark correction enabled: true
Nonlinearity correction enabled: false
Boxcar width: 0
XAxis mode: Wavelengths
Number of Pixels in Spectrum: 2048
>>>>>Begin Spectral Data<<<<<
223.165	-21.06
223.4	-21.06
223.635	-21.06
223.869	-27.06
224.104	-15.06
224.338	-17.06
224.573	-23.06
224.808	-15.06
225.042	-2.06
225.277	-0.06
225.511	-1.06
225.746	0.94
225.98	-0.06
226.215	15.94
226.449	24.94
226.683	18.94
226.918	29.94
227.152	30.94
227.387	40.94
227.621	44.94
227.856	62.94
228.09	41.94
228.324	48.94
228.559	54.94
228.793	171.94
229.027	460.94
229.262	528.94
229.496	604.94
229.73	819.94
229.964	851.94
230.199	566.94
230.433	504.94
230.667	506.94
230.901	471.94
231.136	434.94
231.37	472.94
231.604	466.94
231.838	440.94
232.072	436.94
232.306	479.94
232.541	476.94
232.775	456.94
233.009	487.94
233.243	501.94
233.477	494.94
233.711	494.94
233.945	507.94
234.179	524.94
234.413	517.94
234.647	492.94
234.881	518.94
235.115	538.94
235.349	533.94
235.583	559.94
235.817	586.94
236.051	635.94
236.285	639.94
236.519	624.94
236.753	714.94
236.987	941.94
237.221	1428.94
237.455	1596.94
237.689	895.94
237.922	753.94
238.156	743.94
238.39	672.94
238.624	646.94
238.858	653.94
239.091	648.94
239.325	655.94
239.559	684.94
239.793	714.94
240.027	747.94
240.26	933.94
240.494	1005.94
240.728	992.94
240.961	919.94
241.195	836.94
241.429	798.94
241.662	786.94
241.896	767.94
242.13	773.94
242.363	777.94
242.597	806.94
242.83	836.94
243.064	822.94
243.298	830.94
243.531	826.94
243.765	825.94
243.998	826.94
244.232	842.94
244.465	847.94
244.699	898.94
244.932	892.94
245.166	887.94
245.399	890.94
245.633	877.94
245.866	926.94
246.099	912.94
246.333	945.94
246.566	937.94
246.8	941.94
247.033	1010.94
247.266	1050.94
247.5	1113.94
247.733	1181.94
247.966	1162.94
248.2	1177.94
248.433	1170.94
248.666	1231.94
248.899	1368.94
249.133	1479.94
249.366	1460.94
249.599	1307.94
249.832	1205.94
250.066	1211.94
250.299	1235.94
250.532	1314.94
250.765	1534.94
250.998	1771.94
251.231	1650.94
251.465	1513.94
251.698	1446.94
251.931	1400.94
252.164	1405.94
252.397	1418.94
252.63	1470.94
252.863	1555.94
253.096	1730.94
253.329	1774.94
253.562	1655.94
253.795	1565.94
254.028	1598.94
254.261	1615.94
254.494	1845.94
254.727	2222.94
254.96	2319.94
255.193	2027.94
255.426	1771.94
255.659	1657.94
255.892	1606.94
256.124	1578.94
256.357	1537.94
256.59	1490.94
256.823	1470.94
257.056	1467.94
257.289	1552.94
257.521	1522.94
257.754	1549.94
257.987	1496.94
258.22	1516.94
258.452	1520.94
258.685	1563.94
258.918	1562.94
259.151	1612.94
259.383	1726.94
259.616	1716.94
259.849	1782.94
260.081	1965.94
260.314	2166.94
260.547	2099.94
260.779	1873.94
261.012	1782.94
261.244	1743.94
261.477	1718.94
261.71	1691.94
261.942	1755.94
262.175	1768.94
262.407	1740.94
262.64	1663.94
262.872	1666.94
263.105	1655.94
263.337	1663.94
263.57	1697.94
263.802	1664.94
264.035	1655.94
264.267	1697.94
264.499	1673.94
264.732	1648.94
264.964	1684.94
265.197	1697.94
265.429	1709.94
265.661	1697.94
265.894	1716.94
266.126	1753.94
266.358	1771.94
266.591	1765.94
266.823	1871.94
267.055	1907.94
267.287	1836.94
267.52	1846.94
267.752	1835.94
267.984	1845.94
268.216	1881.94
268.448	1935.94
268.681	2042.94
268.913	2158.94
269.145	2322.94
269.377	2391.94
269.609	2344.94
269.841	2303.94
270.073	2415.94
270.306	2728.94
270.538	2973.94
270.77	2726.94
271.002	2541.94
271.234	2522.94
271.466	2663.94
271.698	2847.94
271.93	2875.94
272.162	2803.94
272.394	2758.94
272.626	2563.94
272.858	2395.94
273.09	2353.94
273.322	2307.94
273.553	2224.94
273.785	2259.94
274.017	2236.94
274.249	2276.94
274.481	2277.94
274.713	2276.94
274.945	2344.94
275.176	2325.94
275.408	2198.94
275.64	2284.94
275.872	2298.94
276.104	2324.94
276.335	2339.94
276.567	2440.94
276.799	2543.94
277.031	2841.94
277.262	3001.94
277.494	2835.94
277.726	2648.94
277.957	2562.94
278.189	2409.94
278.421	2403.94
278.652	2393.94
278.884	2387.94
279.115	2311.94
279.347	2387.94
279.579	2346.94
279.81	2355.94
280.042	2335.94
280.273	2374.94
280.505	2418.94
280.736	2399.94
280.968	2411.94
281.199	2415.94
281.431	2451.94
281.662	2434.94
281.894	2438.94
282.125	2524.94
282.356	2704.94
282.588	2820.94
282.819	2693.94
283.051	2545.94
283.282	2472.94
283.513	2544.94
283.745	2635.94
283.976	2627.94
284.207	2671.94
284.439	2630.94
284.67	2571.94
284.901	2625.94
285.132	2582.94
285.364	2591.94
285.595	2668.94
285.826	2664.94
286.057	2675.94
286.288	2650.94
286.52	2653.94
286.751	2670.94
286.982	2671.94
287.213	2700.94
287.444	2759.94
287.675	2770.94
287.906	2897.94
288.138	2933.94
288.369	2932.94
288.6	2923.94
288.831	2843.94
289.062	2829.94
289.293	2815.94
289.524	2783.94
289.755	2833.94
289.986	2802.94
290.217	2781.94
290.448	2759.94
290.679	2804.94
290.91	2816.94
291.141	2810.94
291.371	2806.94
291.602	2802.94
291.833	2808.94
292.064	2815.94
292.295	2815.94
292.526	2816.94
292.757	2819.94
292.987	2789.94
293.218	2824.94
293.449	2862.94
293.68	2802.94
293.91	2813.94
294.141	2834.94
294.372	2841.94
294.603	2855.94
294.833	2884.94
295.064	2885.94
295.295	2854.94
295.525	2886.94
295.756	2961.94
295.987	3004.94
296.217	3147.94
296.448	3102.94
296.679	2964.94
296.909	2959.94
297.14	2940.94
297.37	3033.94
297.601	3047.94
297.831	3088.94
298.062	2970.94
298.292	3035.94
298.523	3099.94
298.753	3084.94
298.984	3066.94
299.214	3078.94
299.445	3078.94
299.675	3090.94
299.905	3133.94
300.136	3099.94
300.366	3114.94
300.597	3224.94
300.827	3280.94
301.057	3276.94
301.288	3355.94
301.518	3297.94
301.748	3300.94
301.979	3380.94
302.209	3358.94
302.439	3331.94
302.669	3314.94
302.9	3286.94
303.13	3326.94
303.36	3382.94
303.59	3352.94
303.82	3413.94
304.051	3400.94
304.281	3328.94
304.511	3278.94
304.741	3296.94
304.971	3241.94
305.201	3232.94
305.431	3265.94
305.661	3268.94
305.891	3307.94
306.121	3263.94
306.352	3315.94
306.582	3296.94
306.812	3194.94
307.042	3262.94
307.272	3229.94
307.502	3277.94
307.731	3225.94
307.961	3286.94
308.191	3258.94
308.421	3290.94
308.651	3325.94
308.881	3262.94
309.111	3386.94
309.341	3379.94
309.571	3433.94
309.8	3551.94
310.03	3590.94
310.26	3590.94
310.49	3590.94
310.72	3685.94
310.949	3776.94
311.179	3800.94
311.409	3652.94
311.639	3635.94
311.868	3685.94
312.098	3672.94
312.328	3736.94
312.557	3864.94
312.787	3999.94
313.017	3891.94
313.246	3786.94
313.476	3744.94
313.706	3810.94
313.935	3864.94
314.165	4000.94
314.394	4044.94
314.624	3931.94
314.853	3830.94
315.083	3842.94
315.312	3776.94
315.542	3762.94
315.771	3703.94
316.001	3665.94
316.23	3700.94
316.46	3695.94
316.689	3747.94
316.919	3773.94
317.148	3878.94
317.377	3784.94
317.607	3714.94
317.836	3706.94
318.065	3699.94
318.295	3642.94
318.524	3666.94
318.753	3612.94
318.983	3674.94
319.212	3668.94
319.441	3763.94
319.67	3757.94
319.9	3692.94
320.129	3656.94
320.358	3755.94
320.587	3755.94
320.816	3809.94
321.046	3869.94
321.275	3794.94
321.504	3869.94
321.733	3898.94
321.962	3940.94
322.191	4003.94
322.42	4155.94
322.649	4203.94
322.878	4270.94
323.108	4362.94
323.337	4596.94
323.566	4742.94
323.795	5080.94
324.024	5617.94
324.253	7502.94
324.482	11376.94
324.71	15487.94
324.939	15604.94
325.168	13527.94
325.397	6775.94
325.626	5362.94
325.855	4895.94
326.084	4818.94
326.313	4806.94
326.542	4957.94
326.77	5613.94
326.999	7204.94
327.228	10636.94
327.457	14673.94
327.686	14094.94
327.914	7519.94
328.143	5913.94
328.372	5457.94
328.6	5294.94
328.829	5315.94
329.058	5474.94
329.287	5453.94
329.515	5029.94
329.744	4860.94
329.972	4729.94
330.201	4934.94
330.43	5206.94
330.658	5520.94
330.887	5912.94
331.115	5460.94
331.344	5018.94
331.572	4918.94
331.801	5018.94
332.03	5042.94
332.258	4974.94
332.486	4998.94
332.715	5018.94
332.943	5216.94
333.172	5302.94
333.4	5423.94
333.629	5466.94
333.857	5643.94
334.085	5534.94
334.314	5462.94
334.542	5359.94
334.771	5400.94
334.999	5352.94
335.227	5155.94
335.455	5105.94
335.684	5024.94
335.912	4951.94
336.14	5005.94
336.369	4943.94
336.597	4963.94
336.825	4945.94
337.053	4878.94
337.281	4822.94
337.51	4730.94
337.738	4675.94
337.966	4714.94
338.194	4710.94
338.422	4574.94
338.65	4573.94
338.878	4530.94
339.106	4518.94
339.334	4543.94
339.562	4466.94
339.79	4416.94
340.018	4433.94
340.246	4396.94
340.474	4465.94
340.702	4379.94
340.93	4449.94
341.158	4446.94
341.386	4366.94
341.614	4421.94
341.842	4441.94
342.07	4381.94
342.298	4318.94
342.526	4296.94
342.754	4274.94
342.981	4354.94
343.209	4455.94
343.437	4670.94
343.665	4938.94
343.893	5231.94
344.12	5139.94
344.348	5005.94
344.576	4794.94
344.804	4737.94
345.031	4660.94
345.259	4573.94
345.487	4462.94
345.714	4386.94
345.942	4304.94
346.17	4284.94
346.397	4248.94
346.625	4210.94
346.853	4193.94
347.08	4199.94
347.308	4245.94
347.535	4325.94
347.763	4322.94
347.99	4289.94
348.218	4364.94
348.445	4425.94
348.673	4283.94
348.9	4214.94
349.128	4112.94
349.355	4102.94
349.583	4095.94
349.81	4105.94
350.037	4058.94
350.265	4048.94
350.492	4074.94
350.72	4109.94
350.947	4168.94
351.174	4220.94
351.402	4263.94
351.629	4167.94
351.856	4232.94
352.083	4318.94
352.311	4275.94
352.538	4298.94
352.765	4207.94
352.992	4185.94
353.22	4170.94
353.447	4142.94
353.674	4074.94
353.901	4012.94
354.128	4006.94
354.355	3979.94
354.583	3998.94
354.81	3933.94
355.037	3954.94
355.264	3959.94
355.491	3953.94
355.718	3917.94
355.945	3930.94
356.172	3942.94
356.399	3969.94
356.626	3936.94
356.853	4003.94
357.08	3929.94
357.307	3906.94
357.534	3921.94
357.761	3978.94
357.988	4017.94
358.215	4007.94
358.441	4070.94
358.668	3936.94
358.895	4055.94
359.122	4117.94
359.349	4183.94
359.576	4290.94
359.802	4496.94
360.029	4675.94
360.256	4684.94
360.483	4466.94
360.709	4226.94
360.936	4195.94
361.163	4271.94
361.39	4290.94
361.616	4259.94
361.843	4187.94
362.07	4235.94
362.296	4240.94
362.523	4201.94
362.749	4182.94
362.976	4122.94
363.203	4074.94
363.429	4030.94
363.656	4062.94
363.882	4073.94
364.109	4035.94
364.335	4066.94
364.562	4043.94
364.788	4038.94
365.015	4043.94
365.241	4066.94
365.468	4090.94
365.694	4144.94
365.92	4076.94
366.147	4107.94
366.373	4065.94
366.599	4069.94
366.826	4074.94
367.052	4006.94
367.278	4129.94
367.505	4019.94
367.731	4138.94
367.957	4036.94
368.184	4148.94
368.41	4212.94
368.636	4312.94
368.862	4303.94
369.089	4161.94
369.315	4107.94
369.541	4194.94
369.767	4193.94
369.993	4233.94
370.219	4198.94
370.445	4187.94
370.672	4188.94
370.898	4204.94
371.124	4287.94
371.35	4308.94
371.576	4203.94
371.802	4299.94
372.028	4266.94
372.254	4339.94
372.48	4373.94
372.706	4488.94
372.932	4435.94
373.158	4382.94
373.384	4366.94
373.61	4339.94
373.835	4323.94
374.061	4336.94
374.287	4464.94
374.513	4476.94
374.739	4614.94
374.965	4676.94
375.191	4746.94
375.416	4651.94
375.642	4534.94
375.868	4486.94
376.094	4445.94
376.319	4406.94
376.545	4379.94
376.771	4325.94
376.997	4330.94
377.222	4363.94
377.448	4281.94
377.674	4362.94
377.899	4315.94
378.125	4262.94
378.35	4242.94
378.576	4221.94
378.802	4203.94
379.027	4275.94
379.253	4274.94
379.478	4218.94
379.704	4332.94
379.929	4305.94
380.155	4319.94
380.38	4398.94
380.606	4382.94
380.831	4286.94
381.057	4400.94
381.282	4282.94
381.507	4370.94
381.733	4414.94
381.958	4387.94
382.184	4495.94
382.409	4487.94
382.634	4547.94
382.86	4600.94
383.085	4721.94
383.31	4679.94
383.535	4778.94
383.761	4802.94
383.986	4898.94
384.211	4909.94
384.436	4996.94
384.662	5123.94
384.887	5201.94
385.112	5164.94
385.337	5222.94
385.562	5233.94
385.787	5252.94
386.013	5231.94
386.238	5306.94
386.463	5255.94
386.688	5266.94
386.913	5202.94
387.138	5170.94
387.363	5116.94
387.588	5099.94
387.813	5168.94
388.038	5145.94
388.263	5177.94
388.488	5203.94
388.713	5120.94
388.938	5126.94
389.163	5114.94
389.387	5101.94
389.612	4998.94
389.837	5099.94
390.062	5028.94
390.287	5099.94
390.512	5043.94
390.736	5158.94
390.961	5259.94
391.186	5308.94
391.411	5480.94
391.636	5594.94
391.86	5768.94
392.085	5775.94
392.31	5673.94
392.534	5568.94
392.759	5464.94
392.984	5359.94
393.208	5367.94
393.433	5405.94
393.658	5305.94
393.882	5311.94
394.107	5361.94
394.331	5422.94
394.556	5382.94
394.78	5445.94
395.005	5551.94
395.229	5518.94
395.454	5723.94
395.678	5835.94
395.903	5913.94
396.127	5836.94
396.352	5665.94
396.576	5459.94
396.801	5391.94
397.025	5512.94
397.249	5572.94
397.474	5816.94
397.698	5792.94
397.922	5972.94
398.147	6088.94
398.371	6141.94
398.595	6330.94
398.82	6653.94
399.044	7128.94
399.268	7908.94
399.492	8998.94
399.717	9501.94
399.941	9362.94
400.165	8728.94
400.389	8083.94
400.613	7319.94
400.837	6818.94
401.062	6676.94
401.286	6646.94
401.51	6520.94
401.734	6497.94
401.958	6663.94
402.182	6779.94
402.406	6847.94
402.63	6859.94
402.854	7052.94
403.078	7068.94
403.302	7196.94
403.526	7366.94
403.75	7294.94
403.974	7400.94
404.198	7379.94
404.422	7568.94
404.645	7447.94
404.869	7366.94
405.093	7485.94
405.317	7595.94
405.541	7568.94
405.765	7260.94
405.988	7205.94
406.212	7346.94
406.436	7602.94
406.66	7801.94
406.883	7807.94
407.107	8335.94
407.331	8926.94
407.555	9450.94
407.778	9114.94
408.002	8363.94
408.226	7869.94
408.449	7710.94
408.673	7648.94
408.896	7815.94
409.12	7964.94
409.344	7601.94
409.567	7203.94
409.791	7183.94
410.014	6932.94
410.238	7034.94
410.461	6959.94
410.685	7082.94
410.908	7179.94
411.132	7422.94
411.355	7429.94
411.578	6991.94
411.802	6758.94
412.025	6786.94
412.249	6729.94
412.472	6809.94
412.695	6754.94
412.919	6534.94
413.142	6472.94
413.365	6410.94
413.589	6511.94
413.812	6235.94
414.035	6264.94
414.258	6303.94
414.482	6423.94
414.705	6397.94
414.928	6425.94
415.151	6451.94
415.374	6379.94
415.597	6336.94
415.821	6326.94
416.044	6290.94
416.267	6339.94
416.49	6255.94
416.713	6170.94
416.936	6260.94
417.159	6369.94
417.382	6410.94
417.605	6419.94
417.828	6623.94
418.051	6600.94
418.274	6506.94
418.497	6356.94
418.72	6515.94
418.943	6494.94
419.166	6827.94
419.389	7260.94
419.611	7246.94
419.834	6894.94
420.057	6857.94
420.28	6640.94
420.503	6479.94
420.726	6405.94
420.948	6655.94
421.171	7223.94
421.394	7069.94
421.617	6531.94
421.839	6557.94
422.062	6640.94
422.285	6729.94
422.507	7532.94
422.73	8056.94
422.953	7503.94
423.175	7036.94
423.398	7064.94
423.621	7121.94
423.843	7365.94
424.066	7222.94
424.288	7139.94
424.511	7448.94
424.733	7974.94
424.956	8355.94
425.178	7850.94
425.401	7983.94
425.623	7810.94
425.846	6902.94
426.068	6692.94
426.291	6624.94
426.513	6635.94
426.735	6757.94
426.958	7185.94
427.18	8012.94
427.402	9194.94
427.625	9271.94
427.847	7782.94
428.069	6780.94
428.292	6438.94
428.514	6176.94
428.736	6017.94
428.958	6111.94
429.181	5864.94
429.403	5887.94
429.625	6054.94
429.847	6405.94
430.069	7005.94
430.292	6480.94
430.514	5922.94
430.736	5854.94
430.958	5757.94
431.18	5707.94
431.402	5696.94
431.624	5680.94
431.846	5744.94
432.068	5763.94
432.29	5841.94
432.512	5834.94
432.734	5934.94
432.956	5761.94
433.178	5873.94
433.4	5853.94
433.622	5742.94
433.844	5762.94
434.066	5765.94
434.287	5913.94
434.509	6150.94
434.731	6375.94
434.953	6539.94
435.175	6578.94
435.397	6828.94
435.618	6716.94
435.84	7102.94
436.062	8046.94
436.284	7994.94
436.505	6607.94
436.727	6290.94
436.949	6074.94
437.17	5900.94
437.392	5815.94
437.614	5974.94
437.835	6393.94
438.057	7485.94
438.278	8226.94
438.5	8086.94
438.721	8972.94
438.943	7793.94
439.165	6588.94
439.386	6353.94
439.608	6432.94
439.829	6572.94
440.05	6776.94
440.272	7244.94
440.493	6630.94
440.715	6225.94
440.936	6219.94
441.158	6231.94
441.379	6329.94
441.6	6712.94
441.822	6931.94
442.043	7397.94
442.264	8247.94
442.486	7914.94
442.707	7014.94
442.928	6844.94
443.149	6974.94
443.371	7249.94
443.592	7836.94
443.813	8900.94
444.034	8852.94
444.255	7665.94
444.476	7416.94
444.698	7680.94
444.919	7639.94
445.14	7570.94
445.361	7427.94
445.582	7534.94
445.803	8159.94
446.024	8849.94
446.245	8574.94
446.466	7570.94
446.687	6586.94
446.908	6186.94
447.129	5902.94
447.35	5851.94
447.571	5725.94
447.792	5562.94
448.013	5765.94
448.234	5979.94
448.455	6652.94
448.675	7827.94
448.896	8506.94
449.117	6906.94
449.338	7016.94
449.559	8450.94
449.779	8690.94
450	6573.94
450.221	5918.94
450.442	5630.94
450.662	5498.94
450.883	5699.94
451.104	5821.94
451.324	5600.94
451.545	5450.94
451.766	5254.94
451.986	5154.94
452.207	5020.94
452.428	5115.94
452.648	5087.94
452.869	5175.94
453.089	5201.94
453.31	5374.94
453.53	5180.94
453.751	5032.94
453.971	5126.94
454.192	5202.94
454.412	5094.94
454.633	4954.94
454.853	4918.94
455.073	5060.94
455.294	5466.94
455.514	6054.94
455.734	5438.94
455.955	4886.94
456.175	4751.94
456.395	4710.94
456.616	4622.94
456.836	4683.94
457.056	4707.94
457.276	4607.94
457.497	4786.94
457.717	4796.94
457.937	4892.94
458.157	4878.94
458.377	4986.94
458.598	5291.94
458.818	6136.94
459.038	6954.94
459.258	6898.94
459.478	6048.94
459.698	5868.94
459.918	5892.94
460.138	6003.94
460.358	6309.94
460.578	6343.94
460.798	6378.94
461.018	6413.94
461.238	6329.94
461.458	6182.94
461.678	6280.94
461.898	6354.94
462.118	6424.94
462.338	6765.94
462.558	6858.94
462.777	7273.94
462.997	7777.94
463.217	8210.94
463.437	7890.94
463.657	7342.94
463.876	7094.94
464.096	7215.94
464.316	7161.94
464.536	7235.94
464.755	7004.94
464.975	6918.94
465.195	7134.94
465.414	7199.94
465.634	6328.94
465.854	5953.94
466.073	5682.94
466.293	5544.94
466.512	5310.94
466.732	5242.94
466.951	5292.94
467.171	5246.94
467.391	5339.94
467.61	5445.94
467.829	5380.94
468.049	5225.94
468.268	5069.94
468.488	5055.94
468.707	5033.94
468.927	5039.94
469.146	5026.94
469.365	5159.94
469.585	5089.94
469.804	5327.94
470.023	5532.94
470.243	5462.94
470.462	5579.94
470.681	5684.94
470.901	5519.94
471.12	5404.94
471.339	5282.94
471.558	5315.94
471.777	5165.94
471.997	5082.94
472.216	5136.94
472.435	5121.94
472.654	4960.94
472.873	4939.94
473.092	4943.94
473.311	4960.94
473.53	5027.94
473.749	5176.94
473.968	5686.94
474.187	6807.94
474.406	6314.94
474.625	5357.94
474.844	5131.94
475.063	4984.94
475.282	5023.94
475.501	5030.94
475.72	5142.94
475.939	5215.94
476.158	5268.94
476.377	5212.94
476.596	5192.94
476.814	5336.94
477.033	5409.94
477.252	5470.94
477.471	5618.94
477.69	5625.94
477.908	5769.94
478.127	5963.94
478.346	5950.94
478.564	6117.94
478.783	6184.94
479.002	6361.94
479.22	6377.94
479.439	6503.94
479.658	6586.94
479.876	6631.94
480.095	6892.94
480.313	7236.94
480.532	7113.94
480.751	6903.94
480.969	6858.94
481.188	6777.94
481.406	6585.94
481.624	6294.94
481.843	6177.94
482.061	5982.94
482.28	6060.94
482.498	5932.94
482.717	5931.94
482.935	5904.94
483.153	5908.94
483.372	5915.94
483.59	5914.94
483.808	5875.94
484.027	5908.94
484.245	5971.94
484.463	6018.94
484.681	6043.94
484.9	6073.94
485.118	6212.94
485.336	6144.94
485.554	6261.94
485.772	6304.94
485.99	6351.94
486.209	6359.94
486.427	6344.94
486.645	6506.94
486.863	6557.94
487.081	6484.94
487.299	6390.94
487.517	6381.94
487.735	6308.94
