Data from Uncirc_2005_H10_HRD10591_00050.txt Node
Date: Wed Jan 03 10:28:34 EST 2024
User: Yrep
Spectrometer: HR+D1059
Trigger mode: 1
Integration Time (sec): 1.000000E-1
Scans to average: 1
Electric dark correction enabled: true
Nonlinearity correction enabled: false
Boxcar width: 0
XAxis mode: Wavelengths
Number of Pixels in Spectrum: 2048
>>>>>Begin Spectral Data<<<<<
223.165	-27.56
223.4	-27.56
223.635	-27.56
223.869	-12.56
224.104	-0.56
224.338	-21.56
224.573	-25.56
224.808	-18.56
225.042	-0.56
225.277	0.44
225.511	-4.56
225.746	-3.56
225.98	11.44
226.215	21.44
226.449	24.44
226.683	21.44
226.918	17.44
227.152	18.44
227.387	46.44
227.621	38.44
227.856	43.44
228.09	32.44
228.324	51.44
228.559	51.44
228.793	63.44
229.027	54.44
229.262	64.44
229.496	64.44
229.73	88.44
229.964	64.44
230.199	62.44
230.433	84.44
230.667	74.44
230.901	73.44
231.136	71.44
231.37	77.44
231.604	78.44
231.838	72.44
232.072	72.44
232.306	88.44
232.541	70.44
232.775	73.44
233.009	77.44
233.243	78.44
233.477	76.44
233.711	83.44
233.945	86.44
234.179	84.44
234.413	82.44
234.647	83.44
234.881	66.44
235.115	80.44
235.349	63.44
235.583	70.44
235.817	76.44
236.051	82.44
236.285	84.44
236.519	91.44
236.753	78.44
236.987	87.44
237.221	61.44
237.455	89.44
237.689	81.44
237.922	86.44
238.156	88.44
238.39	81.44
238.624	73.44
238.858	80.44
239.091	70.44
239.325	71.44
239.559	70.44
239.793	86.44
240.027	77.44
240.26	79.44
240.494	81.44
240.728	91.44
240.961	76.44
241.195	67.44
241.429	80.44
241.662	83.44
241.896	78.44
242.13	89.44
242.363	82.44
242.597	83.44
242.83	87.44
243.064	66.44
243.298	94.44
243.531	71.44
243.765	82.44
243.998	68.44
244.232	92.44
244.465	73.44
244.699	82.44
244.932	79.44
245.166	90.44
245.399	77.44
245.633	70.44
245.866	89.44
246.099	89.44
246.333	91.44
246.566	76.44
246.8	80.44
247.033	77.44
247.266	64.44
247.5	75.44
247.733	75.44
247.966	53.44
248.2	86.44
248.433	88.44
248.666	67.44
248.899	84.44
249.133	80.44
249.366	95.44
249.599	100.44
249.832	93.44
250.066	74.44
250.299	79.44
250.532	78.44
250.765	72.44
250.998	88.44
251.231	79.44
251.465	83.44
251.698	77.44
251.931	81.44
252.164	77.44
252.397	90.44
252.63	88.44
252.863	74.44
253.096	66.44
253.329	90.44
253.562	85.44
253.795	87.44
254.028	61.44
254.261	68.44
254.494	82.44
254.727	82.44
254.96	58.44
255.193	77.44
255.426	77.44
255.659	88.44
255.892	80.44
256.124	78.44
256.357	82.44
256.59	77.44
256.823	90.44
257.056	79.44
257.289	83.44
257.521	87.44
257.754	88.44
257.987	86.44
258.22	88.44
258.452	71.44
258.685	81.44
258.918	75.44
259.151	83.44
259.383	81.44
259.616	87.44
259.849	80.44
260.081	81.44
260.314	77.44
260.547	77.44
260.779	87.44
261.012	84.44
261.244	79.44
261.477	75.44
261.71	88.44
261.942	99.44
262.175	92.44
262.407	90.44
262.64	79.44
262.872	90.44
263.105	99.44
263.337	92.44
263.57	93.44
263.802	89.44
264.035	86.44
264.267	88.44
264.499	84.44
264.732	92.44
264.964	86.44
265.197	81.44
265.429	71.44
265.661	87.44
265.894	72.44
266.126	89.44
266.358	78.44
266.591	84.44
266.823	80.44
267.055	79.44
267.287	76.44
267.52	81.44
267.752	74.44
267.984	90.44
268.216	85.44
268.448	64.44
268.681	74.44
268.913	85.44
269.145	73.44
269.377	86.44
269.609	83.44
269.841	71.44
270.073	86.44
270.306	93.44
270.538	86.44
270.77	91.44
271.002	76.44
271.234	84.44
271.466	84.44
271.698	91.44
271.93	82.44
272.162	94.44
272.394	86.44
272.626	87.44
272.858	81.44
273.09	103.44
273.322	78.44
273.553	89.44
273.785	82.44
274.017	85.44
274.249	100.44
274.481	86.44
274.713	76.44
274.945	74.44
275.176	80.44
275.408	99.44
275.64	82.44
275.872	83.44
276.104	84.44
276.335	92.44
276.567	97.44
276.799	102.44
277.031	108.44
277.262	93.44
277.494	90.44
277.726	99.44
277.957	84.44
278.189	75.44
278.421	71.44
278.652	84.44
278.884	81.44
279.115	101.44
279.347	93.44
279.579	87.44
279.81	99.44
280.042	87.44
280.273	83.44
280.505	76.44
280.736	83.44
280.968	79.44
281.199	92.44
281.431	84.44
281.662	83.44
281.894	94.44
282.125	100.44
282.356	117.44
282.588	118.44
282.819	107.44
283.051	95.44
283.282	95.44
283.513	97.44
283.745	83.44
283.976	96.44
284.207	92.44
284.439	87.44
284.67	74.44
284.901	77.44
285.132	97.44
285.364	78.44
285.595	97.44
285.826	82.44
286.057	87.44
286.288	74.44
286.52	85.44
286.751	94.44
286.982	101.44
287.213	82.44
287.444	94.44
287.675	88.44
287.906	94.44
288.138	79.44
288.369	84.44
288.6	82.44
288.831	81.44
289.062	91.44
289.293	85.44
289.524	88.44
289.755	87.44
289.986	90.44
290.217	70.44
290.448	76.44
290.679	86.44
290.91	93.44
291.141	90.44
291.371	89.44
291.602	69.44
291.833	90.44
292.064	86.44
292.295	80.44
292.526	91.44
292.757	87.44
292.987	93.44
293.218	88.44
293.449	86.44
293.68	81.44
293.91	96.44
294.141	83.44
294.372	91.44
294.603	74.44
294.833	84.44
295.064	83.44
295.295	91.44
295.525	97.44
295.756	100.44
295.987	108.44
296.217	140.44
296.448	115.44
296.679	87.44
296.909	99.44
297.14	86.44
297.37	83.44
297.601	98.44
297.831	106.44
298.062	84.44
298.292	97.44
298.523	89.44
298.753	80.44
298.984	89.44
299.214	97.44
299.445	91.44
299.675	96.44
299.905	101.44
300.136	88.44
300.366	88.44
300.597	88.44
300.827	91.44
301.057	90.44
301.288	103.44
301.518	93.44
301.748	89.44
301.979	110.44
302.209	84.44
302.439	91.44
302.669	90.44
302.9	93.44
303.13	102.44
303.36	92.44
303.59	85.44
303.82	119.44
304.051	94.44
304.281	84.44
304.511	94.44
304.741	94.44
304.971	90.44
305.201	78.44
305.431	87.44
305.661	96.44
305.891	87.44
306.121	104.44
306.352	99.44
306.582	93.44
306.812	97.44
307.042	91.44
307.272	107.44
307.502	99.44
307.731	80.44
307.961	82.44
308.191	73.44
308.421	85.44
308.651	107.44
308.881	89.44
309.111	81.44
309.341	81.44
309.571	83.44
309.8	88.44
310.03	99.44
310.26	94.44
310.49	98.44
310.72	101.44
310.949	115.44
311.179	107.44
311.409	98.44
311.639	90.44
311.868	100.44
312.098	88.44
312.328	99.44
312.557	103.44
312.787	88.44
313.017	98.44
313.246	83.44
313.476	87.44
313.706	97.44
313.935	80.44
314.165	99.44
314.394	92.44
314.624	76.44
314.853	97.44
315.083	80.44
315.312	98.44
315.542	79.44
315.771	92.44
316.001	87.44
316.23	104.44
316.46	85.44
316.689	90.44
316.919	94.44
317.148	104.44
317.377	109.44
317.607	94.44
317.836	92.44
318.065	80.44
318.295	85.44
318.524	90.44
318.753	106.44
318.983	91.44
319.212	100.44
319.441	102.44
319.67	99.44
319.9	102.44
320.129	99.44
320.358	86.44
320.587	98.44
320.816	107.44
321.046	88.44
321.275	95.44
321.504	109.44
321.733	103.44
321.962	69.44
322.191	104.44
322.42	103.44
322.649	111.44
322.878	106.44
323.108	116.44
323.337	114.44
323.566	127.44
323.795	161.44
324.024	220.44
324.253	412.44
324.482	885.44
324.71	1800.44
324.939	2396.44
325.168	879.44
325.397	255.44
325.626	158.44
325.855	130.44
326.084	128.44
326.313	125.44
326.542	167.44
326.77	230.44
326.999	480.44
327.228	1001.44
327.457	1822.44
327.686	1460.44
327.914	376.44
328.143	185.44
328.372	149.44
328.6	120.44
328.829	109.44
329.058	117.44
329.287	140.44
329.515	114.44
329.744	104.44
329.972	101.44
330.201	99.44
330.43	102.44
330.658	111.44
330.887	133.44
331.115	113.44
331.344	103.44
331.572	99.44
331.801	123.44
332.03	93.44
332.258	98.44
332.486	95.44
332.715	93.44
332.943	90.44
333.172	104.44
333.4	99.44
333.629	121.44
333.857	102.44
334.085	108.44
334.314	91.44
334.542	104.44
334.771	97.44
334.999	96.44
335.227	98.44
335.455	95.44
335.684	105.44
335.912	92.44
336.14	87.44
336.369	100.44
336.597	103.44
336.825	86.44
337.053	108.44
337.281	88.44
337.51	101.44
337.738	96.44
337.966	80.44
338.194	83.44
338.422	98.44
338.65	100.44
338.878	93.44
339.106	98.44
339.334	80.44
339.562	87.44
339.79	95.44
340.018	93.44
340.246	80.44
340.474	84.44
340.702	91.44
340.93	96.44
341.158	80.44
341.386	99.44
341.614	94.44
341.842	98.44
342.07	103.44
342.298	88.44
342.526	102.44
342.754	87.44
342.981	95.44
343.209	92.44
343.437	101.44
343.665	101.44
343.893	85.44
344.12	102.44
344.348	91.44
344.576	98.44
344.804	99.44
345.031	103.44
345.259	95.44
345.487	106.44
345.714	97.44
345.942	99.44
346.17	95.44
346.397	101.44
346.625	103.44
346.853	83.44
347.08	87.44
347.308	102.44
347.535	86.44
347.763	94.44
347.99	99.44
348.218	95.44
348.445	99.44
348.673	83.44
348.9	92.44
349.128	95.44
349.355	84.44
349.583	100.44
349.81	93.44
350.037	100.44
350.265	99.44
350.492	91.44
350.72	101.44
350.947	88.44
351.174	110.44
351.402	103.44
351.629	100.44
351.856	107.44
352.083	103.44
352.311	114.44
352.538	102.44
352.765	111.44
352.992	122.44
353.22	122.44
353.447	98.44
353.674	103.44
353.901	102.44
354.128	98.44
354.355	105.44
354.583	101.44
354.81	97.44
355.037	109.44
355.264	84.44
355.491	82.44
355.718	102.44
355.945	88.44
356.172	84.44
356.399	86.44
356.626	101.44
356.853	89.44
357.08	103.44
357.307	95.44
357.534	98.44
357.761	95.44
357.988	94.44
358.215	97.44
358.441	101.44
358.668	98.44
358.895	80.44
359.122	88.44
359.349	94.44
359.576	88.44
359.802	98.44
360.029	117.44
360.256	117.44
360.483	96.44
360.709	91.44
360.936	88.44
361.163	80.44
361.39	87.44
361.616	101.44
361.843	91.44
362.07	96.44
362.296	102.44
362.523	88.44
362.749	87.44
362.976	99.44
363.203	99.44
363.429	108.44
363.656	82.44
363.882	87.44
364.109	95.44
364.335	98.44
364.562	99.44
364.788	88.44
365.015	91.44
365.241	101.44
365.468	117.44
365.694	92.44
365.92	86.44
366.147	99.44
366.373	107.44
366.599	78.44
366.826	94.44
367.052	74.44
367.278	89.44
367.505	104.44
367.731	98.44
367.957	77.44
368.184	103.44
368.41	93.44
368.636	103.44
368.862	99.44
369.089	111.44
369.315	89.44
369.541	99.44
369.767	95.44
369.993	94.44
370.219	95.44
370.445	85.44
370.672	78.44
370.898	82.44
371.124	85.44
371.35	92.44
371.576	77.44
371.802	91.44
372.028	86.44
372.254	83.44
372.48	89.44
372.706	68.44
372.932	87.44
373.158	85.44
373.384	76.44
373.61	92.44
373.835	88.44
374.061	92.44
374.287	86.44
374.513	92.44
374.739	87.44
374.965	98.44
375.191	82.44
375.416	76.44
375.642	99.44
375.868	98.44
376.094	95.44
376.319	85.44
376.545	88.44
376.771	91.44
376.997	93.44
377.222	98.44
377.448	96.44
377.674	72.44
377.899	87.44
378.125	106.44
378.35	76.44
378.576	79.44
378.802	89.44
379.027	99.44
379.253	91.44
379.478	89.44
379.704	87.44
379.929	98.44
380.155	103.44
380.38	103.44
380.606	95.44
380.831	86.44
381.057	100.44
381.282	97.44
381.507	105.44
381.733	104.44
381.958	108.44
382.184	99.44
382.409	100.44
382.634	99.44
382.86	83.44
383.085	107.44
383.31	99.44
383.535	83.44
383.761	102.44
383.986	99.44
384.211	99.44
384.436	97.44
384.662	88.44
384.887	93.44
385.112	98.44
385.337	99.44
385.562	117.44
385.787	111.44
386.013	90.44
386.238	106.44
386.463	96.44
386.688	111.44
386.913	101.44
387.138	99.44
387.363	83.44
387.588	89.44
387.813	93.44
388.038	100.44
388.263	119.44
388.488	103.44
388.713	87.44
388.938	96.44
389.163	100.44
389.387	93.44
389.612	98.44
389.837	93.44
390.062	94.44
390.287	87.44
390.512	90.44
390.736	88.44
390.961	89.44
391.186	97.44
391.411	103.44
391.636	104.44
391.86	99.44
392.085	84.44
392.31	81.44
392.534	82.44
392.759	80.44
392.984	80.44
393.208	78.44
393.433	88.44
393.658	103.44
393.882	84.44
394.107	89.44
394.331	78.44
394.556	85.44
394.78	96.44
395.005	80.44
395.229	80.44
395.454	97.44
395.678	93.44
395.903	83.44
396.127	81.44
396.352	84.44
396.576	90.44
396.801	88.44
397.025	96.44
397.249	71.44
397.474	100.44
397.698	91.44
397.922	79.44
398.147	76.44
398.371	79.44
398.595	86.44
398.82	93.44
399.044	98.44
399.268	83.44
399.492	92.44
399.717	83.44
399.941	92.44
400.165	91.44
400.389	91.44
400.613	85.44
400.837	102.44
401.062	88.44
401.286	85.44
401.51	79.44
401.734	89.44
401.958	99.44
402.182	124.44
402.406	154.44
402.63	123.44
402.854	85.44
403.078	88.44
403.302	87.44
403.526	87.44
403.75	92.44
403.974	87.44
404.198	98.44
404.422	103.44
404.645	96.44
404.869	87.44
405.093	106.44
405.317	86.44
405.541	99.44
405.765	103.44
405.988	127.44
406.212	179.44
406.436	215.44
406.66	132.44
406.883	98.44
407.107	81.44
407.331	97.44
407.555	110.44
407.778	97.44
408.002	91.44
408.226	96.44
408.449	88.44
408.673	86.44
408.896	98.44
409.12	90.44
409.344	93.44
409.567	99.44
409.791	96.44
410.014	87.44
410.238	95.44
410.461	101.44
410.685	95.44
410.908	112.44
411.132	110.44
411.355	113.44
411.578	99.44
411.802	88.44
412.025	77.44
412.249	74.44
412.472	88.44
412.695	92.44
412.919	84.44
413.142	88.44
413.365	88.44
413.589	86.44
413.812	99.44
414.035	87.44
414.258	98.44
414.482	86.44
414.705	102.44
414.928	71.44
415.151	98.44
415.374	91.44
415.597	87.44
415.821	104.44
416.044	90.44
416.267	93.44
416.49	83.44
416.713	92.44
416.936	96.44
417.159	87.44
417.382	103.44
417.605	101.44
417.828	85.44
418.051	88.44
418.274	84.44
418.497	83.44
418.72	83.44
418.943	87.44
419.166	90.44
419.389	102.44
419.611	90.44
419.834	95.44
420.057	95.44
420.28	81.44
420.503	93.44
420.726	92.44
420.948	91.44
421.171	100.44
421.394	100.44
421.617	110.44
421.839	86.44
422.062	80.44
422.285	81.44
422.507	80.44
422.73	103.44
422.953	86.44
423.175	93.44
423.398	87.44
423.621	92.44
423.843	84.44
424.066	86.44
424.288	106.44
424.511	93.44
424.733	90.44
424.956	112.44
425.178	96.44
425.401	98.44
425.623	86.44
425.846	99.44
426.068	87.44
426.291	88.44
426.513	89.44
426.735	93.44
426.958	91.44
427.18	100.44
427.402	140.44
427.625	163.44
427.847	122.44
428.069	107.44
428.292	95.44
428.514	95.44
428.736	95.44
428.958	87.44
429.181	75.44
429.403	68.44
429.625	84.44
429.847	72.44
430.069	99.44
430.292	99.44
430.514	83.44
430.736	98.44
430.958	85.44
431.18	71.44
431.402	92.44
431.624	76.44
431.846	94.44
432.068	79.44
432.29	92.44
432.512	86.44
432.734	87.44
432.956	87.44
433.178	97.44
433.4	111.44
433.622	87.44
433.844	87.44
434.066	99.44
434.287	98.44
434.509	92.44
434.731	91.44
434.953	87.44
435.175	83.44
435.397	90.44
435.618	101.44
435.84	92.44
436.062	123.44
436.284	137.44
436.505	107.44
436.727	101.44
436.949	85.44
437.17	99.44
437.392	87.44
437.614	95.44
437.835	101.44
438.057	113.44
438.278	95.44
438.5	95.44
438.721	119.44
438.943	114.44
439.165	85.44
439.386	91.44
439.608	83.44
439.829	93.44
440.05	119.44
440.272	128.44
440.493	95.44
440.715	87.44
440.936	83.44
441.158	103.44
441.379	92.44
441.6	97.44
441.822	100.44
442.043	92.44
442.264	106.44
442.486	108.44
442.707	86.44
442.928	101.44
443.149	132.44
443.371	125.44
443.592	114.44
443.813	106.44
444.034	107.44
444.255	102.44
444.476	94.44
444.698	83.44
444.919	98.44
445.14	109.44
445.361	115.44
445.582	101.44
445.803	133.44
446.024	144.44
446.245	140.44
446.466	109.44
446.687	82.44
446.908	82.44
447.129	78.44
447.35	98.44
447.571	91.44
447.792	86.44
448.013	98.44
448.234	115.44
448.455	106.44
448.675	101.44
448.896	123.44
449.117	104.44
449.338	110.44
449.559	135.44
449.779	132.44
450	88.44
450.221	84.44
450.442	93.44
450.662	98.44
450.883	97.44
451.104	127.44
451.324	95.44
451.545	86.44
451.766	92.44
451.986	85.44
452.207	94.44
452.428	93.44
452.648	91.44
452.869	93.44
453.089	108.44
453.31	125.44
453.53	96.44
453.751	82.44
453.971	100.44
454.192	93.44
454.412	86.44
454.633	92.44
454.853	87.44
455.073	96.44
455.294	83.44
455.514	108.44
455.734	94.44
455.955	99.44
456.175	78.44
456.395	88.44
456.616	87.44
456.836	74.44
457.056	88.44
457.276	90.44
457.497	94.44
457.717	91.44
457.937	80.44
458.157	81.44
458.377	91.44
458.598	108.44
458.818	134.44
459.038	156.44
459.258	119.44
459.478	89.44
459.698	74.44
459.918	86.44
460.138	86.44
460.358	88.44
460.578	89.44
460.798	89.44
461.018	101.44
461.238	99.44
461.458	88.44
461.678	88.44
461.898	95.44
462.118	80.44
462.338	70.44
462.558	76.44
462.777	94.44
462.997	93.44
463.217	76.44
463.437	82.44
463.657	79.44
463.876	93.44
464.096	91.44
464.316	99.44
464.536	108.44
464.755	88.44
464.975	110.44
465.195	162.44
465.414	163.44
465.634	86.44
465.854	97.44
466.073	71.44
466.293	85.44
466.512	84.44
466.732	77.44
466.951	94.44
467.171	86.44
467.391	82.44
467.61	101.44
467.829	90.44
468.049	83.44
468.268	88.44
468.488	73.44
468.707	80.44
468.927	93.44
469.146	92.44
469.365	93.44
469.585	88.44
469.804	101.44
470.023	99.44
470.243	96.44
470.462	105.44
470.681	125.44
470.901	89.44
471.12	96.44
471.339	85.44
471.558	70.44
471.777	91.44
471.997	91.44
472.216	99.44
472.435	103.44
472.654	83.44
472.873	71.44
473.092	84.44
473.311	79.44
473.53	83.44
473.749	99.44
473.968	87.44
474.187	104.44
474.406	101.44
474.625	80.44
474.844	87.44
475.063	99.44
475.282	76.44
475.501	87.44
475.72	98.44
475.939	89.44
476.158	86.44
476.377	91.44
476.596	94.44
476.814	97.44
477.033	104.44
477.252	93.44
477.471	92.44
477.69	88.44
477.908	81.44
478.127	76.44
478.346	82.44
478.564	84.44
478.783	98.44
479.002	88.44
479.22	93.44
479.439	82.44
479.658	102.44
479.876	94.44
480.095	89.44
480.313	103.44
480.532	74.44
480.751	83.44
480.969	76.44
481.188	100.44
481.406	95.44
481.624	84.44
481.843	99.44
482.061	96.44
482.28	86.44
482.498	87.44
482.717	85.44
482.935	91.44
483.153	91.44
483.372	94.44
483.59	101.44
483.808	101.44
484.027	91.44
484.245	87.44
484.463	87.44
484.681	100.44
484.9	91.44
485.118	96.44
485.336	90.44
485.554	104.44
485.772	93.44
485.99	96.44
486.209	108.44
486.427	95.44
486.645	111.44
486.863	101.44
487.081	98.44
487.299	106.44
487.517	83.44
487.735	83.44
487.953	88.44
488.171	88.44
488.389	87.44
488.607	97.44
488.825	86.44
489.043	86.44
489.261	98.44
489.479	87.44
489.696	83.44
489.914	102.44
490.132	88.44
490.35	93.44
490.568	96.44
490.786	100.44
491.003	76.44
491.221	83.44
491.439	105.44
491.657	91.44
491.874	88.44
492.092	96.44
492.31	93.44
492.527	93.44
492.745	77.44
492.963	93.44
493.18	94.44
493.398	103.44
493.615	88.44
493.833	77.44
494.05	88.44
494.268	96.44
494.485	86.44
494.703	104.44
494.92	93.44
495.138	100.44
495.355	92.44
495.573	93.44
495.79	87.44
496.008	98.44
496.225	75.44
496.442	83.44
496.66	71.44
496.877	82.44
497.094	90.44
497.312	105.44
497.529	90.44
497.746	100.44
497.963	107.44
498.181	99.44
498.398	76.44
498.615	101.44
498.832	102.44
499.049	92.44
499.267	88.44
499.484	83.44
499.701	96.44
499.918	87.44
500.135	90.44
500.352	96.44
500.569	92.44
500.786	103.44
501.003	84.44
501.22	85.44
501.437	90.44
501.654	88.44
501.871	104.44
502.088	96.44
502.305	76.44
502.522	99.44
502.739	91.44
502.956	80.44
503.172	96.44
503.389	99.44
503.606	99.44
503.823	85.44
504.04	96.44
504.256	82.44
504.473	88.44
504.69	111.44
504.907	86.44
505.123	88.44
505.34	94.44
505.557	82.44
505.773	80.44
505.99	100.44
506.207	78.44
506.423	92.44
506.64	92.44
506.856	101.44
507.073	86.44
507.289	89.44
507.506	94.44
507.722	116.44
507.939	109.44
508.155	105.44
508.372	81.44
508.588	90.44
508.805	90.44
509.021	92.44
509.238	99.44
509.454	100.44
509.67	118.44
509.887	108.44
510.103	126.44
510.319	214.44
510.536	774.44
510.752	2352.44
510.968	656.44
511.184	145.44
511.401	99.44
511.617	98.44
511.833	103.44
512.049	93.44
512.265	85.44
512.481	88.44
512.698	91.44
512.914	88.44
513.13	97.44
513.346	94.44
513.562	89.44
513.778	91.44
513.994	103.44
514.21	115.44
514.426	121.44
514.642	137.44
514.858	125.44
515.074	154.44
515.29	471.44
515.506	1494.44
515.721	536.44
