Data from Uncirc_2005_H10_HRD10591_00075.txt Node
Date: Wed Jan 03 10:28:39 EST 2024
User: Yrep
Spectrometer: HR+D1059
Trigger mode: 1
Integration Time (sec): 1.000000E-1
Scans to average: 1
Electric dark correction enabled: true
Nonlinearity correction enabled: false
Boxcar width: 0
XAxis mode: Wavelengths
Number of Pixels in Spectrum: 2048
>>>>>Begin Spectral Data<<<<<
223.165	-13.75
223.4	-13.75
223.635	-13.75
223.869	-20.75
224.104	-26.75
224.338	-19.75
224.573	-19.75
224.808	-10.75
225.042	-10.75
225.277	-13.75
225.511	5.25
225.746	10.25
225.98	6.25
226.215	12.25
226.449	26.25
226.683	23.25
226.918	29.25
227.152	23.25
227.387	45.25
227.621	41.25
227.856	43.25
228.09	43.25
228.324	49.25
228.559	71.25
228.793	56.25
229.027	67.25
229.262	70.25
229.496	61.25
229.73	83.25
229.964	78.25
230.199	72.25
230.433	68.25
230.667	82.25
230.901	88.25
231.136	80.25
231.37	81.25
231.604	82.25
231.838	85.25
232.072	96.25
232.306	92.25
232.541	78.25
232.775	88.25
233.009	59.25
233.243	75.25
233.477	82.25
233.711	98.25
233.945	85.25
234.179	82.25
234.413	92.25
234.647	64.25
234.881	68.25
235.115	76.25
235.349	74.25
235.583	86.25
235.817	88.25
236.051	92.25
236.285	85.25
236.519	74.25
236.753	70.25
236.987	68.25
237.221	77.25
237.455	81.25
237.689	72.25
237.922	76.25
238.156	75.25
238.39	64.25
238.624	70.25
238.858	87.25
239.091	83.25
239.325	80.25
239.559	80.25
239.793	71.25
240.027	78.25
240.26	76.25
240.494	67.25
240.728	81.25
240.961	75.25
241.195	66.25
241.429	70.25
241.662	71.25
241.896	80.25
242.13	60.25
242.363	78.25
242.597	76.25
242.83	75.25
243.064	75.25
243.298	88.25
243.531	70.25
243.765	85.25
243.998	87.25
244.232	77.25
244.465	73.25
244.699	61.25
244.932	88.25
245.166	74.25
245.399	87.25
245.633	85.25
245.866	79.25
246.099	83.25
246.333	67.25
246.566	81.25
246.8	69.25
247.033	82.25
247.266	76.25
247.5	81.25
247.733	78.25
247.966	77.25
248.2	72.25
248.433	73.25
248.666	71.25
248.899	82.25
249.133	74.25
249.366	95.25
249.599	104.25
249.832	71.25
250.066	82.25
250.299	80.25
250.532	79.25
250.765	83.25
250.998	81.25
251.231	70.25
251.465	71.25
251.698	76.25
251.931	80.25
252.164	71.25
252.397	70.25
252.63	83.25
252.863	64.25
253.096	76.25
253.329	87.25
253.562	70.25
253.795	65.25
254.028	80.25
254.261	77.25
254.494	79.25
254.727	84.25
254.96	78.25
255.193	86.25
255.426	80.25
255.659	81.25
255.892	97.25
256.124	66.25
256.357	83.25
256.59	89.25
256.823	77.25
257.056	87.25
257.289	86.25
257.521	77.25
257.754	90.25
257.987	96.25
258.22	81.25
258.452	86.25
258.685	88.25
258.918	65.25
259.151	73.25
259.383	80.25
259.616	74.25
259.849	68.25
260.081	88.25
260.314	79.25
260.547	94.25
260.779	82.25
261.012	83.25
261.244	72.25
261.477	93.25
261.71	87.25
261.942	113.25
262.175	111.25
262.407	94.25
262.64	84.25
262.872	79.25
263.105	85.25
263.337	91.25
263.57	85.25
263.802	79.25
264.035	79.25
264.267	65.25
264.499	82.25
264.732	91.25
264.964	92.25
265.197	90.25
265.429	95.25
265.661	87.25
265.894	89.25
266.126	72.25
266.358	86.25
266.591	81.25
266.823	71.25
267.055	80.25
267.287	78.25
267.52	81.25
267.752	86.25
267.984	74.25
268.216	74.25
268.448	89.25
268.681	86.25
268.913	94.25
269.145	86.25
269.377	81.25
269.609	74.25
269.841	81.25
270.073	85.25
270.306	91.25
270.538	88.25
270.77	82.25
271.002	87.25
271.234	94.25
271.466	86.25
271.698	77.25
271.93	75.25
272.162	83.25
272.394	105.25
272.626	90.25
272.858	82.25
273.09	82.25
273.322	84.25
273.553	70.25
273.785	73.25
274.017	92.25
274.249	99.25
274.481	79.25
274.713	76.25
274.945	85.25
275.176	73.25
275.408	70.25
275.64	86.25
275.872	79.25
276.104	82.25
276.335	91.25
276.567	100.25
276.799	97.25
277.031	93.25
277.262	80.25
277.494	78.25
277.726	86.25
277.957	101.25
278.189	83.25
278.421	80.25
278.652	79.25
278.884	88.25
279.115	90.25
279.347	80.25
279.579	84.25
279.81	84.25
280.042	83.25
280.273	85.25
280.505	93.25
280.736	91.25
280.968	98.25
281.199	93.25
281.431	93.25
281.662	94.25
281.894	87.25
282.125	103.25
282.356	97.25
282.588	131.25
282.819	101.25
283.051	93.25
283.282	84.25
283.513	83.25
283.745	94.25
283.976	86.25
284.207	87.25
284.439	97.25
284.67	78.25
284.901	74.25
285.132	98.25
285.364	91.25
285.595	86.25
285.826	95.25
286.057	91.25
286.288	80.25
286.52	81.25
286.751	87.25
286.982	83.25
287.213	81.25
287.444	88.25
287.675	92.25
287.906	101.25
288.138	86.25
288.369	88.25
288.6	90.25
288.831	91.25
289.062	95.25
289.293	99.25
289.524	88.25
289.755	91.25
289.986	80.25
290.217	93.25
290.448	88.25
290.679	99.25
290.91	86.25
291.141	96.25
291.371	94.25
291.602	67.25
291.833	107.25
292.064	82.25
292.295	98.25
292.526	93.25
292.757	79.25
292.987	96.25
293.218	77.25
293.449	88.25
293.68	94.25
293.91	84.25
294.141	96.25
294.372	88.25
294.603	96.25
294.833	78.25
295.064	77.25
295.295	84.25
295.525	94.25
295.756	92.25
295.987	116.25
296.217	142.25
296.448	110.25
296.679	94.25
296.909	95.25
297.14	111.25
297.37	98.25
297.601	93.25
297.831	78.25
298.062	96.25
298.292	89.25
298.523	97.25
298.753	83.25
298.984	94.25
299.214	77.25
299.445	99.25
299.675	98.25
299.905	85.25
300.136	84.25
300.366	83.25
300.597	87.25
300.827	88.25
301.057	84.25
301.288	91.25
301.518	103.25
301.748	95.25
301.979	91.25
302.209	102.25
302.439	91.25
302.669	90.25
302.9	103.25
303.13	89.25
303.36	96.25
303.59	92.25
303.82	102.25
304.051	91.25
304.281	87.25
304.511	88.25
304.741	76.25
304.971	86.25
305.201	86.25
305.431	88.25
305.661	79.25
305.891	99.25
306.121	88.25
306.352	96.25
306.582	107.25
306.812	107.25
307.042	90.25
307.272	92.25
307.502	88.25
307.731	81.25
307.961	87.25
308.191	91.25
308.421	101.25
308.651	79.25
308.881	83.25
309.111	80.25
309.341	87.25
309.571	101.25
309.8	85.25
310.03	94.25
310.26	85.25
310.49	97.25
310.72	97.25
310.949	100.25
311.179	95.25
311.409	88.25
311.639	87.25
311.868	92.25
312.098	101.25
312.328	96.25
312.557	104.25
312.787	102.25
313.017	94.25
313.246	92.25
313.476	81.25
313.706	94.25
313.935	80.25
314.165	98.25
314.394	96.25
314.624	91.25
314.853	98.25
315.083	87.25
315.312	94.25
315.542	80.25
315.771	82.25
316.001	96.25
316.23	94.25
316.46	93.25
316.689	82.25
316.919	83.25
317.148	93.25
317.377	91.25
317.607	83.25
317.836	87.25
318.065	88.25
318.295	114.25
318.524	100.25
318.753	82.25
318.983	85.25
319.212	81.25
319.441	104.25
319.67	98.25
319.9	84.25
320.129	109.25
320.358	100.25
320.587	109.25
320.816	96.25
321.046	79.25
321.275	95.25
321.504	92.25
321.733	103.25
321.962	103.25
322.191	91.25
322.42	100.25
322.649	104.25
322.878	103.25
323.108	115.25
323.337	122.25
323.566	125.25
323.795	156.25
324.024	202.25
324.253	379.25
324.482	819.25
324.71	1669.25
324.939	2195.25
325.168	817.25
325.397	243.25
325.626	147.25
325.855	122.25
326.084	123.25
326.313	124.25
326.542	151.25
326.77	240.25
326.999	458.25
327.228	947.25
327.457	1717.25
327.686	1339.25
327.914	380.25
328.143	185.25
328.372	133.25
328.6	126.25
328.829	116.25
329.058	114.25
329.287	125.25
329.515	108.25
329.744	95.25
329.972	110.25
330.201	97.25
330.43	103.25
330.658	110.25
330.887	135.25
331.115	132.25
331.344	76.25
331.572	106.25
331.801	101.25
332.03	110.25
332.258	98.25
332.486	97.25
332.715	94.25
332.943	106.25
333.172	94.25
333.4	84.25
333.629	105.25
333.857	101.25
334.085	103.25
334.314	109.25
334.542	87.25
334.771	108.25
334.999	115.25
335.227	99.25
335.455	96.25
335.684	95.25
335.912	90.25
336.14	101.25
336.369	102.25
336.597	102.25
336.825	88.25
337.053	99.25
337.281	95.25
337.51	96.25
337.738	100.25
337.966	85.25
338.194	99.25
338.422	94.25
338.65	85.25
338.878	86.25
339.106	107.25
339.334	81.25
339.562	83.25
339.79	81.25
340.018	93.25
340.246	91.25
340.474	89.25
340.702	94.25
340.93	76.25
341.158	106.25
341.386	112.25
341.614	92.25
341.842	96.25
342.07	90.25
342.298	85.25
342.526	83.25
342.754	98.25
342.981	84.25
343.209	97.25
343.437	92.25
343.665	94.25
343.893	96.25
344.12	109.25
344.348	87.25
344.576	93.25
344.804	100.25
345.031	79.25
345.259	87.25
345.487	89.25
345.714	99.25
345.942	88.25
346.17	82.25
346.397	103.25
346.625	95.25
346.853	92.25
347.08	98.25
347.308	88.25
347.535	83.25
347.763	99.25
347.99	88.25
348.218	100.25
348.445	93.25
348.673	100.25
348.9	82.25
349.128	96.25
349.355	94.25
349.583	96.25
349.81	88.25
350.037	97.25
350.265	100.25
350.492	102.25
350.72	83.25
350.947	105.25
351.174	113.25
351.402	94.25
351.629	100.25
351.856	108.25
352.083	92.25
352.311	115.25
352.538	99.25
352.765	96.25
352.992	108.25
353.22	126.25
353.447	107.25
353.674	89.25
353.901	91.25
354.128	84.25
354.355	97.25
354.583	104.25
354.81	95.25
355.037	91.25
355.264	98.25
355.491	86.25
355.718	96.25
355.945	88.25
356.172	83.25
356.399	110.25
356.626	110.25
356.853	98.25
357.08	91.25
357.307	80.25
357.534	88.25
357.761	95.25
357.988	93.25
358.215	92.25
358.441	98.25
358.668	90.25
358.895	94.25
359.122	74.25
359.349	80.25
359.576	81.25
359.802	95.25
360.029	118.25
360.256	111.25
360.483	84.25
360.709	83.25
360.936	88.25
361.163	91.25
361.39	98.25
361.616	88.25
361.843	81.25
362.07	96.25
362.296	99.25
362.523	85.25
362.749	102.25
362.976	102.25
363.203	78.25
363.429	79.25
363.656	90.25
363.882	109.25
364.109	95.25
364.335	91.25
364.562	84.25
364.788	95.25
365.015	105.25
365.241	101.25
365.468	96.25
365.694	109.25
365.92	99.25
366.147	78.25
366.373	79.25
366.599	94.25
366.826	104.25
367.052	82.25
367.278	76.25
367.505	99.25
367.731	85.25
367.957	79.25
368.184	100.25
368.41	87.25
368.636	95.25
368.862	109.25
369.089	93.25
369.315	94.25
369.541	81.25
369.767	91.25
369.993	87.25
370.219	84.25
370.445	89.25
370.672	78.25
370.898	103.25
371.124	93.25
371.35	96.25
371.576	96.25
371.802	84.25
372.028	95.25
372.254	78.25
372.48	81.25
372.706	84.25
372.932	97.25
373.158	94.25
373.384	85.25
373.61	98.25
373.835	84.25
374.061	94.25
374.287	96.25
374.513	81.25
374.739	87.25
374.965	91.25
375.191	92.25
375.416	90.25
375.642	89.25
375.868	89.25
376.094	92.25
376.319	80.25
376.545	87.25
376.771	98.25
376.997	79.25
377.222	101.25
377.448	86.25
377.674	101.25
377.899	93.25
378.125	88.25
378.35	92.25
378.576	82.25
378.802	102.25
379.027	91.25
379.253	100.25
379.478	90.25
379.704	87.25
379.929	70.25
380.155	97.25
380.38	86.25
380.606	84.25
380.831	107.25
381.057	98.25
381.282	96.25
381.507	97.25
381.733	84.25
381.958	79.25
382.184	98.25
382.409	94.25
382.634	103.25
382.86	94.25
383.085	107.25
383.31	95.25
383.535	104.25
383.761	95.25
383.986	114.25
384.211	101.25
384.436	103.25
384.662	96.25
384.887	111.25
385.112	101.25
385.337	95.25
385.562	94.25
385.787	102.25
386.013	103.25
386.238	111.25
386.463	105.25
386.688	117.25
386.913	106.25
387.138	104.25
387.363	98.25
387.588	96.25
387.813	106.25
388.038	104.25
388.263	115.25
388.488	105.25
388.713	98.25
388.938	89.25
389.163	103.25
389.387	104.25
389.612	94.25
389.837	85.25
390.062	94.25
390.287	79.25
390.512	99.25
390.736	99.25
390.961	88.25
391.186	95.25
391.411	96.25
391.636	86.25
391.86	86.25
392.085	75.25
392.31	87.25
392.534	84.25
392.759	86.25
392.984	93.25
393.208	78.25
393.433	94.25
393.658	84.25
393.882	79.25
394.107	87.25
394.331	89.25
394.556	93.25
394.78	99.25
395.005	95.25
395.229	84.25
395.454	76.25
395.678	77.25
395.903	88.25
396.127	82.25
396.352	91.25
396.576	82.25
396.801	82.25
397.025	93.25
397.249	88.25
397.474	79.25
397.698	83.25
397.922	103.25
398.147	90.25
398.371	83.25
398.595	82.25
398.82	91.25
399.044	85.25
399.268	94.25
399.492	90.25
399.717	78.25
399.941	85.25
400.165	86.25
400.389	87.25
400.613	87.25
400.837	92.25
401.062	92.25
401.286	98.25
401.51	95.25
401.734	98.25
401.958	86.25
402.182	109.25
402.406	142.25
402.63	116.25
402.854	91.25
403.078	82.25
403.302	72.25
403.526	90.25
403.75	87.25
403.974	96.25
404.198	83.25
404.422	92.25
404.645	81.25
404.869	88.25
405.093	78.25
405.317	93.25
405.541	89.25
405.765	90.25
405.988	112.25
406.212	141.25
406.436	198.25
406.66	122.25
406.883	109.25
407.107	99.25
407.331	90.25
407.555	101.25
407.778	99.25
408.002	95.25
408.226	87.25
408.449	94.25
408.673	89.25
408.896	94.25
409.12	93.25
409.344	71.25
409.567	79.25
409.791	87.25
410.014	93.25
410.238	95.25
410.461	78.25
410.685	90.25
410.908	91.25
411.132	90.25
411.355	98.25
411.578	97.25
411.802	76.25
412.025	84.25
412.249	87.25
412.472	100.25
412.695	90.25
412.919	96.25
413.142	90.25
413.365	68.25
413.589	77.25
413.812	90.25
414.035	99.25
414.258	86.25
414.482	97.25
414.705	83.25
414.928	86.25
415.151	94.25
415.374	77.25
415.597	73.25
415.821	83.25
416.044	98.25
416.267	87.25
416.49	90.25
416.713	94.25
416.936	75.25
417.159	84.25
417.382	91.25
417.605	79.25
417.828	100.25
418.051	80.25
418.274	94.25
418.497	94.25
418.72	93.25
418.943	76.25
419.166	91.25
419.389	88.25
419.611	81.25
419.834	86.25
420.057	98.25
420.28	79.25
420.503	88.25
420.726	95.25
420.948	88.25
421.171	90.25
421.394	95.25
421.617	101.25
421.839	78.25
422.062	87.25
422.285	106.25
422.507	99.25
422.73	108.25
422.953	90.25
423.175	96.25
423.398	100.25
423.621	96.25
423.843	95.25
424.066	88.25
424.288	91.25
424.511	83.25
424.733	93.25
424.956	98.25
425.178	85.25
425.401	117.25
425.623	111.25
425.846	93.25
426.068	91.25
426.291	91.25
426.513	83.25
426.735	87.25
426.958	74.25
427.18	115.25
427.402	129.25
427.625	142.25
427.847	106.25
428.069	111.25
428.292	86.25
428.514	83.25
428.736	85.25
428.958	87.25
429.181	78.25
429.403	88.25
429.625	81.25
429.847	97.25
430.069	99.25
430.292	95.25
430.514	74.25
430.736	76.25
430.958	94.25
431.18	91.25
431.402	84.25
431.624	82.25
431.846	85.25
432.068	88.25
432.29	93.25
432.512	78.25
432.734	87.25
432.956	87.25
433.178	99.25
433.4	92.25
433.622	82.25
433.844	89.25
434.066	100.25
434.287	102.25
434.509	88.25
434.731	88.25
434.953	100.25
435.175	76.25
435.397	87.25
435.618	85.25
435.84	99.25
436.062	105.25
436.284	114.25
436.505	100.25
436.727	92.25
436.949	87.25
437.17	83.25
437.392	81.25
437.614	84.25
437.835	95.25
438.057	106.25
438.278	108.25
438.5	91.25
438.721	117.25
438.943	97.25
439.165	87.25
439.386	88.25
439.608	92.25
439.829	99.25
440.05	123.25
440.272	126.25
440.493	95.25
440.715	72.25
440.936	88.25
441.158	93.25
441.379	87.25
441.6	97.25
441.822	89.25
442.043	85.25
442.264	88.25
442.486	96.25
442.707	95.25
442.928	101.25
443.149	112.25
443.371	110.25
443.592	103.25
443.813	102.25
444.034	98.25
444.255	99.25
444.476	94.25
444.698	87.25
444.919	90.25
445.14	126.25
445.361	108.25
445.582	106.25
445.803	131.25
446.024	134.25
446.245	127.25
446.466	111.25
446.687	115.25
446.908	85.25
447.129	90.25
447.35	83.25
447.571	85.25
447.792	95.25
448.013	93.25
448.234	107.25
448.455	88.25
448.675	106.25
448.896	102.25
449.117	104.25
449.338	82.25
449.559	107.25
449.779	125.25
450	100.25
450.221	88.25
450.442	98.25
450.662	97.25
450.883	115.25
451.104	105.25
451.324	85.25
451.545	81.25
451.766	86.25
451.986	88.25
452.207	96.25
452.428	81.25
452.648	84.25
452.869	90.25
453.089	119.25
453.31	114.25
453.53	87.25
453.751	89.25
453.971	107.25
454.192	108.25
454.412	68.25
454.633	82.25
454.853	82.25
455.073	91.25
455.294	91.25
455.514	86.25
455.734	99.25
455.955	100.25
456.175	80.25
456.395	79.25
456.616	91.25
456.836	79.25
457.056	75.25
457.276	91.25
457.497	70.25
457.717	75.25
457.937	76.25
458.157	80.25
458.377	92.25
458.598	97.25
458.818	128.25
459.038	130.25
459.258	112.25
459.478	79.25
459.698	78.25
459.918	78.25
460.138	70.25
460.358	84.25
460.578	90.25
460.798	88.25
461.018	95.25
461.238	89.25
461.458	83.25
461.678	87.25
461.898	78.25
462.118	75.25
462.338	91.25
462.558	83.25
462.777	88.25
462.997	92.25
463.217	96.25
463.437	86.25
463.657	78.25
463.876	89.25
464.096	84.25
464.316	95.25
464.536	93.25
464.755	89.25
464.975	94.25
465.195	139.25
465.414	142.25
465.634	98.25
465.854	92.25
466.073	85.25
466.293	82.25
466.512	105.25
466.732	80.25
466.951	90.25
467.171	90.25
467.391	83.25
467.61	100.25
467.829	94.25
468.049	96.25
468.268	92.25
468.488	76.25
468.707	91.25
468.927	83.25
469.146	82.25
469.365	85.25
469.585	84.25
469.804	79.25
470.023	100.25
470.243	79.25
470.462	104.25
470.681	106.25
470.901	84.25
471.12	80.25
471.339	93.25
471.558	86.25
471.777	84.25
471.997	82.25
472.216	96.25
472.435	91.25
472.654	97.25
472.873	90.25
473.092	88.25
473.311	83.25
473.53	76.25
473.749	88.25
473.968	84.25
474.187	98.25
474.406	82.25
474.625	84.25
474.844	95.25
475.063	92.25
475.282	75.25
475.501	86.25
475.72	88.25
475.939	85.25
476.158	80.25
476.377	85.25
476.596	86.25
476.814	87.25
477.033	101.25
477.252	78.25
477.471	90.25
477.69	78.25
477.908	68.25
478.127	82.25
478.346	79.25
478.564	68.25
478.783	96.25
479.002	83.25
479.22	87.25
479.439	96.25
479.658	101.25
479.876	91.25
480.095	97.25
480.313	104.25
480.532	84.25
480.751	80.25
480.969	86.25
481.188	113.25
481.406	102.25
481.624	94.25
481.843	96.25
482.061	91.25
482.28	79.25
482.498	100.25
482.717	95.25
482.935	88.25
483.153	86.25
483.372	86.25
483.59	89.25
483.808	79.25
484.027	86.25
484.245	82.25
484.463	90.25
484.681	102.25
484.9	79.25
485.118	95.25
485.336	109.25
485.554	99.25
485.772	92.25
485.99	107.25
486.209	109.25
486.427	104.25
486.645	100.25
486.863	94.25
487.081	106.25
487.299	100.25
487.517	90.25
487.735	91.25
487.953	96.25
488.171	77.25
488.389	83.25
488.607	101.25
488.825	81.25
489.043	86.25
489.261	102.25
489.479	102.25
489.696	96.25
489.914	92.25
490.132	86.25
490.35	86.25
490.568	79.25
490.786	83.25
491.003	92.25
491.221	98.25
491.439	94.25
491.657	93.25
491.874	96.25
492.092	101.25
492.31	103.25
492.527	91.25
492.745	87.25
492.963	84.25
493.18	79.25
493.398	90.25
493.615	102.25
493.833	95.25
494.05	96.25
494.268	81.25
494.485	83.25
494.703	84.25
494.92	79.25
495.138	82.25
495.355	98.25
495.573	96.25
495.79	92.25
496.008	94.25
496.225	99.25
496.442	74.25
496.66	94.25
496.877	74.25
497.094	70.25
497.312	74.25
497.529	88.25
497.746	100.25
497.963	92.25
498.181	94.25
498.398	86.25
498.615	103.25
498.832	102.25
499.049	83.25
499.267	96.25
499.484	90.25
499.701	87.25
499.918	96.25
500.135	93.25
500.352	88.25
500.569	96.25
500.786	98.25
501.003	80.25
501.22	99.25
501.437	86.25
501.654	89.25
501.871	100.25
502.088	94.25
502.305	70.25
502.522	95.25
502.739	91.25
502.956	84.25
503.172	84.25
503.389	108.25
503.606	106.25
503.823	98.25
504.04	94.25
504.256	87.25
504.473	92.25
504.69	103.25
504.907	91.25
505.123	101.25
505.34	97.25
505.557	98.25
505.773	95.25
505.99	90.25
506.207	99.25
506.423	71.25
506.64	88.25
506.856	88.25
507.073	86.25
507.289	95.25
507.506	92.25
507.722	102.25
507.939	115.25
508.155	110.25
508.372	87.25
508.588	84.25
508.805	92.25
509.021	110.25
509.238	88.25
509.454	97.25
509.67	103.25
509.887	93.25
510.103	129.25
510.319	198.25
510.536	693.25
510.752	2112.25
510.968	634.25
511.184	156.25
511.401	106.25
511.617	99.25
511.833	85.25
512.049	86.25
512.265	88.25
512.481	93.25
512.698	83.25
512.914	95.25
513.13	97.25
513.346	87.25
513.562	99.25
513.778	105.25
513.994	87.25
514.21	100.25
514.426	108.25
514.642	137.25
514.858	117.25
515.074	167.25
515.29	398.25
515.506	1327.25
515.721	473.25
515.937	128.25
516.153	87.25
