Data from Uncirc_2005_H10_HRD10591_00019.txt Node
Date: Wed Jan 03 10:28:28 EST 2024
User: Yrep
Spectrometer: HR+D1059
Trigger mode: 1
Integration Time (sec): 1.000000E-1
Scans to average: 1
Electric dark correction enabled: true
Nonlinearity correction enabled: false
Boxcar width: 0
XAxis mode: Wavelengths
Number of Pixels in Spectrum: 2048
>>>>>Begin Spectral Data<<<<<
223.165	-24.75
223.4	-24.75
223.635	-24.75
223.869	-17.75
224.104	-15.75
224.338	-19.75
224.573	-30.75
224.808	-18.75
225.042	-2.75
225.277	-12.75
225.511	-1.75
225.746	5.25
225.98	22.25
226.215	37.25
226.449	13.25
226.683	18.25
226.918	29.25
227.152	19.25
227.387	28.25
227.621	43.25
227.856	50.25
228.09	43.25
228.324	58.25
228.559	59.25
228.793	70.25
229.027	61.25
229.262	68.25
229.496	72.25
229.73	89.25
229.964	98.25
230.199	76.25
230.433	73.25
230.667	77.25
230.901	76.25
231.136	81.25
231.37	88.25
231.604	86.25
231.838	71.25
232.072	90.25
232.306	77.25
232.541	78.25
232.775	82.25
233.009	61.25
233.243	61.25
233.477	82.25
233.711	89.25
233.945	88.25
234.179	79.25
234.413	83.25
234.647	77.25
234.881	85.25
235.115	79.25
235.349	80.25
235.583	73.25
235.817	83.25
236.051	95.25
236.285	68.25
236.519	74.25
236.753	87.25
236.987	75.25
237.221	73.25
237.455	80.25
237.689	73.25
237.922	74.25
238.156	73.25
238.39	73.25
238.624	76.25
238.858	69.25
239.091	85.25
239.325	81.25
239.559	66.25
239.793	74.25
240.027	88.25
240.26	59.25
240.494	74.25
240.728	66.25
240.961	86.25
241.195	68.25
241.429	75.25
241.662	59.25
241.896	76.25
242.13	57.25
242.363	78.25
242.597	76.25
242.83	73.25
243.064	69.25
243.298	69.25
243.531	71.25
243.765	75.25
243.998	72.25
244.232	83.25
244.465	87.25
244.699	78.25
244.932	65.25
245.166	77.25
245.399	70.25
245.633	70.25
245.866	80.25
246.099	88.25
246.333	78.25
246.566	81.25
246.8	91.25
247.033	65.25
247.266	67.25
247.5	71.25
247.733	85.25
247.966	85.25
248.2	69.25
248.433	58.25
248.666	77.25
248.899	86.25
249.133	84.25
249.366	84.25
249.599	95.25
249.832	92.25
250.066	81.25
250.299	72.25
250.532	72.25
250.765	85.25
250.998	77.25
251.231	84.25
251.465	88.25
251.698	84.25
251.931	78.25
252.164	74.25
252.397	72.25
252.63	77.25
252.863	75.25
253.096	69.25
253.329	79.25
253.562	68.25
253.795	72.25
254.028	78.25
254.261	91.25
254.494	79.25
254.727	81.25
254.96	85.25
255.193	75.25
255.426	82.25
255.659	77.25
255.892	83.25
256.124	72.25
256.357	85.25
256.59	76.25
256.823	73.25
257.056	65.25
257.289	81.25
257.521	80.25
257.754	69.25
257.987	73.25
258.22	74.25
258.452	77.25
258.685	78.25
258.918	88.25
259.151	82.25
259.383	73.25
259.616	79.25
259.849	94.25
260.081	93.25
260.314	76.25
260.547	79.25
260.779	82.25
261.012	79.25
261.244	66.25
261.477	86.25
261.71	77.25
261.942	101.25
262.175	117.25
262.407	87.25
262.64	75.25
262.872	74.25
263.105	65.25
263.337	78.25
263.57	81.25
263.802	78.25
264.035	83.25
264.267	81.25
264.499	73.25
264.732	74.25
264.964	85.25
265.197	86.25
265.429	85.25
265.661	79.25
265.894	91.25
266.126	89.25
266.358	92.25
266.591	79.25
266.823	70.25
267.055	79.25
267.287	78.25
267.52	82.25
267.752	80.25
267.984	87.25
268.216	87.25
268.448	103.25
268.681	88.25
268.913	77.25
269.145	86.25
269.377	79.25
269.609	84.25
269.841	84.25
270.073	102.25
270.306	86.25
270.538	80.25
270.77	87.25
271.002	85.25
271.234	80.25
271.466	93.25
271.698	81.25
271.93	78.25
272.162	81.25
272.394	82.25
272.626	82.25
272.858	84.25
273.09	86.25
273.322	87.25
273.553	87.25
273.785	83.25
274.017	94.25
274.249	97.25
274.481	76.25
274.713	83.25
274.945	90.25
275.176	96.25
275.408	80.25
275.64	84.25
275.872	79.25
276.104	85.25
276.335	90.25
276.567	108.25
276.799	121.25
277.031	93.25
277.262	83.25
277.494	77.25
277.726	79.25
277.957	94.25
278.189	82.25
278.421	82.25
278.652	83.25
278.884	73.25
279.115	95.25
279.347	84.25
279.579	78.25
279.81	78.25
280.042	86.25
280.273	96.25
280.505	91.25
280.736	85.25
280.968	83.25
281.199	86.25
281.431	91.25
281.662	75.25
281.894	93.25
282.125	90.25
282.356	108.25
282.588	113.25
282.819	113.25
283.051	93.25
283.282	95.25
283.513	77.25
283.745	73.25
283.976	77.25
284.207	102.25
284.439	79.25
284.67	82.25
284.901	87.25
285.132	83.25
285.364	83.25
285.595	79.25
285.826	69.25
286.057	89.25
286.288	87.25
286.52	79.25
286.751	77.25
286.982	93.25
287.213	75.25
287.444	84.25
287.675	80.25
287.906	80.25
288.138	90.25
288.369	80.25
288.6	84.25
288.831	73.25
289.062	92.25
289.293	100.25
289.524	68.25
289.755	89.25
289.986	91.25
290.217	86.25
290.448	94.25
290.679	90.25
290.91	85.25
291.141	99.25
291.371	88.25
291.602	82.25
291.833	84.25
292.064	81.25
292.295	90.25
292.526	95.25
292.757	61.25
292.987	90.25
293.218	79.25
293.449	81.25
293.68	79.25
293.91	83.25
294.141	84.25
294.372	88.25
294.603	89.25
294.833	80.25
295.064	92.25
295.295	98.25
295.525	86.25
295.756	95.25
295.987	110.25
296.217	137.25
296.448	123.25
296.679	79.25
296.909	91.25
297.14	95.25
297.37	87.25
297.601	84.25
297.831	90.25
298.062	93.25
298.292	90.25
298.523	83.25
298.753	100.25
298.984	98.25
299.214	94.25
299.445	91.25
299.675	85.25
299.905	95.25
300.136	89.25
300.366	92.25
300.597	94.25
300.827	87.25
301.057	86.25
301.288	98.25
301.518	81.25
301.748	87.25
301.979	98.25
302.209	92.25
302.439	86.25
302.669	78.25
302.9	82.25
303.13	93.25
303.36	96.25
303.59	115.25
303.82	90.25
304.051	80.25
304.281	90.25
304.511	106.25
304.741	90.25
304.971	90.25
305.201	83.25
305.431	76.25
305.661	87.25
305.891	92.25
306.121	113.25
306.352	110.25
306.582	119.25
306.812	90.25
307.042	99.25
307.272	95.25
307.502	99.25
307.731	96.25
307.961	106.25
308.191	77.25
308.421	75.25
308.651	90.25
308.881	96.25
309.111	107.25
309.341	105.25
309.571	94.25
309.8	82.25
310.03	91.25
310.26	93.25
310.49	85.25
310.72	97.25
310.949	93.25
311.179	108.25
311.409	93.25
311.639	98.25
311.868	82.25
312.098	95.25
312.328	74.25
312.557	110.25
312.787	97.25
313.017	111.25
313.246	93.25
313.476	104.25
313.706	90.25
313.935	78.25
314.165	95.25
314.394	102.25
314.624	97.25
314.853	93.25
315.083	93.25
315.312	98.25
315.542	81.25
315.771	102.25
316.001	90.25
316.23	83.25
316.46	98.25
316.689	85.25
316.919	87.25
317.148	95.25
317.377	107.25
317.607	93.25
317.836	88.25
318.065	87.25
318.295	93.25
318.524	83.25
318.753	85.25
318.983	91.25
319.212	108.25
319.441	105.25
319.67	93.25
319.9	83.25
320.129	79.25
320.358	99.25
320.587	101.25
320.816	98.25
321.046	102.25
321.275	95.25
321.504	96.25
321.733	92.25
321.962	99.25
322.191	99.25
322.42	98.25
322.649	100.25
322.878	99.25
323.108	128.25
323.337	118.25
323.566	118.25
323.795	150.25
324.024	215.25
324.253	407.25
324.482	860.25
324.71	1779.25
324.939	2325.25
325.168	851.25
325.397	244.25
325.626	171.25
325.855	128.25
326.084	135.25
326.313	121.25
326.542	159.25
326.77	213.25
326.999	469.25
327.228	1005.25
327.457	1813.25
327.686	1446.25
327.914	383.25
328.143	207.25
328.372	157.25
328.6	136.25
328.829	125.25
329.058	116.25
329.287	129.25
329.515	98.25
329.744	97.25
329.972	78.25
330.201	96.25
330.43	99.25
330.658	130.25
330.887	139.25
331.115	111.25
331.344	99.25
331.572	102.25
331.801	103.25
332.03	95.25
332.258	96.25
332.486	94.25
332.715	82.25
332.943	103.25
333.172	97.25
333.4	91.25
333.629	109.25
333.857	116.25
334.085	106.25
334.314	101.25
334.542	93.25
334.771	93.25
334.999	85.25
335.227	101.25
335.455	95.25
335.684	82.25
335.912	85.25
336.14	96.25
336.369	101.25
336.597	88.25
336.825	112.25
337.053	87.25
337.281	82.25
337.51	90.25
337.738	100.25
337.966	91.25
338.194	119.25
338.422	100.25
338.65	97.25
338.878	100.25
339.106	84.25
339.334	94.25
339.562	98.25
339.79	86.25
340.018	102.25
340.246	94.25
340.474	97.25
340.702	98.25
340.93	88.25
341.158	83.25
341.386	98.25
341.614	96.25
341.842	95.25
342.07	91.25
342.298	92.25
342.526	103.25
342.754	88.25
342.981	88.25
343.209	94.25
343.437	94.25
343.665	89.25
343.893	89.25
344.12	95.25
344.348	85.25
344.576	97.25
344.804	98.25
345.031	102.25
345.259	104.25
345.487	78.25
345.714	103.25
345.942	86.25
346.17	93.25
346.397	84.25
346.625	86.25
346.853	95.25
347.08	89.25
347.308	95.25
347.535	98.25
347.763	97.25
347.99	103.25
348.218	84.25
348.445	112.25
348.673	112.25
348.9	87.25
349.128	86.25
349.355	88.25
349.583	98.25
349.81	87.25
350.037	85.25
350.265	91.25
350.492	95.25
350.72	89.25
350.947	104.25
351.174	113.25
351.402	110.25
351.629	95.25
351.856	105.25
352.083	101.25
352.311	112.25
352.538	119.25
352.765	109.25
352.992	125.25
353.22	117.25
353.447	105.25
353.674	94.25
353.901	98.25
354.128	99.25
354.355	96.25
354.583	88.25
354.81	106.25
355.037	85.25
355.264	90.25
355.491	97.25
355.718	80.25
355.945	101.25
356.172	93.25
356.399	97.25
356.626	98.25
356.853	87.25
357.08	92.25
357.307	72.25
357.534	87.25
357.761	91.25
357.988	96.25
358.215	103.25
358.441	91.25
358.668	97.25
358.895	89.25
359.122	101.25
359.349	86.25
359.576	83.25
359.802	109.25
360.029	110.25
360.256	102.25
360.483	94.25
360.709	94.25
360.936	81.25
361.163	82.25
361.39	108.25
361.616	96.25
361.843	89.25
362.07	97.25
362.296	96.25
362.523	81.25
362.749	93.25
362.976	92.25
363.203	87.25
363.429	102.25
363.656	93.25
363.882	83.25
364.109	93.25
364.335	94.25
364.562	86.25
364.788	84.25
365.015	91.25
365.241	99.25
365.468	113.25
365.694	103.25
365.92	96.25
366.147	91.25
366.373	86.25
366.599	79.25
366.826	92.25
367.052	77.25
367.278	87.25
367.505	98.25
367.731	100.25
367.957	93.25
368.184	83.25
368.41	87.25
368.636	98.25
368.862	110.25
369.089	91.25
369.315	92.25
369.541	91.25
369.767	90.25
369.993	83.25
370.219	94.25
370.445	90.25
370.672	81.25
370.898	85.25
371.124	92.25
371.35	76.25
371.576	78.25
371.802	84.25
372.028	97.25
372.254	96.25
372.48	82.25
372.706	89.25
372.932	85.25
373.158	83.25
373.384	95.25
373.61	87.25
373.835	91.25
374.061	85.25
374.287	90.25
374.513	100.25
374.739	78.25
374.965	82.25
375.191	100.25
375.416	86.25
375.642	93.25
375.868	95.25
376.094	92.25
376.319	85.25
376.545	90.25
376.771	97.25
376.997	90.25
377.222	97.25
377.448	99.25
377.674	75.25
377.899	99.25
378.125	77.25
378.35	93.25
378.576	97.25
378.802	82.25
379.027	85.25
379.253	84.25
379.478	90.25
379.704	90.25
379.929	94.25
380.155	90.25
380.38	95.25
380.606	101.25
380.831	101.25
381.057	95.25
381.282	81.25
381.507	97.25
381.733	103.25
381.958	110.25
382.184	99.25
382.409	108.25
382.634	93.25
382.86	105.25
383.085	98.25
383.31	99.25
383.535	99.25
383.761	100.25
383.986	91.25
384.211	100.25
384.436	95.25
384.662	101.25
384.887	105.25
385.112	108.25
385.337	124.25
385.562	104.25
385.787	104.25
386.013	116.25
386.238	117.25
386.463	100.25
386.688	105.25
386.913	113.25
387.138	117.25
387.363	101.25
387.588	97.25
387.813	110.25
388.038	107.25
388.263	117.25
388.488	105.25
388.713	111.25
388.938	86.25
389.163	106.25
389.387	114.25
389.612	95.25
389.837	102.25
390.062	97.25
390.287	94.25
390.512	87.25
390.736	96.25
390.961	85.25
391.186	98.25
391.411	94.25
391.636	106.25
391.86	90.25
392.085	91.25
392.31	68.25
392.534	92.25
392.759	96.25
392.984	85.25
393.208	90.25
393.433	103.25
393.658	96.25
393.882	98.25
394.107	91.25
394.331	73.25
394.556	88.25
394.78	95.25
395.005	83.25
395.229	97.25
395.454	95.25
395.678	85.25
395.903	87.25
396.127	82.25
396.352	87.25
396.576	89.25
396.801	83.25
397.025	79.25
397.249	94.25
397.474	94.25
397.698	82.25
397.922	85.25
398.147	87.25
398.371	84.25
398.595	83.25
398.82	88.25
399.044	88.25
399.268	91.25
399.492	80.25
399.717	96.25
399.941	82.25
400.165	103.25
400.389	84.25
400.613	75.25
400.837	80.25
401.062	99.25
401.286	86.25
401.51	93.25
401.734	96.25
401.958	107.25
402.182	130.25
402.406	161.25
402.63	106.25
402.854	93.25
403.078	83.25
403.302	81.25
403.526	87.25
403.75	95.25
403.974	92.25
404.198	81.25
404.422	78.25
404.645	98.25
404.869	88.25
405.093	90.25
405.317	98.25
405.541	101.25
405.765	100.25
405.988	125.25
406.212	171.25
406.436	232.25
406.66	147.25
406.883	102.25
407.107	76.25
407.331	87.25
407.555	99.25
407.778	100.25
408.002	93.25
408.226	86.25
408.449	82.25
408.673	95.25
408.896	85.25
409.12	84.25
409.344	108.25
409.567	80.25
409.791	89.25
410.014	87.25
410.238	74.25
410.461	92.25
410.685	99.25
410.908	99.25
411.132	110.25
411.355	101.25
411.578	107.25
411.802	87.25
412.025	87.25
412.249	98.25
412.472	81.25
412.695	76.25
412.919	85.25
413.142	81.25
413.365	87.25
413.589	85.25
413.812	92.25
414.035	84.25
414.258	87.25
414.482	101.25
414.705	84.25
414.928	97.25
415.151	92.25
415.374	91.25
415.597	82.25
415.821	69.25
416.044	82.25
416.267	94.25
416.49	90.25
416.713	93.25
416.936	95.25
417.159	85.25
417.382	81.25
417.605	94.25
417.828	89.25
418.051	71.25
418.274	102.25
418.497	98.25
418.72	86.25
418.943	76.25
419.166	86.25
419.389	81.25
419.611	84.25
419.834	103.25
420.057	86.25
420.28	98.25
420.503	86.25
420.726	77.25
420.948	71.25
421.171	91.25
421.394	81.25
421.617	85.25
421.839	85.25
422.062	80.25
422.285	105.25
422.507	93.25
422.73	106.25
422.953	101.25
423.175	91.25
423.398	96.25
423.621	77.25
423.843	93.25
424.066	94.25
424.288	96.25
424.511	85.25
424.733	98.25
424.956	107.25
425.178	114.25
425.401	95.25
425.623	93.25
425.846	93.25
426.068	101.25
426.291	85.25
426.513	81.25
426.735	86.25
426.958	90.25
427.18	123.25
427.402	144.25
427.625	161.25
427.847	117.25
428.069	92.25
428.292	105.25
428.514	88.25
428.736	73.25
428.958	79.25
429.181	81.25
429.403	77.25
429.625	92.25
429.847	81.25
430.069	110.25
430.292	87.25
430.514	92.25
430.736	82.25
430.958	85.25
431.18	79.25
431.402	70.25
431.624	73.25
431.846	70.25
432.068	85.25
432.29	84.25
432.512	85.25
432.734	92.25
432.956	90.25
433.178	95.25
433.4	93.25
433.622	73.25
433.844	83.25
434.066	85.25
434.287	74.25
434.509	86.25
434.731	82.25
434.953	91.25
435.175	82.25
435.397	93.25
435.618	92.25
435.84	92.25
436.062	113.25
436.284	115.25
436.505	98.25
436.727	106.25
436.949	89.25
437.17	90.25
437.392	78.25
437.614	92.25
437.835	99.25
438.057	121.25
438.278	110.25
438.5	92.25
438.721	114.25
438.943	106.25
439.165	103.25
439.386	86.25
439.608	98.25
439.829	93.25
440.05	113.25
440.272	146.25
440.493	94.25
440.715	86.25
440.936	86.25
441.158	86.25
441.379	91.25
441.6	96.25
441.822	90.25
442.043	100.25
442.264	98.25
442.486	92.25
442.707	106.25
442.928	93.25
443.149	137.25
443.371	125.25
443.592	115.25
443.813	103.25
444.034	96.25
444.255	90.25
444.476	87.25
444.698	80.25
444.919	80.25
445.14	107.25
445.361	133.25
445.582	108.25
445.803	134.25
446.024	124.25
446.245	127.25
446.466	115.25
446.687	85.25
446.908	90.25
447.129	97.25
447.35	93.25
447.571	105.25
447.792	90.25
448.013	98.25
448.234	102.25
448.455	109.25
448.675	109.25
448.896	119.25
449.117	96.25
449.338	104.25
449.559	127.25
449.779	119.25
450	97.25
450.221	84.25
450.442	86.25
450.662	83.25
450.883	102.25
451.104	113.25
451.324	82.25
451.545	86.25
451.766	86.25
451.986	78.25
452.207	81.25
452.428	89.25
452.648	98.25
452.869	101.25
453.089	112.25
453.31	101.25
453.53	95.25
453.751	94.25
453.971	106.25
454.192	105.25
454.412	109.25
454.633	91.25
454.853	90.25
455.073	80.25
455.294	78.25
455.514	93.25
455.734	94.25
455.955	91.25
456.175	90.25
456.395	96.25
456.616	89.25
456.836	88.25
457.056	92.25
457.276	83.25
457.497	83.25
457.717	83.25
457.937	91.25
458.157	87.25
458.377	91.25
458.598	95.25
458.818	135.25
459.038	155.25
459.258	115.25
459.478	95.25
459.698	88.25
459.918	71.25
460.138	76.25
460.358	97.25
460.578	116.25
460.798	88.25
461.018	89.25
461.238	90.25
461.458	80.25
461.678	86.25
461.898	78.25
462.118	92.25
462.338	85.25
462.558	94.25
462.777	64.25
462.997	75.25
463.217	86.25
463.437	94.25
463.657	101.25
463.876	98.25
464.096	84.25
464.316	98.25
464.536	93.25
464.755	89.25
464.975	106.25
465.195	159.25
465.414	145.25
465.634	88.25
465.854	74.25
466.073	85.25
466.293	88.25
466.512	86.25
466.732	86.25
466.951	89.25
467.171	88.25
467.391	101.25
467.61	103.25
467.829	102.25
468.049	83.25
468.268	79.25
468.488	86.25
468.707	91.25
468.927	92.25
469.146	89.25
469.365	92.25
469.585	92.25
469.804	102.25
470.023	84.25
470.243	94.25
470.462	98.25
470.681	103.25
470.901	89.25
471.12	78.25
471.339	99.25
471.558	91.25
471.777	82.25
471.997	88.25
472.216	90.25
472.435	94.25
472.654	85.25
472.873	90.25
473.092	84.25
473.311	87.25
473.53	103.25
473.749	86.25
473.968	92.25
474.187	109.25
474.406	94.25
474.625	87.25
474.844	97.25
475.063	92.25
475.282	76.25
475.501	88.25
475.72	93.25
475.939	94.25
476.158	82.25
476.377	84.25
476.596	105.25
476.814	96.25
477.033	99.25
477.252	69.25
477.471	91.25
477.69	84.25
477.908	82.25
478.127	83.25
478.346	79.25
478.564	84.25
478.783	99.25
479.002	107.25
479.22	101.25
479.439	102.25
479.658	121.25
479.876	87.25
480.095	91.25
480.313	89.25
480.532	88.25
480.751	92.25
480.969	94.25
481.188	98.25
481.406	99.25
481.624	89.25
481.843	90.25
482.061	88.25
482.28	102.25
482.498	99.25
482.717	100.25
482.935	87.25
483.153	79.25
483.372	92.25
483.59	79.25
483.808	76.25
484.027	82.25
484.245	91.25
484.463	86.25
484.681	91.25
484.9	96.25
485.118	109.25
485.336	91.25
485.554	88.25
485.772	89.25
485.99	80.25
486.209	82.25
486.427	100.25
486.645	119.25
486.863	112.25
487.081	92.25
487.299	98.25
487.517	79.25
487.735	94.25
487.953	105.25
488.171	86.25
488.389	95.25
488.607	92.25
488.825	82.25
489.043	97.25
489.261	89.25
489.479	92.25
489.696	86.25
489.914	86.25
490.132	77.25
490.35	92.25
490.568	94.25
490.786	87.25
491.003	81.25
491.221	90.25
491.439	97.25
491.657	103.25
491.874	92.25
492.092	87.25
492.31	94.25
492.527	95.25
492.745	90.25
492.963	88.25
493.18	101.25
493.398	91.25
493.615	97.25
493.833	83.25
494.05	86.25
494.268	79.25
494.485	75.25
494.703	98.25
494.92	95.25
495.138	91.25
495.355	88.25
495.573	94.25
495.79	85.25
496.008	96.25
496.225	80.25
496.442	90.25
496.66	96.25
496.877	63.25
497.094	82.25
497.312	88.25
497.529	94.25
497.746	95.25
497.963	79.25
498.181	85.25
498.398	93.25
498.615	121.25
498.832	97.25
499.049	77.25
499.267	88.25
499.484	87.25
499.701	93.25
499.918	86.25
500.135	94.25
500.352	93.25
500.569	82.25
500.786	79.25
501.003	79.25
501.22	94.25
501.437	88.25
501.654	97.25
501.871	105.25
502.088	91.25
502.305	90.25
502.522	83.25
502.739	83.25
502.956	68.25
503.172	97.25
503.389	90.25
503.606	100.25
503.823	107.25
504.04	83.25
504.256	96.25
504.473	79.25
504.69	82.25
504.907	81.25
505.123	73.25
505.34	97.25
505.557	88.25
505.773	92.25
505.99	83.25
506.207	106.25
506.423	82.25
506.64	93.25
506.856	93.25
507.073	99.25
507.289	80.25
507.506	95.25
507.722	123.25
507.939	116.25
508.155	91.25
508.372	83.25
508.588	110.25
508.805	98.25
509.021	93.25
509.238	87.25
509.454	106.25
509.67	101.25
509.887	103.25
510.103	138.25
510.319	201.25
510.536	737.25
510.752	2281.25
510.968	641.25
511.184	158.25
511.401	107.25
511.617	99.25
511.833	90.25
512.049	95.25
512.265	90.25
512.481	93.25
512.698	89.25
512.914	86.25
513.13	95.25
513.346	96.25
513.562	93.25
513.778	99.25
513.994	94.25
514.21	110.25
514.426	122.25
514.642	133.25
514.858	139.25
515.074	172.25
515.29	464.25
515.506	1531.25
515.721	557.25
515.937	150.25
516.153	102.25
