Data from Uncirc_2005_H10_HRD10591_00070.txt Node
Date: Wed Jan 03 10:28:38 EST 2024
User: Yrep
Spectrometer: HR+D1059
Trigger mode: 1
Integration Time (sec): 1.000000E-1
Scans to average: 1
Electric dark correction enabled: true
Nonlinearity correction enabled: false
Boxcar width: 0
XAxis mode: Wavelengths
Number of Pixels in Spectrum: 2048
>>>>>Begin Spectral Data<<<<<
223.165	-9.06
223.4	-9.06
223.635	-9.06
223.869	-33.06
224.104	-10.06
224.338	-14.06
224.573	-17.06
224.808	-23.06
225.042	-7.06
225.277	-10.06
225.511	1.94
225.746	-2.06
225.98	9.94
226.215	8.94
226.449	13.94
226.683	22.94
226.918	34.94
227.152	32.94
227.387	34.94
227.621	29.94
227.856	49.94
228.09	33.94
228.324	45.94
228.559	63.94
228.793	51.94
229.027	60.94
229.262	71.94
229.496	65.94
229.73	87.94
229.964	75.94
230.199	78.94
230.433	58.94
230.667	75.94
230.901	62.94
231.136	73.94
231.37	60.94
231.604	91.94
231.838	90.94
232.072	83.94
232.306	76.94
232.541	63.94
232.775	71.94
233.009	66.94
233.243	83.94
233.477	65.94
233.711	81.94
233.945	66.94
234.179	73.94
234.413	77.94
234.647	67.94
234.881	80.94
235.115	77.94
235.349	65.94
235.583	85.94
235.817	73.94
236.051	74.94
236.285	81.94
236.519	68.94
236.753	72.94
236.987	80.94
237.221	76.94
237.455	72.94
237.689	75.94
237.922	61.94
238.156	69.94
238.39	62.94
238.624	88.94
238.858	84.94
239.091	70.94
239.325	65.94
239.559	91.94
239.793	78.94
240.027	71.94
240.26	72.94
240.494	70.94
240.728	85.94
240.961	85.94
241.195	81.94
241.429	90.94
241.662	80.94
241.896	93.94
242.13	84.94
242.363	83.94
242.597	76.94
242.83	75.94
243.064	74.94
243.298	71.94
243.531	88.94
243.765	77.94
243.998	84.94
244.232	89.94
244.465	68.94
244.699	68.94
244.932	56.94
245.166	68.94
245.399	84.94
245.633	66.94
245.866	78.94
246.099	77.94
246.333	76.94
246.566	76.94
246.8	86.94
247.033	88.94
247.266	87.94
247.5	76.94
247.733	72.94
247.966	77.94
248.2	68.94
248.433	80.94
248.666	77.94
248.899	91.94
249.133	74.94
249.366	89.94
249.599	85.94
249.832	82.94
250.066	68.94
250.299	78.94
250.532	85.94
250.765	74.94
250.998	87.94
251.231	71.94
251.465	65.94
251.698	85.94
251.931	83.94
252.164	80.94
252.397	64.94
252.63	74.94
252.863	80.94
253.096	82.94
253.329	79.94
253.562	70.94
253.795	73.94
254.028	65.94
254.261	88.94
254.494	84.94
254.727	84.94
254.96	75.94
255.193	82.94
255.426	82.94
255.659	84.94
255.892	82.94
256.124	83.94
256.357	61.94
256.59	83.94
256.823	72.94
257.056	63.94
257.289	81.94
257.521	67.94
257.754	67.94
257.987	74.94
258.22	69.94
258.452	80.94
258.685	77.94
258.918	78.94
259.151	57.94
259.383	80.94
259.616	85.94
259.849	84.94
260.081	77.94
260.314	77.94
260.547	65.94
260.779	77.94
261.012	74.94
261.244	76.94
261.477	86.94
261.71	85.94
261.942	83.94
262.175	99.94
262.407	79.94
262.64	73.94
262.872	71.94
263.105	69.94
263.337	67.94
263.57	74.94
263.802	83.94
264.035	71.94
264.267	69.94
264.499	74.94
264.732	83.94
264.964	72.94
265.197	68.94
265.429	76.94
265.661	90.94
265.894	80.94
266.126	86.94
266.358	95.94
266.591	82.94
266.823	75.94
267.055	73.94
267.287	64.94
267.52	75.94
267.752	66.94
267.984	75.94
268.216	72.94
268.448	76.94
268.681	79.94
268.913	82.94
269.145	83.94
269.377	96.94
269.609	74.94
269.841	77.94
270.073	88.94
270.306	75.94
270.538	83.94
270.77	80.94
271.002	69.94
271.234	90.94
271.466	98.94
271.698	86.94
271.93	76.94
272.162	78.94
272.394	75.94
272.626	78.94
272.858	75.94
273.09	71.94
273.322	62.94
273.553	72.94
273.785	86.94
274.017	77.94
274.249	82.94
274.481	85.94
274.713	83.94
274.945	80.94
275.176	94.94
275.408	75.94
275.64	69.94
275.872	78.94
276.104	93.94
276.335	85.94
276.567	95.94
276.799	93.94
277.031	79.94
277.262	78.94
277.494	84.94
277.726	82.94
277.957	84.94
278.189	95.94
278.421	85.94
278.652	94.94
278.884	80.94
279.115	88.94
279.347	81.94
279.579	79.94
279.81	78.94
280.042	78.94
280.273	78.94
280.505	76.94
280.736	85.94
280.968	92.94
281.199	85.94
281.431	71.94
281.662	83.94
281.894	77.94
282.125	101.94
282.356	93.94
282.588	127.94
282.819	104.94
283.051	83.94
283.282	77.94
283.513	86.94
283.745	91.94
283.976	89.94
284.207	92.94
284.439	76.94
284.67	93.94
284.901	85.94
285.132	68.94
285.364	80.94
285.595	79.94
285.826	67.94
286.057	84.94
286.288	84.94
286.52	81.94
286.751	89.94
286.982	83.94
287.213	81.94
287.444	90.94
287.675	82.94
287.906	86.94
288.138	92.94
288.369	85.94
288.6	91.94
288.831	92.94
289.062	91.94
289.293	81.94
289.524	76.94
289.755	69.94
289.986	88.94
290.217	85.94
290.448	73.94
290.679	74.94
290.91	106.94
291.141	83.94
291.371	83.94
291.602	67.94
291.833	75.94
292.064	82.94
292.295	72.94
292.526	76.94
292.757	82.94
292.987	89.94
293.218	81.94
293.449	83.94
293.68	78.94
293.91	77.94
294.141	71.94
294.372	91.94
294.603	98.94
294.833	88.94
295.064	72.94
295.295	86.94
295.525	90.94
295.756	95.94
295.987	103.94
296.217	121.94
296.448	112.94
296.679	102.94
296.909	88.94
297.14	77.94
297.37	91.94
297.601	80.94
297.831	79.94
298.062	75.94
298.292	85.94
298.523	85.94
298.753	78.94
298.984	77.94
299.214	81.94
299.445	100.94
299.675	84.94
299.905	102.94
300.136	86.94
300.366	81.94
300.597	82.94
300.827	84.94
301.057	105.94
301.288	92.94
301.518	80.94
301.748	89.94
301.979	109.94
302.209	79.94
302.439	84.94
302.669	101.94
302.9	92.94
303.13	76.94
303.36	84.94
303.59	95.94
303.82	102.94
304.051	104.94
304.281	73.94
304.511	87.94
304.741	90.94
304.971	75.94
305.201	98.94
305.431	81.94
305.661	76.94
305.891	82.94
306.121	77.94
306.352	74.94
306.582	108.94
306.812	86.94
307.042	94.94
307.272	91.94
307.502	82.94
307.731	85.94
307.961	89.94
308.191	88.94
308.421	91.94
308.651	92.94
308.881	78.94
309.111	96.94
309.341	84.94
309.571	81.94
309.8	91.94
310.03	79.94
310.26	79.94
310.49	89.94
310.72	91.94
310.949	98.94
311.179	96.94
311.409	94.94
311.639	92.94
311.868	102.94
312.098	86.94
312.328	101.94
312.557	81.94
312.787	91.94
313.017	94.94
313.246	76.94
313.476	75.94
313.706	80.94
313.935	82.94
314.165	107.94
314.394	89.94
314.624	85.94
314.853	89.94
315.083	90.94
315.312	83.94
315.542	80.94
315.771	80.94
316.001	80.94
316.23	84.94
316.46	92.94
316.689	88.94
316.919	81.94
317.148	100.94
317.377	89.94
317.607	86.94
317.836	92.94
318.065	90.94
318.295	92.94
318.524	86.94
318.753	97.94
318.983	91.94
319.212	86.94
319.441	90.94
319.67	93.94
319.9	93.94
320.129	88.94
320.358	83.94
320.587	101.94
320.816	96.94
321.046	94.94
321.275	109.94
321.504	93.94
321.733	112.94
321.962	95.94
322.191	111.94
322.42	98.94
322.649	102.94
322.878	107.94
323.108	111.94
323.337	114.94
323.566	118.94
323.795	157.94
324.024	217.94
324.253	398.94
324.482	850.94
324.71	1740.94
324.939	2217.94
325.168	794.94
325.397	240.94
325.626	129.94
325.855	123.94
326.084	114.94
326.313	131.94
326.542	157.94
326.77	237.94
326.999	444.94
327.228	944.94
327.457	1768.94
327.686	1380.94
327.914	379.94
328.143	184.94
328.372	155.94
328.6	106.94
328.829	122.94
329.058	117.94
329.287	108.94
329.515	99.94
329.744	96.94
329.972	94.94
330.201	99.94
330.43	94.94
330.658	114.94
330.887	125.94
331.115	124.94
331.344	104.94
331.572	98.94
331.801	94.94
332.03	112.94
332.258	94.94
332.486	96.94
332.715	91.94
332.943	91.94
333.172	98.94
333.4	79.94
333.629	90.94
333.857	98.94
334.085	109.94
334.314	96.94
334.542	98.94
334.771	93.94
334.999	85.94
335.227	85.94
335.455	92.94
335.684	105.94
335.912	93.94
336.14	91.94
336.369	89.94
336.597	97.94
336.825	111.94
337.053	90.94
337.281	85.94
337.51	91.94
337.738	96.94
337.966	85.94
338.194	105.94
338.422	95.94
338.65	81.94
338.878	81.94
339.106	81.94
339.334	84.94
339.562	81.94
339.79	79.94
340.018	86.94
340.246	93.94
340.474	82.94
340.702	98.94
340.93	86.94
341.158	93.94
341.386	95.94
341.614	102.94
341.842	69.94
342.07	91.94
342.298	84.94
342.526	74.94
342.754	104.94
342.981	78.94
343.209	80.94
343.437	76.94
343.665	84.94
343.893	86.94
344.12	91.94
344.348	92.94
344.576	103.94
344.804	89.94
345.031	89.94
345.259	95.94
345.487	105.94
345.714	77.94
345.942	86.94
346.17	82.94
346.397	107.94
346.625	95.94
346.853	82.94
347.08	95.94
347.308	78.94
347.535	88.94
347.763	99.94
347.99	90.94
348.218	91.94
348.445	107.94
348.673	93.94
348.9	91.94
349.128	82.94
349.355	86.94
349.583	85.94
349.81	83.94
350.037	85.94
350.265	86.94
350.492	95.94
350.72	99.94
350.947	100.94
351.174	112.94
351.402	112.94
351.629	97.94
351.856	111.94
352.083	103.94
352.311	101.94
352.538	102.94
352.765	104.94
352.992	95.94
353.22	108.94
353.447	96.94
353.674	102.94
353.901	89.94
354.128	100.94
354.355	92.94
354.583	107.94
354.81	104.94
355.037	98.94
355.264	97.94
355.491	108.94
355.718	96.94
355.945	109.94
356.172	102.94
356.399	101.94
356.626	96.94
356.853	87.94
357.08	76.94
357.307	86.94
357.534	95.94
357.761	96.94
357.988	78.94
358.215	101.94
358.441	98.94
358.668	92.94
358.895	94.94
359.122	82.94
359.349	85.94
359.576	106.94
359.802	91.94
360.029	101.94
360.256	97.94
360.483	106.94
360.709	89.94
360.936	85.94
361.163	89.94
361.39	99.94
361.616	93.94
361.843	83.94
362.07	86.94
362.296	99.94
362.523	101.94
362.749	91.94
362.976	97.94
363.203	83.94
363.429	84.94
363.656	82.94
363.882	84.94
364.109	94.94
364.335	89.94
364.562	99.94
364.788	80.94
365.015	104.94
365.241	96.94
365.468	110.94
365.694	93.94
365.92	79.94
366.147	95.94
366.373	88.94
366.599	89.94
366.826	91.94
367.052	94.94
367.278	80.94
367.505	87.94
367.731	86.94
367.957	92.94
368.184	103.94
368.41	107.94
368.636	104.94
368.862	95.94
369.089	101.94
369.315	92.94
369.541	84.94
369.767	90.94
369.993	86.94
370.219	98.94
370.445	92.94
370.672	87.94
370.898	87.94
371.124	95.94
371.35	84.94
371.576	97.94
371.802	82.94
372.028	68.94
372.254	86.94
372.48	85.94
372.706	85.94
372.932	85.94
373.158	80.94
373.384	91.94
373.61	92.94
373.835	98.94
374.061	102.94
374.287	95.94
374.513	90.94
374.739	100.94
374.965	92.94
375.191	82.94
375.416	93.94
375.642	93.94
375.868	92.94
376.094	89.94
376.319	91.94
376.545	91.94
376.771	90.94
376.997	85.94
377.222	96.94
377.448	81.94
377.674	91.94
377.899	85.94
378.125	108.94
378.35	89.94
378.576	83.94
378.802	94.94
379.027	84.94
379.253	107.94
379.478	100.94
379.704	86.94
379.929	81.94
380.155	92.94
380.38	89.94
380.606	96.94
380.831	93.94
381.057	105.94
381.282	102.94
381.507	101.94
381.733	96.94
381.958	88.94
382.184	110.94
382.409	91.94
382.634	101.94
382.86	104.94
383.085	89.94
383.31	92.94
383.535	103.94
383.761	104.94
383.986	120.94
384.211	103.94
384.436	95.94
384.662	90.94
384.887	97.94
385.112	100.94
385.337	106.94
385.562	97.94
385.787	101.94
386.013	105.94
386.238	101.94
386.463	94.94
386.688	99.94
386.913	102.94
387.138	120.94
387.363	122.94
387.588	102.94
387.813	96.94
388.038	103.94
388.263	106.94
388.488	109.94
388.713	92.94
388.938	105.94
389.163	97.94
389.387	80.94
389.612	95.94
389.837	105.94
390.062	82.94
390.287	92.94
390.512	99.94
390.736	94.94
390.961	94.94
391.186	98.94
391.411	97.94
391.636	91.94
391.86	92.94
392.085	80.94
392.31	73.94
392.534	90.94
392.759	84.94
392.984	98.94
393.208	92.94
393.433	75.94
393.658	81.94
393.882	81.94
394.107	92.94
394.331	90.94
394.556	80.94
394.78	95.94
395.005	83.94
395.229	92.94
395.454	90.94
395.678	84.94
395.903	78.94
396.127	81.94
396.352	67.94
396.576	90.94
396.801	99.94
397.025	87.94
397.249	89.94
397.474	86.94
397.698	100.94
397.922	82.94
398.147	83.94
398.371	81.94
398.595	75.94
398.82	80.94
399.044	82.94
399.268	86.94
399.492	92.94
399.717	98.94
399.941	97.94
400.165	99.94
400.389	89.94
400.613	69.94
400.837	84.94
401.062	86.94
401.286	82.94
401.51	95.94
401.734	93.94
401.958	82.94
402.182	114.94
402.406	149.94
402.63	115.94
402.854	100.94
403.078	70.94
403.302	95.94
403.526	85.94
403.75	97.94
403.974	81.94
404.198	95.94
404.422	89.94
404.645	78.94
404.869	90.94
405.093	93.94
405.317	84.94
405.541	99.94
405.765	96.94
405.988	115.94
406.212	163.94
406.436	203.94
406.66	145.94
406.883	93.94
407.107	91.94
407.331	94.94
407.555	98.94
407.778	96.94
408.002	81.94
408.226	90.94
408.449	81.94
408.673	88.94
408.896	96.94
409.12	98.94
409.344	80.94
409.567	89.94
409.791	103.94
410.014	88.94
410.238	91.94
410.461	93.94
410.685	96.94
410.908	110.94
411.132	112.94
411.355	96.94
411.578	95.94
411.802	80.94
412.025	77.94
412.249	85.94
412.472	97.94
412.695	80.94
412.919	94.94
413.142	94.94
413.365	85.94
413.589	96.94
413.812	100.94
414.035	98.94
414.258	73.94
414.482	93.94
414.705	79.94
414.928	88.94
415.151	84.94
415.374	81.94
415.597	96.94
415.821	79.94
416.044	88.94
416.267	88.94
416.49	94.94
416.713	98.94
416.936	95.94
417.159	80.94
417.382	96.94
417.605	76.94
417.828	95.94
418.051	91.94
418.274	88.94
418.497	78.94
418.72	84.94
418.943	86.94
419.166	76.94
419.389	89.94
419.611	95.94
419.834	94.94
420.057	90.94
420.28	82.94
420.503	101.94
420.726	90.94
420.948	93.94
421.171	81.94
421.394	86.94
421.617	83.94
421.839	101.94
422.062	103.94
422.285	83.94
422.507	104.94
422.73	94.94
422.953	103.94
423.175	87.94
423.398	92.94
423.621	81.94
423.843	84.94
424.066	89.94
424.288	89.94
424.511	104.94
424.733	99.94
424.956	106.94
425.178	76.94
425.401	104.94
425.623	92.94
425.846	98.94
426.068	89.94
426.291	90.94
426.513	83.94
426.735	77.94
426.958	99.94
427.18	118.94
427.402	124.94
427.625	150.94
427.847	116.94
428.069	98.94
428.292	81.94
428.514	92.94
428.736	90.94
428.958	75.94
429.181	70.94
429.403	78.94
429.625	87.94
429.847	100.94
430.069	102.94
430.292	80.94
430.514	72.94
430.736	68.94
430.958	86.94
431.18	77.94
431.402	90.94
431.624	74.94
431.846	92.94
432.068	88.94
432.29	97.94
432.512	88.94
432.734	79.94
432.956	85.94
433.178	93.94
433.4	83.94
433.622	78.94
433.844	90.94
434.066	91.94
434.287	89.94
434.509	90.94
434.731	73.94
434.953	81.94
435.175	92.94
435.397	99.94
435.618	92.94
435.84	81.94
436.062	126.94
436.284	130.94
436.505	104.94
436.727	105.94
436.949	84.94
437.17	83.94
437.392	104.94
437.614	91.94
437.835	103.94
438.057	117.94
438.278	107.94
438.5	105.94
438.721	107.94
438.943	93.94
439.165	93.94
439.386	80.94
439.608	97.94
439.829	107.94
440.05	123.94
440.272	141.94
440.493	101.94
440.715	81.94
440.936	89.94
441.158	98.94
441.379	77.94
441.6	99.94
441.822	97.94
442.043	103.94
442.264	111.94
442.486	108.94
442.707	78.94
442.928	104.94
443.149	123.94
443.371	115.94
443.592	113.94
443.813	109.94
444.034	102.94
444.255	82.94
444.476	92.94
444.698	83.94
444.919	77.94
445.14	123.94
445.361	121.94
445.582	113.94
445.803	132.94
446.024	129.94
446.245	135.94
446.466	101.94
446.687	80.94
446.908	91.94
447.129	97.94
447.35	101.94
447.571	85.94
447.792	96.94
448.013	100.94
448.234	95.94
448.455	88.94
448.675	108.94
448.896	103.94
449.117	109.94
449.338	120.94
449.559	120.94
449.779	127.94
450	92.94
450.221	84.94
450.442	94.94
450.662	96.94
450.883	103.94
451.104	102.94
451.324	82.94
451.545	68.94
451.766	85.94
451.986	101.94
452.207	88.94
452.428	95.94
452.648	79.94
452.869	104.94
453.089	107.94
453.31	115.94
453.53	98.94
453.751	90.94
453.971	92.94
454.192	98.94
454.412	98.94
454.633	87.94
454.853	93.94
455.073	86.94
455.294	93.94
455.514	101.94
455.734	90.94
455.955	85.94
456.175	93.94
456.395	74.94
456.616	87.94
456.836	82.94
457.056	81.94
457.276	86.94
457.497	81.94
457.717	84.94
457.937	88.94
458.157	85.94
458.377	93.94
458.598	102.94
458.818	144.94
459.038	136.94
459.258	106.94
459.478	93.94
459.698	88.94
459.918	90.94
460.138	77.94
460.358	90.94
460.578	100.94
460.798	83.94
461.018	96.94
461.238	87.94
461.458	81.94
461.678	84.94
461.898	91.94
462.118	97.94
462.338	81.94
462.558	83.94
462.777	86.94
462.997	92.94
463.217	88.94
463.437	89.94
463.657	88.94
463.876	84.94
464.096	76.94
464.316	100.94
464.536	88.94
464.755	81.94
464.975	99.94
465.195	142.94
465.414	138.94
465.634	100.94
465.854	84.94
466.073	70.94
466.293	84.94
466.512	86.94
466.732	92.94
466.951	91.94
467.171	89.94
467.391	110.94
467.61	97.94
467.829	92.94
468.049	99.94
468.268	93.94
468.488	88.94
468.707	88.94
468.927	80.94
469.146	67.94
469.365	99.94
469.585	74.94
469.804	85.94
470.023	99.94
470.243	80.94
470.462	114.94
470.681	121.94
470.901	97.94
471.12	72.94
471.339	81.94
471.558	82.94
471.777	90.94
471.997	94.94
472.216	76.94
472.435	88.94
472.654	102.94
472.873	91.94
473.092	93.94
473.311	86.94
473.53	85.94
473.749	78.94
473.968	92.94
474.187	96.94
474.406	103.94
474.625	76.94
474.844	76.94
475.063	85.94
475.282	80.94
475.501	69.94
475.72	90.94
475.939	90.94
476.158	91.94
476.377	74.94
476.596	92.94
476.814	96.94
477.033	94.94
477.252	91.94
477.471	79.94
477.69	79.94
477.908	81.94
478.127	91.94
478.346	82.94
478.564	79.94
478.783	91.94
479.002	79.94
479.22	79.94
479.439	96.94
479.658	95.94
479.876	93.94
480.095	99.94
480.313	80.94
480.532	75.94
480.751	86.94
480.969	79.94
481.188	101.94
481.406	106.94
481.624	86.94
481.843	85.94
482.061	89.94
482.28	96.94
482.498	90.94
482.717	80.94
482.935	83.94
483.153	83.94
483.372	90.94
483.59	86.94
483.808	90.94
484.027	84.94
484.245	91.94
484.463	81.94
484.681	91.94
484.9	94.94
485.118	96.94
485.336	94.94
485.554	101.94
485.772	98.94
485.99	96.94
486.209	108.94
486.427	82.94
486.645	103.94
486.863	93.94
487.081	89.94
487.299	107.94
487.517	97.94
487.735	107.94
487.953	86.94
488.171	77.94
488.389	83.94
488.607	92.94
488.825	99.94
489.043	84.94
489.261	86.94
489.479	83.94
489.696	92.94
489.914	93.94
490.132	86.94
490.35	86.94
490.568	80.94
490.786	90.94
491.003	81.94
491.221	88.94
491.439	77.94
491.657	94.94
491.874	74.94
492.092	88.94
492.31	82.94
492.527	93.94
492.745	97.94
492.963	84.94
493.18	73.94
493.398	84.94
493.615	104.94
493.833	91.94
494.05	92.94
494.268	96.94
494.485	93.94
494.703	95.94
494.92	93.94
495.138	73.94
495.355	86.94
495.573	91.94
495.79	76.94
496.008	99.94
496.225	94.94
496.442	95.94
496.66	85.94
496.877	80.94
497.094	90.94
497.312	85.94
497.529	99.94
497.746	88.94
497.963	76.94
498.181	87.94
498.398	93.94
498.615	91.94
498.832	72.94
499.049	104.94
499.267	77.94
499.484	78.94
499.701	73.94
499.918	88.94
500.135	85.94
500.352	86.94
500.569	82.94
500.786	100.94
501.003	87.94
501.22	81.94
501.437	92.94
501.654	94.94
501.871	94.94
502.088	92.94
502.305	87.94
502.522	101.94
502.739	78.94
502.956	93.94
503.172	98.94
503.389	101.94
503.606	118.94
503.823	110.94
504.04	80.94
504.256	83.94
504.473	75.94
504.69	90.94
504.907	86.94
505.123	83.94
505.34	77.94
505.557	96.94
505.773	91.94
505.99	85.94
506.207	75.94
506.423	81.94
506.64	89.94
506.856	83.94
507.073	87.94
507.289	94.94
507.506	90.94
507.722	109.94
507.939	105.94
508.155	100.94
508.372	95.94
508.588	94.94
508.805	96.94
509.021	94.94
509.238	106.94
509.454	94.94
509.67	92.94
509.887	93.94
510.103	134.94
510.319	197.94
510.536	709.94
510.752	2164.94
510.968	613.94
511.184	145.94
511.401	101.94
511.617	79.94
511.833	74.94
512.049	93.94
512.265	99.94
512.481	90.94
512.698	93.94
512.914	95.94
513.13	85.94
513.346	85.94
513.562	106.94
513.778	88.94
513.994	104.94
514.21	94.94
514.426	110.94
514.642	122.94
514.858	122.94
515.074	145.94
515.29	427.94
515.506	1353.94
515.721	501.94
515.937	157.94
516.153	93.94
516.369	76.94
516.585	76.94
