Data from Uncirc_2005_H10_HRD10591_00054.txt Node
Date: Wed Jan 03 10:28:35 EST 2024
User: Yrep
Spectrometer: HR+D1059
Trigger mode: 1
Integration Time (sec): 1.000000E-1
Scans to average: 1
Electric dark correction enabled: true
Nonlinearity correction enabled: false
Boxcar width: 0
XAxis mode: Wavelengths
Number of Pixels in Spectrum: 2048
>>>>>Begin Spectral Data<<<<<
223.165	-23.06
223.4	-23.06
223.635	-23.06
223.869	-20.06
224.104	-23.06
224.338	-1.06
224.573	-18.06
224.808	-7.06
225.042	-23.06
225.277	4.94
225.511	-1.06
225.746	5.94
225.98	-1.06
226.215	28.94
226.449	18.94
226.683	8.94
226.918	29.94
227.152	19.94
227.387	28.94
227.621	28.94
227.856	53.94
228.09	51.94
228.324	54.94
228.559	53.94
228.793	62.94
229.027	68.94
229.262	64.94
229.496	57.94
229.73	69.94
229.964	78.94
230.199	77.94
230.433	78.94
230.667	70.94
230.901	74.94
231.136	77.94
231.37	66.94
231.604	89.94
231.838	77.94
232.072	84.94
232.306	83.94
232.541	74.94
232.775	73.94
233.009	91.94
233.243	76.94
233.477	82.94
233.711	84.94
233.945	74.94
234.179	76.94
234.413	83.94
234.647	89.94
234.881	79.94
235.115	86.94
235.349	86.94
235.583	79.94
235.817	77.94
236.051	69.94
236.285	62.94
236.519	78.94
236.753	80.94
236.987	65.94
237.221	88.94
237.455	85.94
237.689	78.94
237.922	76.94
238.156	78.94
238.39	68.94
238.624	77.94
238.858	62.94
239.091	81.94
239.325	65.94
239.559	70.94
239.793	60.94
240.027	85.94
240.26	85.94
240.494	87.94
240.728	68.94
240.961	78.94
241.195	68.94
241.429	70.94
241.662	83.94
241.896	78.94
242.13	65.94
242.363	81.94
242.597	83.94
242.83	68.94
243.064	64.94
243.298	75.94
243.531	74.94
243.765	77.94
243.998	81.94
244.232	82.94
244.465	81.94
244.699	67.94
244.932	78.94
245.166	60.94
245.399	78.94
245.633	67.94
245.866	75.94
246.099	64.94
246.333	60.94
246.566	66.94
246.8	76.94
247.033	80.94
247.266	72.94
247.5	75.94
247.733	71.94
247.966	71.94
248.2	94.94
248.433	71.94
248.666	68.94
248.899	87.94
249.133	73.94
249.366	90.94
249.599	91.94
249.832	74.94
250.066	82.94
250.299	72.94
250.532	76.94
250.765	71.94
250.998	75.94
251.231	77.94
251.465	81.94
251.698	70.94
251.931	86.94
252.164	75.94
252.397	71.94
252.63	81.94
252.863	65.94
253.096	75.94
253.329	64.94
253.562	81.94
253.795	64.94
254.028	82.94
254.261	79.94
254.494	80.94
254.727	81.94
254.96	74.94
255.193	69.94
255.426	70.94
255.659	81.94
255.892	73.94
256.124	77.94
256.357	74.94
256.59	73.94
256.823	73.94
257.056	74.94
257.289	84.94
257.521	71.94
257.754	81.94
257.987	75.94
258.22	79.94
258.452	75.94
258.685	89.94
258.918	76.94
259.151	91.94
259.383	81.94
259.616	80.94
259.849	77.94
260.081	90.94
260.314	92.94
260.547	85.94
260.779	85.94
261.012	80.94
261.244	87.94
261.477	89.94
261.71	91.94
261.942	100.94
262.175	112.94
262.407	84.94
262.64	84.94
262.872	80.94
263.105	88.94
263.337	86.94
263.57	72.94
263.802	79.94
264.035	64.94
264.267	80.94
264.499	81.94
264.732	84.94
264.964	80.94
265.197	80.94
265.429	73.94
265.661	85.94
265.894	80.94
266.126	93.94
266.358	88.94
266.591	80.94
266.823	73.94
267.055	78.94
267.287	62.94
267.52	77.94
267.752	79.94
267.984	78.94
268.216	92.94
268.448	93.94
268.681	85.94
268.913	78.94
269.145	77.94
269.377	84.94
269.609	80.94
269.841	81.94
270.073	82.94
270.306	84.94
270.538	100.94
270.77	93.94
271.002	65.94
271.234	76.94
271.466	91.94
271.698	90.94
271.93	77.94
272.162	95.94
272.394	78.94
272.626	101.94
272.858	96.94
273.09	93.94
273.322	78.94
273.553	82.94
273.785	94.94
274.017	83.94
274.249	89.94
274.481	82.94
274.713	87.94
274.945	84.94
275.176	76.94
275.408	96.94
275.64	95.94
275.872	80.94
276.104	98.94
276.335	90.94
276.567	91.94
276.799	88.94
277.031	77.94
277.262	89.94
277.494	82.94
277.726	81.94
277.957	74.94
278.189	77.94
278.421	85.94
278.652	86.94
278.884	78.94
279.115	95.94
279.347	81.94
279.579	94.94
279.81	83.94
280.042	93.94
280.273	89.94
280.505	77.94
280.736	83.94
280.968	73.94
281.199	78.94
281.431	76.94
281.662	98.94
281.894	94.94
282.125	86.94
282.356	118.94
282.588	116.94
282.819	93.94
283.051	92.94
283.282	82.94
283.513	93.94
283.745	78.94
283.976	85.94
284.207	73.94
284.439	93.94
284.67	100.94
284.901	89.94
285.132	82.94
285.364	77.94
285.595	70.94
285.826	86.94
286.057	96.94
286.288	85.94
286.52	99.94
286.751	85.94
286.982	108.94
287.213	93.94
287.444	97.94
287.675	79.94
287.906	86.94
288.138	79.94
288.369	92.94
288.6	89.94
288.831	79.94
289.062	84.94
289.293	90.94
289.524	93.94
289.755	82.94
289.986	106.94
290.217	85.94
290.448	91.94
290.679	83.94
290.91	86.94
291.141	78.94
291.371	86.94
291.602	98.94
291.833	98.94
292.064	91.94
292.295	90.94
292.526	76.94
292.757	92.94
292.987	87.94
293.218	75.94
293.449	87.94
293.68	79.94
293.91	101.94
294.141	86.94
294.372	74.94
294.603	88.94
294.833	96.94
295.064	89.94
295.295	86.94
295.525	100.94
295.756	94.94
295.987	112.94
296.217	119.94
296.448	119.94
296.679	95.94
296.909	88.94
297.14	91.94
297.37	93.94
297.601	83.94
297.831	75.94
298.062	94.94
298.292	75.94
298.523	91.94
298.753	104.94
298.984	88.94
299.214	65.94
299.445	74.94
299.675	81.94
299.905	77.94
300.136	85.94
300.366	94.94
300.597	73.94
300.827	87.94
301.057	98.94
301.288	92.94
301.518	97.94
301.748	92.94
301.979	93.94
302.209	84.94
302.439	81.94
302.669	80.94
302.9	84.94
303.13	90.94
303.36	81.94
303.59	90.94
303.82	97.94
304.051	88.94
304.281	77.94
304.511	97.94
304.741	100.94
304.971	90.94
305.201	92.94
305.431	94.94
305.661	93.94
305.891	88.94
306.121	95.94
306.352	104.94
306.582	100.94
306.812	86.94
307.042	97.94
307.272	87.94
307.502	84.94
307.731	93.94
307.961	78.94
308.191	94.94
308.421	89.94
308.651	91.94
308.881	85.94
309.111	86.94
309.341	90.94
309.571	92.94
309.8	96.94
310.03	79.94
310.26	84.94
310.49	70.94
310.72	87.94
310.949	90.94
311.179	88.94
311.409	94.94
311.639	98.94
311.868	102.94
312.098	86.94
312.328	98.94
312.557	91.94
312.787	105.94
313.017	90.94
313.246	88.94
313.476	94.94
313.706	82.94
313.935	99.94
314.165	94.94
314.394	110.94
314.624	92.94
314.853	86.94
315.083	88.94
315.312	84.94
315.542	100.94
315.771	90.94
316.001	94.94
316.23	92.94
316.46	81.94
316.689	93.94
316.919	87.94
317.148	81.94
317.377	101.94
317.607	96.94
317.836	90.94
318.065	93.94
318.295	87.94
318.524	86.94
318.753	97.94
318.983	89.94
319.212	92.94
319.441	109.94
319.67	101.94
319.9	84.94
320.129	93.94
320.358	89.94
320.587	97.94
320.816	93.94
321.046	99.94
321.275	91.94
321.504	95.94
321.733	88.94
321.962	100.94
322.191	99.94
322.42	105.94
322.649	115.94
322.878	110.94
323.108	110.94
323.337	120.94
323.566	124.94
323.795	144.94
324.024	184.94
324.253	376.94
324.482	755.94
324.71	1560.94
324.939	2060.94
325.168	761.94
325.397	236.94
325.626	136.94
325.855	122.94
326.084	116.94
326.313	129.94
326.542	145.94
326.77	213.94
326.999	429.94
327.228	896.94
327.457	1608.94
327.686	1248.94
327.914	336.94
328.143	178.94
328.372	132.94
328.6	117.94
328.829	100.94
329.058	103.94
329.287	121.94
329.515	104.94
329.744	108.94
329.972	94.94
330.201	95.94
330.43	116.94
330.658	102.94
330.887	117.94
331.115	112.94
331.344	95.94
331.572	100.94
331.801	84.94
332.03	110.94
332.258	104.94
332.486	109.94
332.715	89.94
332.943	94.94
333.172	99.94
333.4	90.94
333.629	99.94
333.857	104.94
334.085	108.94
334.314	89.94
334.542	89.94
334.771	96.94
334.999	85.94
335.227	92.94
335.455	80.94
335.684	95.94
335.912	94.94
336.14	105.94
336.369	85.94
336.597	96.94
336.825	102.94
337.053	101.94
337.281	83.94
337.51	93.94
337.738	82.94
337.966	99.94
338.194	91.94
338.422	99.94
338.65	90.94
338.878	86.94
339.106	84.94
339.334	86.94
339.562	100.94
339.79	76.94
340.018	90.94
340.246	95.94
340.474	98.94
340.702	87.94
340.93	82.94
341.158	88.94
341.386	78.94
341.614	96.94
341.842	95.94
342.07	91.94
342.298	93.94
342.526	83.94
342.754	93.94
342.981	88.94
343.209	80.94
343.437	100.94
343.665	99.94
343.893	94.94
344.12	83.94
344.348	82.94
344.576	91.94
344.804	83.94
345.031	103.94
345.259	95.94
345.487	92.94
345.714	94.94
345.942	86.94
346.17	100.94
346.397	98.94
346.625	81.94
346.853	82.94
347.08	78.94
347.308	85.94
347.535	86.94
347.763	94.94
347.99	93.94
348.218	79.94
348.445	100.94
348.673	85.94
348.9	80.94
349.128	97.94
349.355	83.94
349.583	82.94
349.81	96.94
350.037	90.94
350.265	79.94
350.492	75.94
350.72	102.94
350.947	87.94
351.174	86.94
351.402	117.94
351.629	96.94
351.856	99.94
352.083	103.94
352.311	88.94
352.538	92.94
352.765	105.94
352.992	101.94
353.22	104.94
353.447	108.94
353.674	97.94
353.901	96.94
354.128	98.94
354.355	103.94
354.583	100.94
354.81	101.94
355.037	82.94
355.264	88.94
355.491	86.94
355.718	92.94
355.945	86.94
356.172	76.94
356.399	99.94
356.626	81.94
356.853	76.94
357.08	98.94
357.307	97.94
357.534	75.94
357.761	102.94
357.988	80.94
358.215	95.94
358.441	90.94
358.668	90.94
358.895	77.94
359.122	82.94
359.349	76.94
359.576	88.94
359.802	104.94
360.029	107.94
360.256	102.94
360.483	100.94
360.709	80.94
360.936	97.94
361.163	96.94
361.39	81.94
361.616	87.94
361.843	83.94
362.07	98.94
362.296	96.94
362.523	99.94
362.749	85.94
362.976	89.94
363.203	97.94
363.429	90.94
363.656	89.94
363.882	98.94
364.109	90.94
364.335	88.94
364.562	87.94
364.788	85.94
365.015	89.94
365.241	92.94
365.468	104.94
365.694	98.94
365.92	79.94
366.147	104.94
366.373	82.94
366.599	77.94
366.826	90.94
367.052	77.94
367.278	91.94
367.505	82.94
367.731	96.94
367.957	101.94
368.184	86.94
368.41	83.94
368.636	106.94
368.862	112.94
369.089	99.94
369.315	99.94
369.541	86.94
369.767	82.94
369.993	99.94
370.219	92.94
370.445	83.94
370.672	81.94
370.898	81.94
371.124	86.94
371.35	75.94
371.576	87.94
371.802	86.94
372.028	84.94
372.254	81.94
372.48	93.94
372.706	84.94
372.932	84.94
373.158	84.94
373.384	100.94
373.61	89.94
373.835	92.94
374.061	86.94
374.287	86.94
374.513	65.94
374.739	90.94
374.965	80.94
375.191	79.94
375.416	85.94
375.642	90.94
375.868	84.94
376.094	67.94
376.319	86.94
376.545	84.94
376.771	83.94
376.997	80.94
377.222	78.94
377.448	82.94
377.674	82.94
377.899	91.94
378.125	92.94
378.35	99.94
378.576	82.94
378.802	94.94
379.027	94.94
379.253	98.94
379.478	85.94
379.704	94.94
379.929	86.94
380.155	84.94
380.38	95.94
380.606	98.94
380.831	93.94
381.057	104.94
381.282	94.94
381.507	96.94
381.733	105.94
381.958	95.94
382.184	85.94
382.409	96.94
382.634	96.94
382.86	78.94
383.085	97.94
383.31	103.94
383.535	91.94
383.761	111.94
383.986	94.94
384.211	88.94
384.436	94.94
384.662	106.94
384.887	94.94
385.112	103.94
385.337	117.94
385.562	98.94
385.787	99.94
386.013	101.94
386.238	98.94
386.463	113.94
386.688	83.94
386.913	99.94
387.138	109.94
387.363	98.94
387.588	117.94
387.813	99.94
388.038	98.94
388.263	126.94
388.488	111.94
388.713	84.94
388.938	92.94
389.163	95.94
389.387	75.94
389.612	76.94
389.837	82.94
390.062	98.94
390.287	83.94
390.512	91.94
390.736	80.94
390.961	77.94
391.186	86.94
391.411	98.94
391.636	97.94
391.86	68.94
392.085	100.94
392.31	93.94
392.534	90.94
392.759	75.94
392.984	80.94
393.208	74.94
393.433	86.94
393.658	81.94
393.882	64.94
394.107	85.94
394.331	89.94
394.556	92.94
394.78	96.94
395.005	89.94
395.229	81.94
395.454	92.94
395.678	93.94
395.903	95.94
396.127	82.94
396.352	101.94
396.576	93.94
396.801	83.94
397.025	84.94
397.249	93.94
397.474	86.94
397.698	83.94
397.922	75.94
398.147	75.94
398.371	88.94
398.595	89.94
398.82	83.94
399.044	92.94
399.268	76.94
399.492	80.94
399.717	92.94
399.941	89.94
400.165	95.94
400.389	86.94
400.613	85.94
400.837	86.94
401.062	77.94
401.286	74.94
401.51	79.94
401.734	88.94
401.958	109.94
402.182	123.94
402.406	144.94
402.63	112.94
402.854	92.94
403.078	78.94
403.302	92.94
403.526	78.94
403.75	82.94
403.974	83.94
404.198	81.94
404.422	75.94
404.645	72.94
404.869	80.94
405.093	87.94
405.317	82.94
405.541	88.94
405.765	83.94
405.988	93.94
406.212	155.94
406.436	186.94
406.66	129.94
406.883	96.94
407.107	82.94
407.331	99.94
407.555	85.94
407.778	93.94
408.002	84.94
408.226	89.94
408.449	77.94
408.673	80.94
408.896	89.94
409.12	100.94
409.344	100.94
409.567	84.94
409.791	84.94
410.014	78.94
410.238	93.94
410.461	84.94
410.685	95.94
410.908	90.94
411.132	99.94
411.355	94.94
411.578	83.94
411.802	89.94
412.025	90.94
412.249	97.94
412.472	85.94
412.695	81.94
412.919	84.94
413.142	78.94
413.365	90.94
413.589	66.94
413.812	81.94
414.035	82.94
414.258	90.94
414.482	95.94
414.705	100.94
414.928	89.94
415.151	82.94
415.374	82.94
415.597	99.94
415.821	71.94
416.044	94.94
416.267	91.94
416.49	91.94
416.713	79.94
416.936	85.94
417.159	89.94
417.382	78.94
417.605	79.94
417.828	97.94
418.051	101.94
418.274	80.94
418.497	74.94
418.72	85.94
418.943	86.94
419.166	88.94
419.389	90.94
419.611	86.94
419.834	100.94
420.057	83.94
420.28	89.94
420.503	92.94
420.726	95.94
420.948	86.94
421.171	96.94
421.394	96.94
421.617	86.94
421.839	85.94
422.062	84.94
422.285	100.94
422.507	95.94
422.73	99.94
422.953	84.94
423.175	80.94
423.398	80.94
423.621	87.94
423.843	94.94
424.066	83.94
424.288	83.94
424.511	109.94
424.733	99.94
424.956	92.94
425.178	92.94
425.401	89.94
425.623	96.94
425.846	98.94
426.068	99.94
426.291	84.94
426.513	99.94
426.735	88.94
426.958	84.94
427.18	103.94
427.402	129.94
427.625	140.94
427.847	117.94
428.069	94.94
428.292	79.94
428.514	82.94
428.736	77.94
428.958	85.94
429.181	90.94
429.403	72.94
429.625	90.94
429.847	80.94
430.069	95.94
430.292	95.94
430.514	82.94
430.736	75.94
430.958	76.94
431.18	82.94
431.402	88.94
431.624	85.94
431.846	81.94
432.068	81.94
432.29	80.94
432.512	87.94
432.734	86.94
432.956	96.94
433.178	85.94
433.4	90.94
433.622	89.94
433.844	96.94
434.066	100.94
434.287	73.94
434.509	80.94
434.731	81.94
434.953	86.94
435.175	97.94
435.397	88.94
435.618	88.94
435.84	94.94
436.062	124.94
436.284	124.94
436.505	96.94
436.727	97.94
436.949	94.94
437.17	98.94
437.392	84.94
437.614	80.94
437.835	106.94
438.057	115.94
438.278	103.94
438.5	112.94
438.721	111.94
438.943	91.94
439.165	94.94
439.386	100.94
439.608	81.94
439.829	112.94
440.05	121.94
440.272	129.94
440.493	91.94
440.715	95.94
440.936	72.94
441.158	84.94
441.379	86.94
441.6	79.94
441.822	85.94
442.043	100.94
442.264	86.94
442.486	78.94
442.707	102.94
442.928	108.94
443.149	117.94
443.371	113.94
443.592	105.94
443.813	94.94
444.034	96.94
444.255	94.94
444.476	71.94
444.698	76.94
444.919	76.94
445.14	118.94
445.361	115.94
445.582	112.94
445.803	115.94
446.024	122.94
446.245	122.94
446.466	100.94
446.687	72.94
446.908	92.94
447.129	83.94
447.35	75.94
447.571	82.94
447.792	87.94
448.013	98.94
448.234	99.94
448.455	90.94
448.675	99.94
448.896	118.94
449.117	103.94
449.338	109.94
449.559	128.94
449.779	94.94
450	84.94
450.221	87.94
450.442	86.94
450.662	88.94
450.883	93.94
451.104	100.94
451.324	82.94
451.545	90.94
451.766	88.94
451.986	95.94
452.207	80.94
452.428	83.94
452.648	93.94
452.869	106.94
453.089	108.94
453.31	106.94
453.53	84.94
453.751	92.94
453.971	96.94
454.192	88.94
454.412	93.94
454.633	74.94
454.853	72.94
455.073	79.94
455.294	89.94
455.514	106.94
455.734	74.94
455.955	82.94
456.175	85.94
456.395	81.94
456.616	74.94
456.836	89.94
457.056	74.94
457.276	76.94
457.497	88.94
457.717	81.94
457.937	83.94
458.157	77.94
458.377	102.94
458.598	96.94
458.818	128.94
459.038	132.94
459.258	92.94
459.478	84.94
459.698	78.94
459.918	78.94
460.138	68.94
460.358	90.94
460.578	85.94
460.798	89.94
461.018	85.94
461.238	86.94
461.458	78.94
461.678	84.94
461.898	77.94
462.118	88.94
462.338	78.94
462.558	78.94
462.777	81.94
462.997	83.94
463.217	84.94
463.437	74.94
463.657	83.94
463.876	83.94
464.096	95.94
464.316	81.94
464.536	93.94
464.755	94.94
464.975	83.94
465.195	135.94
465.414	141.94
465.634	92.94
465.854	87.94
466.073	90.94
466.293	92.94
466.512	85.94
466.732	75.94
466.951	80.94
467.171	81.94
467.391	101.94
467.61	109.94
467.829	95.94
468.049	83.94
468.268	86.94
468.488	88.94
468.707	80.94
468.927	88.94
469.146	86.94
469.365	77.94
469.585	92.94
469.804	87.94
470.023	86.94
470.243	84.94
470.462	96.94
470.681	93.94
470.901	81.94
471.12	80.94
471.339	85.94
471.558	96.94
471.777	89.94
471.997	84.94
472.216	96.94
472.435	89.94
472.654	84.94
472.873	75.94
473.092	89.94
473.311	85.94
473.53	88.94
473.749	92.94
473.968	81.94
474.187	98.94
474.406	78.94
474.625	86.94
474.844	66.94
475.063	90.94
475.282	82.94
475.501	82.94
475.72	92.94
475.939	85.94
476.158	89.94
476.377	88.94
476.596	86.94
476.814	82.94
477.033	85.94
477.252	79.94
477.471	83.94
477.69	84.94
477.908	94.94
478.127	80.94
478.346	75.94
478.564	78.94
478.783	97.94
479.002	87.94
479.22	98.94
479.439	98.94
479.658	98.94
479.876	83.94
480.095	70.94
480.313	89.94
480.532	85.94
480.751	79.94
480.969	92.94
481.188	98.94
481.406	108.94
481.624	81.94
481.843	85.94
482.061	68.94
482.28	77.94
482.498	80.94
482.717	81.94
482.935	86.94
483.153	100.94
483.372	82.94
483.59	97.94
483.808	93.94
484.027	83.94
484.245	82.94
484.463	96.94
484.681	107.94
484.9	85.94
485.118	94.94
485.336	99.94
485.554	91.94
485.772	99.94
485.99	107.94
486.209	97.94
486.427	98.94
486.645	96.94
486.863	106.94
487.081	97.94
487.299	95.94
487.517	92.94
487.735	72.94
487.953	86.94
488.171	84.94
488.389	96.94
488.607	86.94
488.825	78.94
489.043	97.94
489.261	96.94
489.479	93.94
489.696	83.94
489.914	91.94
490.132	81.94
490.35	99.94
490.568	81.94
490.786	97.94
491.003	91.94
491.221	89.94
491.439	84.94
491.657	96.94
491.874	85.94
492.092	89.94
492.31	98.94
492.527	81.94
492.745	84.94
492.963	96.94
493.18	97.94
493.398	99.94
493.615	97.94
493.833	96.94
494.05	87.94
494.268	74.94
494.485	87.94
494.703	93.94
494.92	97.94
495.138	89.94
495.355	90.94
495.573	90.94
495.79	96.94
496.008	101.94
496.225	98.94
496.442	86.94
496.66	97.94
496.877	79.94
497.094	89.94
497.312	97.94
497.529	83.94
497.746	97.94
497.963	93.94
498.181	72.94
498.398	94.94
498.615	112.94
498.832	95.94
499.049	101.94
499.267	83.94
499.484	83.94
499.701	101.94
499.918	89.94
500.135	100.94
500.352	100.94
500.569	91.94
500.786	79.94
501.003	84.94
501.22	83.94
501.437	93.94
501.654	98.94
501.871	104.94
502.088	91.94
502.305	94.94
502.522	85.94
502.739	93.94
502.956	68.94
503.172	93.94
503.389	91.94
503.606	93.94
503.823	89.94
504.04	90.94
504.256	81.94
504.473	84.94
504.69	92.94
504.907	82.94
505.123	94.94
505.34	105.94
505.557	88.94
505.773	104.94
505.99	87.94
506.207	85.94
506.423	85.94
506.64	103.94
506.856	95.94
507.073	89.94
507.289	98.94
507.506	93.94
507.722	102.94
507.939	110.94
508.155	92.94
508.372	72.94
508.588	101.94
508.805	99.94
509.021	97.94
509.238	93.94
509.454	104.94
509.67	99.94
509.887	110.94
510.103	124.94
510.319	200.94
510.536	660.94
510.752	1952.94
510.968	547.94
511.184	146.94
511.401	102.94
511.617	103.94
511.833	91.94
512.049	81.94
512.265	90.94
512.481	81.94
512.698	83.94
512.914	80.94
513.13	90.94
513.346	80.94
513.562	91.94
513.778	97.94
513.994	85.94
514.21	90.94
514.426	103.94
514.642	120.94
514.858	115.94
515.074	149.94
515.29	384.94
515.506	1191.94
515.721	445.94
515.937	141.94
516.153	120.94
516.369	100.94
516.585	102.94
516.801	96.94
517.016	96.94
