Data from Uncirc_2005_H10_HRD10591_00041.txt Node
Date: Wed Jan 03 10:28:33 EST 2024
User: Yrep
Spectrometer: HR+D1059
Trigger mode: 1
Integration Time (sec): 1.000000E-1
Scans to average: 1
Electric dark correction enabled: true
Nonlinearity correction enabled: false
Boxcar width: 0
XAxis mode: Wavelengths
Number of Pixels in Spectrum: 2048
>>>>>Begin Spectral Data<<<<<
223.165	-21.75
223.4	-21.75
223.635	-21.75
223.869	-19.75
224.104	-22.75
224.338	-15.75
224.573	-20.75
224.808	-10.75
225.042	-10.75
225.277	-8.75
225.511	-6.75
225.746	4.25
225.98	9.25
226.215	17.25
226.449	30.25
226.683	23.25
226.918	21.25
227.152	32.25
227.387	43.25
227.621	18.25
227.856	47.25
228.09	39.25
228.324	29.25
228.559	57.25
228.793	160.25
229.027	444.25
229.262	511.25
229.496	582.25
229.73	780.25
229.964	813.25
230.199	544.25
230.433	476.25
230.667	482.25
230.901	466.25
231.136	427.25
231.37	443.25
231.604	460.25
231.838	433.25
232.072	438.25
232.306	464.25
232.541	451.25
232.775	457.25
233.009	441.25
233.243	464.25
233.477	475.25
233.711	492.25
233.945	502.25
234.179	511.25
234.413	504.25
234.647	484.25
234.881	509.25
235.115	513.25
235.349	561.25
235.583	553.25
235.817	562.25
236.051	609.25
236.285	589.25
236.519	620.25
236.753	706.25
236.987	917.25
237.221	1404.25
237.455	1493.25
237.689	892.25
237.922	703.25
238.156	708.25
238.39	696.25
238.624	646.25
238.858	670.25
239.091	646.25
239.325	654.25
239.559	692.25
239.793	705.25
240.027	775.25
240.26	872.25
240.494	952.25
240.728	948.25
240.961	864.25
241.195	809.25
241.429	794.25
241.662	773.25
241.896	769.25
242.13	753.25
242.363	754.25
242.597	779.25
242.83	822.25
243.064	819.25
243.298	819.25
243.531	831.25
243.765	831.25
243.998	843.25
244.232	833.25
244.465	851.25
244.699	897.25
244.932	912.25
245.166	877.25
245.399	870.25
245.633	899.25
245.866	895.25
246.099	887.25
246.333	914.25
246.566	928.25
246.8	957.25
247.033	983.25
247.266	1025.25
247.5	1095.25
247.733	1146.25
247.966	1129.25
248.2	1110.25
248.433	1140.25
248.666	1208.25
248.899	1350.25
249.133	1447.25
249.366	1425.25
249.599	1292.25
249.832	1226.25
250.066	1195.25
250.299	1253.25
250.532	1317.25
250.765	1499.25
250.998	1711.25
251.231	1612.25
251.465	1485.25
251.698	1410.25
251.931	1378.25
252.164	1401.25
252.397	1431.25
252.63	1456.25
252.863	1533.25
253.096	1664.25
253.329	1741.25
253.562	1584.25
253.795	1552.25
254.028	1551.25
254.261	1605.25
254.494	1793.25
254.727	2167.25
254.96	2217.25
255.193	1904.25
255.426	1723.25
255.659	1641.25
255.892	1574.25
256.124	1544.25
256.357	1552.25
256.59	1525.25
256.823	1472.25
257.056	1493.25
257.289	1516.25
257.521	1527.25
257.754	1541.25
257.987	1511.25
258.22	1525.25
258.452	1556.25
258.685	1538.25
258.918	1555.25
259.151	1563.25
259.383	1659.25
259.616	1677.25
259.849	1744.25
260.081	1925.25
260.314	2085.25
260.547	2028.25
260.779	1840.25
261.012	1755.25
261.244	1719.25
261.477	1675.25
261.71	1699.25
261.942	1697.25
262.175	1731.25
262.407	1709.25
262.64	1646.25
262.872	1647.25
263.105	1592.25
263.337	1665.25
263.57	1650.25
263.802	1625.25
264.035	1641.25
264.267	1657.25
264.499	1662.25
264.732	1678.25
264.964	1667.25
265.197	1663.25
265.429	1673.25
265.661	1712.25
265.894	1707.25
266.126	1742.25
266.358	1775.25
266.591	1770.25
266.823	1823.25
267.055	1837.25
267.287	1859.25
267.52	1830.25
267.752	1818.25
267.984	1820.25
268.216	1861.25
268.448	1895.25
268.681	1974.25
268.913	2114.25
269.145	2305.25
269.377	2415.25
269.609	2232.25
269.841	2240.25
270.073	2413.25
270.306	2603.25
270.538	2803.25
270.77	2671.25
271.002	2480.25
271.234	2451.25
271.466	2599.25
271.698	2730.25
271.93	2771.25
272.162	2731.25
272.394	2668.25
272.626	2443.25
272.858	2397.25
273.09	2281.25
273.322	2301.25
273.553	2214.25
273.785	2193.25
274.017	2236.25
274.249	2232.25
274.481	2245.25
274.713	2254.25
274.945	2285.25
275.176	2258.25
275.408	2219.25
275.64	2213.25
275.872	2240.25
276.104	2265.25
276.335	2282.25
276.567	2379.25
276.799	2533.25
277.031	2737.25
277.262	2909.25
277.494	2817.25
277.726	2550.25
277.957	2449.25
278.189	2434.25
278.421	2334.25
278.652	2325.25
278.884	2347.25
279.115	2331.25
279.347	2351.25
279.579	2346.25
279.81	2333.25
280.042	2351.25
280.273	2365.25
280.505	2378.25
280.736	2376.25
280.968	2383.25
281.199	2393.25
281.431	2462.25
281.662	2431.25
281.894	2436.25
282.125	2453.25
282.356	2652.25
282.588	2769.25
282.819	2672.25
283.051	2540.25
283.282	2482.25
283.513	2611.25
283.745	2594.25
283.976	2664.25
284.207	2633.25
284.439	2627.25
284.67	2590.25
284.901	2603.25
285.132	2640.25
285.364	2593.25
285.595	2619.25
285.826	2597.25
286.057	2639.25
286.288	2605.25
286.52	2657.25
286.751	2667.25
286.982	2660.25
287.213	2710.25
287.444	2729.25
287.675	2758.25
287.906	2909.25
288.138	2928.25
288.369	2887.25
288.6	2879.25
288.831	2861.25
289.062	2784.25
289.293	2784.25
289.524	2774.25
289.755	2775.25
289.986	2781.25
290.217	2776.25
290.448	2754.25
290.679	2776.25
290.91	2803.25
291.141	2800.25
291.371	2765.25
291.602	2829.25
291.833	2764.25
292.064	2781.25
292.295	2802.25
292.526	2818.25
292.757	2804.25
292.987	2819.25
293.218	2786.25
293.449	2849.25
293.68	2851.25
293.91	2840.25
294.141	2768.25
294.372	2794.25
294.603	2835.25
294.833	2839.25
295.064	2812.25
295.295	2847.25
295.525	2820.25
295.756	2940.25
295.987	2962.25
296.217	3127.25
296.448	3079.25
296.679	2930.25
296.909	2963.25
297.14	2971.25
297.37	3007.25
297.601	3005.25
297.831	3022.25
298.062	3039.25
298.292	3081.25
298.523	3098.25
298.753	3119.25
298.984	3063.25
299.214	3015.25
299.445	3089.25
299.675	3095.25
299.905	3118.25
300.136	3112.25
300.366	3165.25
300.597	3234.25
300.827	3256.25
301.057	3337.25
301.288	3323.25
301.518	3358.25
301.748	3299.25
301.979	3386.25
302.209	3375.25
302.439	3395.25
302.669	3345.25
302.9	3244.25
303.13	3287.25
303.36	3385.25
303.59	3309.25
303.82	3335.25
304.051	3335.25
304.281	3321.25
304.511	3219.25
304.741	3256.25
304.971	3198.25
305.201	3249.25
305.431	3262.25
305.661	3262.25
305.891	3260.25
306.121	3253.25
306.352	3270.25
306.582	3273.25
306.812	3219.25
307.042	3266.25
307.272	3253.25
307.502	3262.25
307.731	3266.25
307.961	3286.25
308.191	3287.25
308.421	3247.25
308.651	3277.25
308.881	3267.25
309.111	3330.25
309.341	3314.25
309.571	3375.25
309.8	3479.25
310.03	3559.25
310.26	3591.25
310.49	3590.25
310.72	3680.25
310.949	3719.25
311.179	3689.25
311.409	3595.25
311.639	3579.25
311.868	3666.25
312.098	3637.25
312.328	3721.25
312.557	3827.25
312.787	3979.25
313.017	3833.25
313.246	3757.25
313.476	3694.25
313.706	3721.25
313.935	3823.25
314.165	3939.25
314.394	3891.25
314.624	3899.25
314.853	3789.25
315.083	3743.25
315.312	3711.25
315.542	3629.25
315.771	3591.25
316.001	3611.25
316.23	3696.25
316.46	3697.25
316.689	3675.25
316.919	3789.25
317.148	3814.25
317.377	3723.25
317.607	3715.25
317.836	3691.25
318.065	3703.25
318.295	3712.25
318.524	3672.25
318.753	3657.25
318.983	3644.25
319.212	3602.25
319.441	3723.25
319.67	3705.25
319.9	3600.25
320.129	3663.25
320.358	3711.25
320.587	3764.25
320.816	3737.25
321.046	3861.25
321.275	3768.25
321.504	3745.25
321.733	3819.25
321.962	3886.25
322.191	3983.25
322.42	4083.25
322.649	4177.25
322.878	4138.25
323.108	4240.25
323.337	4497.25
323.566	4619.25
323.795	4942.25
324.024	5461.25
324.253	7138.25
324.482	10662.25
324.71	15038.25
324.939	15609.25
325.168	12701.25
325.397	6430.25
325.626	5192.25
325.855	4814.25
326.084	4748.25
326.313	4710.25
326.542	4843.25
326.77	5514.25
326.999	6813.25
327.228	9949.25
327.457	14120.25
327.686	13347.25
327.914	7178.25
328.143	5770.25
328.372	5344.25
328.6	5078.25
328.829	5141.25
329.058	5336.25
329.287	5171.25
329.515	4877.25
329.744	4721.25
329.972	4696.25
330.201	4779.25
330.43	4980.25
330.658	5343.25
330.887	5644.25
331.115	5268.25
331.344	4909.25
331.572	4856.25
331.801	4897.25
332.03	5055.25
332.258	4863.25
332.486	4929.25
332.715	4968.25
332.943	5155.25
333.172	5255.25
333.4	5414.25
333.629	5559.25
333.857	5625.25
334.085	5441.25
334.314	5429.25
334.542	5334.25
334.771	5310.25
334.999	5211.25
335.227	5199.25
335.455	5095.25
335.684	4971.25
335.912	5001.25
336.14	4929.25
336.369	4900.25
336.597	4982.25
336.825	4883.25
337.053	4844.25
337.281	4765.25
337.51	4713.25
337.738	4697.25
337.966	4712.25
338.194	4677.25
338.422	4644.25
338.65	4555.25
338.878	4543.25
339.106	4543.25
339.334	4528.25
339.562	4456.25
339.79	4330.25
340.018	4381.25
340.246	4379.25
340.474	4423.25
340.702	4418.25
340.93	4356.25
341.158	4375.25
341.386	4375.25
341.614	4371.25
341.842	4390.25
342.07	4350.25
342.298	4291.25
342.526	4235.25
342.754	4265.25
342.981	4331.25
343.209	4455.25
343.437	4615.25
343.665	4927.25
343.893	5142.25
344.12	5223.25
344.348	4952.25
344.576	4768.25
344.804	4735.25
345.031	4589.25
345.259	4626.25
345.487	4422.25
345.714	4333.25
345.942	4293.25
346.17	4194.25
346.397	4196.25
346.625	4195.25
346.853	4155.25
347.08	4211.25
347.308	4209.25
347.535	4287.25
347.763	4313.25
347.99	4252.25
348.218	4329.25
348.445	4249.25
348.673	4205.25
348.9	4144.25
349.128	4056.25
349.355	4068.25
349.583	4057.25
349.81	4073.25
350.037	4049.25
350.265	4032.25
350.492	4057.25
350.72	4064.25
350.947	4101.25
351.174	4145.25
351.402	4200.25
351.629	4137.25
351.856	4137.25
352.083	4231.25
352.311	4229.25
352.538	4191.25
352.765	4164.25
352.992	4101.25
353.22	4104.25
353.447	4047.25
353.674	3969.25
353.901	3926.25
354.128	3971.25
354.355	3988.25
354.583	4060.25
354.81	3921.25
355.037	3987.25
355.264	3917.25
355.491	3975.25
355.718	3930.25
355.945	3935.25
356.172	3939.25
356.399	3938.25
356.626	3969.25
356.853	3949.25
357.08	3879.25
357.307	3968.25
357.534	3951.25
357.761	3976.25
357.988	3990.25
358.215	3928.25
358.441	4017.25
358.668	4023.25
358.895	4067.25
359.122	4062.25
359.349	4115.25
359.576	4227.25
359.802	4489.25
360.029	4562.25
360.256	4557.25
360.483	4414.25
360.709	4237.25
360.936	4195.25
361.163	4184.25
361.39	4187.25
361.616	4200.25
361.843	4196.25
362.07	4168.25
362.296	4275.25
362.523	4130.25
362.749	4140.25
362.976	4127.25
363.203	3999.25
363.429	4025.25
363.656	4107.25
363.882	4054.25
364.109	4011.25
364.335	3982.25
364.562	4001.25
364.788	4042.25
365.015	4039.25
365.241	4004.25
365.468	4035.25
365.694	4117.25
365.92	4038.25
366.147	4024.25
366.373	3961.25
366.599	3992.25
366.826	4013.25
367.052	3993.25
367.278	4053.25
367.505	3982.25
367.731	4036.25
367.957	4013.25
368.184	4104.25
368.41	4122.25
368.636	4244.25
368.862	4205.25
369.089	4157.25
369.315	4131.25
369.541	4133.25
369.767	4156.25
369.993	4173.25
370.219	4157.25
370.445	4121.25
370.672	4165.25
370.898	4192.25
371.124	4252.25
371.35	4305.25
371.576	4220.25
371.802	4247.25
372.028	4263.25
372.254	4282.25
372.48	4341.25
372.706	4406.25
372.932	4367.25
373.158	4393.25
373.384	4388.25
373.61	4332.25
373.835	4389.25
374.061	4408.25
374.287	4456.25
374.513	4541.25
374.739	4669.25
374.965	4800.25
375.191	4756.25
375.416	4636.25
375.642	4530.25
375.868	4507.25
376.094	4410.25
376.319	4362.25
376.545	4319.25
376.771	4278.25
376.997	4339.25
377.222	4365.25
377.448	4279.25
377.674	4269.25
377.899	4268.25
378.125	4279.25
378.35	4291.25
378.576	4230.25
378.802	4195.25
379.027	4191.25
379.253	4343.25
379.478	4234.25
379.704	4294.25
379.929	4316.25
380.155	4331.25
380.38	4292.25
380.606	4368.25
380.831	4328.25
381.057	4293.25
381.282	4293.25
381.507	4302.25
381.733	4385.25
381.958	4445.25
382.184	4509.25
382.409	4505.25
382.634	4558.25
382.86	4510.25
383.085	4572.25
383.31	4710.25
383.535	4736.25
383.761	4741.25
383.986	4838.25
384.211	5033.25
384.436	5023.25
384.662	5111.25
384.887	5143.25
385.112	5155.25
385.337	5245.25
385.562	5198.25
385.787	5230.25
386.013	5300.25
386.238	5391.25
386.463	5321.25
386.688	5313.25
386.913	5145.25
387.138	5126.25
387.363	5131.25
387.588	5092.25
387.813	5155.25
388.038	5099.25
388.263	5196.25
388.488	5209.25
388.713	5180.25
388.938	5152.25
389.163	5206.25
389.387	5075.25
389.612	5079.25
389.837	5046.25
390.062	5093.25
390.287	5057.25
390.512	5135.25
390.736	5182.25
390.961	5222.25
391.186	5332.25
391.411	5468.25
391.636	5648.25
391.86	5799.25
392.085	5823.25
392.31	5687.25
392.534	5558.25
392.759	5497.25
392.984	5411.25
393.208	5371.25
393.433	5345.25
393.658	5298.25
393.882	5349.25
394.107	5400.25
394.331	5411.25
394.556	5476.25
394.78	5517.25
395.005	5498.25
395.229	5541.25
395.454	5775.25
395.678	5802.25
395.903	5853.25
396.127	5871.25
396.352	5673.25
396.576	5468.25
396.801	5490.25
397.025	5515.25
397.249	5739.25
397.474	5847.25
397.698	5849.25
397.922	5968.25
398.147	6026.25
398.371	6068.25
398.595	6324.25
398.82	6570.25
399.044	7075.25
399.268	7907.25
399.492	8963.25
399.717	9675.25
399.941	9433.25
400.165	8726.25
400.389	8038.25
400.613	7265.25
400.837	6797.25
401.062	6728.25
401.286	6600.25
401.51	6560.25
401.734	6469.25
401.958	6616.25
402.182	6783.25
402.406	6807.25
402.63	6832.25
402.854	6996.25
403.078	7016.25
403.302	7257.25
403.526	7282.25
403.75	7425.25
403.974	7511.25
404.198	7371.25
404.422	7487.25
404.645	7438.25
404.869	7318.25
405.093	7465.25
405.317	7496.25
405.541	7542.25
405.765	7246.25
405.988	7179.25
406.212	7435.25
406.436	7581.25
406.66	7756.25
406.883	7794.25
407.107	8295.25
407.331	8861.25
407.555	9347.25
407.778	9030.25
408.002	8271.25
408.226	7809.25
408.449	7806.25
408.673	7524.25
408.896	7760.25
409.12	7920.25
409.344	7520.25
409.567	7232.25
409.791	7146.25
410.014	7102.25
410.238	6978.25
410.461	7030.25
410.685	7067.25
410.908	7131.25
411.132	7366.25
411.355	7378.25
411.578	7056.25
411.802	6707.25
412.025	6741.25
412.249	6876.25
412.472	6743.25
412.695	6740.25
412.919	6471.25
413.142	6456.25
413.365	6416.25
413.589	6461.25
413.812	6415.25
414.035	6272.25
414.258	6343.25
414.482	6433.25
414.705	6440.25
414.928	6466.25
415.151	6351.25
415.374	6343.25
415.597	6315.25
415.821	6221.25
416.044	6316.25
416.267	6243.25
416.49	6223.25
416.713	6157.25
416.936	6356.25
417.159	6331.25
417.382	6287.25
417.605	6367.25
417.828	6489.25
418.051	6679.25
418.274	6572.25
418.497	6335.25
418.72	6562.25
418.943	6424.25
419.166	6888.25
419.389	7333.25
419.611	7127.25
419.834	6911.25
420.057	6735.25
420.28	6672.25
420.503	6411.25
420.726	6432.25
420.948	6653.25
421.171	7032.25
421.394	7094.25
421.617	6503.25
421.839	6515.25
422.062	6696.25
422.285	6850.25
422.507	7417.25
422.73	8013.25
422.953	7309.25
423.175	7007.25
423.398	7018.25
423.621	7115.25
423.843	7259.25
424.066	7201.25
424.288	7118.25
424.511	7291.25
424.733	7805.25
424.956	8269.25
425.178	7720.25
425.401	7914.25
425.623	7829.25
425.846	6859.25
426.068	6679.25
426.291	6590.25
426.513	6560.25
426.735	6678.25
426.958	7138.25
427.18	7912.25
427.402	9002.25
427.625	9057.25
427.847	7572.25
428.069	6759.25
428.292	6508.25
428.514	6075.25
428.736	5959.25
428.958	5950.25
429.181	5825.25
429.403	5871.25
429.625	6003.25
429.847	6263.25
430.069	6959.25
430.292	6417.25
430.514	5867.25
430.736	5843.25
430.958	5682.25
431.18	5692.25
431.402	5719.25
431.624	5669.25
431.846	5750.25
432.068	5749.25
432.29	5859.25
432.512	5707.25
432.734	5893.25
432.956	5804.25
433.178	5843.25
433.4	5823.25
433.622	5664.25
433.844	5806.25
434.066	5744.25
434.287	5889.25
434.509	6058.25
434.731	6324.25
434.953	6546.25
435.175	6654.25
435.397	6662.25
435.618	6660.25
435.84	7004.25
436.062	7745.25
436.284	7853.25
436.505	6554.25
436.727	6208.25
436.949	6007.25
437.17	5820.25
437.392	5853.25
437.614	6007.25
437.835	6467.25
438.057	7329.25
438.278	8042.25
438.5	7900.25
438.721	8751.25
438.943	7677.25
439.165	6420.25
439.386	6267.25
439.608	6269.25
439.829	6388.25
440.05	6716.25
440.272	7085.25
440.493	6486.25
440.715	6199.25
440.936	6160.25
441.158	6188.25
441.379	6303.25
441.6	6641.25
441.822	6872.25
442.043	7357.25
442.264	8064.25
442.486	7821.25
442.707	6900.25
442.928	6911.25
443.149	7022.25
443.371	7114.25
443.592	7732.25
443.813	8707.25
444.034	8626.25
444.255	7596.25
444.476	7432.25
444.698	7591.25
444.919	7591.25
445.14	7436.25
445.361	7270.25
445.582	7399.25
445.803	7965.25
446.024	8766.25
446.245	8381.25
446.466	7480.25
446.687	6491.25
446.908	6173.25
447.129	5889.25
447.35	5788.25
447.571	5716.25
447.792	5537.25
448.013	5716.25
448.234	5883.25
448.455	6613.25
448.675	7758.25
448.896	8204.25
449.117	6744.25
449.338	6948.25
449.559	8247.25
449.779	8432.25
450	6521.25
450.221	5823.25
450.442	5619.25
450.662	5534.25
450.883	5550.25
451.104	5717.25
451.324	5517.25
451.545	5352.25
451.766	5183.25
451.986	5135.25
452.207	5032.25
452.428	5033.25
452.648	5110.25
452.869	5151.25
453.089	5186.25
453.31	5316.25
453.53	5136.25
453.751	4995.25
453.971	5057.25
454.192	5188.25
454.412	4936.25
454.633	4895.25
454.853	4883.25
455.073	4979.25
455.294	5374.25
455.514	5883.25
455.734	5374.25
455.955	4852.25
456.175	4807.25
456.395	4664.25
456.616	4651.25
456.836	4642.25
457.056	4651.25
457.276	4578.25
457.497	4776.25
457.717	4768.25
457.937	4815.25
458.157	4863.25
458.377	4919.25
458.598	5323.25
458.818	5972.25
459.038	6738.25
459.258	6740.25
459.478	6032.25
459.698	5835.25
459.918	5907.25
460.138	6132.25
460.358	6429.25
460.578	6286.25
460.798	6418.25
461.018	6436.25
461.238	6276.25
461.458	6344.25
461.678	6213.25
461.898	6325.25
462.118	6398.25
462.338	6792.25
462.558	6875.25
462.777	7147.25
462.997	7759.25
463.217	8100.25
463.437	8014.25
463.657	7334.25
463.876	7156.25
464.096	7191.25
464.316	7215.25
464.536	7169.25
464.755	7003.25
464.975	6914.25
465.195	7054.25
465.414	7044.25
465.634	6309.25
465.854	5963.25
466.073	5610.25
466.293	5532.25
466.512	5357.25
466.732	5268.25
466.951	5223.25
467.171	5251.25
467.391	5397.25
467.61	5305.25
467.829	5334.25
468.049	5207.25
468.268	5044.25
468.488	4983.25
468.707	4995.25
468.927	4990.25
469.146	4935.25
469.365	5048.25
469.585	5115.25
469.804	5273.25
470.023	5419.25
470.243	5433.25
470.462	5601.25
470.681	5585.25
470.901	5596.25
471.12	5341.25
471.339	5335.25
471.558	5283.25
471.777	5167.25
471.997	5078.25
472.216	5046.25
472.435	5087.25
472.654	4999.25
472.873	4960.25
473.092	5040.25
473.311	4979.25
473.53	5031.25
473.749	5133.25
473.968	5675.25
474.187	6672.25
474.406	6207.25
474.625	5347.25
474.844	5063.25
475.063	5059.25
475.282	5020.25
475.501	5064.25
475.72	5137.25
475.939	5227.25
476.158	5253.25
476.377	5262.25
476.596	5229.25
476.814	5327.25
477.033	5376.25
477.252	5447.25
477.471	5633.25
477.69	5666.25
477.908	5809.25
478.127	6027.25
478.346	5990.25
478.564	6063.25
478.783	6257.25
479.002	6400.25
479.22	6358.25
479.439	6344.25
479.658	6580.25
479.876	6564.25
480.095	6898.25
480.313	7288.25
480.532	7083.25
480.751	6911.25
480.969	6831.25
481.188	6815.25
481.406	6569.25
481.624	6286.25
481.843	6200.25
482.061	6087.25
482.28	5959.25
482.498	5923.25
482.717	5824.25
482.935	5880.25
483.153	5836.25
483.372	5818.25
483.59	5886.25
483.808	5947.25
484.027	5862.25
484.245	5923.25
484.463	5941.25
484.681	6041.25
484.9	6055.25
485.118	6181.25
485.336	6215.25
485.554	6320.25
485.772	6351.25
485.99	6278.25
486.209	6327.25
486.427	6329.25
486.645	6355.25
486.863	6438.25
487.081	6510.25
487.299	6413.25
487.517	6353.25
487.735	6309.25
487.953	6283.25
