Data from Uncirc_2005_H10_HRD10591_00008.txt Node
Date: Wed Jan 03 10:28:26 EST 2024
User: Yrep
Spectrometer: HR+D1059
Trigger mode: 1
Integration Time (sec): 1.000000E-1
Scans to average: 1
Electric dark correction enabled: true
Nonlinearity correction enabled: false
Boxcar width: 0
XAxis mode: Wavelengths
Number of Pixels in Spectrum: 2048
>>>>>Begin Spectral Data<<<<<
223.165	-24.62
223.4	-24.62
223.635	-24.62
223.869	-25.62
224.104	-13.62
224.338	-17.62
224.573	-18.62
224.808	-8.62
225.042	5.38
225.277	0.38
225.511	-10.62
225.746	5.38
225.98	2.38
226.215	25.38
226.449	14.38
226.683	22.38
226.918	10.38
227.152	33.38
227.387	39.38
227.621	42.38
227.856	54.38
228.09	37.38
228.324	65.38
228.559	63.38
228.793	55.38
229.027	53.38
229.262	73.38
229.496	70.38
229.73	88.38
229.964	84.38
230.199	81.38
230.433	85.38
230.667	74.38
230.901	82.38
231.136	70.38
231.37	96.38
231.604	76.38
231.838	85.38
232.072	77.38
232.306	82.38
232.541	71.38
232.775	79.38
233.009	82.38
233.243	73.38
233.477	79.38
233.711	85.38
233.945	69.38
234.179	73.38
234.413	93.38
234.647	93.38
234.881	77.38
235.115	65.38
235.349	78.38
235.583	81.38
235.817	83.38
236.051	92.38
236.285	72.38
236.519	85.38
236.753	83.38
236.987	80.38
237.221	97.38
237.455	83.38
237.689	76.38
237.922	81.38
238.156	72.38
238.39	79.38
238.624	80.38
238.858	80.38
239.091	68.38
239.325	76.38
239.559	84.38
239.793	83.38
240.027	80.38
240.26	87.38
240.494	76.38
240.728	79.38
240.961	73.38
241.195	79.38
241.429	86.38
241.662	69.38
241.896	77.38
242.13	84.38
242.363	77.38
242.597	75.38
242.83	82.38
243.064	65.38
243.298	86.38
243.531	77.38
243.765	69.38
243.998	79.38
244.232	76.38
244.465	81.38
244.699	75.38
244.932	58.38
245.166	88.38
245.399	83.38
245.633	88.38
245.866	83.38
246.099	81.38
246.333	73.38
246.566	69.38
246.8	75.38
247.033	81.38
247.266	72.38
247.5	78.38
247.733	88.38
247.966	83.38
248.2	87.38
248.433	89.38
248.666	73.38
248.899	76.38
249.133	96.38
249.366	96.38
249.599	118.38
249.832	67.38
250.066	81.38
250.299	80.38
250.532	83.38
250.765	89.38
250.998	85.38
251.231	88.38
251.465	70.38
251.698	86.38
251.931	68.38
252.164	88.38
252.397	88.38
252.63	83.38
252.863	93.38
253.096	89.38
253.329	63.38
253.562	70.38
253.795	82.38
254.028	83.38
254.261	85.38
254.494	67.38
254.727	73.38
254.96	73.38
255.193	88.38
255.426	98.38
255.659	91.38
255.892	85.38
256.124	84.38
256.357	76.38
256.59	89.38
256.823	81.38
257.056	88.38
257.289	92.38
257.521	90.38
257.754	87.38
257.987	76.38
258.22	82.38
258.452	79.38
258.685	85.38
258.918	72.38
259.151	79.38
259.383	94.38
259.616	71.38
259.849	85.38
260.081	90.38
260.314	86.38
260.547	78.38
260.779	75.38
261.012	94.38
261.244	87.38
261.477	83.38
261.71	78.38
261.942	112.38
262.175	107.38
262.407	80.38
262.64	82.38
262.872	88.38
263.105	89.38
263.337	82.38
263.57	88.38
263.802	95.38
264.035	84.38
264.267	86.38
264.499	84.38
264.732	95.38
264.964	93.38
265.197	80.38
265.429	77.38
265.661	82.38
265.894	83.38
266.126	83.38
266.358	103.38
266.591	72.38
266.823	92.38
267.055	73.38
267.287	86.38
267.52	84.38
267.752	84.38
267.984	81.38
268.216	105.38
268.448	84.38
268.681	77.38
268.913	85.38
269.145	88.38
269.377	93.38
269.609	87.38
269.841	70.38
270.073	87.38
270.306	78.38
270.538	99.38
270.77	81.38
271.002	97.38
271.234	91.38
271.466	84.38
271.698	76.38
271.93	81.38
272.162	83.38
272.394	87.38
272.626	85.38
272.858	78.38
273.09	83.38
273.322	85.38
273.553	81.38
273.785	103.38
274.017	88.38
274.249	88.38
274.481	77.38
274.713	84.38
274.945	90.38
275.176	89.38
275.408	98.38
275.64	88.38
275.872	80.38
276.104	73.38
276.335	87.38
276.567	91.38
276.799	109.38
277.031	91.38
277.262	89.38
277.494	88.38
277.726	96.38
277.957	97.38
278.189	73.38
278.421	80.38
278.652	76.38
278.884	80.38
279.115	86.38
279.347	73.38
279.579	68.38
279.81	92.38
280.042	84.38
280.273	77.38
280.505	79.38
280.736	85.38
280.968	73.38
281.199	92.38
281.431	86.38
281.662	78.38
281.894	96.38
282.125	107.38
282.356	114.38
282.588	143.38
282.819	113.38
283.051	92.38
283.282	88.38
283.513	96.38
283.745	88.38
283.976	103.38
284.207	82.38
284.439	92.38
284.67	94.38
284.901	79.38
285.132	98.38
285.364	85.38
285.595	89.38
285.826	82.38
286.057	88.38
286.288	97.38
286.52	87.38
286.751	76.38
286.982	89.38
287.213	80.38
287.444	90.38
287.675	96.38
287.906	93.38
288.138	87.38
288.369	79.38
288.6	100.38
288.831	91.38
289.062	88.38
289.293	88.38
289.524	89.38
289.755	71.38
289.986	82.38
290.217	90.38
290.448	84.38
290.679	90.38
290.91	99.38
291.141	96.38
291.371	96.38
291.602	89.38
291.833	93.38
292.064	80.38
292.295	94.38
292.526	89.38
292.757	88.38
292.987	89.38
293.218	101.38
293.449	81.38
293.68	91.38
293.91	72.38
294.141	77.38
294.372	88.38
294.603	94.38
294.833	88.38
295.064	94.38
295.295	95.38
295.525	92.38
295.756	99.38
295.987	98.38
296.217	129.38
296.448	115.38
296.679	95.38
296.909	88.38
297.14	91.38
297.37	91.38
297.601	101.38
297.831	93.38
298.062	99.38
298.292	100.38
298.523	87.38
298.753	82.38
298.984	86.38
299.214	84.38
299.445	99.38
299.675	87.38
299.905	94.38
300.136	108.38
300.366	88.38
300.597	91.38
300.827	100.38
301.057	98.38
301.288	97.38
301.518	105.38
301.748	112.38
301.979	112.38
302.209	74.38
302.439	97.38
302.669	92.38
302.9	84.38
303.13	84.38
303.36	99.38
303.59	105.38
303.82	110.38
304.051	83.38
304.281	92.38
304.511	96.38
304.741	110.38
304.971	91.38
305.201	88.38
305.431	94.38
305.661	95.38
305.891	100.38
306.121	99.38
306.352	110.38
306.582	100.38
306.812	105.38
307.042	93.38
307.272	103.38
307.502	99.38
307.731	87.38
307.961	96.38
308.191	74.38
308.421	96.38
308.651	100.38
308.881	111.38
309.111	93.38
309.341	110.38
309.571	99.38
309.8	104.38
310.03	97.38
310.26	70.38
310.49	93.38
310.72	101.38
310.949	102.38
311.179	102.38
311.409	87.38
311.639	93.38
311.868	111.38
312.098	86.38
312.328	96.38
312.557	109.38
312.787	108.38
313.017	87.38
313.246	94.38
313.476	101.38
313.706	105.38
313.935	94.38
314.165	104.38
314.394	85.38
314.624	97.38
314.853	86.38
315.083	84.38
315.312	103.38
315.542	110.38
315.771	94.38
316.001	88.38
316.23	95.38
316.46	85.38
316.689	93.38
316.919	99.38
317.148	94.38
317.377	99.38
317.607	95.38
317.836	94.38
318.065	93.38
318.295	101.38
318.524	92.38
318.753	92.38
318.983	94.38
319.212	99.38
319.441	98.38
319.67	104.38
319.9	92.38
320.129	100.38
320.358	91.38
320.587	94.38
320.816	97.38
321.046	97.38
321.275	87.38
321.504	89.38
321.733	89.38
321.962	97.38
322.191	95.38
322.42	93.38
322.649	104.38
322.878	98.38
323.108	127.38
323.337	119.38
323.566	139.38
323.795	147.38
324.024	196.38
324.253	405.38
324.482	876.38
324.71	1815.38
324.939	2376.38
325.168	861.38
325.397	255.38
325.626	141.38
325.855	123.38
326.084	124.38
326.313	133.38
326.542	158.38
326.77	246.38
326.999	503.38
327.228	1029.38
327.457	1830.38
327.686	1464.38
327.914	405.38
328.143	199.38
328.372	144.38
328.6	132.38
328.829	119.38
329.058	114.38
329.287	115.38
329.515	99.38
329.744	94.38
329.972	91.38
330.201	102.38
330.43	105.38
330.658	138.38
330.887	145.38
331.115	131.38
331.344	110.38
331.572	91.38
331.801	95.38
332.03	103.38
332.258	109.38
332.486	97.38
332.715	94.38
332.943	110.38
333.172	117.38
333.4	91.38
333.629	116.38
333.857	108.38
334.085	93.38
334.314	101.38
334.542	111.38
334.771	114.38
334.999	109.38
335.227	104.38
335.455	93.38
335.684	99.38
335.912	110.38
336.14	97.38
336.369	98.38
336.597	114.38
336.825	94.38
337.053	107.38
337.281	98.38
337.51	96.38
337.738	102.38
337.966	85.38
338.194	113.38
338.422	99.38
338.65	88.38
338.878	98.38
339.106	92.38
339.334	94.38
339.562	85.38
339.79	83.38
340.018	91.38
340.246	89.38
340.474	98.38
340.702	94.38
340.93	87.38
341.158	96.38
341.386	98.38
341.614	87.38
341.842	94.38
342.07	100.38
342.298	100.38
342.526	93.38
342.754	92.38
342.981	89.38
343.209	90.38
343.437	112.38
343.665	88.38
343.893	108.38
344.12	110.38
344.348	84.38
344.576	87.38
344.804	110.38
345.031	113.38
345.259	95.38
345.487	86.38
345.714	104.38
345.942	95.38
346.17	94.38
346.397	93.38
346.625	92.38
346.853	92.38
347.08	98.38
347.308	94.38
347.535	101.38
347.763	99.38
347.99	100.38
348.218	106.38
348.445	104.38
348.673	97.38
348.9	95.38
349.128	100.38
349.355	89.38
349.583	95.38
349.81	109.38
350.037	103.38
350.265	103.38
350.492	108.38
350.72	99.38
350.947	107.38
351.174	116.38
351.402	112.38
351.629	112.38
351.856	105.38
352.083	95.38
352.311	105.38
352.538	119.38
352.765	119.38
352.992	119.38
353.22	102.38
353.447	111.38
353.674	99.38
353.901	112.38
354.128	101.38
354.355	101.38
354.583	107.38
354.81	95.38
355.037	96.38
355.264	118.38
355.491	98.38
355.718	94.38
355.945	101.38
356.172	95.38
356.399	93.38
356.626	100.38
356.853	95.38
357.08	97.38
357.307	80.38
357.534	95.38
357.761	96.38
357.988	83.38
358.215	101.38
358.441	105.38
358.668	119.38
358.895	102.38
359.122	98.38
359.349	88.38
359.576	87.38
359.802	94.38
360.029	125.38
360.256	116.38
360.483	110.38
360.709	102.38
360.936	105.38
361.163	86.38
361.39	95.38
361.616	107.38
361.843	75.38
362.07	94.38
362.296	105.38
362.523	97.38
362.749	109.38
362.976	92.38
363.203	83.38
363.429	84.38
363.656	89.38
363.882	104.38
364.109	90.38
364.335	91.38
364.562	78.38
364.788	95.38
365.015	92.38
365.241	101.38
365.468	111.38
365.694	95.38
365.92	95.38
366.147	121.38
366.373	99.38
366.599	87.38
366.826	90.38
367.052	80.38
367.278	78.38
367.505	90.38
367.731	88.38
367.957	91.38
368.184	102.38
368.41	99.38
368.636	117.38
368.862	126.38
369.089	112.38
369.315	93.38
369.541	89.38
369.767	107.38
369.993	82.38
370.219	88.38
370.445	107.38
370.672	95.38
370.898	107.38
371.124	98.38
371.35	102.38
371.576	90.38
371.802	97.38
372.028	100.38
372.254	96.38
372.48	86.38
372.706	93.38
372.932	87.38
373.158	84.38
373.384	100.38
373.61	99.38
373.835	102.38
374.061	92.38
374.287	84.38
374.513	98.38
374.739	98.38
374.965	87.38
375.191	100.38
375.416	89.38
375.642	96.38
375.868	85.38
376.094	84.38
376.319	100.38
376.545	107.38
376.771	92.38
376.997	92.38
377.222	89.38
377.448	97.38
377.674	104.38
377.899	97.38
378.125	100.38
378.35	97.38
378.576	89.38
378.802	96.38
379.027	103.38
379.253	101.38
379.478	115.38
379.704	78.38
379.929	108.38
380.155	103.38
380.38	99.38
380.606	96.38
380.831	99.38
381.057	104.38
381.282	96.38
381.507	112.38
381.733	86.38
381.958	108.38
382.184	123.38
382.409	113.38
382.634	107.38
382.86	115.38
383.085	113.38
383.31	108.38
383.535	98.38
383.761	102.38
383.986	108.38
384.211	123.38
384.436	103.38
384.662	98.38
384.887	121.38
385.112	108.38
385.337	120.38
385.562	109.38
385.787	116.38
386.013	129.38
386.238	116.38
386.463	121.38
386.688	112.38
386.913	124.38
387.138	106.38
387.363	112.38
387.588	119.38
387.813	102.38
388.038	107.38
388.263	129.38
388.488	137.38
388.713	113.38
388.938	97.38
389.163	97.38
389.387	98.38
389.612	102.38
389.837	103.38
390.062	97.38
390.287	97.38
390.512	82.38
390.736	91.38
390.961	96.38
391.186	88.38
391.411	100.38
391.636	87.38
391.86	93.38
392.085	82.38
392.31	82.38
392.534	98.38
392.759	89.38
392.984	95.38
393.208	97.38
393.433	87.38
393.658	86.38
393.882	87.38
394.107	89.38
394.331	84.38
394.556	86.38
394.78	91.38
395.005	80.38
395.229	88.38
395.454	94.38
395.678	90.38
395.903	88.38
396.127	85.38
396.352	93.38
396.576	93.38
396.801	95.38
397.025	96.38
397.249	93.38
397.474	94.38
397.698	103.38
397.922	86.38
398.147	77.38
398.371	78.38
398.595	84.38
398.82	84.38
399.044	87.38
399.268	98.38
399.492	85.38
399.717	91.38
399.941	80.38
400.165	98.38
400.389	96.38
400.613	110.38
400.837	85.38
401.062	88.38
401.286	92.38
401.51	86.38
401.734	80.38
401.958	106.38
402.182	137.38
402.406	166.38
402.63	126.38
402.854	93.38
403.078	91.38
403.302	99.38
403.526	91.38
403.75	83.38
403.974	92.38
404.198	88.38
404.422	94.38
404.645	92.38
404.869	90.38
405.093	107.38
405.317	99.38
405.541	111.38
405.765	100.38
405.988	127.38
406.212	176.38
406.436	219.38
406.66	155.38
406.883	105.38
407.107	104.38
407.331	107.38
407.555	105.38
407.778	100.38
408.002	84.38
408.226	85.38
408.449	100.38
408.673	94.38
408.896	95.38
409.12	102.38
409.344	82.38
409.567	88.38
409.791	90.38
410.014	83.38
410.238	95.38
410.461	91.38
410.685	96.38
410.908	106.38
411.132	117.38
411.355	98.38
411.578	96.38
411.802	95.38
412.025	75.38
412.249	93.38
412.472	98.38
412.695	102.38
412.919	75.38
413.142	106.38
413.365	100.38
413.589	100.38
413.812	88.38
414.035	92.38
414.258	88.38
414.482	103.38
414.705	93.38
414.928	96.38
415.151	110.38
415.374	94.38
415.597	96.38
415.821	98.38
416.044	92.38
416.267	93.38
416.49	91.38
416.713	78.38
416.936	84.38
417.159	101.38
417.382	89.38
417.605	90.38
417.828	93.38
418.051	95.38
418.274	72.38
418.497	93.38
418.72	75.38
418.943	89.38
419.166	95.38
419.389	95.38
419.611	80.38
419.834	72.38
420.057	77.38
420.28	76.38
420.503	99.38
420.726	84.38
420.948	93.38
421.171	99.38
421.394	92.38
421.617	90.38
421.839	100.38
422.062	86.38
422.285	92.38
422.507	105.38
422.73	120.38
422.953	89.38
423.175	103.38
423.398	103.38
423.621	92.38
423.843	95.38
424.066	79.38
424.288	79.38
424.511	84.38
424.733	104.38
424.956	120.38
425.178	93.38
425.401	114.38
425.623	102.38
425.846	91.38
426.068	97.38
426.291	96.38
426.513	94.38
426.735	83.38
426.958	91.38
427.18	120.38
427.402	139.38
427.625	171.38
427.847	137.38
428.069	109.38
428.292	103.38
428.514	100.38
428.736	96.38
428.958	83.38
429.181	82.38
429.403	89.38
429.625	102.38
429.847	94.38
430.069	95.38
430.292	93.38
430.514	88.38
430.736	91.38
430.958	91.38
431.18	76.38
431.402	93.38
431.624	83.38
431.846	88.38
432.068	85.38
432.29	89.38
432.512	96.38
432.734	102.38
432.956	82.38
433.178	95.38
433.4	99.38
433.622	99.38
433.844	92.38
434.066	96.38
434.287	87.38
434.509	90.38
434.731	91.38
434.953	85.38
435.175	91.38
435.397	93.38
435.618	94.38
435.84	108.38
436.062	127.38
436.284	133.38
436.505	103.38
436.727	113.38
436.949	97.38
437.17	83.38
437.392	99.38
437.614	89.38
437.835	118.38
438.057	140.38
438.278	113.38
438.5	119.38
438.721	125.38
438.943	109.38
439.165	96.38
439.386	94.38
439.608	96.38
439.829	98.38
440.05	137.38
440.272	159.38
440.493	107.38
440.715	88.38
440.936	88.38
441.158	79.38
441.379	93.38
441.6	95.38
441.822	114.38
442.043	115.38
442.264	103.38
442.486	113.38
442.707	91.38
442.928	107.38
443.149	122.38
443.371	146.38
443.592	120.38
443.813	118.38
444.034	108.38
444.255	96.38
444.476	101.38
444.698	94.38
444.919	72.38
445.14	128.38
445.361	121.38
445.582	127.38
445.803	149.38
446.024	143.38
446.245	159.38
446.466	123.38
446.687	76.38
446.908	86.38
447.129	96.38
447.35	103.38
447.571	104.38
447.792	103.38
448.013	86.38
448.234	100.38
448.455	99.38
448.675	112.38
448.896	136.38
449.117	97.38
449.338	103.38
449.559	134.38
449.779	144.38
450	98.38
450.221	87.38
450.442	96.38
450.662	101.38
450.883	105.38
451.104	109.38
451.324	103.38
451.545	92.38
451.766	95.38
451.986	105.38
452.207	87.38
452.428	103.38
452.648	90.38
452.869	97.38
453.089	122.38
453.31	117.38
453.53	96.38
453.751	87.38
453.971	109.38
454.192	100.38
454.412	85.38
454.633	101.38
454.853	93.38
455.073	78.38
455.294	99.38
455.514	105.38
455.734	90.38
455.955	89.38
456.175	95.38
456.395	84.38
456.616	83.38
456.836	97.38
457.056	97.38
457.276	91.38
457.497	85.38
457.717	82.38
457.937	77.38
458.157	86.38
458.377	91.38
458.598	118.38
458.818	157.38
459.038	167.38
459.258	126.38
459.478	106.38
459.698	91.38
459.918	98.38
460.138	85.38
460.358	72.38
460.578	109.38
460.798	104.38
461.018	82.38
461.238	97.38
461.458	87.38
461.678	81.38
461.898	89.38
462.118	77.38
462.338	83.38
462.558	88.38
462.777	84.38
462.997	80.38
463.217	81.38
463.437	84.38
463.657	96.38
463.876	82.38
464.096	87.38
464.316	95.38
464.536	104.38
464.755	96.38
464.975	111.38
465.195	176.38
465.414	171.38
465.634	90.38
465.854	94.38
466.073	95.38
466.293	101.38
466.512	98.38
466.732	103.38
466.951	93.38
467.171	86.38
467.391	98.38
467.61	94.38
467.829	102.38
468.049	78.38
468.268	92.38
468.488	94.38
468.707	81.38
468.927	98.38
469.146	80.38
469.365	90.38
469.585	82.38
469.804	100.38
470.023	93.38
470.243	96.38
470.462	101.38
470.681	106.38
470.901	77.38
471.12	77.38
471.339	96.38
471.558	80.38
471.777	77.38
471.997	98.38
472.216	82.38
472.435	92.38
472.654	89.38
472.873	84.38
473.092	85.38
473.311	87.38
473.53	95.38
473.749	95.38
473.968	95.38
474.187	123.38
474.406	111.38
474.625	83.38
474.844	78.38
475.063	79.38
475.282	86.38
475.501	82.38
475.72	89.38
475.939	88.38
476.158	80.38
476.377	92.38
476.596	86.38
476.814	110.38
477.033	88.38
477.252	85.38
477.471	93.38
477.69	92.38
477.908	83.38
478.127	88.38
478.346	96.38
478.564	83.38
478.783	87.38
479.002	106.38
479.22	86.38
479.439	102.38
479.658	104.38
479.876	94.38
480.095	87.38
480.313	86.38
480.532	80.38
480.751	95.38
480.969	99.38
481.188	114.38
481.406	109.38
481.624	94.38
481.843	86.38
482.061	75.38
482.28	85.38
482.498	85.38
482.717	95.38
482.935	75.38
483.153	78.38
483.372	94.38
483.59	78.38
483.808	82.38
484.027	95.38
484.245	88.38
484.463	97.38
484.681	93.38
484.9	84.38
485.118	93.38
485.336	89.38
485.554	90.38
485.772	91.38
485.99	105.38
486.209	96.38
486.427	93.38
486.645	104.38
486.863	120.38
487.081	104.38
487.299	87.38
487.517	107.38
487.735	103.38
487.953	102.38
488.171	92.38
488.389	91.38
488.607	96.38
488.825	100.38
489.043	88.38
489.261	93.38
489.479	87.38
489.696	84.38
489.914	97.38
490.132	89.38
490.35	92.38
490.568	82.38
490.786	86.38
491.003	96.38
491.221	91.38
491.439	97.38
491.657	88.38
491.874	92.38
492.092	95.38
492.31	100.38
492.527	87.38
492.745	78.38
492.963	94.38
493.18	102.38
493.398	97.38
493.615	89.38
493.833	88.38
494.05	98.38
494.268	82.38
494.485	84.38
494.703	93.38
494.92	87.38
495.138	77.38
495.355	98.38
495.573	92.38
495.79	82.38
496.008	95.38
496.225	86.38
496.442	91.38
496.66	92.38
496.877	102.38
497.094	93.38
497.312	101.38
497.529	85.38
497.746	81.38
497.963	94.38
498.181	92.38
498.398	89.38
498.615	113.38
498.832	101.38
499.049	92.38
499.267	88.38
499.484	83.38
499.701	89.38
499.918	101.38
500.135	93.38
500.352	89.38
500.569	101.38
500.786	89.38
501.003	101.38
501.22	87.38
501.437	83.38
501.654	98.38
501.871	102.38
502.088	97.38
502.305	90.38
502.522	93.38
502.739	99.38
502.956	86.38
503.172	84.38
503.389	85.38
503.606	103.38
503.823	101.38
504.04	97.38
504.256	83.38
504.473	88.38
504.69	88.38
504.907	101.38
505.123	78.38
505.34	95.38
505.557	77.38
505.773	90.38
505.99	92.38
506.207	89.38
506.423	93.38
506.64	86.38
506.856	99.38
507.073	90.38
507.289	103.38
507.506	84.38
507.722	125.38
507.939	103.38
508.155	107.38
508.372	84.38
508.588	78.38
508.805	97.38
509.021	100.38
509.238	105.38
509.454	101.38
509.67	102.38
509.887	111.38
510.103	150.38
510.319	230.38
510.536	753.38
510.752	2357.38
510.968	666.38
511.184	157.38
511.401	126.38
511.617	101.38
511.833	91.38
512.049	82.38
512.265	99.38
512.481	89.38
512.698	82.38
512.914	92.38
513.13	107.38
513.346	105.38
513.562	105.38
513.778	95.38
513.994	110.38
514.21	100.38
514.426	112.38
514.642	155.38
