Data from Uncirc_2005_H10_HRD10591_00055.txt Node
Date: Wed Jan 03 10:28:35 EST 2024
User: Yrep
Spectrometer: HR+D1059
Trigger mode: 1
Integration Time (sec): 1.000000E-1
Scans to average: 1
Electric dark correction enabled: true
Nonlinearity correction enabled: false
Boxcar width: 0
XAxis mode: Wavelengths
Number of Pixels in Spectrum: 2048
>>>>>Begin Spectral Data<<<<<
223.165	-30.56
223.4	-30.56
223.635	-30.56
223.869	-26.56
224.104	3.44
224.338	-20.56
224.573	-13.56
224.808	-11.56
225.042	-6.56
225.277	-1.56
225.511	0.44
225.746	-2.56
225.98	9.44
226.215	0.44
226.449	25.44
226.683	6.44
226.918	37.44
227.152	30.44
227.387	34.44
227.621	37.44
227.856	39.44
228.09	72.44
228.324	58.44
228.559	61.44
228.793	54.44
229.027	52.44
229.262	63.44
229.496	66.44
229.73	80.44
229.964	86.44
230.199	72.44
230.433	74.44
230.667	82.44
230.901	84.44
231.136	83.44
231.37	79.44
231.604	88.44
231.838	67.44
232.072	76.44
232.306	81.44
232.541	83.44
232.775	85.44
233.009	81.44
233.243	82.44
233.477	93.44
233.711	84.44
233.945	89.44
234.179	78.44
234.413	74.44
234.647	88.44
234.881	85.44
235.115	93.44
235.349	85.44
235.583	93.44
235.817	67.44
236.051	67.44
236.285	76.44
236.519	89.44
236.753	88.44
236.987	78.44
237.221	96.44
237.455	68.44
237.689	66.44
237.922	71.44
238.156	93.44
238.39	88.44
238.624	89.44
238.858	83.44
239.091	74.44
239.325	81.44
239.559	68.44
239.793	78.44
240.027	89.44
240.26	69.44
240.494	70.44
240.728	81.44
240.961	77.44
241.195	75.44
241.429	80.44
241.662	64.44
241.896	76.44
242.13	71.44
242.363	60.44
242.597	82.44
242.83	94.44
243.064	74.44
243.298	73.44
243.531	70.44
243.765	85.44
243.998	77.44
244.232	88.44
244.465	74.44
244.699	84.44
244.932	66.44
245.166	76.44
245.399	77.44
245.633	88.44
245.866	70.44
246.099	71.44
246.333	94.44
246.566	77.44
246.8	84.44
247.033	85.44
247.266	76.44
247.5	72.44
247.733	76.44
247.966	70.44
248.2	78.44
248.433	80.44
248.666	73.44
248.899	82.44
249.133	81.44
249.366	112.44
249.599	83.44
249.832	92.44
250.066	94.44
250.299	95.44
250.532	86.44
250.765	81.44
250.998	83.44
251.231	85.44
251.465	69.44
251.698	67.44
251.931	84.44
252.164	72.44
252.397	95.44
252.63	81.44
252.863	82.44
253.096	86.44
253.329	71.44
253.562	84.44
253.795	91.44
254.028	80.44
254.261	71.44
254.494	81.44
254.727	77.44
254.96	78.44
255.193	97.44
255.426	97.44
255.659	81.44
255.892	93.44
256.124	83.44
256.357	91.44
256.59	89.44
256.823	81.44
257.056	79.44
257.289	78.44
257.521	67.44
257.754	86.44
257.987	86.44
258.22	78.44
258.452	86.44
258.685	85.44
258.918	96.44
259.151	75.44
259.383	89.44
259.616	72.44
259.849	89.44
260.081	90.44
260.314	94.44
260.547	80.44
260.779	87.44
261.012	92.44
261.244	94.44
261.477	90.44
261.71	97.44
261.942	103.44
262.175	105.44
262.407	95.44
262.64	82.44
262.872	71.44
263.105	81.44
263.337	94.44
263.57	66.44
263.802	75.44
264.035	89.44
264.267	87.44
264.499	94.44
264.732	89.44
264.964	88.44
265.197	79.44
265.429	87.44
265.661	92.44
265.894	85.44
266.126	83.44
266.358	93.44
266.591	78.44
266.823	73.44
267.055	80.44
267.287	95.44
267.52	87.44
267.752	102.44
267.984	85.44
268.216	92.44
268.448	108.44
268.681	77.44
268.913	81.44
269.145	98.44
269.377	93.44
269.609	75.44
269.841	93.44
270.073	89.44
270.306	88.44
270.538	96.44
270.77	84.44
271.002	80.44
271.234	94.44
271.466	70.44
271.698	69.44
271.93	86.44
272.162	89.44
272.394	97.44
272.626	88.44
272.858	84.44
273.09	92.44
273.322	73.44
273.553	80.44
273.785	82.44
274.017	85.44
274.249	90.44
274.481	79.44
274.713	84.44
274.945	84.44
275.176	90.44
275.408	80.44
275.64	73.44
275.872	89.44
276.104	98.44
276.335	107.44
276.567	100.44
276.799	99.44
277.031	87.44
277.262	92.44
277.494	94.44
277.726	78.44
277.957	92.44
278.189	89.44
278.421	98.44
278.652	74.44
278.884	83.44
279.115	87.44
279.347	85.44
279.579	87.44
279.81	88.44
280.042	101.44
280.273	90.44
280.505	96.44
280.736	83.44
280.968	76.44
281.199	101.44
281.431	96.44
281.662	80.44
281.894	85.44
282.125	99.44
282.356	110.44
282.588	145.44
282.819	102.44
283.051	95.44
283.282	78.44
283.513	100.44
283.745	103.44
283.976	99.44
284.207	91.44
284.439	101.44
284.67	98.44
284.901	90.44
285.132	87.44
285.364	93.44
285.595	91.44
285.826	75.44
286.057	91.44
286.288	94.44
286.52	85.44
286.751	90.44
286.982	92.44
287.213	96.44
287.444	86.44
287.675	73.44
287.906	104.44
288.138	85.44
288.369	84.44
288.6	87.44
288.831	100.44
289.062	96.44
289.293	82.44
289.524	85.44
289.755	95.44
289.986	89.44
290.217	82.44
290.448	85.44
290.679	97.44
290.91	80.44
291.141	89.44
291.371	82.44
291.602	88.44
291.833	90.44
292.064	90.44
292.295	74.44
292.526	86.44
292.757	65.44
292.987	92.44
293.218	89.44
293.449	85.44
293.68	88.44
293.91	93.44
294.141	90.44
294.372	86.44
294.603	90.44
294.833	91.44
295.064	92.44
295.295	93.44
295.525	86.44
295.756	87.44
295.987	98.44
296.217	121.44
296.448	120.44
296.679	109.44
296.909	87.44
297.14	82.44
297.37	103.44
297.601	94.44
297.831	99.44
298.062	92.44
298.292	102.44
298.523	98.44
298.753	92.44
298.984	99.44
299.214	100.44
299.445	93.44
299.675	80.44
299.905	94.44
300.136	97.44
300.366	88.44
300.597	93.44
300.827	98.44
301.057	98.44
301.288	101.44
301.518	81.44
301.748	94.44
301.979	103.44
302.209	86.44
302.439	76.44
302.669	92.44
302.9	83.44
303.13	94.44
303.36	85.44
303.59	111.44
303.82	90.44
304.051	105.44
304.281	90.44
304.511	94.44
304.741	86.44
304.971	77.44
305.201	86.44
305.431	97.44
305.661	97.44
305.891	83.44
306.121	98.44
306.352	101.44
306.582	94.44
306.812	100.44
307.042	95.44
307.272	91.44
307.502	91.44
307.731	87.44
307.961	94.44
308.191	81.44
308.421	89.44
308.651	89.44
308.881	102.44
309.111	101.44
309.341	89.44
309.571	100.44
309.8	85.44
310.03	97.44
310.26	97.44
310.49	108.44
310.72	109.44
310.949	109.44
311.179	87.44
311.409	105.44
311.639	78.44
311.868	94.44
312.098	96.44
312.328	90.44
312.557	97.44
312.787	106.44
313.017	87.44
313.246	99.44
313.476	92.44
313.706	102.44
313.935	103.44
314.165	87.44
314.394	106.44
314.624	95.44
314.853	104.44
315.083	105.44
315.312	93.44
315.542	87.44
315.771	97.44
316.001	105.44
316.23	92.44
316.46	92.44
316.689	89.44
316.919	94.44
317.148	90.44
317.377	96.44
317.607	89.44
317.836	104.44
318.065	93.44
318.295	87.44
318.524	90.44
318.753	101.44
318.983	107.44
319.212	109.44
319.441	106.44
319.67	110.44
319.9	85.44
320.129	86.44
320.358	87.44
320.587	112.44
320.816	100.44
321.046	101.44
321.275	90.44
321.504	100.44
321.733	89.44
321.962	103.44
322.191	101.44
322.42	96.44
322.649	106.44
322.878	113.44
323.108	120.44
323.337	130.44
323.566	116.44
323.795	138.44
324.024	200.44
324.253	386.44
324.482	844.44
324.71	1696.44
324.939	2208.44
325.168	798.44
325.397	222.44
325.626	158.44
325.855	115.44
326.084	118.44
326.313	129.44
326.542	146.44
326.77	206.44
326.999	468.44
327.228	943.44
327.457	1726.44
327.686	1375.44
327.914	374.44
328.143	171.44
328.372	154.44
328.6	118.44
328.829	118.44
329.058	126.44
329.287	114.44
329.515	104.44
329.744	98.44
329.972	108.44
330.201	108.44
330.43	113.44
330.658	124.44
330.887	128.44
331.115	122.44
331.344	104.44
331.572	96.44
331.801	99.44
332.03	116.44
332.258	96.44
332.486	104.44
332.715	88.44
332.943	90.44
333.172	88.44
333.4	102.44
333.629	117.44
333.857	116.44
334.085	101.44
334.314	100.44
334.542	85.44
334.771	90.44
334.999	91.44
335.227	94.44
335.455	105.44
335.684	79.44
335.912	88.44
336.14	120.44
336.369	98.44
336.597	96.44
336.825	93.44
337.053	78.44
337.281	90.44
337.51	100.44
337.738	89.44
337.966	92.44
338.194	87.44
338.422	106.44
338.65	90.44
338.878	86.44
339.106	86.44
339.334	103.44
339.562	95.44
339.79	104.44
340.018	97.44
340.246	95.44
340.474	89.44
340.702	105.44
340.93	96.44
341.158	91.44
341.386	97.44
341.614	93.44
341.842	90.44
342.07	82.44
342.298	93.44
342.526	86.44
342.754	101.44
342.981	91.44
343.209	97.44
343.437	100.44
343.665	96.44
343.893	97.44
344.12	90.44
344.348	103.44
344.576	87.44
344.804	100.44
345.031	102.44
345.259	94.44
345.487	87.44
345.714	92.44
345.942	93.44
346.17	96.44
346.397	101.44
346.625	100.44
346.853	100.44
347.08	87.44
347.308	97.44
347.535	93.44
347.763	87.44
347.99	94.44
348.218	105.44
348.445	91.44
348.673	95.44
348.9	93.44
349.128	88.44
349.355	100.44
349.583	87.44
349.81	98.44
350.037	83.44
350.265	97.44
350.492	100.44
350.72	98.44
350.947	107.44
351.174	113.44
351.402	115.44
351.629	102.44
351.856	102.44
352.083	105.44
352.311	117.44
352.538	112.44
352.765	92.44
352.992	109.44
353.22	98.44
353.447	113.44
353.674	94.44
353.901	90.44
354.128	101.44
354.355	107.44
354.583	100.44
354.81	98.44
355.037	101.44
355.264	100.44
355.491	88.44
355.718	103.44
355.945	92.44
356.172	96.44
356.399	101.44
356.626	106.44
356.853	84.44
357.08	88.44
357.307	104.44
357.534	101.44
357.761	95.44
357.988	98.44
358.215	96.44
358.441	97.44
358.668	95.44
358.895	104.44
359.122	84.44
359.349	101.44
359.576	97.44
359.802	105.44
360.029	118.44
360.256	108.44
360.483	97.44
360.709	87.44
360.936	94.44
361.163	100.44
361.39	83.44
361.616	94.44
361.843	98.44
362.07	105.44
362.296	94.44
362.523	93.44
362.749	85.44
362.976	82.44
363.203	101.44
363.429	96.44
363.656	99.44
363.882	83.44
364.109	85.44
364.335	93.44
364.562	95.44
364.788	86.44
365.015	102.44
365.241	104.44
365.468	102.44
365.694	106.44
365.92	113.44
366.147	102.44
366.373	106.44
366.599	96.44
366.826	105.44
367.052	66.44
367.278	99.44
367.505	88.44
367.731	96.44
367.957	90.44
368.184	100.44
368.41	97.44
368.636	114.44
368.862	115.44
369.089	97.44
369.315	96.44
369.541	91.44
369.767	96.44
369.993	93.44
370.219	97.44
370.445	94.44
370.672	79.44
370.898	79.44
371.124	92.44
371.35	86.44
371.576	92.44
371.802	85.44
372.028	85.44
372.254	79.44
372.48	82.44
372.706	77.44
372.932	84.44
373.158	87.44
373.384	98.44
373.61	88.44
373.835	89.44
374.061	97.44
374.287	98.44
374.513	97.44
374.739	87.44
374.965	81.44
375.191	85.44
375.416	96.44
375.642	94.44
375.868	94.44
376.094	96.44
376.319	81.44
376.545	86.44
376.771	73.44
376.997	88.44
377.222	94.44
377.448	99.44
377.674	103.44
377.899	105.44
378.125	100.44
378.35	94.44
378.576	74.44
378.802	88.44
379.027	87.44
379.253	98.44
379.478	92.44
379.704	92.44
379.929	102.44
380.155	95.44
380.38	86.44
380.606	101.44
380.831	100.44
381.057	112.44
381.282	101.44
381.507	92.44
381.733	103.44
381.958	110.44
382.184	96.44
382.409	105.44
382.634	108.44
382.86	100.44
383.085	104.44
383.31	123.44
383.535	88.44
383.761	100.44
383.986	98.44
384.211	101.44
384.436	97.44
384.662	104.44
384.887	109.44
385.112	113.44
385.337	114.44
385.562	106.44
385.787	115.44
386.013	106.44
386.238	113.44
386.463	101.44
386.688	109.44
386.913	100.44
387.138	120.44
387.363	109.44
387.588	105.44
387.813	97.44
388.038	109.44
388.263	111.44
388.488	119.44
388.713	103.44
388.938	95.44
389.163	111.44
389.387	98.44
389.612	102.44
389.837	100.44
390.062	92.44
390.287	83.44
390.512	85.44
390.736	94.44
390.961	99.44
391.186	99.44
391.411	102.44
391.636	101.44
391.86	92.44
392.085	83.44
392.31	77.44
392.534	93.44
392.759	87.44
392.984	81.44
393.208	90.44
393.433	95.44
393.658	89.44
393.882	96.44
394.107	82.44
394.331	86.44
394.556	65.44
394.78	97.44
395.005	77.44
395.229	88.44
395.454	89.44
395.678	95.44
395.903	102.44
396.127	93.44
396.352	94.44
396.576	94.44
396.801	89.44
397.025	86.44
397.249	105.44
397.474	104.44
397.698	97.44
397.922	98.44
398.147	71.44
398.371	85.44
398.595	87.44
398.82	73.44
399.044	75.44
399.268	93.44
399.492	97.44
399.717	90.44
399.941	92.44
400.165	96.44
400.389	93.44
400.613	99.44
400.837	95.44
401.062	94.44
401.286	102.44
401.51	77.44
401.734	96.44
401.958	94.44
402.182	140.44
402.406	155.44
402.63	121.44
402.854	98.44
403.078	89.44
403.302	89.44
403.526	100.44
403.75	80.44
403.974	89.44
404.198	93.44
404.422	88.44
404.645	97.44
404.869	86.44
405.093	94.44
405.317	106.44
405.541	100.44
405.765	94.44
405.988	108.44
406.212	149.44
406.436	196.44
406.66	113.44
406.883	89.44
407.107	92.44
407.331	94.44
407.555	93.44
407.778	102.44
408.002	98.44
408.226	89.44
408.449	94.44
408.673	100.44
408.896	87.44
409.12	81.44
409.344	99.44
409.567	87.44
409.791	81.44
410.014	89.44
410.238	96.44
410.461	95.44
410.685	99.44
410.908	101.44
411.132	97.44
411.355	114.44
411.578	105.44
411.802	92.44
412.025	87.44
412.249	106.44
412.472	85.44
412.695	85.44
412.919	99.44
413.142	92.44
413.365	86.44
413.589	90.44
413.812	81.44
414.035	86.44
414.258	90.44
414.482	103.44
414.705	106.44
414.928	100.44
415.151	93.44
415.374	103.44
415.597	85.44
415.821	85.44
416.044	90.44
416.267	93.44
416.49	87.44
416.713	81.44
416.936	92.44
417.159	97.44
417.382	99.44
417.605	88.44
417.828	96.44
418.051	90.44
418.274	108.44
418.497	94.44
418.72	89.44
418.943	78.44
419.166	96.44
419.389	94.44
419.611	97.44
419.834	101.44
420.057	105.44
420.28	90.44
420.503	89.44
420.726	77.44
420.948	90.44
421.171	100.44
421.394	97.44
421.617	95.44
421.839	85.44
422.062	97.44
422.285	104.44
422.507	102.44
422.73	121.44
422.953	96.44
423.175	99.44
423.398	80.44
423.621	95.44
423.843	82.44
424.066	96.44
424.288	94.44
424.511	97.44
424.733	94.44
424.956	97.44
425.178	109.44
425.401	94.44
425.623	101.44
425.846	94.44
426.068	88.44
426.291	96.44
426.513	84.44
426.735	85.44
426.958	96.44
427.18	104.44
427.402	122.44
427.625	143.44
427.847	127.44
428.069	101.44
428.292	98.44
428.514	88.44
428.736	88.44
428.958	72.44
429.181	88.44
429.403	80.44
429.625	97.44
429.847	97.44
430.069	106.44
430.292	86.44
430.514	81.44
430.736	77.44
430.958	85.44
431.18	77.44
431.402	81.44
431.624	86.44
431.846	98.44
432.068	83.44
432.29	82.44
432.512	87.44
432.734	75.44
432.956	84.44
433.178	101.44
433.4	99.44
433.622	97.44
433.844	84.44
434.066	102.44
434.287	91.44
434.509	93.44
434.731	104.44
434.953	103.44
435.175	95.44
435.397	101.44
435.618	82.44
435.84	98.44
436.062	116.44
436.284	111.44
436.505	97.44
436.727	99.44
436.949	106.44
437.17	81.44
437.392	81.44
437.614	89.44
437.835	118.44
438.057	115.44
438.278	102.44
438.5	102.44
438.721	110.44
438.943	97.44
439.165	103.44
439.386	84.44
439.608	93.44
439.829	99.44
440.05	117.44
440.272	130.44
440.493	91.44
440.715	91.44
440.936	77.44
441.158	94.44
441.379	84.44
441.6	82.44
441.822	101.44
442.043	92.44
442.264	96.44
442.486	96.44
442.707	108.44
442.928	110.44
443.149	138.44
443.371	124.44
443.592	94.44
443.813	116.44
444.034	112.44
444.255	101.44
444.476	88.44
444.698	87.44
444.919	84.44
445.14	138.44
445.361	125.44
445.582	133.44
445.803	120.44
446.024	126.44
446.245	128.44
446.466	114.44
446.687	96.44
446.908	81.44
447.129	84.44
447.35	88.44
447.571	89.44
447.792	89.44
448.013	97.44
448.234	104.44
448.455	104.44
448.675	109.44
448.896	108.44
449.117	111.44
449.338	97.44
449.559	131.44
449.779	134.44
450	101.44
450.221	87.44
450.442	95.44
450.662	95.44
450.883	101.44
451.104	107.44
451.324	88.44
451.545	94.44
451.766	89.44
451.986	95.44
452.207	99.44
452.428	94.44
452.648	103.44
452.869	117.44
453.089	102.44
453.31	110.44
453.53	94.44
453.751	77.44
453.971	105.44
454.192	110.44
454.412	91.44
454.633	90.44
454.853	87.44
455.073	89.44
455.294	90.44
455.514	87.44
455.734	84.44
455.955	74.44
456.175	88.44
456.395	80.44
456.616	76.44
456.836	101.44
457.056	90.44
457.276	101.44
457.497	68.44
457.717	84.44
457.937	75.44
458.157	89.44
458.377	84.44
458.598	93.44
458.818	146.44
459.038	149.44
459.258	104.44
459.478	88.44
459.698	81.44
459.918	85.44
460.138	90.44
460.358	77.44
460.578	85.44
460.798	79.44
461.018	88.44
461.238	95.44
461.458	84.44
461.678	80.44
461.898	90.44
462.118	79.44
462.338	97.44
462.558	95.44
462.777	95.44
462.997	103.44
463.217	70.44
463.437	89.44
463.657	76.44
463.876	94.44
464.096	99.44
464.316	85.44
464.536	93.44
464.755	88.44
464.975	110.44
465.195	162.44
465.414	132.44
465.634	96.44
465.854	78.44
466.073	87.44
466.293	77.44
466.512	85.44
466.732	99.44
466.951	95.44
467.171	90.44
467.391	81.44
467.61	98.44
467.829	90.44
468.049	91.44
468.268	92.44
468.488	89.44
468.707	101.44
468.927	98.44
469.146	89.44
469.365	93.44
469.585	75.44
469.804	97.44
470.023	96.44
470.243	98.44
470.462	91.44
470.681	108.44
470.901	80.44
471.12	99.44
471.339	81.44
471.558	95.44
471.777	98.44
471.997	95.44
472.216	80.44
472.435	101.44
472.654	83.44
472.873	93.44
473.092	90.44
473.311	93.44
473.53	96.44
473.749	94.44
473.968	107.44
474.187	101.44
474.406	85.44
474.625	98.44
474.844	91.44
475.063	86.44
475.282	86.44
475.501	87.44
475.72	89.44
475.939	102.44
476.158	90.44
476.377	80.44
476.596	80.44
476.814	84.44
477.033	96.44
477.252	90.44
477.471	90.44
477.69	81.44
477.908	86.44
478.127	81.44
478.346	86.44
478.564	84.44
478.783	93.44
479.002	98.44
479.22	81.44
479.439	80.44
479.658	93.44
479.876	94.44
480.095	93.44
480.313	93.44
480.532	93.44
480.751	81.44
480.969	94.44
481.188	110.44
481.406	113.44
481.624	88.44
481.843	97.44
482.061	92.44
482.28	100.44
482.498	82.44
482.717	100.44
482.935	84.44
483.153	93.44
483.372	89.44
483.59	80.44
483.808	82.44
484.027	99.44
484.245	97.44
484.463	81.44
484.681	96.44
484.9	101.44
485.118	87.44
485.336	94.44
485.554	90.44
485.772	95.44
485.99	108.44
486.209	92.44
486.427	101.44
486.645	102.44
486.863	110.44
487.081	95.44
487.299	96.44
487.517	102.44
487.735	88.44
487.953	81.44
488.171	99.44
488.389	112.44
488.607	97.44
488.825	94.44
489.043	74.44
489.261	92.44
489.479	88.44
489.696	96.44
489.914	77.44
490.132	88.44
490.35	94.44
490.568	95.44
490.786	111.44
491.003	100.44
491.221	106.44
491.439	99.44
491.657	92.44
491.874	92.44
492.092	85.44
492.31	79.44
492.527	86.44
492.745	104.44
492.963	94.44
493.18	103.44
493.398	97.44
493.615	100.44
493.833	96.44
494.05	100.44
494.268	80.44
494.485	91.44
494.703	101.44
494.92	91.44
495.138	92.44
495.355	86.44
495.573	96.44
495.79	97.44
496.008	93.44
496.225	91.44
496.442	93.44
496.66	96.44
496.877	84.44
497.094	93.44
497.312	78.44
497.529	99.44
497.746	83.44
497.963	79.44
498.181	86.44
498.398	106.44
498.615	111.44
498.832	100.44
499.049	96.44
499.267	99.44
499.484	96.44
499.701	95.44
499.918	93.44
500.135	84.44
500.352	84.44
500.569	90.44
500.786	96.44
501.003	98.44
501.22	89.44
501.437	97.44
501.654	103.44
501.871	89.44
502.088	95.44
502.305	83.44
502.522	78.44
502.739	102.44
502.956	84.44
503.172	84.44
503.389	94.44
503.606	93.44
503.823	83.44
504.04	93.44
504.256	81.44
504.473	95.44
504.69	98.44
504.907	102.44
505.123	97.44
505.34	97.44
505.557	97.44
505.773	105.44
505.99	95.44
506.207	93.44
506.423	95.44
506.64	104.44
506.856	93.44
507.073	99.44
507.289	109.44
507.506	86.44
507.722	100.44
507.939	101.44
508.155	96.44
508.372	91.44
508.588	86.44
508.805	97.44
509.021	88.44
509.238	114.44
509.454	105.44
509.67	103.44
509.887	106.44
510.103	137.44
510.319	200.44
510.536	702.44
510.752	2096.44
510.968	578.44
511.184	151.44
511.401	109.44
511.617	97.44
511.833	106.44
512.049	94.44
512.265	114.44
512.481	89.44
512.698	91.44
512.914	89.44
513.13	90.44
513.346	96.44
513.562	100.44
513.778	88.44
513.994	98.44
514.21	107.44
514.426	106.44
514.642	131.44
514.858	129.44
515.074	162.44
