Data from Uncirc_2005_H10_HRD10591_00085.txt Node
Date: Wed Jan 03 10:28:41 EST 2024
User: Yrep
Spectrometer: HR+D1059
Trigger mode: 1
Integration Time (sec): 1.000000E-1
Scans to average: 1
Electric dark correction enabled: true
Nonlinearity correction enabled: false
Boxcar width: 0
XAxis mode: Wavelengths
Number of Pixels in Spectrum: 2048
>>>>>Begin Spectral Data<<<<<
223.165	-19.12
223.4	-19.12
223.635	-19.12
223.869	-27.12
224.104	-33.12
224.338	-8.12
224.573	-6.12
224.808	-14.12
225.042	-20.12
225.277	-2.12
225.511	-3.12
225.746	4.88
225.98	7.88
226.215	11.88
226.449	15.88
226.683	29.88
226.918	33.88
227.152	28.88
227.387	26.88
227.621	39.88
227.856	45.88
228.09	32.88
228.324	47.88
228.559	50.88
228.793	57.88
229.027	70.88
229.262	77.88
229.496	81.88
229.73	73.88
229.964	89.88
230.199	73.88
230.433	93.88
230.667	83.88
230.901	93.88
231.136	72.88
231.37	94.88
231.604	90.88
231.838	73.88
232.072	87.88
232.306	88.88
232.541	83.88
232.775	79.88
233.009	79.88
233.243	76.88
233.477	79.88
233.711	74.88
233.945	80.88
234.179	86.88
234.413	75.88
234.647	75.88
234.881	81.88
235.115	80.88
235.349	78.88
235.583	80.88
235.817	82.88
236.051	81.88
236.285	78.88
236.519	73.88
236.753	81.88
236.987	86.88
237.221	88.88
237.455	76.88
237.689	84.88
237.922	72.88
238.156	72.88
238.39	68.88
238.624	90.88
238.858	83.88
239.091	86.88
239.325	75.88
239.559	83.88
239.793	72.88
240.027	86.88
240.26	72.88
240.494	79.88
240.728	74.88
240.961	76.88
241.195	79.88
241.429	79.88
241.662	84.88
241.896	75.88
242.13	75.88
242.363	69.88
242.597	75.88
242.83	79.88
243.064	59.88
243.298	73.88
243.531	75.88
243.765	79.88
243.998	73.88
244.232	79.88
244.465	84.88
244.699	68.88
244.932	85.88
245.166	76.88
245.399	78.88
245.633	92.88
245.866	73.88
246.099	70.88
246.333	77.88
246.566	79.88
246.8	85.88
247.033	80.88
247.266	73.88
247.5	80.88
247.733	86.88
247.966	73.88
248.2	80.88
248.433	89.88
248.666	93.88
248.899	79.88
249.133	81.88
249.366	100.88
249.599	96.88
249.832	89.88
250.066	77.88
250.299	77.88
250.532	77.88
250.765	81.88
250.998	71.88
251.231	69.88
251.465	84.88
251.698	70.88
251.931	78.88
252.164	83.88
252.397	75.88
252.63	77.88
252.863	72.88
253.096	97.88
253.329	89.88
253.562	80.88
253.795	80.88
254.028	88.88
254.261	71.88
254.494	85.88
254.727	84.88
254.96	67.88
255.193	75.88
255.426	77.88
255.659	80.88
255.892	75.88
256.124	84.88
256.357	72.88
256.59	66.88
256.823	78.88
257.056	93.88
257.289	91.88
257.521	83.88
257.754	78.88
257.987	79.88
258.22	92.88
258.452	75.88
258.685	72.88
258.918	81.88
259.151	88.88
259.383	81.88
259.616	89.88
259.849	91.88
260.081	83.88
260.314	81.88
260.547	81.88
260.779	86.88
261.012	96.88
261.244	87.88
261.477	80.88
261.71	86.88
261.942	97.88
262.175	105.88
262.407	75.88
262.64	80.88
262.872	92.88
263.105	95.88
263.337	87.88
263.57	77.88
263.802	79.88
264.035	74.88
264.267	73.88
264.499	78.88
264.732	92.88
264.964	85.88
265.197	83.88
265.429	81.88
265.661	76.88
265.894	88.88
266.126	80.88
266.358	80.88
266.591	68.88
266.823	85.88
267.055	81.88
267.287	90.88
267.52	84.88
267.752	81.88
267.984	89.88
268.216	89.88
268.448	93.88
268.681	78.88
268.913	75.88
269.145	76.88
269.377	87.88
269.609	72.88
269.841	75.88
270.073	78.88
270.306	88.88
270.538	85.88
270.77	88.88
271.002	93.88
271.234	77.88
271.466	100.88
271.698	92.88
271.93	74.88
272.162	81.88
272.394	71.88
272.626	97.88
272.858	85.88
273.09	94.88
273.322	83.88
273.553	80.88
273.785	73.88
274.017	77.88
274.249	85.88
274.481	71.88
274.713	75.88
274.945	86.88
275.176	97.88
275.408	93.88
275.64	85.88
275.872	90.88
276.104	79.88
276.335	100.88
276.567	97.88
276.799	104.88
277.031	93.88
277.262	80.88
277.494	87.88
277.726	91.88
277.957	85.88
278.189	99.88
278.421	85.88
278.652	84.88
278.884	86.88
279.115	91.88
279.347	97.88
279.579	85.88
279.81	86.88
280.042	99.88
280.273	84.88
280.505	87.88
280.736	87.88
280.968	73.88
281.199	75.88
281.431	86.88
281.662	100.88
281.894	80.88
282.125	100.88
282.356	109.88
282.588	122.88
282.819	91.88
283.051	85.88
283.282	87.88
283.513	97.88
283.745	89.88
283.976	93.88
284.207	84.88
284.439	81.88
284.67	77.88
284.901	84.88
285.132	96.88
285.364	89.88
285.595	87.88
285.826	89.88
286.057	100.88
286.288	95.88
286.52	77.88
286.751	103.88
286.982	85.88
287.213	89.88
287.444	88.88
287.675	94.88
287.906	84.88
288.138	81.88
288.369	89.88
288.6	84.88
288.831	83.88
289.062	86.88
289.293	97.88
289.524	83.88
289.755	86.88
289.986	81.88
290.217	93.88
290.448	81.88
290.679	97.88
290.91	91.88
291.141	82.88
291.371	89.88
291.602	80.88
291.833	67.88
292.064	81.88
292.295	81.88
292.526	95.88
292.757	85.88
292.987	86.88
293.218	80.88
293.449	87.88
293.68	88.88
293.91	78.88
294.141	93.88
294.372	75.88
294.603	84.88
294.833	80.88
295.064	82.88
295.295	92.88
295.525	83.88
295.756	112.88
295.987	93.88
296.217	125.88
296.448	123.88
296.679	91.88
296.909	89.88
297.14	85.88
297.37	87.88
297.601	86.88
297.831	86.88
298.062	91.88
298.292	95.88
298.523	70.88
298.753	83.88
298.984	83.88
299.214	88.88
299.445	95.88
299.675	106.88
299.905	85.88
300.136	91.88
300.366	95.88
300.597	88.88
300.827	104.88
301.057	92.88
301.288	98.88
301.518	92.88
301.748	79.88
301.979	107.88
302.209	85.88
302.439	101.88
302.669	76.88
302.9	88.88
303.13	92.88
303.36	91.88
303.59	83.88
303.82	91.88
304.051	90.88
304.281	93.88
304.511	91.88
304.741	80.88
304.971	99.88
305.201	91.88
305.431	100.88
305.661	95.88
305.891	87.88
306.121	96.88
306.352	104.88
306.582	96.88
306.812	90.88
307.042	73.88
307.272	94.88
307.502	93.88
307.731	106.88
307.961	81.88
308.191	92.88
308.421	77.88
308.651	84.88
308.881	99.88
309.111	102.88
309.341	108.88
309.571	108.88
309.8	103.88
310.03	83.88
310.26	80.88
310.49	92.88
310.72	90.88
310.949	95.88
311.179	111.88
311.409	99.88
311.639	104.88
311.868	90.88
312.098	99.88
312.328	94.88
312.557	85.88
312.787	82.88
313.017	87.88
313.246	92.88
313.476	87.88
313.706	97.88
313.935	92.88
314.165	85.88
314.394	86.88
314.624	83.88
314.853	105.88
315.083	94.88
315.312	81.88
315.542	91.88
315.771	108.88
316.001	87.88
316.23	91.88
316.46	81.88
316.689	85.88
316.919	101.88
317.148	87.88
317.377	88.88
317.607	86.88
317.836	90.88
318.065	93.88
318.295	83.88
318.524	106.88
318.753	97.88
318.983	87.88
319.212	119.88
319.441	88.88
319.67	92.88
319.9	105.88
320.129	86.88
320.358	88.88
320.587	88.88
320.816	96.88
321.046	118.88
321.275	104.88
321.504	93.88
321.733	100.88
321.962	107.88
322.191	104.88
322.42	100.88
322.649	100.88
322.878	109.88
323.108	121.88
323.337	114.88
323.566	130.88
323.795	146.88
324.024	217.88
324.253	411.88
324.482	845.88
324.71	1738.88
324.939	2209.88
325.168	806.88
325.397	246.88
325.626	149.88
325.855	126.88
326.084	139.88
326.313	128.88
326.542	161.88
326.77	224.88
326.999	480.88
327.228	991.88
327.457	1783.88
327.686	1383.88
327.914	375.88
328.143	184.88
328.372	160.88
328.6	114.88
328.829	112.88
329.058	112.88
329.287	123.88
329.515	107.88
329.744	98.88
329.972	110.88
330.201	96.88
330.43	100.88
330.658	115.88
330.887	126.88
331.115	110.88
331.344	103.88
331.572	97.88
331.801	113.88
332.03	115.88
332.258	101.88
332.486	81.88
332.715	90.88
332.943	87.88
333.172	98.88
333.4	96.88
333.629	99.88
333.857	106.88
334.085	110.88
334.314	89.88
334.542	104.88
334.771	87.88
334.999	86.88
335.227	92.88
335.455	99.88
335.684	87.88
335.912	99.88
336.14	104.88
336.369	87.88
336.597	88.88
336.825	109.88
337.053	87.88
337.281	89.88
337.51	95.88
337.738	105.88
337.966	86.88
338.194	90.88
338.422	85.88
338.65	99.88
338.878	96.88
339.106	99.88
339.334	96.88
339.562	94.88
339.79	92.88
340.018	96.88
340.246	77.88
340.474	84.88
340.702	104.88
340.93	84.88
341.158	90.88
341.386	107.88
341.614	107.88
341.842	95.88
342.07	87.88
342.298	91.88
342.526	84.88
342.754	89.88
342.981	79.88
343.209	91.88
343.437	103.88
343.665	82.88
343.893	86.88
344.12	91.88
344.348	86.88
344.576	98.88
344.804	90.88
345.031	93.88
345.259	98.88
345.487	97.88
345.714	94.88
345.942	99.88
346.17	93.88
346.397	87.88
346.625	86.88
346.853	90.88
347.08	105.88
347.308	99.88
347.535	100.88
347.763	102.88
347.99	104.88
348.218	98.88
348.445	90.88
348.673	95.88
348.9	80.88
349.128	88.88
349.355	99.88
349.583	92.88
349.81	97.88
350.037	84.88
350.265	99.88
350.492	102.88
350.72	100.88
350.947	96.88
351.174	111.88
351.402	108.88
351.629	95.88
351.856	110.88
352.083	107.88
352.311	98.88
352.538	102.88
352.765	88.88
352.992	111.88
353.22	102.88
353.447	106.88
353.674	102.88
353.901	102.88
354.128	94.88
354.355	99.88
354.583	97.88
354.81	84.88
355.037	96.88
355.264	87.88
355.491	102.88
355.718	111.88
355.945	111.88
356.172	96.88
356.399	84.88
356.626	85.88
356.853	99.88
357.08	85.88
357.307	90.88
357.534	100.88
357.761	90.88
357.988	92.88
358.215	80.88
358.441	88.88
358.668	91.88
358.895	96.88
359.122	102.88
359.349	82.88
359.576	97.88
359.802	104.88
360.029	100.88
360.256	114.88
360.483	107.88
360.709	99.88
360.936	93.88
361.163	99.88
361.39	99.88
361.616	94.88
361.843	98.88
362.07	89.88
362.296	105.88
362.523	96.88
362.749	102.88
362.976	101.88
363.203	93.88
363.429	81.88
363.656	94.88
363.882	92.88
364.109	77.88
364.335	103.88
364.562	79.88
364.788	77.88
365.015	87.88
365.241	94.88
365.468	94.88
365.694	97.88
365.92	100.88
366.147	79.88
366.373	85.88
366.599	93.88
366.826	83.88
367.052	83.88
367.278	87.88
367.505	83.88
367.731	87.88
367.957	96.88
368.184	93.88
368.41	85.88
368.636	111.88
368.862	124.88
369.089	109.88
369.315	88.88
369.541	94.88
369.767	93.88
369.993	91.88
370.219	90.88
370.445	83.88
370.672	92.88
370.898	94.88
371.124	84.88
371.35	93.88
371.576	95.88
371.802	79.88
372.028	91.88
372.254	88.88
372.48	80.88
372.706	78.88
372.932	89.88
373.158	77.88
373.384	95.88
373.61	87.88
373.835	83.88
374.061	83.88
374.287	97.88
374.513	88.88
374.739	83.88
374.965	93.88
375.191	99.88
375.416	88.88
375.642	91.88
375.868	73.88
376.094	86.88
376.319	104.88
376.545	89.88
376.771	89.88
376.997	92.88
377.222	95.88
377.448	100.88
377.674	103.88
377.899	82.88
378.125	99.88
378.35	80.88
378.576	86.88
378.802	84.88
379.027	88.88
379.253	97.88
379.478	82.88
379.704	93.88
379.929	82.88
380.155	83.88
380.38	95.88
380.606	90.88
380.831	79.88
381.057	97.88
381.282	102.88
381.507	95.88
381.733	88.88
381.958	84.88
382.184	101.88
382.409	104.88
382.634	103.88
382.86	95.88
383.085	83.88
383.31	102.88
383.535	106.88
383.761	91.88
383.986	110.88
384.211	88.88
384.436	92.88
384.662	106.88
384.887	100.88
385.112	92.88
385.337	101.88
385.562	108.88
385.787	98.88
386.013	129.88
386.238	121.88
386.463	107.88
386.688	97.88
386.913	92.88
387.138	99.88
387.363	91.88
387.588	95.88
387.813	108.88
388.038	111.88
388.263	97.88
388.488	104.88
388.713	94.88
388.938	96.88
389.163	83.88
389.387	104.88
389.612	101.88
389.837	98.88
390.062	98.88
390.287	93.88
390.512	98.88
390.736	90.88
390.961	93.88
391.186	88.88
391.411	90.88
391.636	83.88
391.86	78.88
392.085	79.88
392.31	80.88
392.534	71.88
392.759	90.88
392.984	85.88
393.208	83.88
393.433	88.88
393.658	91.88
393.882	88.88
394.107	95.88
394.331	80.88
394.556	83.88
394.78	83.88
395.005	91.88
395.229	94.88
395.454	99.88
395.678	86.88
395.903	88.88
396.127	92.88
396.352	94.88
396.576	84.88
396.801	91.88
397.025	73.88
397.249	64.88
397.474	79.88
397.698	75.88
397.922	86.88
398.147	96.88
398.371	85.88
398.595	93.88
398.82	77.88
399.044	86.88
399.268	95.88
399.492	89.88
399.717	108.88
399.941	96.88
400.165	99.88
400.389	80.88
400.613	83.88
400.837	75.88
401.062	81.88
401.286	82.88
401.51	92.88
401.734	91.88
401.958	107.88
402.182	128.88
402.406	153.88
402.63	117.88
402.854	89.88
403.078	81.88
403.302	93.88
403.526	83.88
403.75	80.88
403.974	81.88
404.198	93.88
404.422	76.88
404.645	93.88
404.869	92.88
405.093	107.88
405.317	97.88
405.541	88.88
405.765	96.88
405.988	108.88
406.212	155.88
406.436	219.88
406.66	139.88
406.883	108.88
407.107	99.88
407.331	105.88
407.555	119.88
407.778	98.88
408.002	94.88
408.226	85.88
408.449	81.88
408.673	91.88
408.896	83.88
409.12	91.88
409.344	80.88
409.567	88.88
409.791	95.88
410.014	96.88
410.238	82.88
410.461	88.88
410.685	102.88
410.908	99.88
411.132	103.88
411.355	103.88
411.578	84.88
411.802	84.88
412.025	92.88
412.249	86.88
412.472	95.88
412.695	82.88
412.919	101.88
413.142	93.88
413.365	92.88
413.589	91.88
413.812	88.88
414.035	93.88
414.258	88.88
414.482	75.88
414.705	88.88
414.928	91.88
415.151	100.88
415.374	96.88
415.597	88.88
415.821	90.88
416.044	103.88
416.267	86.88
416.49	82.88
416.713	88.88
416.936	108.88
417.159	79.88
417.382	76.88
417.605	89.88
417.828	83.88
418.051	92.88
418.274	81.88
418.497	87.88
418.72	94.88
418.943	101.88
419.166	93.88
419.389	93.88
419.611	88.88
419.834	101.88
420.057	83.88
420.28	95.88
420.503	98.88
420.726	84.88
420.948	82.88
421.171	103.88
421.394	99.88
421.617	108.88
421.839	92.88
422.062	88.88
422.285	93.88
422.507	96.88
422.73	98.88
422.953	111.88
423.175	99.88
423.398	95.88
423.621	83.88
423.843	89.88
424.066	81.88
424.288	101.88
424.511	91.88
424.733	103.88
424.956	117.88
425.178	110.88
425.401	104.88
425.623	107.88
425.846	83.88
426.068	91.88
426.291	103.88
426.513	105.88
426.735	95.88
426.958	81.88
427.18	105.88
427.402	144.88
427.625	163.88
427.847	135.88
428.069	100.88
428.292	85.88
428.514	90.88
428.736	64.88
428.958	91.88
429.181	83.88
429.403	84.88
429.625	73.88
429.847	85.88
430.069	109.88
430.292	85.88
430.514	94.88
430.736	95.88
430.958	87.88
431.18	104.88
431.402	72.88
431.624	89.88
431.846	93.88
432.068	83.88
432.29	92.88
432.512	89.88
432.734	81.88
432.956	90.88
433.178	95.88
433.4	89.88
433.622	72.88
433.844	90.88
434.066	86.88
434.287	92.88
434.509	81.88
434.731	89.88
434.953	89.88
435.175	91.88
435.397	96.88
435.618	92.88
435.84	104.88
436.062	116.88
436.284	108.88
436.505	108.88
436.727	95.88
436.949	104.88
437.17	100.88
437.392	99.88
437.614	89.88
437.835	116.88
438.057	95.88
438.278	105.88
438.5	109.88
438.721	125.88
438.943	93.88
439.165	89.88
439.386	82.88
439.608	86.88
439.829	90.88
440.05	118.88
440.272	124.88
440.493	89.88
440.715	91.88
440.936	88.88
441.158	85.88
441.379	89.88
441.6	96.88
441.822	88.88
442.043	100.88
442.264	114.88
442.486	97.88
442.707	98.88
442.928	110.88
443.149	115.88
443.371	134.88
443.592	107.88
443.813	110.88
444.034	110.88
444.255	93.88
444.476	86.88
444.698	70.88
444.919	102.88
445.14	133.88
445.361	133.88
445.582	99.88
445.803	131.88
446.024	130.88
446.245	139.88
446.466	111.88
446.687	101.88
446.908	102.88
447.129	76.88
447.35	85.88
447.571	99.88
447.792	87.88
448.013	100.88
448.234	103.88
448.455	100.88
448.675	103.88
448.896	112.88
449.117	93.88
449.338	99.88
449.559	136.88
449.779	136.88
450	96.88
450.221	99.88
450.442	95.88
450.662	100.88
450.883	109.88
451.104	94.88
451.324	104.88
451.545	94.88
451.766	72.88
451.986	87.88
452.207	103.88
452.428	102.88
452.648	105.88
452.869	111.88
453.089	106.88
453.31	99.88
453.53	105.88
453.751	89.88
453.971	102.88
454.192	103.88
454.412	89.88
454.633	93.88
454.853	81.88
455.073	80.88
455.294	93.88
455.514	109.88
455.734	84.88
455.955	95.88
456.175	69.88
456.395	72.88
456.616	95.88
456.836	103.88
457.056	92.88
457.276	96.88
457.497	93.88
457.717	99.88
457.937	88.88
458.157	89.88
458.377	93.88
458.598	107.88
458.818	145.88
459.038	151.88
459.258	103.88
459.478	94.88
459.698	95.88
459.918	76.88
460.138	94.88
460.358	92.88
460.578	86.88
460.798	92.88
461.018	72.88
461.238	77.88
461.458	85.88
461.678	82.88
461.898	93.88
462.118	88.88
462.338	77.88
462.558	79.88
462.777	79.88
462.997	98.88
463.217	91.88
463.437	77.88
463.657	86.88
463.876	90.88
464.096	97.88
464.316	100.88
464.536	99.88
464.755	93.88
464.975	106.88
465.195	160.88
465.414	152.88
465.634	112.88
465.854	91.88
466.073	80.88
466.293	93.88
466.512	68.88
466.732	95.88
466.951	87.88
467.171	94.88
467.391	88.88
467.61	112.88
467.829	94.88
468.049	86.88
468.268	89.88
468.488	105.88
468.707	92.88
468.927	88.88
469.146	83.88
469.365	79.88
469.585	88.88
469.804	75.88
470.023	103.88
470.243	89.88
470.462	89.88
470.681	111.88
470.901	82.88
471.12	77.88
471.339	77.88
471.558	78.88
471.777	100.88
471.997	80.88
472.216	94.88
472.435	77.88
472.654	95.88
472.873	97.88
473.092	91.88
473.311	87.88
473.53	91.88
473.749	80.88
473.968	99.88
474.187	106.88
474.406	106.88
474.625	89.88
474.844	88.88
475.063	93.88
475.282	89.88
475.501	103.88
475.72	101.88
475.939	89.88
476.158	86.88
476.377	88.88
476.596	107.88
476.814	83.88
477.033	85.88
477.252	96.88
477.471	89.88
477.69	79.88
477.908	84.88
478.127	91.88
478.346	81.88
478.564	93.88
478.783	95.88
479.002	92.88
479.22	83.88
479.439	86.88
479.658	113.88
479.876	91.88
480.095	85.88
480.313	93.88
480.532	101.88
480.751	97.88
480.969	91.88
481.188	104.88
481.406	102.88
481.624	91.88
481.843	99.88
482.061	88.88
482.28	96.88
482.498	100.88
482.717	94.88
482.935	97.88
483.153	87.88
483.372	92.88
483.59	95.88
483.808	91.88
484.027	87.88
484.245	88.88
484.463	83.88
484.681	94.88
484.9	100.88
485.118	98.88
485.336	94.88
485.554	100.88
485.772	107.88
485.99	92.88
486.209	94.88
486.427	93.88
486.645	117.88
486.863	116.88
487.081	107.88
487.299	95.88
487.517	76.88
487.735	99.88
487.953	87.88
488.171	106.88
488.389	100.88
488.607	88.88
488.825	84.88
489.043	85.88
489.261	89.88
489.479	84.88
489.696	104.88
489.914	89.88
490.132	95.88
490.35	93.88
490.568	91.88
490.786	86.88
491.003	86.88
491.221	91.88
491.439	98.88
491.657	100.88
491.874	100.88
492.092	92.88
492.31	103.88
492.527	80.88
492.745	84.88
492.963	74.88
493.18	94.88
493.398	97.88
493.615	100.88
493.833	109.88
494.05	96.88
494.268	86.88
494.485	93.88
494.703	101.88
494.92	95.88
495.138	94.88
495.355	84.88
495.573	93.88
495.79	91.88
496.008	91.88
496.225	89.88
496.442	84.88
496.66	103.88
496.877	89.88
497.094	102.88
497.312	74.88
497.529	115.88
497.746	97.88
497.963	89.88
498.181	97.88
498.398	94.88
498.615	97.88
498.832	93.88
499.049	87.88
499.267	96.88
499.484	100.88
499.701	89.88
499.918	91.88
500.135	87.88
500.352	83.88
500.569	96.88
500.786	95.88
501.003	108.88
501.22	103.88
501.437	91.88
501.654	104.88
501.871	92.88
502.088	78.88
502.305	73.88
502.522	87.88
502.739	89.88
502.956	96.88
503.172	108.88
503.389	101.88
503.606	98.88
503.823	96.88
504.04	89.88
504.256	87.88
504.473	82.88
504.69	81.88
504.907	94.88
505.123	89.88
505.34	92.88
505.557	75.88
505.773	100.88
505.99	84.88
506.207	99.88
506.423	95.88
506.64	87.88
506.856	83.88
507.073	82.88
507.289	81.88
507.506	89.88
507.722	95.88
507.939	112.88
508.155	113.88
508.372	95.88
508.588	78.88
508.805	80.88
509.021	110.88
509.238	99.88
509.454	99.88
509.67	100.88
509.887	103.88
510.103	135.88
510.319	207.88
510.536	693.88
510.752	2219.88
510.968	629.88
511.184	153.88
511.401	128.88
511.617	114.88
511.833	92.88
512.049	91.88
512.265	78.88
512.481	80.88
512.698	99.88
512.914	107.88
513.13	95.88
513.346	98.88
513.562	97.88
513.778	102.88
513.994	103.88
514.21	95.88
514.426	106.88
514.642	130.88
514.858	122.88
515.074	165.88
515.29	414.88
515.506	1391.88
515.721	514.88
