Data from Uncirc_2005_H10_HRD10591_00076.txt Node
Date: Wed Jan 03 10:28:40 EST 2024
User: Yrep
Spectrometer: HR+D1059
Trigger mode: 1
Integration Time (sec): 1.000000E-1
Scans to average: 1
Electric dark correction enabled: true
Nonlinearity correction enabled: false
Boxcar width: 0
XAxis mode: Wavelengths
Number of Pixels in Spectrum: 2048
>>>>>Begin Spectral Data<<<<<
223.165	-20.19
223.4	-20.19
223.635	-20.19
223.869	-26.19
224.104	-21.19
224.338	-17.19
224.573	-10.19
224.808	-4.19
225.042	0.81
225.277	-4.19
225.511	5.81
225.746	-1.19
225.98	3.81
226.215	4.81
226.449	18.81
226.683	19.81
226.918	19.81
227.152	30.81
227.387	35.81
227.621	30.81
227.856	52.81
228.09	52.81
228.324	50.81
228.559	64.81
228.793	42.81
229.027	63.81
229.262	71.81
229.496	67.81
229.73	76.81
229.964	79.81
230.199	92.81
230.433	71.81
230.667	74.81
230.901	76.81
231.136	69.81
231.37	83.81
231.604	78.81
231.838	78.81
232.072	77.81
232.306	71.81
232.541	78.81
232.775	85.81
233.009	83.81
233.243	81.81
233.477	83.81
233.711	72.81
233.945	85.81
234.179	75.81
234.413	80.81
234.647	67.81
234.881	91.81
235.115	89.81
235.349	83.81
235.583	78.81
235.817	72.81
236.051	69.81
236.285	73.81
236.519	73.81
236.753	84.81
236.987	78.81
237.221	89.81
237.455	88.81
237.689	69.81
237.922	81.81
238.156	79.81
238.39	63.81
238.624	83.81
238.858	84.81
239.091	85.81
239.325	85.81
239.559	94.81
239.793	71.81
240.027	83.81
240.26	84.81
240.494	84.81
240.728	86.81
240.961	75.81
241.195	73.81
241.429	88.81
241.662	70.81
241.896	70.81
242.13	70.81
242.363	64.81
242.597	71.81
242.83	79.81
243.064	76.81
243.298	85.81
243.531	75.81
243.765	87.81
243.998	81.81
244.232	72.81
244.465	91.81
244.699	82.81
244.932	83.81
245.166	81.81
245.399	77.81
245.633	83.81
245.866	84.81
246.099	79.81
246.333	80.81
246.566	65.81
246.8	87.81
247.033	81.81
247.266	71.81
247.5	86.81
247.733	82.81
247.966	70.81
248.2	80.81
248.433	79.81
248.666	87.81
248.899	73.81
249.133	93.81
249.366	89.81
249.599	94.81
249.832	87.81
250.066	80.81
250.299	80.81
250.532	84.81
250.765	78.81
250.998	73.81
251.231	72.81
251.465	74.81
251.698	71.81
251.931	89.81
252.164	83.81
252.397	85.81
252.63	67.81
252.863	89.81
253.096	79.81
253.329	72.81
253.562	85.81
253.795	76.81
254.028	92.81
254.261	65.81
254.494	79.81
254.727	85.81
254.96	88.81
255.193	79.81
255.426	75.81
255.659	85.81
255.892	61.81
256.124	72.81
256.357	83.81
256.59	76.81
256.823	80.81
257.056	76.81
257.289	93.81
257.521	76.81
257.754	76.81
257.987	85.81
258.22	79.81
258.452	79.81
258.685	80.81
258.918	89.81
259.151	78.81
259.383	93.81
259.616	85.81
259.849	84.81
260.081	74.81
260.314	85.81
260.547	93.81
260.779	89.81
261.012	80.81
261.244	76.81
261.477	87.81
261.71	90.81
261.942	107.81
262.175	119.81
262.407	87.81
262.64	83.81
262.872	95.81
263.105	74.81
263.337	86.81
263.57	87.81
263.802	75.81
264.035	83.81
264.267	78.81
264.499	75.81
264.732	78.81
264.964	73.81
265.197	79.81
265.429	69.81
265.661	89.81
265.894	89.81
266.126	85.81
266.358	88.81
266.591	83.81
266.823	71.81
267.055	67.81
267.287	86.81
267.52	83.81
267.752	87.81
267.984	85.81
268.216	87.81
268.448	79.81
268.681	81.81
268.913	90.81
269.145	77.81
269.377	92.81
269.609	88.81
269.841	87.81
270.073	91.81
270.306	74.81
270.538	87.81
270.77	81.81
271.002	86.81
271.234	86.81
271.466	83.81
271.698	79.81
271.93	80.81
272.162	88.81
272.394	83.81
272.626	78.81
272.858	84.81
273.09	72.81
273.322	80.81
273.553	91.81
273.785	88.81
274.017	81.81
274.249	80.81
274.481	79.81
274.713	81.81
274.945	85.81
275.176	73.81
275.408	72.81
275.64	65.81
275.872	83.81
276.104	89.81
276.335	86.81
276.567	95.81
276.799	109.81
277.031	94.81
277.262	90.81
277.494	83.81
277.726	94.81
277.957	87.81
278.189	87.81
278.421	84.81
278.652	74.81
278.884	78.81
279.115	92.81
279.347	76.81
279.579	86.81
279.81	76.81
280.042	87.81
280.273	97.81
280.505	85.81
280.736	86.81
280.968	85.81
281.199	89.81
281.431	89.81
281.662	100.81
281.894	91.81
282.125	83.81
282.356	104.81
282.588	137.81
282.819	107.81
283.051	87.81
283.282	83.81
283.513	107.81
283.745	80.81
283.976	70.81
284.207	92.81
284.439	75.81
284.67	91.81
284.901	73.81
285.132	89.81
285.364	83.81
285.595	85.81
285.826	92.81
286.057	79.81
286.288	93.81
286.52	87.81
286.751	77.81
286.982	85.81
287.213	78.81
287.444	98.81
287.675	106.81
287.906	95.81
288.138	95.81
288.369	95.81
288.6	86.81
288.831	98.81
289.062	87.81
289.293	87.81
289.524	89.81
289.755	90.81
289.986	89.81
290.217	86.81
290.448	92.81
290.679	83.81
290.91	81.81
291.141	85.81
291.371	80.81
291.602	84.81
291.833	86.81
292.064	83.81
292.295	86.81
292.526	100.81
292.757	94.81
292.987	87.81
293.218	87.81
293.449	85.81
293.68	94.81
293.91	92.81
294.141	85.81
294.372	95.81
294.603	105.81
294.833	97.81
295.064	81.81
295.295	80.81
295.525	86.81
295.756	97.81
295.987	111.81
296.217	131.81
296.448	109.81
296.679	105.81
296.909	86.81
297.14	75.81
297.37	74.81
297.601	87.81
297.831	100.81
298.062	87.81
298.292	83.81
298.523	89.81
298.753	78.81
298.984	84.81
299.214	90.81
299.445	87.81
299.675	96.81
299.905	95.81
300.136	101.81
300.366	90.81
300.597	81.81
300.827	88.81
301.057	86.81
301.288	98.81
301.518	79.81
301.748	89.81
301.979	96.81
302.209	88.81
302.439	90.81
302.669	103.81
302.9	95.81
303.13	87.81
303.36	91.81
303.59	96.81
303.82	100.81
304.051	95.81
304.281	99.81
304.511	90.81
304.741	82.81
304.971	83.81
305.201	93.81
305.431	91.81
305.661	84.81
305.891	96.81
306.121	115.81
306.352	93.81
306.582	95.81
306.812	85.81
307.042	99.81
307.272	92.81
307.502	97.81
307.731	95.81
307.961	84.81
308.191	82.81
308.421	92.81
308.651	84.81
308.881	110.81
309.111	95.81
309.341	91.81
309.571	97.81
309.8	108.81
310.03	103.81
310.26	100.81
310.49	89.81
310.72	91.81
310.949	99.81
311.179	98.81
311.409	95.81
311.639	103.81
311.868	99.81
312.098	91.81
312.328	95.81
312.557	106.81
312.787	98.81
313.017	101.81
313.246	93.81
313.476	107.81
313.706	86.81
313.935	101.81
314.165	105.81
314.394	103.81
314.624	103.81
314.853	79.81
315.083	85.81
315.312	94.81
315.542	94.81
315.771	99.81
316.001	98.81
316.23	88.81
316.46	76.81
316.689	93.81
316.919	96.81
317.148	96.81
317.377	92.81
317.607	88.81
317.836	95.81
318.065	88.81
318.295	92.81
318.524	88.81
318.753	96.81
318.983	90.81
319.212	104.81
319.441	104.81
319.67	99.81
319.9	101.81
320.129	101.81
320.358	90.81
320.587	92.81
320.816	85.81
321.046	100.81
321.275	92.81
321.504	89.81
321.733	88.81
321.962	97.81
322.191	96.81
322.42	111.81
322.649	88.81
322.878	108.81
323.108	115.81
323.337	123.81
323.566	140.81
323.795	148.81
324.024	206.81
324.253	398.81
324.482	820.81
324.71	1712.81
324.939	2160.81
325.168	770.81
325.397	237.81
325.626	145.81
325.855	135.81
326.084	123.81
326.313	128.81
326.542	148.81
326.77	252.81
326.999	469.81
327.228	960.81
327.457	1704.81
327.686	1316.81
327.914	354.81
328.143	170.81
328.372	139.81
328.6	115.81
328.829	126.81
329.058	120.81
329.287	116.81
329.515	110.81
329.744	102.81
329.972	107.81
330.201	109.81
330.43	99.81
330.658	111.81
330.887	127.81
331.115	107.81
331.344	100.81
331.572	102.81
331.801	87.81
332.03	110.81
332.258	88.81
332.486	88.81
332.715	101.81
332.943	91.81
333.172	92.81
333.4	76.81
333.629	104.81
333.857	93.81
334.085	97.81
334.314	96.81
334.542	93.81
334.771	106.81
334.999	95.81
335.227	86.81
335.455	103.81
335.684	86.81
335.912	88.81
336.14	93.81
336.369	101.81
336.597	84.81
336.825	95.81
337.053	101.81
337.281	73.81
337.51	80.81
337.738	99.81
337.966	91.81
338.194	86.81
338.422	94.81
338.65	93.81
338.878	103.81
339.106	91.81
339.334	95.81
339.562	95.81
339.79	94.81
340.018	72.81
340.246	93.81
340.474	88.81
340.702	83.81
340.93	92.81
341.158	104.81
341.386	82.81
341.614	101.81
341.842	88.81
342.07	95.81
342.298	88.81
342.526	78.81
342.754	97.81
342.981	87.81
343.209	87.81
343.437	100.81
343.665	92.81
343.893	82.81
344.12	102.81
344.348	91.81
344.576	89.81
344.804	100.81
345.031	98.81
345.259	99.81
345.487	96.81
345.714	86.81
345.942	92.81
346.17	86.81
346.397	98.81
346.625	97.81
346.853	93.81
347.08	86.81
347.308	115.81
347.535	103.81
347.763	104.81
347.99	99.81
348.218	107.81
348.445	107.81
348.673	89.81
348.9	106.81
349.128	100.81
349.355	90.81
349.583	87.81
349.81	105.81
350.037	103.81
350.265	87.81
350.492	95.81
350.72	92.81
350.947	106.81
351.174	116.81
351.402	113.81
351.629	103.81
351.856	115.81
352.083	100.81
352.311	105.81
352.538	110.81
352.765	120.81
352.992	126.81
353.22	99.81
353.447	111.81
353.674	113.81
353.901	99.81
354.128	99.81
354.355	95.81
354.583	109.81
354.81	115.81
355.037	87.81
355.264	83.81
355.491	73.81
355.718	94.81
355.945	83.81
356.172	98.81
356.399	85.81
356.626	93.81
356.853	77.81
357.08	87.81
357.307	99.81
357.534	89.81
357.761	84.81
357.988	89.81
358.215	90.81
358.441	108.81
358.668	93.81
358.895	94.81
359.122	99.81
359.349	102.81
359.576	96.81
359.802	109.81
360.029	105.81
360.256	108.81
360.483	89.81
360.709	93.81
360.936	106.81
361.163	95.81
361.39	104.81
361.616	84.81
361.843	80.81
362.07	85.81
362.296	92.81
362.523	90.81
362.749	95.81
362.976	88.81
363.203	96.81
363.429	94.81
363.656	90.81
363.882	93.81
364.109	81.81
364.335	92.81
364.562	97.81
364.788	79.81
365.015	86.81
365.241	97.81
365.468	104.81
365.694	107.81
365.92	88.81
366.147	80.81
366.373	82.81
366.599	92.81
366.826	94.81
367.052	90.81
367.278	86.81
367.505	89.81
367.731	89.81
367.957	105.81
368.184	94.81
368.41	105.81
368.636	116.81
368.862	127.81
369.089	99.81
369.315	96.81
369.541	87.81
369.767	85.81
369.993	80.81
370.219	89.81
370.445	95.81
370.672	87.81
370.898	86.81
371.124	92.81
371.35	87.81
371.576	91.81
371.802	107.81
372.028	86.81
372.254	96.81
372.48	93.81
372.706	96.81
372.932	101.81
373.158	88.81
373.384	92.81
373.61	99.81
373.835	89.81
374.061	83.81
374.287	97.81
374.513	86.81
374.739	85.81
374.965	85.81
375.191	82.81
375.416	91.81
375.642	73.81
375.868	93.81
376.094	97.81
376.319	85.81
376.545	81.81
376.771	89.81
376.997	89.81
377.222	95.81
377.448	80.81
377.674	84.81
377.899	90.81
378.125	89.81
378.35	91.81
378.576	97.81
378.802	78.81
379.027	101.81
379.253	91.81
379.478	88.81
379.704	104.81
379.929	96.81
380.155	94.81
380.38	88.81
380.606	116.81
380.831	89.81
381.057	119.81
381.282	101.81
381.507	108.81
381.733	102.81
381.958	86.81
382.184	108.81
382.409	114.81
382.634	102.81
382.86	101.81
383.085	88.81
383.31	106.81
383.535	90.81
383.761	93.81
383.986	105.81
384.211	105.81
384.436	96.81
384.662	94.81
384.887	106.81
385.112	86.81
385.337	90.81
385.562	107.81
385.787	95.81
386.013	112.81
386.238	110.81
386.463	98.81
386.688	113.81
386.913	100.81
387.138	107.81
387.363	120.81
387.588	102.81
387.813	97.81
388.038	105.81
388.263	102.81
388.488	114.81
388.713	83.81
388.938	104.81
389.163	95.81
389.387	94.81
389.612	110.81
389.837	98.81
390.062	101.81
390.287	93.81
390.512	106.81
390.736	102.81
390.961	76.81
391.186	88.81
391.411	98.81
391.636	98.81
391.86	80.81
392.085	87.81
392.31	90.81
392.534	87.81
392.759	91.81
392.984	89.81
393.208	102.81
393.433	91.81
393.658	94.81
393.882	74.81
394.107	84.81
394.331	84.81
394.556	107.81
394.78	97.81
395.005	85.81
395.229	85.81
395.454	76.81
395.678	75.81
395.903	74.81
396.127	81.81
396.352	89.81
396.576	97.81
396.801	89.81
397.025	94.81
397.249	95.81
397.474	85.81
397.698	81.81
397.922	95.81
398.147	89.81
398.371	91.81
398.595	81.81
398.82	101.81
399.044	84.81
399.268	99.81
399.492	91.81
399.717	90.81
399.941	97.81
400.165	83.81
400.389	87.81
400.613	76.81
400.837	75.81
401.062	83.81
401.286	97.81
401.51	89.81
401.734	89.81
401.958	92.81
402.182	117.81
402.406	152.81
402.63	128.81
402.854	84.81
403.078	98.81
403.302	87.81
403.526	93.81
403.75	94.81
403.974	87.81
404.198	92.81
404.422	107.81
404.645	88.81
404.869	89.81
405.093	82.81
405.317	80.81
405.541	92.81
405.765	108.81
405.988	107.81
406.212	184.81
406.436	218.81
406.66	148.81
406.883	98.81
407.107	93.81
407.331	88.81
407.555	96.81
407.778	89.81
408.002	103.81
408.226	89.81
408.449	80.81
408.673	83.81
408.896	93.81
409.12	95.81
409.344	82.81
409.567	104.81
409.791	102.81
410.014	89.81
410.238	101.81
410.461	95.81
410.685	84.81
410.908	93.81
411.132	100.81
411.355	94.81
411.578	94.81
411.802	97.81
412.025	75.81
412.249	101.81
412.472	86.81
412.695	100.81
412.919	95.81
413.142	89.81
413.365	98.81
413.589	93.81
413.812	83.81
414.035	88.81
414.258	99.81
414.482	88.81
414.705	87.81
414.928	84.81
415.151	100.81
415.374	80.81
415.597	86.81
415.821	96.81
416.044	81.81
416.267	93.81
416.49	90.81
416.713	87.81
416.936	106.81
417.159	80.81
417.382	77.81
417.605	95.81
417.828	88.81
418.051	99.81
418.274	94.81
418.497	89.81
418.72	93.81
418.943	84.81
419.166	86.81
419.389	95.81
419.611	106.81
419.834	101.81
420.057	99.81
420.28	89.81
420.503	95.81
420.726	86.81
420.948	81.81
421.171	90.81
421.394	79.81
421.617	89.81
421.839	78.81
422.062	78.81
422.285	95.81
422.507	93.81
422.73	106.81
422.953	83.81
423.175	108.81
423.398	105.81
423.621	87.81
423.843	87.81
424.066	91.81
424.288	87.81
424.511	90.81
424.733	107.81
424.956	102.81
425.178	104.81
425.401	101.81
425.623	84.81
425.846	94.81
426.068	96.81
426.291	88.81
426.513	95.81
426.735	101.81
426.958	111.81
427.18	112.81
427.402	130.81
427.625	139.81
427.847	117.81
428.069	101.81
428.292	83.81
428.514	83.81
428.736	84.81
428.958	80.81
429.181	87.81
429.403	75.81
429.625	78.81
429.847	85.81
430.069	88.81
430.292	93.81
430.514	98.81
430.736	99.81
430.958	87.81
431.18	91.81
431.402	77.81
431.624	103.81
431.846	79.81
432.068	82.81
432.29	86.81
432.512	88.81
432.734	89.81
432.956	88.81
433.178	102.81
433.4	94.81
433.622	88.81
433.844	93.81
434.066	107.81
434.287	96.81
434.509	87.81
434.731	94.81
434.953	80.81
435.175	87.81
435.397	79.81
435.618	100.81
435.84	113.81
436.062	110.81
436.284	120.81
436.505	90.81
436.727	110.81
436.949	87.81
437.17	93.81
437.392	100.81
437.614	93.81
437.835	97.81
438.057	129.81
438.278	111.81
438.5	117.81
438.721	113.81
438.943	114.81
439.165	87.81
439.386	83.81
439.608	92.81
439.829	101.81
440.05	118.81
440.272	146.81
440.493	80.81
440.715	89.81
440.936	95.81
441.158	95.81
441.379	87.81
441.6	81.81
441.822	92.81
442.043	109.81
442.264	101.81
442.486	104.81
442.707	94.81
442.928	95.81
443.149	121.81
443.371	126.81
443.592	102.81
443.813	89.81
444.034	97.81
444.255	84.81
444.476	92.81
444.698	81.81
444.919	97.81
445.14	135.81
445.361	112.81
445.582	98.81
445.803	131.81
446.024	124.81
446.245	129.81
446.466	116.81
446.687	90.81
446.908	99.81
447.129	94.81
447.35	92.81
447.571	98.81
447.792	90.81
448.013	103.81
448.234	96.81
448.455	100.81
448.675	118.81
448.896	104.81
449.117	106.81
449.338	101.81
449.559	131.81
449.779	132.81
450	97.81
450.221	94.81
450.442	90.81
450.662	85.81
450.883	103.81
451.104	99.81
451.324	95.81
451.545	90.81
451.766	86.81
451.986	99.81
452.207	108.81
452.428	97.81
452.648	98.81
452.869	106.81
453.089	114.81
453.31	107.81
453.53	112.81
453.751	88.81
453.971	98.81
454.192	113.81
454.412	92.81
454.633	85.81
454.853	93.81
455.073	81.81
455.294	96.81
455.514	79.81
455.734	90.81
455.955	71.81
456.175	99.81
456.395	88.81
456.616	79.81
456.836	91.81
457.056	85.81
457.276	83.81
457.497	83.81
457.717	86.81
457.937	95.81
458.157	92.81
458.377	87.81
458.598	94.81
458.818	139.81
459.038	148.81
459.258	109.81
459.478	81.81
459.698	77.81
459.918	104.81
460.138	83.81
460.358	86.81
460.578	92.81
460.798	88.81
461.018	103.81
461.238	99.81
461.458	74.81
461.678	83.81
461.898	91.81
462.118	100.81
462.338	65.81
462.558	84.81
462.777	91.81
462.997	84.81
463.217	83.81
463.437	89.81
463.657	87.81
463.876	90.81
464.096	91.81
464.316	95.81
464.536	100.81
464.755	96.81
464.975	99.81
465.195	155.81
465.414	128.81
465.634	98.81
465.854	99.81
466.073	98.81
466.293	82.81
466.512	91.81
466.732	93.81
466.951	100.81
467.171	82.81
467.391	95.81
467.61	109.81
467.829	91.81
468.049	99.81
468.268	85.81
468.488	85.81
468.707	96.81
468.927	88.81
469.146	86.81
469.365	89.81
469.585	95.81
469.804	97.81
470.023	90.81
470.243	66.81
470.462	106.81
470.681	98.81
470.901	93.81
471.12	79.81
471.339	95.81
471.558	76.81
471.777	92.81
471.997	89.81
472.216	105.81
472.435	91.81
472.654	86.81
472.873	90.81
473.092	93.81
473.311	90.81
473.53	101.81
473.749	88.81
473.968	85.81
474.187	100.81
474.406	97.81
474.625	97.81
474.844	89.81
475.063	95.81
475.282	96.81
475.501	91.81
475.72	89.81
475.939	111.81
476.158	98.81
476.377	104.81
476.596	92.81
476.814	96.81
477.033	80.81
477.252	84.81
477.471	92.81
477.69	98.81
477.908	93.81
478.127	92.81
478.346	83.81
478.564	91.81
478.783	103.81
479.002	89.81
479.22	101.81
479.439	118.81
479.658	116.81
479.876	93.81
480.095	83.81
480.313	98.81
480.532	92.81
480.751	92.81
480.969	92.81
481.188	111.81
481.406	101.81
481.624	94.81
481.843	97.81
482.061	98.81
482.28	78.81
482.498	89.81
482.717	84.81
482.935	100.81
483.153	83.81
483.372	98.81
483.59	93.81
483.808	108.81
484.027	105.81
484.245	99.81
484.463	87.81
484.681	86.81
484.9	89.81
485.118	104.81
485.336	107.81
485.554	105.81
485.772	104.81
485.99	104.81
486.209	97.81
486.427	111.81
486.645	101.81
486.863	105.81
487.081	103.81
487.299	100.81
487.517	101.81
487.735	89.81
487.953	94.81
488.171	85.81
488.389	107.81
488.607	92.81
488.825	95.81
489.043	65.81
489.261	99.81
489.479	91.81
489.696	87.81
489.914	97.81
490.132	90.81
490.35	74.81
490.568	97.81
490.786	92.81
491.003	92.81
491.221	96.81
491.439	102.81
491.657	95.81
491.874	93.81
492.092	93.81
492.31	105.81
492.527	92.81
492.745	90.81
492.963	81.81
493.18	88.81
493.398	92.81
493.615	107.81
493.833	103.81
494.05	92.81
494.268	100.81
494.485	86.81
494.703	92.81
494.92	102.81
495.138	79.81
495.355	94.81
495.573	79.81
495.79	78.81
496.008	97.81
496.225	77.81
496.442	85.81
496.66	102.81
496.877	88.81
497.094	93.81
497.312	91.81
497.529	89.81
497.746	108.81
497.963	83.81
498.181	89.81
498.398	107.81
498.615	111.81
498.832	82.81
499.049	89.81
499.267	89.81
499.484	87.81
499.701	94.81
499.918	88.81
500.135	102.81
500.352	88.81
500.569	91.81
500.786	97.81
501.003	103.81
501.22	102.81
501.437	105.81
501.654	99.81
501.871	94.81
502.088	93.81
502.305	76.81
502.522	92.81
502.739	99.81
502.956	82.81
503.172	102.81
503.389	102.81
503.606	89.81
503.823	82.81
504.04	97.81
504.256	78.81
504.473	84.81
504.69	96.81
504.907	88.81
505.123	99.81
505.34	85.81
505.557	89.81
505.773	83.81
505.99	96.81
506.207	87.81
506.423	82.81
506.64	83.81
506.856	91.81
507.073	102.81
507.289	81.81
507.506	95.81
507.722	103.81
507.939	106.81
508.155	94.81
508.372	94.81
508.588	79.81
508.805	98.81
509.021	91.81
509.238	106.81
509.454	97.81
509.67	108.81
509.887	100.81
510.103	123.81
510.319	215.81
510.536	725.81
510.752	2157.81
510.968	600.81
511.184	157.81
511.401	107.81
511.617	102.81
511.833	92.81
512.049	93.81
512.265	84.81
512.481	96.81
512.698	98.81
512.914	88.81
513.13	97.81
513.346	80.81
513.562	95.81
513.778	112.81
513.994	92.81
514.21	109.81
514.426	108.81
514.642	132.81
514.858	120.81
515.074	155.81
515.29	433.81
515.506	1343.81
