Data from Uncirc_2005_H10_HRD10591_00030.txt Node
Date: Wed Jan 03 10:28:30 EST 2024
User: Yrep
Spectrometer: HR+D1059
Trigger mode: 1
Integration Time (sec): 1.000000E-1
Scans to average: 1
Electric dark correction enabled: true
Nonlinearity correction enabled: false
Boxcar width: 0
XAxis mode: Wavelengths
Number of Pixels in Spectrum: 2048
>>>>>Begin Spectral Data<<<<<
223.165	-18.5
223.4	-18.5
223.635	-18.5
223.869	-22.5
224.104	-9.5
224.338	-14.5
224.573	-23.5
224.808	-14.5
225.042	-3.5
225.277	-6.5
225.511	2.5
225.746	4.5
225.98	13.5
226.215	5.5
226.449	21.5
226.683	16.5
226.918	22.5
227.152	26.5
227.387	50.5
227.621	29.5
227.856	50.5
228.09	49.5
228.324	61.5
228.559	69.5
228.793	57.5
229.027	70.5
229.262	66.5
229.496	85.5
229.73	82.5
229.964	80.5
230.199	71.5
230.433	77.5
230.667	77.5
230.901	59.5
231.136	84.5
231.37	93.5
231.604	82.5
231.838	88.5
232.072	79.5
232.306	96.5
232.541	86.5
232.775	83.5
233.009	77.5
233.243	78.5
233.477	81.5
233.711	89.5
233.945	83.5
234.179	78.5
234.413	92.5
234.647	92.5
234.881	83.5
235.115	79.5
235.349	80.5
235.583	77.5
235.817	78.5
236.051	90.5
236.285	82.5
236.519	86.5
236.753	85.5
236.987	79.5
237.221	77.5
237.455	77.5
237.689	91.5
237.922	73.5
238.156	71.5
238.39	77.5
238.624	78.5
238.858	76.5
239.091	84.5
239.325	65.5
239.559	87.5
239.793	93.5
240.027	79.5
240.26	76.5
240.494	71.5
240.728	83.5
240.961	94.5
241.195	73.5
241.429	67.5
241.662	77.5
241.896	75.5
242.13	82.5
242.363	83.5
242.597	69.5
242.83	77.5
243.064	88.5
243.298	77.5
243.531	72.5
243.765	82.5
243.998	85.5
244.232	89.5
244.465	88.5
244.699	78.5
244.932	82.5
245.166	78.5
245.399	88.5
245.633	85.5
245.866	72.5
246.099	77.5
246.333	71.5
246.566	73.5
246.8	87.5
247.033	95.5
247.266	73.5
247.5	91.5
247.733	84.5
247.966	87.5
248.2	77.5
248.433	79.5
248.666	88.5
248.899	76.5
249.133	89.5
249.366	83.5
249.599	98.5
249.832	91.5
250.066	85.5
250.299	79.5
250.532	70.5
250.765	75.5
250.998	88.5
251.231	86.5
251.465	90.5
251.698	81.5
251.931	83.5
252.164	76.5
252.397	78.5
252.63	87.5
252.863	85.5
253.096	82.5
253.329	84.5
253.562	82.5
253.795	84.5
254.028	78.5
254.261	75.5
254.494	78.5
254.727	84.5
254.96	82.5
255.193	82.5
255.426	77.5
255.659	88.5
255.892	96.5
256.124	89.5
256.357	96.5
256.59	87.5
256.823	82.5
257.056	77.5
257.289	88.5
257.521	102.5
257.754	87.5
257.987	79.5
258.22	81.5
258.452	64.5
258.685	87.5
258.918	99.5
259.151	87.5
259.383	87.5
259.616	79.5
259.849	85.5
260.081	79.5
260.314	88.5
260.547	89.5
260.779	80.5
261.012	95.5
261.244	86.5
261.477	90.5
261.71	99.5
261.942	115.5
262.175	116.5
262.407	86.5
262.64	92.5
262.872	95.5
263.105	73.5
263.337	79.5
263.57	91.5
263.802	81.5
264.035	83.5
264.267	85.5
264.499	91.5
264.732	100.5
264.964	90.5
265.197	75.5
265.429	79.5
265.661	85.5
265.894	70.5
266.126	96.5
266.358	64.5
266.591	87.5
266.823	71.5
267.055	86.5
267.287	84.5
267.52	73.5
267.752	85.5
267.984	87.5
268.216	75.5
268.448	84.5
268.681	84.5
268.913	95.5
269.145	77.5
269.377	77.5
269.609	93.5
269.841	84.5
270.073	87.5
270.306	93.5
270.538	88.5
270.77	91.5
271.002	83.5
271.234	83.5
271.466	99.5
271.698	95.5
271.93	74.5
272.162	90.5
272.394	91.5
272.626	81.5
272.858	87.5
273.09	78.5
273.322	92.5
273.553	72.5
273.785	79.5
274.017	84.5
274.249	86.5
274.481	91.5
274.713	69.5
274.945	79.5
275.176	84.5
275.408	88.5
275.64	74.5
275.872	90.5
276.104	91.5
276.335	91.5
276.567	114.5
276.799	102.5
277.031	95.5
277.262	87.5
277.494	80.5
277.726	79.5
277.957	84.5
278.189	81.5
278.421	76.5
278.652	95.5
278.884	75.5
279.115	83.5
279.347	95.5
279.579	75.5
279.81	70.5
280.042	69.5
280.273	98.5
280.505	94.5
280.736	97.5
280.968	92.5
281.199	97.5
281.431	106.5
281.662	80.5
281.894	91.5
282.125	91.5
282.356	119.5
282.588	115.5
282.819	111.5
283.051	92.5
283.282	89.5
283.513	99.5
283.745	101.5
283.976	97.5
284.207	80.5
284.439	90.5
284.67	73.5
284.901	93.5
285.132	100.5
285.364	91.5
285.595	90.5
285.826	90.5
286.057	79.5
286.288	87.5
286.52	99.5
286.751	88.5
286.982	93.5
287.213	95.5
287.444	95.5
287.675	90.5
287.906	89.5
288.138	89.5
288.369	85.5
288.6	104.5
288.831	90.5
289.062	95.5
289.293	100.5
289.524	91.5
289.755	81.5
289.986	81.5
290.217	94.5
290.448	94.5
290.679	98.5
290.91	75.5
291.141	79.5
291.371	85.5
291.602	100.5
291.833	87.5
292.064	111.5
292.295	94.5
292.526	78.5
292.757	91.5
292.987	92.5
293.218	83.5
293.449	83.5
293.68	92.5
293.91	85.5
294.141	84.5
294.372	103.5
294.603	87.5
294.833	87.5
295.064	95.5
295.295	88.5
295.525	91.5
295.756	96.5
295.987	112.5
296.217	119.5
296.448	107.5
296.679	94.5
296.909	93.5
297.14	106.5
297.37	83.5
297.601	94.5
297.831	104.5
298.062	86.5
298.292	94.5
298.523	96.5
298.753	85.5
298.984	75.5
299.214	89.5
299.445	93.5
299.675	85.5
299.905	89.5
300.136	79.5
300.366	90.5
300.597	81.5
300.827	98.5
301.057	104.5
301.288	108.5
301.518	96.5
301.748	90.5
301.979	97.5
302.209	107.5
302.439	88.5
302.669	88.5
302.9	82.5
303.13	101.5
303.36	103.5
303.59	101.5
303.82	90.5
304.051	91.5
304.281	93.5
304.511	93.5
304.741	91.5
304.971	94.5
305.201	91.5
305.431	97.5
305.661	104.5
305.891	78.5
306.121	101.5
306.352	116.5
306.582	108.5
306.812	99.5
307.042	98.5
307.272	94.5
307.502	90.5
307.731	91.5
307.961	95.5
308.191	100.5
308.421	90.5
308.651	90.5
308.881	82.5
309.111	92.5
309.341	95.5
309.571	101.5
309.8	98.5
310.03	85.5
310.26	95.5
310.49	104.5
310.72	94.5
310.949	88.5
311.179	91.5
311.409	89.5
311.639	90.5
311.868	104.5
312.098	93.5
312.328	102.5
312.557	98.5
312.787	109.5
313.017	93.5
313.246	89.5
313.476	103.5
313.706	95.5
313.935	101.5
314.165	97.5
314.394	93.5
314.624	98.5
314.853	98.5
315.083	109.5
315.312	82.5
315.542	103.5
315.771	88.5
316.001	90.5
316.23	85.5
316.46	88.5
316.689	98.5
316.919	93.5
317.148	97.5
317.377	96.5
317.607	85.5
317.836	107.5
318.065	91.5
318.295	94.5
318.524	95.5
318.753	89.5
318.983	103.5
319.212	106.5
319.441	113.5
319.67	100.5
319.9	82.5
320.129	88.5
320.358	105.5
320.587	83.5
320.816	105.5
321.046	86.5
321.275	100.5
321.504	93.5
321.733	109.5
321.962	90.5
322.191	101.5
322.42	99.5
322.649	101.5
322.878	113.5
323.108	128.5
323.337	125.5
323.566	133.5
323.795	150.5
324.024	197.5
324.253	386.5
324.482	858.5
324.71	1720.5
324.939	2339.5
325.168	863.5
325.397	257.5
325.626	145.5
325.855	126.5
326.084	132.5
326.313	131.5
326.542	153.5
326.77	238.5
326.999	475.5
327.228	968.5
327.457	1853.5
327.686	1445.5
327.914	383.5
328.143	188.5
328.372	133.5
328.6	117.5
328.829	122.5
329.058	122.5
329.287	133.5
329.515	115.5
329.744	102.5
329.972	94.5
330.201	104.5
330.43	107.5
330.658	114.5
330.887	117.5
331.115	98.5
331.344	104.5
331.572	110.5
331.801	94.5
332.03	109.5
332.258	92.5
332.486	88.5
332.715	100.5
332.943	93.5
333.172	98.5
333.4	103.5
333.629	103.5
333.857	98.5
334.085	101.5
334.314	115.5
334.542	112.5
334.771	96.5
334.999	97.5
335.227	99.5
335.455	93.5
335.684	99.5
335.912	111.5
336.14	89.5
336.369	89.5
336.597	104.5
336.825	89.5
337.053	96.5
337.281	85.5
337.51	91.5
337.738	92.5
337.966	91.5
338.194	89.5
338.422	98.5
338.65	104.5
338.878	93.5
339.106	90.5
339.334	98.5
339.562	78.5
339.79	92.5
340.018	101.5
340.246	103.5
340.474	98.5
340.702	92.5
340.93	99.5
341.158	90.5
341.386	90.5
341.614	106.5
341.842	103.5
342.07	104.5
342.298	110.5
342.526	90.5
342.754	83.5
342.981	99.5
343.209	97.5
343.437	86.5
343.665	95.5
343.893	97.5
344.12	95.5
344.348	86.5
344.576	90.5
344.804	71.5
345.031	95.5
345.259	102.5
345.487	110.5
345.714	105.5
345.942	99.5
346.17	97.5
346.397	98.5
346.625	90.5
346.853	100.5
347.08	99.5
347.308	97.5
347.535	84.5
347.763	104.5
347.99	103.5
348.218	95.5
348.445	99.5
348.673	111.5
348.9	103.5
349.128	104.5
349.355	93.5
349.583	104.5
349.81	100.5
350.037	90.5
350.265	95.5
350.492	88.5
350.72	98.5
350.947	78.5
351.174	109.5
351.402	109.5
351.629	98.5
351.856	93.5
352.083	103.5
352.311	103.5
352.538	100.5
352.765	114.5
352.992	117.5
353.22	119.5
353.447	123.5
353.674	96.5
353.901	99.5
354.128	82.5
354.355	100.5
354.583	108.5
354.81	103.5
355.037	87.5
355.264	90.5
355.491	93.5
355.718	93.5
355.945	96.5
356.172	107.5
356.399	115.5
356.626	93.5
356.853	105.5
357.08	106.5
357.307	103.5
357.534	94.5
357.761	106.5
357.988	102.5
358.215	95.5
358.441	104.5
358.668	93.5
358.895	97.5
359.122	91.5
359.349	91.5
359.576	87.5
359.802	101.5
360.029	115.5
360.256	110.5
360.483	89.5
360.709	77.5
360.936	99.5
361.163	83.5
361.39	94.5
361.616	94.5
361.843	101.5
362.07	89.5
362.296	94.5
362.523	107.5
362.749	105.5
362.976	78.5
363.203	93.5
363.429	102.5
363.656	98.5
363.882	95.5
364.109	104.5
364.335	104.5
364.562	85.5
364.788	101.5
365.015	99.5
365.241	104.5
365.468	107.5
365.694	91.5
365.92	73.5
366.147	90.5
366.373	95.5
366.599	96.5
366.826	90.5
367.052	105.5
367.278	91.5
367.505	86.5
367.731	86.5
367.957	94.5
368.184	87.5
368.41	96.5
368.636	122.5
368.862	120.5
369.089	112.5
369.315	96.5
369.541	83.5
369.767	89.5
369.993	95.5
370.219	87.5
370.445	93.5
370.672	95.5
370.898	94.5
371.124	102.5
371.35	92.5
371.576	83.5
371.802	88.5
372.028	84.5
372.254	86.5
372.48	97.5
372.706	90.5
372.932	96.5
373.158	98.5
373.384	95.5
373.61	92.5
373.835	95.5
374.061	99.5
374.287	94.5
374.513	110.5
374.739	93.5
374.965	90.5
375.191	108.5
375.416	85.5
375.642	82.5
375.868	88.5
376.094	90.5
376.319	86.5
376.545	106.5
376.771	90.5
376.997	93.5
377.222	106.5
377.448	99.5
377.674	96.5
377.899	89.5
378.125	96.5
378.35	102.5
378.576	102.5
378.802	73.5
379.027	94.5
379.253	87.5
379.478	78.5
379.704	96.5
379.929	97.5
380.155	101.5
380.38	87.5
380.606	88.5
380.831	96.5
381.057	118.5
381.282	96.5
381.507	85.5
381.733	97.5
381.958	92.5
382.184	110.5
382.409	108.5
382.634	106.5
382.86	109.5
383.085	96.5
383.31	98.5
383.535	110.5
383.761	91.5
383.986	111.5
384.211	91.5
384.436	121.5
384.662	106.5
384.887	117.5
385.112	111.5
385.337	97.5
385.562	118.5
385.787	113.5
386.013	123.5
386.238	105.5
386.463	119.5
386.688	119.5
386.913	98.5
387.138	101.5
387.363	107.5
387.588	119.5
387.813	101.5
388.038	100.5
388.263	117.5
388.488	109.5
388.713	120.5
388.938	90.5
389.163	100.5
389.387	94.5
389.612	87.5
389.837	93.5
390.062	109.5
390.287	104.5
390.512	102.5
390.736	91.5
390.961	103.5
391.186	103.5
391.411	89.5
391.636	89.5
391.86	94.5
392.085	93.5
392.31	104.5
392.534	82.5
392.759	86.5
392.984	91.5
393.208	83.5
393.433	99.5
393.658	98.5
393.882	88.5
394.107	87.5
394.331	109.5
394.556	102.5
394.78	108.5
395.005	80.5
395.229	81.5
395.454	87.5
395.678	88.5
395.903	92.5
396.127	103.5
396.352	100.5
396.576	78.5
396.801	95.5
397.025	88.5
397.249	92.5
397.474	98.5
397.698	93.5
397.922	90.5
398.147	87.5
398.371	84.5
398.595	73.5
398.82	77.5
399.044	85.5
399.268	86.5
399.492	73.5
399.717	100.5
399.941	96.5
400.165	92.5
400.389	86.5
400.613	83.5
400.837	97.5
401.062	102.5
401.286	85.5
401.51	94.5
401.734	86.5
401.958	104.5
402.182	110.5
402.406	143.5
402.63	130.5
402.854	100.5
403.078	92.5
403.302	90.5
403.526	85.5
403.75	87.5
403.974	102.5
404.198	83.5
404.422	87.5
404.645	74.5
404.869	91.5
405.093	83.5
405.317	100.5
405.541	102.5
405.765	95.5
405.988	120.5
406.212	157.5
406.436	192.5
406.66	148.5
406.883	97.5
407.107	91.5
407.331	98.5
407.555	100.5
407.778	88.5
408.002	89.5
408.226	92.5
408.449	85.5
408.673	91.5
408.896	103.5
409.12	88.5
409.344	92.5
409.567	106.5
409.791	88.5
410.014	94.5
410.238	81.5
410.461	93.5
410.685	106.5
410.908	95.5
411.132	109.5
411.355	99.5
411.578	92.5
411.802	88.5
412.025	96.5
412.249	78.5
412.472	85.5
412.695	95.5
412.919	86.5
413.142	89.5
413.365	90.5
413.589	88.5
413.812	90.5
414.035	89.5
414.258	93.5
414.482	108.5
414.705	95.5
414.928	78.5
415.151	96.5
415.374	95.5
415.597	92.5
415.821	91.5
416.044	87.5
416.267	92.5
416.49	88.5
416.713	89.5
416.936	82.5
417.159	81.5
417.382	91.5
417.605	93.5
417.828	99.5
418.051	79.5
418.274	85.5
418.497	75.5
418.72	86.5
418.943	92.5
419.166	106.5
419.389	108.5
419.611	101.5
419.834	91.5
420.057	102.5
420.28	85.5
420.503	94.5
420.726	100.5
420.948	95.5
421.171	89.5
421.394	106.5
421.617	89.5
421.839	91.5
422.062	89.5
422.285	86.5
422.507	101.5
422.73	104.5
422.953	103.5
423.175	94.5
423.398	98.5
423.621	95.5
423.843	105.5
424.066	94.5
424.288	85.5
424.511	92.5
424.733	103.5
424.956	106.5
425.178	105.5
425.401	104.5
425.623	94.5
425.846	102.5
426.068	108.5
426.291	96.5
426.513	93.5
426.735	96.5
426.958	96.5
427.18	113.5
427.402	145.5
427.625	145.5
427.847	127.5
428.069	90.5
428.292	88.5
428.514	78.5
428.736	97.5
428.958	91.5
429.181	103.5
429.403	88.5
429.625	92.5
429.847	94.5
430.069	103.5
430.292	101.5
430.514	95.5
430.736	92.5
430.958	89.5
431.18	94.5
431.402	86.5
431.624	90.5
431.846	81.5
432.068	99.5
432.29	87.5
432.512	105.5
432.734	82.5
432.956	79.5
433.178	82.5
433.4	95.5
433.622	94.5
433.844	102.5
434.066	97.5
434.287	95.5
434.509	93.5
434.731	83.5
434.953	84.5
435.175	96.5
435.397	101.5
435.618	90.5
435.84	99.5
436.062	109.5
436.284	124.5
436.505	115.5
436.727	99.5
436.949	87.5
437.17	97.5
437.392	99.5
437.614	93.5
437.835	111.5
438.057	103.5
438.278	106.5
438.5	105.5
438.721	116.5
438.943	110.5
439.165	108.5
439.386	99.5
439.608	83.5
439.829	91.5
440.05	125.5
440.272	147.5
440.493	112.5
440.715	97.5
440.936	100.5
441.158	92.5
441.379	87.5
441.6	94.5
441.822	98.5
442.043	104.5
442.264	111.5
442.486	85.5
442.707	106.5
442.928	105.5
443.149	126.5
443.371	148.5
443.592	110.5
443.813	107.5
444.034	109.5
444.255	96.5
444.476	96.5
444.698	92.5
444.919	97.5
445.14	144.5
445.361	116.5
445.582	111.5
445.803	129.5
446.024	122.5
446.245	133.5
446.466	116.5
446.687	86.5
446.908	90.5
447.129	86.5
447.35	94.5
447.571	81.5
447.792	80.5
448.013	103.5
448.234	89.5
448.455	96.5
448.675	110.5
448.896	118.5
449.117	112.5
449.338	109.5
449.559	143.5
449.779	149.5
450	90.5
450.221	80.5
450.442	97.5
450.662	101.5
450.883	108.5
451.104	98.5
451.324	87.5
451.545	107.5
451.766	91.5
451.986	92.5
452.207	101.5
452.428	88.5
452.648	101.5
452.869	116.5
453.089	112.5
453.31	115.5
453.53	83.5
453.751	108.5
453.971	110.5
454.192	110.5
454.412	91.5
454.633	89.5
454.853	74.5
455.073	94.5
455.294	83.5
455.514	111.5
455.734	93.5
455.955	102.5
456.175	83.5
456.395	81.5
456.616	85.5
456.836	90.5
457.056	84.5
457.276	78.5
457.497	91.5
457.717	88.5
457.937	93.5
458.157	86.5
458.377	89.5
458.598	120.5
458.818	126.5
459.038	143.5
459.258	121.5
459.478	92.5
459.698	86.5
459.918	91.5
460.138	92.5
460.358	82.5
460.578	100.5
460.798	85.5
461.018	96.5
461.238	90.5
461.458	89.5
461.678	93.5
461.898	89.5
462.118	93.5
462.338	102.5
462.558	92.5
462.777	76.5
462.997	82.5
463.217	88.5
463.437	96.5
463.657	91.5
463.876	91.5
464.096	99.5
464.316	104.5
464.536	99.5
464.755	93.5
464.975	112.5
465.195	152.5
465.414	153.5
465.634	103.5
465.854	97.5
466.073	83.5
466.293	93.5
466.512	97.5
466.732	83.5
466.951	88.5
467.171	83.5
467.391	109.5
467.61	93.5
467.829	93.5
468.049	88.5
468.268	92.5
468.488	80.5
468.707	92.5
468.927	92.5
469.146	89.5
469.365	94.5
469.585	98.5
469.804	113.5
470.023	111.5
470.243	92.5
470.462	90.5
470.681	113.5
470.901	89.5
471.12	96.5
471.339	90.5
471.558	83.5
471.777	99.5
471.997	102.5
472.216	95.5
472.435	87.5
472.654	97.5
472.873	98.5
473.092	96.5
473.311	104.5
473.53	98.5
473.749	91.5
473.968	106.5
474.187	118.5
474.406	102.5
474.625	88.5
474.844	101.5
475.063	97.5
475.282	86.5
475.501	102.5
475.72	90.5
475.939	87.5
476.158	86.5
476.377	86.5
476.596	87.5
476.814	91.5
477.033	96.5
477.252	87.5
477.471	80.5
477.69	89.5
477.908	98.5
478.127	98.5
478.346	98.5
478.564	100.5
478.783	87.5
479.002	97.5
479.22	88.5
479.439	97.5
479.658	87.5
479.876	91.5
480.095	93.5
480.313	101.5
480.532	90.5
480.751	89.5
480.969	88.5
481.188	109.5
481.406	105.5
481.624	90.5
481.843	88.5
482.061	82.5
482.28	99.5
482.498	95.5
482.717	94.5
482.935	88.5
483.153	83.5
483.372	85.5
483.59	97.5
483.808	94.5
484.027	105.5
484.245	91.5
484.463	106.5
484.681	101.5
484.9	115.5
485.118	104.5
485.336	87.5
485.554	96.5
485.772	102.5
485.99	101.5
486.209	118.5
486.427	115.5
486.645	110.5
486.863	104.5
487.081	100.5
487.299	108.5
487.517	105.5
487.735	85.5
487.953	93.5
488.171	109.5
488.389	97.5
488.607	103.5
488.825	94.5
489.043	107.5
489.261	87.5
489.479	103.5
489.696	97.5
489.914	88.5
490.132	99.5
490.35	95.5
490.568	83.5
490.786	96.5
491.003	86.5
491.221	98.5
491.439	99.5
491.657	98.5
491.874	110.5
492.092	101.5
492.31	104.5
492.527	98.5
492.745	87.5
492.963	89.5
493.18	106.5
493.398	106.5
493.615	91.5
493.833	90.5
494.05	96.5
494.268	91.5
494.485	96.5
494.703	91.5
494.92	88.5
495.138	90.5
495.355	89.5
495.573	94.5
495.79	109.5
496.008	109.5
496.225	97.5
496.442	81.5
496.66	87.5
496.877	86.5
497.094	107.5
497.312	95.5
497.529	95.5
497.746	85.5
497.963	86.5
498.181	97.5
498.398	103.5
498.615	103.5
498.832	97.5
499.049	90.5
499.267	92.5
499.484	94.5
499.701	81.5
499.918	104.5
500.135	88.5
500.352	82.5
500.569	97.5
500.786	101.5
501.003	111.5
501.22	102.5
501.437	87.5
501.654	90.5
501.871	95.5
502.088	94.5
502.305	94.5
502.522	109.5
502.739	89.5
502.956	95.5
503.172	91.5
503.389	87.5
503.606	103.5
503.823	97.5
504.04	99.5
504.256	94.5
504.473	95.5
504.69	101.5
504.907	95.5
505.123	96.5
505.34	95.5
505.557	93.5
505.773	74.5
505.99	82.5
506.207	89.5
506.423	82.5
506.64	93.5
506.856	92.5
507.073	95.5
507.289	98.5
507.506	109.5
507.722	102.5
507.939	113.5
508.155	91.5
508.372	84.5
508.588	95.5
508.805	101.5
509.021	102.5
509.238	100.5
509.454	112.5
509.67	82.5
509.887	95.5
510.103	130.5
510.319	206.5
510.536	712.5
510.752	2166.5
510.968	619.5
511.184	161.5
511.401	102.5
511.617	91.5
511.833	104.5
512.049	98.5
512.265	97.5
512.481	82.5
512.698	100.5
512.914	89.5
513.13	94.5
513.346	100.5
513.562	105.5
513.778	108.5
513.994	104.5
514.21	113.5
514.426	123.5
514.642	137.5
514.858	129.5
515.074	135.5
515.29	414.5
515.506	1340.5
515.721	496.5
515.937	146.5
516.153	116.5
516.369	104.5
516.585	94.5
516.801	88.5
517.016	99.5
517.232	106.5
517.448	91.5
517.664	92.5
517.879	95.5
518.095	111.5
518.311	106.5
518.527	100.5
518.742	97.5
518.958	86.5
519.173	99.5
519.389	94.5
519.605	96.5
519.82	91.5
520.036	114.5
520.251	126.5
520.467	120.5
520.682	117.5
520.898	98.5
521.113	106.5
521.329	129.5
521.544	185.5
521.76	520.5
521.975	2194.5
522.19	1339.5
522.406	279.5
522.621	115.5
522.836	114.5
523.052	103.5
523.267	86.5
523.482	112.5
523.698	110.5
523.913	133.5
524.128	104.5
524.343	79.5
524.559	98.5
524.774	87.5
524.989	93.5
525.204	110.5
525.419	91.5
525.634	87.5
525.849	102.5
526.064	96.5
526.28	91.5
526.495	99.5
526.71	91.5
526.925	83.5
527.14	82.5
527.355	84.5
527.57	85.5
527.785	99.5
527.999	97.5
528.214	90.5
528.429	100.5
528.644	96.5
528.859	99.5
529.074	111.5
529.289	104.5
529.503	174.5
529.718	119.5
529.933	79.5
530.148	88.5
530.363	97.5
530.577	101.5
530.792	82.5
531.007	105.5
531.221	101.5
531.436	99.5
531.651	98.5
531.865	106.5
532.08	72.5
532.295	97.5
532.509	94.5
532.724	93.5
532.938	85.5
533.153	86.5
533.367	86.5
533.582	91.5
533.796	83.5
534.011	86.5
