Data from Uncirc_2005_H10_HRD10591_00096.txt Node
Date: Wed Jan 03 10:28:44 EST 2024
User: Yrep
Spectrometer: HR+D1059
Trigger mode: 1
Integration Time (sec): 1.000000E-1
Scans to average: 1
Electric dark correction enabled: true
Nonlinearity correction enabled: false
Boxcar width: 0
XAxis mode: Wavelengths
Number of Pixels in Spectrum: 2048
>>>>>Begin Spectral Data<<<<<
223.165	-12.25
223.4	-12.25
223.635	-12.25
223.869	-28.25
224.104	-10.25
224.338	-15.25
224.573	-5.25
224.808	-8.25
225.042	-17.25
225.277	0.75
225.511	-1.25
225.746	4.75
225.98	-3.25
226.215	16.75
226.449	15.75
226.683	12.75
226.918	19.75
227.152	30.75
227.387	25.75
227.621	33.75
227.856	34.75
228.09	47.75
228.324	45.75
228.559	56.75
228.793	42.75
229.027	63.75
229.262	51.75
229.496	67.75
229.73	87.75
229.964	76.75
230.199	58.75
230.433	79.75
230.667	76.75
230.901	83.75
231.136	76.75
231.37	82.75
231.604	97.75
231.838	88.75
232.072	87.75
232.306	85.75
232.541	81.75
232.775	86.75
233.009	84.75
233.243	97.75
233.477	70.75
233.711	84.75
233.945	90.75
234.179	85.75
234.413	66.75
234.647	68.75
234.881	65.75
235.115	69.75
235.349	64.75
235.583	68.75
235.817	73.75
236.051	72.75
236.285	77.75
236.519	67.75
236.753	71.75
236.987	83.75
237.221	71.75
237.455	83.75
237.689	73.75
237.922	65.75
238.156	72.75
238.39	82.75
238.624	60.75
238.858	66.75
239.091	75.75
239.325	73.75
239.559	79.75
239.793	84.75
240.027	68.75
240.26	70.75
240.494	96.75
240.728	82.75
240.961	70.75
241.195	69.75
241.429	73.75
241.662	86.75
241.896	70.75
242.13	71.75
242.363	75.75
242.597	79.75
242.83	79.75
243.064	70.75
243.298	64.75
243.531	77.75
243.765	81.75
243.998	84.75
244.232	89.75
244.465	79.75
244.699	66.75
244.932	74.75
245.166	68.75
245.399	71.75
245.633	90.75
245.866	82.75
246.099	81.75
246.333	80.75
246.566	86.75
246.8	71.75
247.033	62.75
247.266	74.75
247.5	84.75
247.733	64.75
247.966	69.75
248.2	75.75
248.433	73.75
248.666	83.75
248.899	66.75
249.133	90.75
249.366	82.75
249.599	88.75
249.832	78.75
250.066	84.75
250.299	83.75
250.532	84.75
250.765	85.75
250.998	86.75
251.231	94.75
251.465	76.75
251.698	81.75
251.931	87.75
252.164	81.75
252.397	79.75
252.63	74.75
252.863	93.75
253.096	78.75
253.329	78.75
253.562	64.75
253.795	89.75
254.028	67.75
254.261	78.75
254.494	83.75
254.727	86.75
254.96	64.75
255.193	90.75
255.426	81.75
255.659	96.75
255.892	81.75
256.124	68.75
256.357	82.75
256.59	79.75
256.823	85.75
257.056	101.75
257.289	86.75
257.521	84.75
257.754	76.75
257.987	84.75
258.22	80.75
258.452	74.75
258.685	81.75
258.918	93.75
259.151	74.75
259.383	73.75
259.616	75.75
259.849	75.75
260.081	81.75
260.314	79.75
260.547	77.75
260.779	88.75
261.012	85.75
261.244	88.75
261.477	84.75
261.71	100.75
261.942	114.75
262.175	92.75
262.407	76.75
262.64	77.75
262.872	74.75
263.105	78.75
263.337	82.75
263.57	70.75
263.802	82.75
264.035	79.75
264.267	94.75
264.499	79.75
264.732	93.75
264.964	74.75
265.197	74.75
265.429	87.75
265.661	81.75
265.894	74.75
266.126	68.75
266.358	79.75
266.591	83.75
266.823	73.75
267.055	70.75
267.287	83.75
267.52	62.75
267.752	80.75
267.984	81.75
268.216	70.75
268.448	87.75
268.681	81.75
268.913	75.75
269.145	61.75
269.377	88.75
269.609	73.75
269.841	76.75
270.073	84.75
270.306	72.75
270.538	88.75
270.77	91.75
271.002	85.75
271.234	78.75
271.466	97.75
271.698	80.75
271.93	80.75
272.162	96.75
272.394	95.75
272.626	86.75
272.858	83.75
273.09	81.75
273.322	77.75
273.553	76.75
273.785	94.75
274.017	79.75
274.249	81.75
274.481	67.75
274.713	87.75
274.945	79.75
275.176	95.75
275.408	84.75
275.64	80.75
275.872	85.75
276.104	96.75
276.335	77.75
276.567	97.75
276.799	92.75
277.031	81.75
277.262	80.75
277.494	78.75
277.726	75.75
277.957	83.75
278.189	82.75
278.421	83.75
278.652	86.75
278.884	93.75
279.115	79.75
279.347	82.75
279.579	78.75
279.81	79.75
280.042	90.75
280.273	86.75
280.505	91.75
280.736	78.75
280.968	90.75
281.199	79.75
281.431	94.75
281.662	71.75
281.894	96.75
282.125	84.75
282.356	103.75
282.588	121.75
282.819	108.75
283.051	74.75
283.282	81.75
283.513	86.75
283.745	81.75
283.976	78.75
284.207	66.75
284.439	81.75
284.67	83.75
284.901	90.75
285.132	65.75
285.364	80.75
285.595	85.75
285.826	72.75
286.057	87.75
286.288	77.75
286.52	98.75
286.751	99.75
286.982	83.75
287.213	74.75
287.444	89.75
287.675	85.75
287.906	89.75
288.138	98.75
288.369	89.75
288.6	77.75
288.831	96.75
289.062	86.75
289.293	87.75
289.524	81.75
289.755	79.75
289.986	92.75
290.217	77.75
290.448	87.75
290.679	98.75
290.91	85.75
291.141	72.75
291.371	86.75
291.602	80.75
291.833	73.75
292.064	69.75
292.295	81.75
292.526	86.75
292.757	98.75
292.987	84.75
293.218	80.75
293.449	84.75
293.68	78.75
293.91	93.75
294.141	94.75
294.372	84.75
294.603	70.75
294.833	94.75
295.064	85.75
295.295	88.75
295.525	100.75
295.756	79.75
295.987	102.75
296.217	126.75
296.448	111.75
296.679	88.75
296.909	81.75
297.14	75.75
297.37	86.75
297.601	84.75
297.831	82.75
298.062	92.75
298.292	95.75
298.523	94.75
298.753	82.75
298.984	83.75
299.214	90.75
299.445	84.75
299.675	74.75
299.905	83.75
300.136	89.75
300.366	94.75
300.597	81.75
300.827	80.75
301.057	88.75
301.288	101.75
301.518	84.75
301.748	93.75
301.979	93.75
302.209	93.75
302.439	81.75
302.669	80.75
302.9	89.75
303.13	73.75
303.36	92.75
303.59	92.75
303.82	88.75
304.051	91.75
304.281	91.75
304.511	92.75
304.741	73.75
304.971	77.75
305.201	80.75
305.431	79.75
305.661	69.75
305.891	87.75
306.121	94.75
306.352	112.75
306.582	96.75
306.812	92.75
307.042	86.75
307.272	95.75
307.502	80.75
307.731	80.75
307.961	90.75
308.191	87.75
308.421	84.75
308.651	86.75
308.881	88.75
309.111	76.75
309.341	77.75
309.571	96.75
309.8	105.75
310.03	100.75
310.26	105.75
310.49	94.75
310.72	89.75
310.949	109.75
311.179	100.75
311.409	79.75
311.639	103.75
311.868	98.75
312.098	102.75
312.328	99.75
312.557	84.75
312.787	92.75
313.017	96.75
313.246	93.75
313.476	90.75
313.706	89.75
313.935	89.75
314.165	104.75
314.394	106.75
314.624	90.75
314.853	93.75
315.083	86.75
315.312	99.75
315.542	90.75
315.771	101.75
316.001	78.75
316.23	95.75
316.46	94.75
316.689	107.75
316.919	82.75
317.148	79.75
317.377	82.75
317.607	96.75
317.836	89.75
318.065	92.75
318.295	86.75
318.524	90.75
318.753	88.75
318.983	104.75
319.212	104.75
319.441	96.75
319.67	90.75
319.9	79.75
320.129	101.75
320.358	92.75
320.587	89.75
320.816	85.75
321.046	73.75
321.275	98.75
321.504	83.75
321.733	87.75
321.962	105.75
322.191	93.75
322.42	105.75
322.649	98.75
322.878	100.75
323.108	100.75
323.337	123.75
323.566	118.75
323.795	132.75
324.024	189.75
324.253	402.75
324.482	847.75
324.71	1722.75
324.939	2230.75
325.168	812.75
325.397	239.75
325.626	148.75
325.855	129.75
326.084	125.75
326.313	128.75
326.542	157.75
326.77	217.75
326.999	469.75
327.228	946.75
327.457	1776.75
327.686	1381.75
327.914	358.75
328.143	181.75
328.372	142.75
328.6	116.75
328.829	109.75
329.058	127.75
329.287	111.75
329.515	105.75
329.744	107.75
329.972	103.75
330.201	101.75
330.43	98.75
330.658	103.75
330.887	113.75
331.115	112.75
331.344	97.75
331.572	108.75
331.801	104.75
332.03	97.75
332.258	98.75
332.486	96.75
332.715	94.75
332.943	95.75
333.172	101.75
333.4	113.75
333.629	110.75
333.857	95.75
334.085	110.75
334.314	93.75
334.542	97.75
334.771	111.75
334.999	98.75
335.227	93.75
335.455	100.75
335.684	70.75
335.912	104.75
336.14	100.75
336.369	97.75
336.597	88.75
336.825	101.75
337.053	74.75
337.281	100.75
337.51	90.75
337.738	92.75
337.966	95.75
338.194	89.75
338.422	89.75
338.65	95.75
338.878	96.75
339.106	94.75
339.334	97.75
339.562	109.75
339.79	104.75
340.018	90.75
340.246	89.75
340.474	102.75
340.702	86.75
340.93	90.75
341.158	81.75
341.386	90.75
341.614	101.75
341.842	100.75
342.07	78.75
342.298	90.75
342.526	96.75
342.754	73.75
342.981	88.75
343.209	90.75
343.437	96.75
343.665	87.75
343.893	94.75
344.12	94.75
344.348	85.75
344.576	102.75
344.804	91.75
345.031	86.75
345.259	90.75
345.487	96.75
345.714	80.75
345.942	88.75
346.17	75.75
346.397	89.75
346.625	77.75
346.853	78.75
347.08	86.75
347.308	98.75
347.535	81.75
347.763	99.75
347.99	96.75
348.218	89.75
348.445	107.75
348.673	109.75
348.9	88.75
349.128	83.75
349.355	89.75
349.583	85.75
349.81	92.75
350.037	92.75
350.265	88.75
350.492	88.75
350.72	100.75
350.947	105.75
351.174	106.75
351.402	93.75
351.629	89.75
351.856	92.75
352.083	106.75
352.311	102.75
352.538	88.75
352.765	97.75
352.992	93.75
353.22	105.75
353.447	109.75
353.674	97.75
353.901	123.75
354.128	92.75
354.355	97.75
354.583	97.75
354.81	90.75
355.037	108.75
355.264	88.75
355.491	92.75
355.718	88.75
355.945	86.75
356.172	98.75
356.399	94.75
356.626	86.75
356.853	86.75
357.08	98.75
357.307	80.75
357.534	88.75
357.761	93.75
357.988	88.75
358.215	97.75
358.441	92.75
358.668	94.75
358.895	83.75
359.122	87.75
359.349	99.75
359.576	92.75
359.802	101.75
360.029	91.75
360.256	100.75
360.483	87.75
360.709	75.75
360.936	92.75
361.163	93.75
361.39	91.75
361.616	84.75
361.843	84.75
362.07	106.75
362.296	99.75
362.523	95.75
362.749	89.75
362.976	76.75
363.203	86.75
363.429	84.75
363.656	69.75
363.882	93.75
364.109	101.75
364.335	80.75
364.562	82.75
364.788	90.75
365.015	91.75
365.241	90.75
365.468	111.75
365.694	99.75
365.92	93.75
366.147	92.75
366.373	97.75
366.599	91.75
366.826	85.75
367.052	86.75
367.278	91.75
367.505	89.75
367.731	102.75
367.957	89.75
368.184	84.75
368.41	99.75
368.636	105.75
368.862	120.75
369.089	104.75
369.315	95.75
369.541	85.75
369.767	88.75
369.993	84.75
370.219	78.75
370.445	68.75
370.672	92.75
370.898	89.75
371.124	82.75
371.35	86.75
371.576	72.75
371.802	84.75
372.028	79.75
372.254	92.75
372.48	79.75
372.706	90.75
372.932	89.75
373.158	85.75
373.384	88.75
373.61	88.75
373.835	83.75
374.061	87.75
374.287	79.75
374.513	83.75
374.739	72.75
374.965	76.75
375.191	97.75
375.416	90.75
375.642	93.75
375.868	84.75
376.094	79.75
376.319	81.75
376.545	98.75
376.771	81.75
376.997	90.75
377.222	90.75
377.448	85.75
377.674	83.75
377.899	91.75
378.125	87.75
378.35	92.75
378.576	93.75
378.802	87.75
379.027	80.75
379.253	100.75
379.478	70.75
379.704	77.75
379.929	90.75
380.155	77.75
380.38	115.75
380.606	103.75
380.831	99.75
381.057	89.75
381.282	94.75
381.507	86.75
381.733	96.75
381.958	105.75
382.184	95.75
382.409	100.75
382.634	102.75
382.86	111.75
383.085	96.75
383.31	107.75
383.535	98.75
383.761	98.75
383.986	94.75
384.211	84.75
384.436	109.75
384.662	105.75
384.887	98.75
385.112	105.75
385.337	96.75
385.562	99.75
385.787	108.75
386.013	107.75
386.238	106.75
386.463	99.75
386.688	106.75
386.913	100.75
387.138	102.75
387.363	94.75
387.588	98.75
387.813	90.75
388.038	110.75
388.263	109.75
388.488	111.75
388.713	97.75
388.938	99.75
389.163	88.75
389.387	94.75
389.612	99.75
389.837	90.75
390.062	98.75
390.287	86.75
390.512	94.75
390.736	83.75
390.961	93.75
391.186	94.75
391.411	93.75
391.636	90.75
391.86	80.75
392.085	87.75
392.31	86.75
392.534	89.75
392.759	80.75
392.984	74.75
393.208	67.75
393.433	86.75
393.658	95.75
393.882	75.75
394.107	70.75
394.331	80.75
394.556	85.75
394.78	105.75
395.005	94.75
395.229	67.75
395.454	89.75
395.678	83.75
395.903	80.75
396.127	96.75
396.352	86.75
396.576	76.75
396.801	90.75
397.025	81.75
397.249	89.75
397.474	93.75
397.698	89.75
397.922	79.75
398.147	84.75
398.371	74.75
398.595	73.75
398.82	91.75
399.044	89.75
399.268	86.75
399.492	92.75
399.717	80.75
399.941	95.75
400.165	84.75
400.389	92.75
400.613	99.75
400.837	91.75
401.062	84.75
401.286	78.75
401.51	88.75
401.734	84.75
401.958	100.75
402.182	117.75
402.406	146.75
402.63	119.75
402.854	94.75
403.078	70.75
403.302	82.75
403.526	81.75
403.75	85.75
403.974	86.75
404.198	82.75
404.422	80.75
404.645	94.75
404.869	87.75
405.093	83.75
405.317	98.75
405.541	94.75
405.765	101.75
405.988	111.75
406.212	167.75
406.436	213.75
406.66	136.75
406.883	90.75
407.107	78.75
407.331	88.75
407.555	93.75
407.778	98.75
408.002	97.75
408.226	90.75
408.449	93.75
408.673	74.75
408.896	92.75
409.12	68.75
409.344	82.75
409.567	77.75
409.791	82.75
410.014	88.75
410.238	95.75
410.461	100.75
410.685	96.75
410.908	98.75
411.132	100.75
411.355	91.75
411.578	83.75
411.802	83.75
412.025	96.75
412.249	93.75
412.472	101.75
412.695	72.75
412.919	98.75
413.142	89.75
413.365	76.75
413.589	78.75
413.812	97.75
414.035	88.75
414.258	86.75
414.482	89.75
414.705	85.75
414.928	90.75
415.151	90.75
415.374	90.75
415.597	104.75
415.821	96.75
416.044	78.75
416.267	95.75
416.49	86.75
416.713	96.75
416.936	96.75
417.159	96.75
417.382	94.75
417.605	85.75
417.828	84.75
418.051	87.75
418.274	83.75
418.497	88.75
418.72	83.75
418.943	94.75
419.166	89.75
419.389	81.75
419.611	85.75
419.834	97.75
420.057	99.75
420.28	79.75
420.503	86.75
420.726	70.75
420.948	95.75
421.171	87.75
421.394	62.75
421.617	89.75
421.839	97.75
422.062	82.75
422.285	104.75
422.507	91.75
422.73	85.75
422.953	88.75
423.175	90.75
423.398	90.75
423.621	79.75
423.843	90.75
424.066	100.75
424.288	86.75
424.511	89.75
424.733	87.75
424.956	94.75
425.178	103.75
425.401	110.75
425.623	105.75
425.846	87.75
426.068	94.75
426.291	96.75
426.513	83.75
426.735	86.75
426.958	89.75
427.18	120.75
427.402	130.75
427.625	147.75
427.847	140.75
428.069	104.75
428.292	100.75
428.514	83.75
428.736	90.75
428.958	86.75
429.181	83.75
429.403	85.75
429.625	98.75
429.847	92.75
430.069	85.75
430.292	72.75
430.514	88.75
430.736	73.75
430.958	82.75
431.18	83.75
431.402	82.75
431.624	88.75
431.846	99.75
432.068	93.75
432.29	80.75
432.512	88.75
432.734	89.75
432.956	78.75
433.178	93.75
433.4	90.75
433.622	101.75
433.844	81.75
434.066	86.75
434.287	86.75
434.509	76.75
434.731	102.75
434.953	85.75
435.175	91.75
435.397	80.75
435.618	99.75
435.84	84.75
436.062	121.75
436.284	120.75
436.505	96.75
436.727	89.75
436.949	92.75
437.17	76.75
437.392	79.75
437.614	94.75
437.835	101.75
438.057	113.75
438.278	102.75
438.5	93.75
438.721	119.75
438.943	101.75
439.165	84.75
439.386	93.75
439.608	95.75
439.829	95.75
440.05	104.75
440.272	116.75
440.493	98.75
440.715	91.75
440.936	90.75
441.158	94.75
441.379	65.75
441.6	96.75
441.822	93.75
442.043	95.75
442.264	96.75
442.486	101.75
442.707	86.75
442.928	91.75
443.149	123.75
443.371	120.75
443.592	90.75
443.813	105.75
444.034	108.75
444.255	101.75
444.476	89.75
444.698	87.75
444.919	83.75
445.14	125.75
445.361	122.75
445.582	102.75
445.803	144.75
446.024	133.75
446.245	113.75
446.466	96.75
446.687	78.75
446.908	99.75
447.129	96.75
447.35	92.75
447.571	87.75
447.792	73.75
448.013	93.75
448.234	109.75
448.455	96.75
448.675	114.75
448.896	113.75
449.117	98.75
449.338	94.75
449.559	115.75
449.779	140.75
450	78.75
450.221	88.75
450.442	88.75
450.662	89.75
450.883	89.75
451.104	100.75
451.324	91.75
451.545	92.75
451.766	86.75
451.986	81.75
452.207	84.75
452.428	100.75
452.648	86.75
452.869	100.75
453.089	109.75
453.31	99.75
453.53	86.75
453.751	84.75
453.971	106.75
454.192	118.75
454.412	92.75
454.633	95.75
454.853	90.75
455.073	82.75
455.294	87.75
455.514	92.75
455.734	79.75
455.955	81.75
456.175	90.75
456.395	88.75
456.616	90.75
456.836	100.75
457.056	93.75
457.276	84.75
457.497	70.75
457.717	91.75
457.937	86.75
458.157	94.75
458.377	99.75
458.598	101.75
458.818	129.75
459.038	150.75
459.258	108.75
459.478	94.75
459.698	83.75
459.918	66.75
460.138	86.75
460.358	73.75
460.578	94.75
460.798	82.75
461.018	80.75
461.238	75.75
461.458	80.75
461.678	90.75
461.898	87.75
462.118	85.75
462.338	84.75
462.558	91.75
462.777	83.75
462.997	76.75
463.217	91.75
463.437	78.75
463.657	78.75
463.876	83.75
464.096	91.75
464.316	75.75
464.536	88.75
464.755	97.75
464.975	107.75
465.195	156.75
465.414	148.75
465.634	89.75
465.854	86.75
466.073	86.75
466.293	95.75
466.512	85.75
466.732	92.75
466.951	84.75
467.171	84.75
467.391	88.75
467.61	105.75
467.829	90.75
468.049	78.75
468.268	85.75
468.488	92.75
468.707	81.75
468.927	76.75
469.146	76.75
469.365	84.75
469.585	74.75
469.804	90.75
470.023	81.75
470.243	101.75
470.462	91.75
470.681	98.75
470.901	85.75
471.12	84.75
471.339	92.75
471.558	74.75
471.777	82.75
471.997	87.75
472.216	82.75
472.435	85.75
472.654	89.75
472.873	78.75
473.092	86.75
473.311	82.75
473.53	96.75
473.749	88.75
473.968	85.75
474.187	101.75
474.406	82.75
474.625	76.75
474.844	75.75
475.063	89.75
475.282	82.75
475.501	82.75
475.72	91.75
475.939	98.75
476.158	96.75
476.377	72.75
476.596	79.75
476.814	89.75
477.033	98.75
477.252	83.75
477.471	90.75
477.69	86.75
477.908	89.75
478.127	79.75
478.346	80.75
478.564	86.75
478.783	94.75
479.002	99.75
479.22	92.75
479.439	102.75
479.658	108.75
479.876	92.75
480.095	72.75
480.313	90.75
480.532	97.75
480.751	93.75
480.969	91.75
481.188	97.75
481.406	96.75
481.624	86.75
481.843	85.75
482.061	74.75
482.28	89.75
482.498	99.75
482.717	97.75
482.935	88.75
483.153	98.75
483.372	94.75
483.59	84.75
483.808	83.75
484.027	93.75
484.245	85.75
484.463	91.75
484.681	104.75
484.9	93.75
485.118	97.75
485.336	89.75
485.554	91.75
485.772	99.75
485.99	104.75
486.209	92.75
486.427	102.75
486.645	103.75
486.863	93.75
487.081	88.75
487.299	99.75
487.517	97.75
487.735	99.75
487.953	105.75
488.171	103.75
488.389	84.75
488.607	93.75
488.825	92.75
489.043	102.75
489.261	96.75
489.479	85.75
489.696	74.75
489.914	79.75
490.132	80.75
490.35	93.75
490.568	101.75
490.786	91.75
491.003	89.75
491.221	104.75
491.439	87.75
491.657	87.75
491.874	103.75
492.092	95.75
492.31	84.75
492.527	112.75
492.745	90.75
492.963	93.75
493.18	86.75
493.398	91.75
493.615	88.75
493.833	108.75
494.05	89.75
494.268	79.75
494.485	91.75
494.703	90.75
494.92	75.75
495.138	77.75
495.355	87.75
495.573	99.75
495.79	90.75
496.008	101.75
496.225	92.75
496.442	92.75
496.66	83.75
496.877	80.75
497.094	94.75
497.312	88.75
497.529	92.75
497.746	82.75
497.963	107.75
498.181	82.75
498.398	92.75
498.615	92.75
498.832	87.75
499.049	96.75
499.267	82.75
499.484	75.75
499.701	89.75
499.918	90.75
500.135	83.75
500.352	81.75
500.569	97.75
500.786	94.75
501.003	85.75
501.22	82.75
501.437	84.75
501.654	105.75
501.871	104.75
502.088	76.75
502.305	87.75
502.522	96.75
502.739	90.75
502.956	77.75
503.172	95.75
503.389	92.75
503.606	106.75
503.823	92.75
504.04	98.75
504.256	86.75
504.473	81.75
504.69	81.75
504.907	90.75
505.123	87.75
505.34	85.75
505.557	85.75
505.773	94.75
505.99	88.75
506.207	85.75
506.423	93.75
506.64	97.75
506.856	99.75
507.073	76.75
507.289	90.75
507.506	90.75
507.722	106.75
507.939	102.75
508.155	86.75
508.372	101.75
508.588	104.75
508.805	88.75
509.021	98.75
509.238	82.75
509.454	84.75
509.67	90.75
509.887	109.75
510.103	135.75
510.319	216.75
510.536	733.75
510.752	2276.75
510.968	633.75
511.184	160.75
511.401	102.75
511.617	98.75
511.833	102.75
512.049	73.75
512.265	76.75
512.481	72.75
512.698	91.75
512.914	86.75
513.13	108.75
513.346	86.75
513.562	90.75
513.778	97.75
513.994	98.75
514.21	101.75
514.426	116.75
514.642	126.75
514.858	112.75
515.074	164.75
515.29	445.75
515.506	1378.75
515.721	516.75
515.937	138.75
516.153	105.75
516.369	82.75
516.585	78.75
516.801	101.75
