Data from Uncirc_2005_H10_HRD10591_00069.txt Node
Date: Wed Jan 03 10:28:38 EST 2024
User: Yrep
Spectrometer: HR+D1059
Trigger mode: 1
Integration Time (sec): 1.000000E-1
Scans to average: 1
Electric dark correction enabled: true
Nonlinearity correction enabled: false
Boxcar width: 0
XAxis mode: Wavelengths
Number of Pixels in Spectrum: 2048
>>>>>Begin Spectral Data<<<<<
223.165	-15.06
223.4	-15.06
223.635	-15.06
223.869	3.94
224.104	-22.06
224.338	-15.06
224.573	-24.06
224.808	-2.06
225.042	-13.06
225.277	-11.06
225.511	5.94
225.746	0.94
225.98	20.94
226.215	5.94
226.449	6.94
226.683	13.94
226.918	30.94
227.152	12.94
227.387	40.94
227.621	39.94
227.856	46.94
228.09	53.94
228.324	61.94
228.559	55.94
228.793	69.94
229.027	64.94
229.262	70.94
229.496	67.94
229.73	85.94
229.964	73.94
230.199	76.94
230.433	73.94
230.667	85.94
230.901	78.94
231.136	72.94
231.37	85.94
231.604	80.94
231.838	71.94
232.072	74.94
232.306	90.94
232.541	74.94
232.775	83.94
233.009	93.94
233.243	80.94
233.477	91.94
233.711	80.94
233.945	78.94
234.179	84.94
234.413	76.94
234.647	89.94
234.881	75.94
235.115	88.94
235.349	93.94
235.583	88.94
235.817	72.94
236.051	77.94
236.285	69.94
236.519	82.94
236.753	66.94
236.987	78.94
237.221	81.94
237.455	83.94
237.689	103.94
237.922	73.94
238.156	70.94
238.39	74.94
238.624	78.94
238.858	81.94
239.091	76.94
239.325	78.94
239.559	76.94
239.793	81.94
240.027	69.94
240.26	74.94
240.494	94.94
240.728	85.94
240.961	67.94
241.195	79.94
241.429	86.94
241.662	76.94
241.896	76.94
242.13	65.94
242.363	92.94
242.597	67.94
242.83	78.94
243.064	63.94
243.298	89.94
243.531	86.94
243.765	76.94
243.998	61.94
244.232	72.94
244.465	92.94
244.699	86.94
244.932	80.94
245.166	75.94
245.399	74.94
245.633	71.94
245.866	75.94
246.099	70.94
246.333	81.94
246.566	78.94
246.8	76.94
247.033	94.94
247.266	87.94
247.5	71.94
247.733	81.94
247.966	86.94
248.2	83.94
248.433	80.94
248.666	81.94
248.899	79.94
249.133	73.94
249.366	77.94
249.599	108.94
249.832	84.94
250.066	84.94
250.299	72.94
250.532	86.94
250.765	86.94
250.998	104.94
251.231	75.94
251.465	86.94
251.698	70.94
251.931	75.94
252.164	76.94
252.397	83.94
252.63	84.94
252.863	94.94
253.096	87.94
253.329	82.94
253.562	71.94
253.795	83.94
254.028	71.94
254.261	80.94
254.494	96.94
254.727	83.94
254.96	75.94
255.193	88.94
255.426	70.94
255.659	65.94
255.892	81.94
256.124	86.94
256.357	105.94
256.59	80.94
256.823	79.94
257.056	69.94
257.289	79.94
257.521	91.94
257.754	87.94
257.987	79.94
258.22	93.94
258.452	89.94
258.685	72.94
258.918	90.94
259.151	77.94
259.383	81.94
259.616	84.94
259.849	64.94
260.081	94.94
260.314	88.94
260.547	89.94
260.779	81.94
261.012	94.94
261.244	74.94
261.477	76.94
261.71	76.94
261.942	88.94
262.175	112.94
262.407	93.94
262.64	81.94
262.872	61.94
263.105	98.94
263.337	96.94
263.57	78.94
263.802	80.94
264.035	80.94
264.267	73.94
264.499	71.94
264.732	68.94
264.964	101.94
265.197	77.94
265.429	80.94
265.661	81.94
265.894	77.94
266.126	84.94
266.358	88.94
266.591	86.94
266.823	89.94
267.055	87.94
267.287	87.94
267.52	85.94
267.752	83.94
267.984	88.94
268.216	96.94
268.448	79.94
268.681	75.94
268.913	93.94
269.145	95.94
269.377	98.94
269.609	84.94
269.841	86.94
270.073	97.94
270.306	89.94
270.538	86.94
270.77	71.94
271.002	82.94
271.234	76.94
271.466	78.94
271.698	73.94
271.93	88.94
272.162	81.94
272.394	95.94
272.626	87.94
272.858	73.94
273.09	95.94
273.322	88.94
273.553	79.94
273.785	83.94
274.017	84.94
274.249	80.94
274.481	89.94
274.713	89.94
274.945	85.94
275.176	89.94
275.408	78.94
275.64	83.94
275.872	80.94
276.104	88.94
276.335	97.94
276.567	78.94
276.799	103.94
277.031	98.94
277.262	99.94
277.494	75.94
277.726	84.94
277.957	89.94
278.189	80.94
278.421	97.94
278.652	93.94
278.884	79.94
279.115	93.94
279.347	89.94
279.579	85.94
279.81	70.94
280.042	80.94
280.273	70.94
280.505	82.94
280.736	84.94
280.968	91.94
281.199	88.94
281.431	85.94
281.662	94.94
281.894	93.94
282.125	110.94
282.356	124.94
282.588	120.94
282.819	102.94
283.051	85.94
283.282	87.94
283.513	100.94
283.745	76.94
283.976	90.94
284.207	83.94
284.439	94.94
284.67	80.94
284.901	89.94
285.132	87.94
285.364	92.94
285.595	92.94
285.826	97.94
286.057	84.94
286.288	63.94
286.52	82.94
286.751	84.94
286.982	80.94
287.213	89.94
287.444	94.94
287.675	90.94
287.906	93.94
288.138	81.94
288.369	90.94
288.6	107.94
288.831	84.94
289.062	85.94
289.293	82.94
289.524	82.94
289.755	85.94
289.986	76.94
290.217	87.94
290.448	103.94
290.679	88.94
290.91	88.94
291.141	85.94
291.371	87.94
291.602	85.94
291.833	96.94
292.064	89.94
292.295	94.94
292.526	93.94
292.757	99.94
292.987	97.94
293.218	81.94
293.449	80.94
293.68	89.94
293.91	100.94
294.141	101.94
294.372	88.94
294.603	96.94
294.833	88.94
295.064	88.94
295.295	82.94
295.525	100.94
295.756	109.94
295.987	114.94
296.217	129.94
296.448	117.94
296.679	86.94
296.909	92.94
297.14	95.94
297.37	98.94
297.601	98.94
297.831	80.94
298.062	79.94
298.292	89.94
298.523	94.94
298.753	87.94
298.984	84.94
299.214	86.94
299.445	83.94
299.675	85.94
299.905	88.94
300.136	89.94
300.366	80.94
300.597	113.94
300.827	95.94
301.057	101.94
301.288	97.94
301.518	100.94
301.748	93.94
301.979	103.94
302.209	90.94
302.439	93.94
302.669	94.94
302.9	93.94
303.13	95.94
303.36	91.94
303.59	79.94
303.82	98.94
304.051	85.94
304.281	90.94
304.511	88.94
304.741	85.94
304.971	96.94
305.201	86.94
305.431	85.94
305.661	101.94
305.891	94.94
306.121	94.94
306.352	102.94
306.582	92.94
306.812	98.94
307.042	91.94
307.272	89.94
307.502	89.94
307.731	103.94
307.961	88.94
308.191	96.94
308.421	88.94
308.651	94.94
308.881	91.94
309.111	91.94
309.341	95.94
309.571	101.94
309.8	91.94
310.03	94.94
310.26	85.94
310.49	87.94
310.72	97.94
310.949	96.94
311.179	97.94
311.409	104.94
311.639	93.94
311.868	71.94
312.098	100.94
312.328	97.94
312.557	94.94
312.787	103.94
313.017	96.94
313.246	99.94
313.476	86.94
313.706	86.94
313.935	113.94
314.165	96.94
314.394	94.94
314.624	100.94
314.853	99.94
315.083	93.94
315.312	100.94
315.542	96.94
315.771	98.94
316.001	100.94
316.23	89.94
316.46	94.94
316.689	73.94
316.919	97.94
317.148	90.94
317.377	99.94
317.607	86.94
317.836	92.94
318.065	99.94
318.295	96.94
318.524	101.94
318.753	92.94
318.983	94.94
319.212	117.94
319.441	101.94
319.67	84.94
319.9	72.94
320.129	86.94
320.358	102.94
320.587	103.94
320.816	93.94
321.046	95.94
321.275	90.94
321.504	92.94
321.733	104.94
321.962	110.94
322.191	87.94
322.42	108.94
322.649	116.94
322.878	104.94
323.108	120.94
323.337	120.94
323.566	133.94
323.795	151.94
324.024	202.94
324.253	384.94
324.482	801.94
324.71	1643.94
324.939	2187.94
325.168	779.94
325.397	232.94
325.626	130.94
325.855	136.94
326.084	124.94
326.313	115.94
326.542	155.94
326.77	219.94
326.999	433.94
327.228	934.94
327.457	1695.94
327.686	1350.94
327.914	343.94
328.143	173.94
328.372	147.94
328.6	117.94
328.829	113.94
329.058	117.94
329.287	130.94
329.515	97.94
329.744	105.94
329.972	99.94
330.201	105.94
330.43	99.94
330.658	114.94
330.887	148.94
331.115	113.94
331.344	102.94
331.572	104.94
331.801	107.94
332.03	87.94
332.258	91.94
332.486	102.94
332.715	92.94
332.943	112.94
333.172	101.94
333.4	107.94
333.629	102.94
333.857	111.94
334.085	105.94
334.314	110.94
334.542	92.94
334.771	96.94
334.999	95.94
335.227	94.94
335.455	97.94
335.684	102.94
335.912	107.94
336.14	110.94
336.369	92.94
336.597	107.94
336.825	100.94
337.053	91.94
337.281	92.94
337.51	87.94
337.738	89.94
337.966	85.94
338.194	86.94
338.422	100.94
338.65	112.94
338.878	93.94
339.106	93.94
339.334	103.94
339.562	93.94
339.79	92.94
340.018	84.94
340.246	98.94
340.474	91.94
340.702	101.94
340.93	97.94
341.158	96.94
341.386	97.94
341.614	93.94
341.842	85.94
342.07	98.94
342.298	100.94
342.526	92.94
342.754	83.94
342.981	93.94
343.209	91.94
343.437	93.94
343.665	93.94
343.893	104.94
344.12	71.94
344.348	84.94
344.576	93.94
344.804	98.94
345.031	99.94
345.259	106.94
345.487	102.94
345.714	99.94
345.942	84.94
346.17	94.94
346.397	106.94
346.625	99.94
346.853	88.94
347.08	88.94
347.308	94.94
347.535	87.94
347.763	100.94
347.99	91.94
348.218	104.94
348.445	102.94
348.673	90.94
348.9	104.94
349.128	96.94
349.355	95.94
349.583	99.94
349.81	83.94
350.037	91.94
350.265	101.94
350.492	107.94
350.72	104.94
350.947	106.94
351.174	108.94
351.402	112.94
351.629	120.94
351.856	94.94
352.083	103.94
352.311	111.94
352.538	103.94
352.765	101.94
352.992	130.94
353.22	115.94
353.447	107.94
353.674	107.94
353.901	102.94
354.128	108.94
354.355	100.94
354.583	91.94
354.81	102.94
355.037	100.94
355.264	100.94
355.491	80.94
355.718	89.94
355.945	100.94
356.172	107.94
356.399	97.94
356.626	93.94
356.853	111.94
357.08	103.94
357.307	103.94
357.534	89.94
357.761	88.94
357.988	105.94
358.215	93.94
358.441	99.94
358.668	108.94
358.895	87.94
359.122	97.94
359.349	99.94
359.576	86.94
359.802	102.94
360.029	99.94
360.256	99.94
360.483	86.94
360.709	91.94
360.936	87.94
361.163	102.94
361.39	95.94
361.616	101.94
361.843	86.94
362.07	94.94
362.296	94.94
362.523	97.94
362.749	85.94
362.976	103.94
363.203	104.94
363.429	85.94
363.656	89.94
363.882	95.94
364.109	96.94
364.335	92.94
364.562	89.94
364.788	92.94
365.015	91.94
365.241	102.94
365.468	102.94
365.694	102.94
365.92	102.94
366.147	92.94
366.373	89.94
366.599	82.94
366.826	86.94
367.052	96.94
367.278	84.94
367.505	84.94
367.731	95.94
367.957	85.94
368.184	99.94
368.41	100.94
368.636	96.94
368.862	111.94
369.089	107.94
369.315	93.94
369.541	84.94
369.767	85.94
369.993	87.94
370.219	83.94
370.445	76.94
370.672	72.94
370.898	87.94
371.124	97.94
371.35	90.94
371.576	88.94
371.802	93.94
372.028	74.94
372.254	84.94
372.48	95.94
372.706	92.94
372.932	88.94
373.158	88.94
373.384	97.94
373.61	87.94
373.835	93.94
374.061	92.94
374.287	92.94
374.513	84.94
374.739	86.94
374.965	98.94
375.191	84.94
375.416	96.94
375.642	89.94
375.868	81.94
376.094	97.94
376.319	95.94
376.545	107.94
376.771	89.94
376.997	81.94
377.222	89.94
377.448	83.94
377.674	89.94
377.899	101.94
378.125	100.94
378.35	98.94
378.576	100.94
378.802	85.94
379.027	80.94
379.253	91.94
379.478	94.94
379.704	97.94
379.929	82.94
380.155	91.94
380.38	87.94
380.606	102.94
380.831	96.94
381.057	90.94
381.282	106.94
381.507	98.94
381.733	89.94
381.958	104.94
382.184	94.94
382.409	110.94
382.634	95.94
382.86	91.94
383.085	94.94
383.31	94.94
383.535	113.94
383.761	112.94
383.986	112.94
384.211	98.94
384.436	94.94
384.662	97.94
384.887	117.94
385.112	112.94
385.337	116.94
385.562	106.94
385.787	107.94
386.013	107.94
386.238	112.94
386.463	101.94
386.688	105.94
386.913	107.94
387.138	103.94
387.363	102.94
387.588	100.94
387.813	115.94
388.038	121.94
388.263	109.94
388.488	113.94
388.713	95.94
388.938	104.94
389.163	111.94
389.387	106.94
389.612	104.94
389.837	89.94
390.062	89.94
390.287	96.94
390.512	87.94
390.736	96.94
390.961	103.94
391.186	93.94
391.411	93.94
391.636	84.94
391.86	95.94
392.085	95.94
392.31	94.94
392.534	88.94
392.759	89.94
392.984	95.94
393.208	75.94
393.433	83.94
393.658	82.94
393.882	75.94
394.107	83.94
394.331	83.94
394.556	89.94
394.78	90.94
395.005	94.94
395.229	81.94
395.454	89.94
395.678	83.94
395.903	91.94
396.127	93.94
396.352	71.94
396.576	93.94
396.801	92.94
397.025	102.94
397.249	87.94
397.474	92.94
397.698	93.94
397.922	87.94
398.147	87.94
398.371	82.94
398.595	91.94
398.82	96.94
399.044	95.94
399.268	87.94
399.492	95.94
399.717	80.94
399.941	79.94
400.165	87.94
400.389	69.94
400.613	77.94
400.837	84.94
401.062	93.94
401.286	83.94
401.51	99.94
401.734	97.94
401.958	99.94
402.182	134.94
402.406	133.94
402.63	99.94
402.854	108.94
403.078	95.94
403.302	96.94
403.526	94.94
403.75	84.94
403.974	90.94
404.198	99.94
404.422	85.94
404.645	76.94
404.869	89.94
405.093	89.94
405.317	113.94
405.541	87.94
405.765	90.94
405.988	107.94
406.212	143.94
406.436	185.94
406.66	143.94
406.883	109.94
407.107	77.94
407.331	95.94
407.555	98.94
407.778	79.94
408.002	92.94
408.226	85.94
408.449	100.94
408.673	100.94
408.896	88.94
409.12	97.94
409.344	89.94
409.567	95.94
409.791	93.94
410.014	89.94
410.238	89.94
410.461	89.94
410.685	87.94
410.908	105.94
411.132	123.94
411.355	102.94
411.578	94.94
411.802	89.94
412.025	89.94
412.249	83.94
412.472	99.94
412.695	101.94
412.919	104.94
413.142	79.94
413.365	100.94
413.589	95.94
413.812	101.94
414.035	114.94
414.258	87.94
414.482	101.94
414.705	91.94
414.928	102.94
415.151	87.94
415.374	96.94
415.597	88.94
415.821	107.94
416.044	98.94
416.267	83.94
416.49	89.94
416.713	92.94
416.936	92.94
417.159	95.94
417.382	76.94
417.605	88.94
417.828	101.94
418.051	97.94
418.274	106.94
418.497	92.94
418.72	89.94
418.943	86.94
419.166	86.94
419.389	73.94
419.611	89.94
419.834	94.94
420.057	75.94
420.28	80.94
420.503	102.94
420.726	83.94
420.948	88.94
421.171	94.94
421.394	86.94
421.617	76.94
421.839	94.94
422.062	86.94
422.285	85.94
422.507	107.94
422.73	90.94
422.953	87.94
423.175	94.94
423.398	85.94
423.621	93.94
423.843	86.94
424.066	97.94
424.288	97.94
424.511	93.94
424.733	101.94
424.956	100.94
425.178	104.94
425.401	108.94
425.623	109.94
425.846	97.94
426.068	96.94
426.291	87.94
426.513	96.94
426.735	97.94
426.958	83.94
427.18	85.94
427.402	126.94
427.625	152.94
427.847	121.94
428.069	109.94
428.292	99.94
428.514	81.94
428.736	85.94
428.958	70.94
429.181	85.94
429.403	84.94
429.625	83.94
429.847	95.94
430.069	96.94
430.292	88.94
430.514	74.94
430.736	86.94
430.958	70.94
431.18	90.94
431.402	87.94
431.624	93.94
431.846	86.94
432.068	91.94
432.29	96.94
432.512	93.94
432.734	111.94
432.956	80.94
433.178	97.94
433.4	98.94
433.622	79.94
433.844	88.94
434.066	83.94
434.287	89.94
434.509	89.94
434.731	97.94
434.953	91.94
435.175	89.94
435.397	87.94
435.618	90.94
435.84	98.94
436.062	104.94
436.284	111.94
436.505	104.94
436.727	104.94
436.949	100.94
437.17	97.94
437.392	95.94
437.614	98.94
437.835	83.94
438.057	114.94
438.278	121.94
438.5	97.94
438.721	110.94
438.943	99.94
439.165	87.94
439.386	86.94
439.608	94.94
439.829	91.94
440.05	108.94
440.272	126.94
440.493	77.94
440.715	87.94
440.936	88.94
441.158	97.94
441.379	86.94
441.6	91.94
441.822	93.94
442.043	95.94
442.264	112.94
442.486	108.94
442.707	105.94
442.928	102.94
443.149	122.94
443.371	116.94
443.592	105.94
443.813	94.94
444.034	97.94
444.255	92.94
444.476	100.94
444.698	81.94
444.919	85.94
445.14	123.94
445.361	127.94
445.582	114.94
445.803	123.94
446.024	105.94
446.245	118.94
446.466	98.94
446.687	99.94
446.908	87.94
447.129	89.94
447.35	82.94
447.571	90.94
447.792	80.94
448.013	93.94
448.234	108.94
448.455	104.94
448.675	104.94
448.896	112.94
449.117	99.94
449.338	97.94
449.559	132.94
449.779	134.94
450	87.94
450.221	88.94
450.442	104.94
450.662	103.94
450.883	93.94
451.104	119.94
451.324	90.94
451.545	85.94
451.766	81.94
451.986	80.94
452.207	96.94
452.428	89.94
452.648	108.94
452.869	105.94
453.089	107.94
453.31	129.94
453.53	98.94
453.751	94.94
453.971	105.94
454.192	105.94
454.412	89.94
454.633	95.94
454.853	87.94
455.073	104.94
455.294	100.94
455.514	102.94
455.734	88.94
455.955	104.94
456.175	83.94
456.395	84.94
456.616	82.94
456.836	89.94
457.056	102.94
457.276	77.94
457.497	80.94
457.717	79.94
457.937	89.94
458.157	98.94
458.377	103.94
458.598	104.94
458.818	134.94
459.038	137.94
459.258	110.94
459.478	97.94
459.698	79.94
459.918	86.94
460.138	83.94
460.358	88.94
460.578	95.94
460.798	80.94
461.018	93.94
461.238	81.94
461.458	86.94
461.678	91.94
461.898	85.94
462.118	91.94
462.338	81.94
462.558	81.94
462.777	97.94
462.997	93.94
463.217	90.94
463.437	78.94
463.657	87.94
463.876	98.94
464.096	96.94
464.316	86.94
464.536	95.94
464.755	102.94
464.975	109.94
465.195	142.94
465.414	143.94
465.634	89.94
465.854	96.94
466.073	98.94
466.293	105.94
466.512	105.94
466.732	89.94
466.951	86.94
467.171	86.94
467.391	86.94
467.61	99.94
467.829	96.94
468.049	91.94
468.268	86.94
468.488	84.94
468.707	79.94
468.927	84.94
469.146	82.94
469.365	89.94
469.585	79.94
469.804	104.94
470.023	96.94
470.243	95.94
470.462	95.94
470.681	102.94
470.901	79.94
471.12	102.94
471.339	103.94
471.558	85.94
471.777	90.94
471.997	95.94
472.216	106.94
472.435	107.94
472.654	89.94
472.873	82.94
473.092	86.94
473.311	88.94
473.53	94.94
473.749	95.94
473.968	87.94
474.187	95.94
474.406	89.94
474.625	93.94
474.844	77.94
475.063	89.94
475.282	95.94
475.501	87.94
475.72	89.94
475.939	91.94
476.158	75.94
476.377	74.94
476.596	87.94
476.814	91.94
477.033	82.94
477.252	86.94
477.471	88.94
477.69	88.94
477.908	86.94
478.127	87.94
478.346	102.94
478.564	86.94
478.783	94.94
479.002	92.94
479.22	87.94
479.439	89.94
479.658	97.94
479.876	88.94
480.095	80.94
480.313	98.94
480.532	87.94
480.751	110.94
480.969	100.94
481.188	99.94
481.406	93.94
481.624	83.94
481.843	92.94
482.061	87.94
482.28	96.94
482.498	85.94
482.717	84.94
482.935	91.94
483.153	79.94
483.372	77.94
483.59	96.94
483.808	101.94
484.027	91.94
484.245	93.94
484.463	86.94
484.681	91.94
484.9	94.94
485.118	101.94
485.336	95.94
485.554	96.94
485.772	73.94
485.99	91.94
486.209	102.94
486.427	92.94
486.645	108.94
486.863	115.94
487.081	98.94
487.299	100.94
487.517	103.94
487.735	95.94
487.953	90.94
488.171	91.94
488.389	102.94
488.607	85.94
488.825	99.94
489.043	88.94
489.261	88.94
489.479	96.94
489.696	87.94
489.914	92.94
490.132	81.94
490.35	81.94
490.568	94.94
490.786	82.94
491.003	92.94
491.221	77.94
491.439	95.94
491.657	93.94
491.874	91.94
492.092	94.94
492.31	89.94
492.527	93.94
492.745	94.94
492.963	106.94
493.18	83.94
493.398	94.94
493.615	83.94
493.833	97.94
494.05	101.94
494.268	93.94
494.485	94.94
494.703	87.94
494.92	87.94
495.138	95.94
495.355	98.94
495.573	87.94
495.79	95.94
496.008	99.94
496.225	97.94
496.442	94.94
496.66	87.94
496.877	81.94
497.094	89.94
497.312	84.94
497.529	79.94
497.746	96.94
497.963	98.94
498.181	94.94
498.398	91.94
498.615	96.94
498.832	107.94
499.049	89.94
499.267	103.94
499.484	88.94
499.701	74.94
499.918	98.94
500.135	95.94
500.352	95.94
500.569	98.94
500.786	91.94
501.003	87.94
501.22	85.94
501.437	99.94
501.654	96.94
501.871	96.94
502.088	109.94
502.305	97.94
502.522	83.94
502.739	92.94
502.956	91.94
503.172	85.94
503.389	88.94
503.606	113.94
503.823	83.94
504.04	83.94
504.256	94.94
504.473	86.94
504.69	93.94
504.907	75.94
505.123	81.94
505.34	86.94
505.557	89.94
505.773	94.94
505.99	89.94
506.207	88.94
506.423	103.94
506.64	81.94
506.856	99.94
507.073	92.94
507.289	93.94
507.506	86.94
507.722	96.94
507.939	113.94
508.155	105.94
508.372	86.94
508.588	77.94
508.805	88.94
509.021	93.94
509.238	102.94
509.454	101.94
509.67	112.94
509.887	120.94
510.103	119.94
510.319	206.94
510.536	663.94
510.752	1970.94
510.968	559.94
511.184	152.94
511.401	108.94
511.617	98.94
511.833	97.94
512.049	89.94
512.265	99.94
512.481	93.94
512.698	84.94
512.914	89.94
513.13	99.94
513.346	97.94
513.562	107.94
513.778	89.94
513.994	85.94
514.21	82.94
514.426	100.94
514.642	108.94
514.858	106.94
515.074	152.94
515.29	395.94
515.506	1177.94
