Data from Uncirc_2005_H10_HRD10591_00047.txt Node
Date: Wed Jan 03 10:28:34 EST 2024
User: Yrep
Spectrometer: HR+D1059
Trigger mode: 1
Integration Time (sec): 1.000000E-1
Scans to average: 1
Electric dark correction enabled: true
Nonlinearity correction enabled: false
Boxcar width: 0
XAxis mode: Wavelengths
Number of Pixels in Spectrum: 2048
>>>>>Begin Spectral Data<<<<<
223.165	-24.44
223.4	-24.44
223.635	-24.44
223.869	-23.44
224.104	-29.44
224.338	-12.44
224.573	-17.44
224.808	-8.44
225.042	2.56
225.277	-4.44
225.511	6.56
225.746	12.56
225.98	9.56
226.215	17.56
226.449	18.56
226.683	12.56
226.918	25.56
227.152	14.56
227.387	30.56
227.621	44.56
227.856	42.56
228.09	46.56
228.324	40.56
228.559	51.56
228.793	59.56
229.027	56.56
229.262	47.56
229.496	60.56
229.73	84.56
229.964	82.56
230.199	86.56
230.433	68.56
230.667	73.56
230.901	80.56
231.136	66.56
231.37	73.56
231.604	84.56
231.838	63.56
232.072	72.56
232.306	82.56
232.541	78.56
232.775	70.56
233.009	82.56
233.243	81.56
233.477	76.56
233.711	84.56
233.945	77.56
234.179	74.56
234.413	88.56
234.647	76.56
234.881	74.56
235.115	65.56
235.349	69.56
235.583	67.56
235.817	75.56
236.051	82.56
236.285	71.56
236.519	86.56
236.753	76.56
236.987	84.56
237.221	70.56
237.455	79.56
237.689	73.56
237.922	86.56
238.156	71.56
238.39	82.56
238.624	66.56
238.858	72.56
239.091	89.56
239.325	76.56
239.559	77.56
239.793	66.56
240.027	76.56
240.26	87.56
240.494	70.56
240.728	78.56
240.961	70.56
241.195	65.56
241.429	63.56
241.662	74.56
241.896	63.56
242.13	73.56
242.363	73.56
242.597	66.56
242.83	80.56
243.064	76.56
243.298	75.56
243.531	82.56
243.765	78.56
243.998	74.56
244.232	82.56
244.465	79.56
244.699	68.56
244.932	80.56
245.166	83.56
245.399	68.56
245.633	74.56
245.866	78.56
246.099	69.56
246.333	75.56
246.566	92.56
246.8	78.56
247.033	90.56
247.266	78.56
247.5	74.56
247.733	83.56
247.966	77.56
248.2	75.56
248.433	80.56
248.666	76.56
248.899	75.56
249.133	92.56
249.366	97.56
249.599	69.56
249.832	67.56
250.066	77.56
250.299	74.56
250.532	81.56
250.765	71.56
250.998	72.56
251.231	71.56
251.465	76.56
251.698	83.56
251.931	80.56
252.164	61.56
252.397	71.56
252.63	78.56
252.863	84.56
253.096	81.56
253.329	77.56
253.562	76.56
253.795	75.56
254.028	78.56
254.261	74.56
254.494	82.56
254.727	89.56
254.96	84.56
255.193	83.56
255.426	79.56
255.659	91.56
255.892	86.56
256.124	83.56
256.357	81.56
256.59	81.56
256.823	81.56
257.056	99.56
257.289	86.56
257.521	88.56
257.754	79.56
257.987	73.56
258.22	93.56
258.452	98.56
258.685	71.56
258.918	84.56
259.151	87.56
259.383	89.56
259.616	85.56
259.849	75.56
260.081	81.56
260.314	95.56
260.547	70.56
260.779	74.56
261.012	81.56
261.244	78.56
261.477	85.56
261.71	83.56
261.942	89.56
262.175	103.56
262.407	107.56
262.64	82.56
262.872	89.56
263.105	63.56
263.337	77.56
263.57	75.56
263.802	85.56
264.035	90.56
264.267	93.56
264.499	78.56
264.732	85.56
264.964	87.56
265.197	74.56
265.429	85.56
265.661	79.56
265.894	85.56
266.126	96.56
266.358	74.56
266.591	80.56
266.823	86.56
267.055	77.56
267.287	85.56
267.52	75.56
267.752	89.56
267.984	96.56
268.216	77.56
268.448	85.56
268.681	84.56
268.913	91.56
269.145	86.56
269.377	81.56
269.609	74.56
269.841	80.56
270.073	80.56
270.306	88.56
270.538	73.56
270.77	80.56
271.002	89.56
271.234	75.56
271.466	90.56
271.698	90.56
271.93	91.56
272.162	86.56
272.394	73.56
272.626	91.56
272.858	97.56
273.09	75.56
273.322	95.56
273.553	78.56
273.785	76.56
274.017	86.56
274.249	82.56
274.481	98.56
274.713	80.56
274.945	90.56
275.176	83.56
275.408	79.56
275.64	79.56
275.872	68.56
276.104	100.56
276.335	102.56
276.567	105.56
276.799	110.56
277.031	93.56
277.262	85.56
277.494	84.56
277.726	84.56
277.957	74.56
278.189	87.56
278.421	96.56
278.652	88.56
278.884	80.56
279.115	92.56
279.347	94.56
279.579	77.56
279.81	79.56
280.042	82.56
280.273	85.56
280.505	79.56
280.736	84.56
280.968	76.56
281.199	93.56
281.431	88.56
281.662	97.56
281.894	91.56
282.125	81.56
282.356	91.56
282.588	134.56
282.819	105.56
283.051	86.56
283.282	78.56
283.513	97.56
283.745	77.56
283.976	82.56
284.207	86.56
284.439	71.56
284.67	75.56
284.901	86.56
285.132	80.56
285.364	84.56
285.595	89.56
285.826	99.56
286.057	86.56
286.288	91.56
286.52	81.56
286.751	91.56
286.982	95.56
287.213	95.56
287.444	95.56
287.675	86.56
287.906	100.56
288.138	88.56
288.369	89.56
288.6	81.56
288.831	83.56
289.062	94.56
289.293	95.56
289.524	81.56
289.755	99.56
289.986	85.56
290.217	83.56
290.448	83.56
290.679	93.56
290.91	80.56
291.141	84.56
291.371	85.56
291.602	81.56
291.833	85.56
292.064	82.56
292.295	76.56
292.526	82.56
292.757	76.56
292.987	84.56
293.218	90.56
293.449	89.56
293.68	83.56
293.91	89.56
294.141	89.56
294.372	83.56
294.603	76.56
294.833	82.56
295.064	81.56
295.295	104.56
295.525	93.56
295.756	90.56
295.987	103.56
296.217	125.56
296.448	129.56
296.679	84.56
296.909	97.56
297.14	89.56
297.37	82.56
297.601	100.56
297.831	99.56
298.062	88.56
298.292	87.56
298.523	98.56
298.753	90.56
298.984	91.56
299.214	87.56
299.445	75.56
299.675	81.56
299.905	88.56
300.136	89.56
300.366	81.56
300.597	79.56
300.827	85.56
301.057	94.56
301.288	98.56
301.518	84.56
301.748	79.56
301.979	97.56
302.209	97.56
302.439	95.56
302.669	89.56
302.9	92.56
303.13	74.56
303.36	95.56
303.59	81.56
303.82	97.56
304.051	93.56
304.281	90.56
304.511	81.56
304.741	98.56
304.971	70.56
305.201	87.56
305.431	98.56
305.661	76.56
305.891	83.56
306.121	104.56
306.352	98.56
306.582	96.56
306.812	96.56
307.042	98.56
307.272	87.56
307.502	94.56
307.731	87.56
307.961	72.56
308.191	80.56
308.421	79.56
308.651	97.56
308.881	90.56
309.111	82.56
309.341	96.56
309.571	93.56
309.8	88.56
310.03	81.56
310.26	78.56
310.49	92.56
310.72	92.56
310.949	75.56
311.179	104.56
311.409	89.56
311.639	92.56
311.868	79.56
312.098	93.56
312.328	91.56
312.557	83.56
312.787	94.56
313.017	103.56
313.246	77.56
313.476	84.56
313.706	102.56
313.935	85.56
314.165	96.56
314.394	99.56
314.624	94.56
314.853	84.56
315.083	83.56
315.312	88.56
315.542	85.56
315.771	91.56
316.001	89.56
316.23	84.56
316.46	102.56
316.689	87.56
316.919	101.56
317.148	97.56
317.377	100.56
317.607	93.56
317.836	90.56
318.065	83.56
318.295	91.56
318.524	87.56
318.753	89.56
318.983	89.56
319.212	98.56
319.441	114.56
319.67	93.56
319.9	89.56
320.129	101.56
320.358	93.56
320.587	93.56
320.816	100.56
321.046	93.56
321.275	96.56
321.504	94.56
321.733	89.56
321.962	93.56
322.191	91.56
322.42	97.56
322.649	104.56
322.878	95.56
323.108	104.56
323.337	121.56
323.566	124.56
323.795	146.56
324.024	208.56
324.253	345.56
324.482	721.56
324.71	1490.56
324.939	1893.56
325.168	717.56
325.397	206.56
325.626	147.56
325.855	130.56
326.084	109.56
326.313	120.56
326.542	146.56
326.77	208.56
326.999	422.56
327.228	850.56
327.457	1537.56
327.686	1187.56
327.914	321.56
328.143	161.56
328.372	136.56
328.6	111.56
328.829	111.56
329.058	113.56
329.287	127.56
329.515	95.56
329.744	105.56
329.972	101.56
330.201	92.56
330.43	106.56
330.658	107.56
330.887	138.56
331.115	103.56
331.344	89.56
331.572	89.56
331.801	97.56
332.03	91.56
332.258	91.56
332.486	90.56
332.715	93.56
332.943	86.56
333.172	78.56
333.4	84.56
333.629	103.56
333.857	105.56
334.085	100.56
334.314	78.56
334.542	112.56
334.771	95.56
334.999	91.56
335.227	98.56
335.455	99.56
335.684	107.56
335.912	103.56
336.14	91.56
336.369	98.56
336.597	88.56
336.825	102.56
337.053	96.56
337.281	99.56
337.51	101.56
337.738	93.56
337.966	70.56
338.194	109.56
338.422	96.56
338.65	82.56
338.878	95.56
339.106	86.56
339.334	100.56
339.562	67.56
339.79	84.56
340.018	79.56
340.246	89.56
340.474	96.56
340.702	84.56
340.93	87.56
341.158	80.56
341.386	81.56
341.614	92.56
341.842	91.56
342.07	79.56
342.298	91.56
342.526	89.56
342.754	101.56
342.981	93.56
343.209	70.56
343.437	88.56
343.665	88.56
343.893	78.56
344.12	93.56
344.348	83.56
344.576	88.56
344.804	81.56
345.031	96.56
345.259	93.56
345.487	90.56
345.714	105.56
345.942	85.56
346.17	91.56
346.397	91.56
346.625	94.56
346.853	84.56
347.08	95.56
347.308	89.56
347.535	91.56
347.763	82.56
347.99	105.56
348.218	97.56
348.445	95.56
348.673	92.56
348.9	92.56
349.128	97.56
349.355	92.56
349.583	99.56
349.81	100.56
350.037	112.56
350.265	98.56
350.492	90.56
350.72	111.56
350.947	92.56
351.174	99.56
351.402	107.56
351.629	100.56
351.856	100.56
352.083	85.56
352.311	110.56
352.538	111.56
352.765	95.56
352.992	109.56
353.22	99.56
353.447	115.56
353.674	99.56
353.901	115.56
354.128	102.56
354.355	94.56
354.583	93.56
354.81	124.56
355.037	102.56
355.264	93.56
355.491	93.56
355.718	89.56
355.945	90.56
356.172	99.56
356.399	88.56
356.626	97.56
356.853	90.56
357.08	93.56
357.307	91.56
357.534	73.56
357.761	96.56
357.988	98.56
358.215	79.56
358.441	108.56
358.668	100.56
358.895	97.56
359.122	90.56
359.349	81.56
359.576	94.56
359.802	99.56
360.029	96.56
360.256	103.56
360.483	109.56
360.709	80.56
360.936	90.56
361.163	80.56
361.39	75.56
361.616	76.56
361.843	90.56
362.07	110.56
362.296	93.56
362.523	98.56
362.749	89.56
362.976	87.56
363.203	83.56
363.429	98.56
363.656	83.56
363.882	87.56
364.109	86.56
364.335	83.56
364.562	82.56
364.788	83.56
365.015	94.56
365.241	103.56
365.468	97.56
365.694	90.56
365.92	89.56
366.147	83.56
366.373	89.56
366.599	85.56
366.826	99.56
367.052	102.56
367.278	85.56
367.505	88.56
367.731	91.56
367.957	84.56
368.184	88.56
368.41	101.56
368.636	106.56
368.862	114.56
369.089	96.56
369.315	91.56
369.541	82.56
369.767	81.56
369.993	79.56
370.219	85.56
370.445	91.56
370.672	85.56
370.898	80.56
371.124	78.56
371.35	92.56
371.576	97.56
371.802	83.56
372.028	84.56
372.254	84.56
372.48	86.56
372.706	77.56
372.932	78.56
373.158	78.56
373.384	78.56
373.61	95.56
373.835	100.56
374.061	99.56
374.287	90.56
374.513	89.56
374.739	74.56
374.965	93.56
375.191	88.56
375.416	91.56
375.642	101.56
375.868	96.56
376.094	100.56
376.319	88.56
376.545	83.56
376.771	91.56
376.997	87.56
377.222	90.56
377.448	92.56
377.674	83.56
377.899	95.56
378.125	87.56
378.35	93.56
378.576	95.56
378.802	91.56
379.027	77.56
379.253	83.56
379.478	93.56
379.704	89.56
379.929	90.56
380.155	90.56
380.38	80.56
380.606	89.56
380.831	91.56
381.057	90.56
381.282	98.56
381.507	82.56
381.733	86.56
381.958	97.56
382.184	98.56
382.409	97.56
382.634	96.56
382.86	105.56
383.085	97.56
383.31	102.56
383.535	107.56
383.761	93.56
383.986	104.56
384.211	102.56
384.436	95.56
384.662	98.56
384.887	97.56
385.112	105.56
385.337	102.56
385.562	93.56
385.787	86.56
386.013	114.56
386.238	118.56
386.463	99.56
386.688	96.56
386.913	98.56
387.138	127.56
387.363	103.56
387.588	113.56
387.813	100.56
388.038	99.56
388.263	105.56
388.488	111.56
388.713	97.56
388.938	107.56
389.163	96.56
389.387	100.56
389.612	97.56
389.837	93.56
390.062	103.56
390.287	95.56
390.512	95.56
390.736	86.56
390.961	93.56
391.186	103.56
391.411	84.56
391.636	106.56
391.86	84.56
392.085	82.56
392.31	83.56
392.534	92.56
392.759	89.56
392.984	97.56
393.208	97.56
393.433	96.56
393.658	90.56
393.882	88.56
394.107	77.56
394.331	88.56
394.556	94.56
394.78	100.56
395.005	94.56
395.229	91.56
395.454	87.56
395.678	93.56
395.903	91.56
396.127	85.56
396.352	95.56
396.576	82.56
396.801	95.56
397.025	83.56
397.249	89.56
397.474	93.56
397.698	90.56
397.922	83.56
398.147	79.56
398.371	87.56
398.595	87.56
398.82	94.56
399.044	89.56
399.268	90.56
399.492	94.56
399.717	78.56
399.941	84.56
400.165	93.56
400.389	87.56
400.613	77.56
400.837	84.56
401.062	102.56
401.286	79.56
401.51	106.56
401.734	93.56
401.958	95.56
402.182	117.56
402.406	133.56
402.63	116.56
402.854	110.56
403.078	87.56
403.302	98.56
403.526	94.56
403.75	76.56
403.974	76.56
404.198	90.56
404.422	83.56
404.645	96.56
404.869	94.56
405.093	84.56
405.317	102.56
405.541	89.56
405.765	98.56
405.988	102.56
406.212	152.56
406.436	188.56
406.66	134.56
406.883	104.56
407.107	77.56
407.331	88.56
407.555	91.56
407.778	88.56
408.002	105.56
408.226	71.56
408.449	87.56
408.673	98.56
408.896	108.56
409.12	92.56
409.344	89.56
409.567	94.56
409.791	81.56
410.014	82.56
410.238	88.56
410.461	81.56
410.685	84.56
410.908	93.56
411.132	109.56
411.355	93.56
411.578	93.56
411.802	89.56
412.025	87.56
412.249	88.56
412.472	89.56
412.695	83.56
412.919	93.56
413.142	99.56
413.365	86.56
413.589	95.56
413.812	91.56
414.035	91.56
414.258	85.56
414.482	92.56
414.705	96.56
414.928	86.56
415.151	87.56
415.374	93.56
415.597	82.56
415.821	77.56
416.044	86.56
416.267	95.56
416.49	79.56
416.713	86.56
416.936	105.56
417.159	81.56
417.382	73.56
417.605	78.56
417.828	86.56
418.051	89.56
418.274	87.56
418.497	97.56
418.72	86.56
418.943	97.56
419.166	84.56
419.389	82.56
419.611	96.56
419.834	89.56
420.057	85.56
420.28	95.56
420.503	66.56
420.726	82.56
420.948	89.56
421.171	97.56
421.394	88.56
421.617	85.56
421.839	83.56
422.062	82.56
422.285	104.56
422.507	94.56
422.73	98.56
422.953	90.56
423.175	96.56
423.398	89.56
423.621	96.56
423.843	92.56
424.066	85.56
424.288	90.56
424.511	93.56
424.733	82.56
424.956	79.56
425.178	89.56
425.401	97.56
425.623	96.56
425.846	78.56
426.068	101.56
426.291	87.56
426.513	87.56
426.735	85.56
426.958	75.56
427.18	102.56
427.402	132.56
427.625	126.56
427.847	128.56
428.069	90.56
428.292	86.56
428.514	87.56
428.736	87.56
428.958	85.56
429.181	75.56
429.403	93.56
429.625	81.56
429.847	70.56
430.069	82.56
430.292	99.56
430.514	89.56
430.736	94.56
430.958	77.56
431.18	97.56
431.402	93.56
431.624	84.56
431.846	81.56
432.068	98.56
432.29	94.56
432.512	82.56
432.734	81.56
432.956	95.56
433.178	92.56
433.4	96.56
433.622	91.56
433.844	84.56
434.066	89.56
434.287	93.56
434.509	84.56
434.731	86.56
434.953	81.56
435.175	93.56
435.397	89.56
435.618	81.56
435.84	112.56
436.062	130.56
436.284	97.56
436.505	93.56
436.727	101.56
436.949	96.56
437.17	89.56
437.392	92.56
437.614	86.56
437.835	98.56
438.057	121.56
438.278	116.56
438.5	99.56
438.721	115.56
438.943	98.56
439.165	84.56
439.386	85.56
439.608	95.56
439.829	100.56
440.05	115.56
440.272	118.56
440.493	98.56
440.715	98.56
440.936	90.56
441.158	102.56
441.379	82.56
441.6	82.56
441.822	77.56
442.043	96.56
442.264	87.56
442.486	94.56
442.707	93.56
442.928	99.56
443.149	119.56
443.371	122.56
443.592	109.56
443.813	112.56
444.034	99.56
444.255	92.56
444.476	92.56
444.698	77.56
444.919	97.56
445.14	121.56
445.361	118.56
445.582	103.56
445.803	116.56
446.024	117.56
446.245	123.56
446.466	91.56
446.687	89.56
446.908	89.56
447.129	87.56
447.35	79.56
447.571	91.56
447.792	99.56
448.013	79.56
448.234	97.56
448.455	97.56
448.675	101.56
448.896	106.56
449.117	95.56
449.338	99.56
449.559	113.56
449.779	117.56
450	69.56
450.221	92.56
450.442	91.56
450.662	75.56
450.883	107.56
451.104	109.56
451.324	98.56
451.545	79.56
451.766	85.56
451.986	86.56
452.207	86.56
452.428	87.56
452.648	89.56
452.869	92.56
453.089	101.56
453.31	109.56
453.53	89.56
453.751	90.56
453.971	81.56
454.192	99.56
454.412	79.56
454.633	98.56
454.853	83.56
455.073	96.56
455.294	87.56
455.514	83.56
455.734	92.56
455.955	85.56
456.175	85.56
456.395	74.56
456.616	77.56
456.836	80.56
457.056	98.56
457.276	91.56
457.497	83.56
457.717	79.56
457.937	91.56
458.157	71.56
458.377	93.56
458.598	109.56
458.818	120.56
459.038	135.56
459.258	99.56
459.478	97.56
459.698	90.56
459.918	87.56
460.138	82.56
460.358	80.56
460.578	95.56
460.798	91.56
461.018	98.56
461.238	87.56
461.458	84.56
461.678	86.56
461.898	94.56
462.118	86.56
462.338	89.56
462.558	89.56
462.777	81.56
462.997	95.56
463.217	84.56
463.437	89.56
463.657	84.56
463.876	79.56
464.096	91.56
464.316	89.56
464.536	86.56
464.755	84.56
464.975	102.56
465.195	142.56
465.414	128.56
465.634	91.56
465.854	91.56
466.073	90.56
466.293	75.56
466.512	87.56
466.732	88.56
466.951	89.56
467.171	92.56
467.391	87.56
467.61	100.56
467.829	104.56
468.049	84.56
468.268	83.56
468.488	85.56
468.707	87.56
468.927	99.56
469.146	91.56
469.365	91.56
469.585	102.56
469.804	81.56
470.023	110.56
470.243	91.56
470.462	85.56
470.681	95.56
470.901	98.56
471.12	96.56
471.339	85.56
471.558	81.56
471.777	93.56
471.997	88.56
472.216	95.56
472.435	93.56
472.654	80.56
472.873	90.56
473.092	73.56
473.311	77.56
473.53	98.56
473.749	84.56
473.968	89.56
474.187	97.56
474.406	101.56
474.625	90.56
474.844	93.56
475.063	92.56
475.282	75.56
475.501	91.56
475.72	87.56
475.939	99.56
476.158	87.56
476.377	87.56
476.596	93.56
476.814	98.56
477.033	98.56
477.252	85.56
477.471	89.56
477.69	81.56
477.908	82.56
478.127	76.56
478.346	85.56
478.564	88.56
478.783	106.56
479.002	101.56
479.22	87.56
479.439	90.56
479.658	92.56
479.876	82.56
480.095	79.56
480.313	81.56
480.532	75.56
480.751	76.56
480.969	84.56
481.188	105.56
481.406	106.56
481.624	83.56
481.843	86.56
482.061	94.56
482.28	83.56
482.498	91.56
482.717	92.56
482.935	83.56
483.153	86.56
483.372	78.56
483.59	92.56
483.808	86.56
484.027	85.56
484.245	99.56
484.463	93.56
484.681	99.56
484.9	85.56
485.118	89.56
485.336	86.56
485.554	102.56
485.772	94.56
485.99	119.56
486.209	94.56
486.427	90.56
486.645	90.56
486.863	107.56
487.081	89.56
487.299	94.56
487.517	104.56
487.735	91.56
487.953	91.56
488.171	100.56
488.389	87.56
488.607	103.56
488.825	86.56
489.043	77.56
489.261	92.56
489.479	91.56
489.696	97.56
489.914	77.56
490.132	91.56
490.35	76.56
490.568	81.56
490.786	94.56
491.003	80.56
491.221	88.56
491.439	94.56
491.657	93.56
491.874	96.56
492.092	100.56
492.31	85.56
492.527	87.56
492.745	91.56
492.963	81.56
493.18	85.56
493.398	89.56
493.615	104.56
493.833	100.56
494.05	101.56
494.268	87.56
494.485	89.56
494.703	87.56
494.92	91.56
495.138	85.56
495.355	97.56
495.573	87.56
495.79	105.56
496.008	94.56
496.225	80.56
496.442	92.56
496.66	84.56
496.877	69.56
497.094	93.56
497.312	85.56
497.529	91.56
497.746	107.56
497.963	76.56
498.181	84.56
498.398	91.56
498.615	98.56
498.832	116.56
499.049	94.56
499.267	95.56
499.484	89.56
499.701	86.56
499.918	84.56
500.135	100.56
500.352	98.56
500.569	83.56
500.786	82.56
501.003	88.56
501.22	94.56
501.437	81.56
501.654	97.56
501.871	96.56
502.088	102.56
502.305	90.56
502.522	99.56
502.739	88.56
502.956	83.56
503.172	90.56
503.389	95.56
503.606	97.56
503.823	87.56
504.04	89.56
504.256	95.56
504.473	84.56
504.69	92.56
504.907	92.56
505.123	87.56
505.34	83.56
505.557	73.56
505.773	92.56
505.99	80.56
506.207	78.56
506.423	93.56
506.64	85.56
506.856	86.56
507.073	89.56
507.289	107.56
507.506	88.56
507.722	94.56
507.939	99.56
508.155	96.56
508.372	94.56
508.588	99.56
508.805	97.56
509.021	98.56
509.238	84.56
509.454	81.56
509.67	87.56
509.887	105.56
510.103	104.56
510.319	182.56
510.536	638.56
510.752	1935.56
510.968	550.56
511.184	144.56
511.401	100.56
511.617	92.56
511.833	90.56
512.049	75.56
512.265	99.56
512.481	91.56
512.698	87.56
512.914	85.56
513.13	102.56
513.346	101.56
513.562	96.56
513.778	90.56
513.994	82.56
514.21	95.56
514.426	113.56
514.642	133.56
514.858	123.56
515.074	154.56
515.29	356.56
515.506	1152.56
515.721	453.56
515.937	129.56
516.153	105.56
516.369	95.56
516.585	85.56
516.801	87.56
517.016	83.56
