Data from Uncirc_2005_H10_HRD10591_00051.txt Node
Date: Wed Jan 03 10:28:35 EST 2024
User: Yrep
Spectrometer: HR+D1059
Trigger mode: 1
Integration Time (sec): 1.000000E-1
Scans to average: 1
Electric dark correction enabled: true
Nonlinearity correction enabled: false
Boxcar width: 0
XAxis mode: Wavelengths
Number of Pixels in Spectrum: 2048
>>>>>Begin Spectral Data<<<<<
223.165	-8.38
223.4	-8.38
223.635	-8.38
223.869	-19.38
224.104	-22.38
224.338	-14.38
224.573	-21.38
224.808	-10.38
225.042	1.62
225.277	9.62
225.511	-0.38
225.746	4.62
225.98	7.62
226.215	5.62
226.449	7.62
226.683	7.62
226.918	23.62
227.152	28.62
227.387	34.62
227.621	43.62
227.856	48.62
228.09	45.62
228.324	44.62
228.559	56.62
228.793	62.62
229.027	58.62
229.262	75.62
229.496	79.62
229.73	87.62
229.964	91.62
230.199	69.62
230.433	80.62
230.667	70.62
230.901	79.62
231.136	78.62
231.37	81.62
231.604	70.62
231.838	65.62
232.072	90.62
232.306	90.62
232.541	81.62
232.775	90.62
233.009	78.62
233.243	76.62
233.477	85.62
233.711	87.62
233.945	77.62
234.179	77.62
234.413	92.62
234.647	82.62
234.881	80.62
235.115	61.62
235.349	52.62
235.583	75.62
235.817	77.62
236.051	70.62
236.285	89.62
236.519	81.62
236.753	70.62
236.987	78.62
237.221	90.62
237.455	88.62
237.689	76.62
237.922	67.62
238.156	59.62
238.39	79.62
238.624	71.62
238.858	71.62
239.091	72.62
239.325	76.62
239.559	82.62
239.793	71.62
240.027	87.62
240.26	76.62
240.494	82.62
240.728	75.62
240.961	79.62
241.195	73.62
241.429	89.62
241.662	74.62
241.896	67.62
242.13	73.62
242.363	59.62
242.597	72.62
242.83	67.62
243.064	73.62
243.298	67.62
243.531	78.62
243.765	77.62
243.998	73.62
244.232	79.62
244.465	84.62
244.699	68.62
244.932	72.62
245.166	61.62
245.399	72.62
245.633	63.62
245.866	82.62
246.099	83.62
246.333	75.62
246.566	73.62
246.8	81.62
247.033	77.62
247.266	88.62
247.5	83.62
247.733	66.62
247.966	70.62
248.2	66.62
248.433	67.62
248.666	79.62
248.899	81.62
249.133	88.62
249.366	95.62
249.599	79.62
249.832	80.62
250.066	72.62
250.299	69.62
250.532	81.62
250.765	84.62
250.998	76.62
251.231	76.62
251.465	75.62
251.698	71.62
251.931	78.62
252.164	79.62
252.397	87.62
252.63	81.62
252.863	76.62
253.096	75.62
253.329	85.62
253.562	92.62
253.795	79.62
254.028	80.62
254.261	82.62
254.494	72.62
254.727	91.62
254.96	76.62
255.193	82.62
255.426	73.62
255.659	82.62
255.892	90.62
256.124	71.62
256.357	76.62
256.59	74.62
256.823	75.62
257.056	87.62
257.289	85.62
257.521	79.62
257.754	93.62
257.987	75.62
258.22	81.62
258.452	84.62
258.685	83.62
258.918	77.62
259.151	77.62
259.383	73.62
259.616	90.62
259.849	75.62
260.081	80.62
260.314	72.62
260.547	70.62
260.779	83.62
261.012	74.62
261.244	75.62
261.477	83.62
261.71	95.62
261.942	127.62
262.175	119.62
262.407	84.62
262.64	80.62
262.872	79.62
263.105	74.62
263.337	82.62
263.57	82.62
263.802	81.62
264.035	62.62
264.267	81.62
264.499	70.62
264.732	83.62
264.964	81.62
265.197	76.62
265.429	82.62
265.661	75.62
265.894	88.62
266.126	96.62
266.358	84.62
266.591	99.62
266.823	81.62
267.055	83.62
267.287	82.62
267.52	84.62
267.752	90.62
267.984	73.62
268.216	76.62
268.448	81.62
268.681	98.62
268.913	90.62
269.145	83.62
269.377	78.62
269.609	91.62
269.841	82.62
270.073	88.62
270.306	83.62
270.538	75.62
270.77	69.62
271.002	93.62
271.234	84.62
271.466	77.62
271.698	79.62
271.93	79.62
272.162	82.62
272.394	78.62
272.626	88.62
272.858	81.62
273.09	84.62
273.322	89.62
273.553	76.62
273.785	88.62
274.017	95.62
274.249	75.62
274.481	80.62
274.713	78.62
274.945	80.62
275.176	83.62
275.408	85.62
275.64	92.62
275.872	98.62
276.104	86.62
276.335	84.62
276.567	104.62
276.799	107.62
277.031	96.62
277.262	93.62
277.494	79.62
277.726	76.62
277.957	88.62
278.189	70.62
278.421	92.62
278.652	86.62
278.884	84.62
279.115	77.62
279.347	83.62
279.579	79.62
279.81	90.62
280.042	64.62
280.273	93.62
280.505	75.62
280.736	83.62
280.968	90.62
281.199	84.62
281.431	79.62
281.662	84.62
281.894	90.62
282.125	100.62
282.356	122.62
282.588	149.62
282.819	131.62
283.051	90.62
283.282	82.62
283.513	86.62
283.745	75.62
283.976	84.62
284.207	80.62
284.439	87.62
284.67	83.62
284.901	84.62
285.132	95.62
285.364	71.62
285.595	76.62
285.826	78.62
286.057	88.62
286.288	73.62
286.52	82.62
286.751	79.62
286.982	85.62
287.213	77.62
287.444	70.62
287.675	94.62
287.906	90.62
288.138	78.62
288.369	101.62
288.6	80.62
288.831	84.62
289.062	89.62
289.293	84.62
289.524	89.62
289.755	87.62
289.986	95.62
290.217	80.62
290.448	86.62
290.679	92.62
290.91	89.62
291.141	90.62
291.371	80.62
291.602	79.62
291.833	80.62
292.064	83.62
292.295	80.62
292.526	90.62
292.757	90.62
292.987	87.62
293.218	91.62
293.449	92.62
293.68	72.62
293.91	80.62
294.141	93.62
294.372	86.62
294.603	83.62
294.833	87.62
295.064	91.62
295.295	83.62
295.525	95.62
295.756	95.62
295.987	102.62
296.217	137.62
296.448	126.62
296.679	82.62
296.909	86.62
297.14	81.62
297.37	77.62
297.601	82.62
297.831	80.62
298.062	92.62
298.292	93.62
298.523	91.62
298.753	89.62
298.984	81.62
299.214	73.62
299.445	96.62
299.675	86.62
299.905	99.62
300.136	84.62
300.366	98.62
300.597	94.62
300.827	95.62
301.057	104.62
301.288	107.62
301.518	88.62
301.748	94.62
301.979	102.62
302.209	105.62
302.439	91.62
302.669	82.62
302.9	93.62
303.13	90.62
303.36	88.62
303.59	104.62
303.82	105.62
304.051	85.62
304.281	86.62
304.511	95.62
304.741	83.62
304.971	84.62
305.201	92.62
305.431	86.62
305.661	95.62
305.891	95.62
306.121	87.62
306.352	94.62
306.582	94.62
306.812	81.62
307.042	90.62
307.272	73.62
307.502	89.62
307.731	88.62
307.961	78.62
308.191	61.62
308.421	74.62
308.651	90.62
308.881	100.62
309.111	100.62
309.341	103.62
309.571	96.62
309.8	99.62
310.03	92.62
310.26	92.62
310.49	83.62
310.72	89.62
310.949	110.62
311.179	100.62
311.409	98.62
311.639	95.62
311.868	90.62
312.098	94.62
312.328	92.62
312.557	105.62
312.787	120.62
313.017	98.62
313.246	79.62
313.476	74.62
313.706	81.62
313.935	80.62
314.165	97.62
314.394	95.62
314.624	98.62
314.853	103.62
315.083	91.62
315.312	85.62
315.542	80.62
315.771	88.62
316.001	83.62
316.23	77.62
316.46	96.62
316.689	75.62
316.919	83.62
317.148	93.62
317.377	92.62
317.607	90.62
317.836	91.62
318.065	92.62
318.295	90.62
318.524	84.62
318.753	87.62
318.983	94.62
319.212	89.62
319.441	94.62
319.67	99.62
319.9	90.62
320.129	91.62
320.358	88.62
320.587	81.62
320.816	98.62
321.046	88.62
321.275	100.62
321.504	82.62
321.733	102.62
321.962	87.62
322.191	118.62
322.42	109.62
322.649	103.62
322.878	115.62
323.108	118.62
323.337	124.62
323.566	128.62
323.795	160.62
324.024	245.62
324.253	502.62
324.482	1058.62
324.71	2265.62
324.939	3027.62
325.168	1050.62
325.397	272.62
325.626	144.62
325.855	130.62
326.084	110.62
326.313	147.62
326.542	173.62
326.77	260.62
326.999	553.62
327.228	1168.62
327.457	2257.62
327.686	1740.62
327.914	452.62
328.143	226.62
328.372	158.62
328.6	139.62
328.829	110.62
329.058	138.62
329.287	152.62
329.515	123.62
329.744	110.62
329.972	112.62
330.201	88.62
330.43	115.62
330.658	133.62
330.887	168.62
331.115	138.62
331.344	107.62
331.572	82.62
331.801	99.62
332.03	94.62
332.258	86.62
332.486	94.62
332.715	90.62
332.943	94.62
333.172	81.62
333.4	85.62
333.629	106.62
333.857	116.62
334.085	109.62
334.314	100.62
334.542	112.62
334.771	99.62
334.999	100.62
335.227	109.62
335.455	103.62
335.684	98.62
335.912	99.62
336.14	90.62
336.369	104.62
336.597	92.62
336.825	96.62
337.053	84.62
337.281	79.62
337.51	83.62
337.738	78.62
337.966	74.62
338.194	88.62
338.422	89.62
338.65	76.62
338.878	98.62
339.106	96.62
339.334	94.62
339.562	100.62
339.79	81.62
340.018	82.62
340.246	85.62
340.474	90.62
340.702	86.62
340.93	78.62
341.158	82.62
341.386	92.62
341.614	95.62
341.842	102.62
342.07	94.62
342.298	95.62
342.526	99.62
342.754	73.62
342.981	81.62
343.209	76.62
343.437	97.62
343.665	86.62
343.893	82.62
344.12	83.62
344.348	87.62
344.576	94.62
344.804	93.62
345.031	92.62
345.259	105.62
345.487	88.62
345.714	79.62
345.942	90.62
346.17	68.62
346.397	79.62
346.625	89.62
346.853	95.62
347.08	73.62
347.308	91.62
347.535	95.62
347.763	99.62
347.99	96.62
348.218	104.62
348.445	108.62
348.673	109.62
348.9	98.62
349.128	83.62
349.355	87.62
349.583	88.62
349.81	86.62
350.037	91.62
350.265	95.62
350.492	108.62
350.72	106.62
350.947	119.62
351.174	105.62
351.402	122.62
351.629	96.62
351.856	94.62
352.083	102.62
352.311	105.62
352.538	123.62
352.765	99.62
352.992	112.62
353.22	103.62
353.447	95.62
353.674	92.62
353.901	95.62
354.128	102.62
354.355	81.62
354.583	103.62
354.81	91.62
355.037	93.62
355.264	91.62
355.491	91.62
355.718	96.62
355.945	88.62
356.172	93.62
356.399	79.62
356.626	92.62
356.853	85.62
357.08	88.62
357.307	98.62
357.534	77.62
357.761	95.62
357.988	88.62
358.215	93.62
358.441	89.62
358.668	94.62
358.895	83.62
359.122	81.62
359.349	80.62
359.576	83.62
359.802	110.62
360.029	115.62
360.256	127.62
360.483	99.62
360.709	87.62
360.936	91.62
361.163	87.62
361.39	90.62
361.616	95.62
361.843	98.62
362.07	93.62
362.296	97.62
362.523	93.62
362.749	96.62
362.976	86.62
363.203	89.62
363.429	81.62
363.656	86.62
363.882	92.62
364.109	88.62
364.335	91.62
364.562	106.62
364.788	87.62
365.015	82.62
365.241	99.62
365.468	110.62
365.694	111.62
365.92	98.62
366.147	90.62
366.373	92.62
366.599	84.62
366.826	77.62
367.052	88.62
367.278	91.62
367.505	85.62
367.731	82.62
367.957	82.62
368.184	84.62
368.41	98.62
368.636	122.62
368.862	124.62
369.089	99.62
369.315	102.62
369.541	82.62
369.767	83.62
369.993	83.62
370.219	98.62
370.445	91.62
370.672	69.62
370.898	80.62
371.124	94.62
371.35	79.62
371.576	92.62
371.802	70.62
372.028	86.62
372.254	79.62
372.48	72.62
372.706	82.62
372.932	91.62
373.158	85.62
373.384	80.62
373.61	91.62
373.835	89.62
374.061	95.62
374.287	87.62
374.513	97.62
374.739	92.62
374.965	70.62
375.191	75.62
375.416	84.62
375.642	83.62
375.868	77.62
376.094	80.62
376.319	83.62
376.545	87.62
376.771	88.62
376.997	91.62
377.222	80.62
377.448	90.62
377.674	80.62
377.899	92.62
378.125	91.62
378.35	83.62
378.576	79.62
378.802	84.62
379.027	74.62
379.253	90.62
379.478	91.62
379.704	91.62
379.929	76.62
380.155	78.62
380.38	87.62
380.606	89.62
380.831	94.62
381.057	91.62
381.282	97.62
381.507	93.62
381.733	98.62
381.958	103.62
382.184	119.62
382.409	112.62
382.634	90.62
382.86	95.62
383.085	92.62
383.31	98.62
383.535	99.62
383.761	97.62
383.986	81.62
384.211	98.62
384.436	98.62
384.662	99.62
384.887	91.62
385.112	106.62
385.337	103.62
385.562	91.62
385.787	103.62
386.013	107.62
386.238	113.62
386.463	114.62
386.688	107.62
386.913	109.62
387.138	102.62
387.363	89.62
387.588	97.62
387.813	108.62
388.038	95.62
388.263	104.62
388.488	100.62
388.713	86.62
388.938	91.62
389.163	74.62
389.387	94.62
389.612	89.62
389.837	95.62
390.062	77.62
390.287	90.62
390.512	73.62
390.736	100.62
390.961	95.62
391.186	93.62
391.411	72.62
391.636	82.62
391.86	88.62
392.085	81.62
392.31	69.62
392.534	82.62
392.759	75.62
392.984	82.62
393.208	88.62
393.433	91.62
393.658	102.62
393.882	78.62
394.107	83.62
394.331	88.62
394.556	92.62
394.78	84.62
395.005	93.62
395.229	94.62
395.454	87.62
395.678	86.62
395.903	95.62
396.127	84.62
396.352	80.62
396.576	72.62
396.801	92.62
397.025	91.62
397.249	90.62
397.474	92.62
397.698	88.62
397.922	94.62
398.147	87.62
398.371	84.62
398.595	84.62
398.82	79.62
399.044	76.62
399.268	83.62
399.492	89.62
399.717	79.62
399.941	85.62
400.165	95.62
400.389	102.62
400.613	68.62
400.837	86.62
401.062	73.62
401.286	97.62
401.51	100.62
401.734	93.62
401.958	98.62
402.182	127.62
402.406	191.62
402.63	130.62
402.854	94.62
403.078	90.62
403.302	78.62
403.526	87.62
403.75	85.62
403.974	84.62
404.198	84.62
404.422	85.62
404.645	89.62
404.869	92.62
405.093	82.62
405.317	102.62
405.541	100.62
405.765	100.62
405.988	135.62
406.212	200.62
406.436	287.62
406.66	168.62
406.883	104.62
407.107	92.62
407.331	99.62
407.555	104.62
407.778	95.62
408.002	90.62
408.226	95.62
408.449	94.62
408.673	80.62
408.896	88.62
409.12	102.62
409.344	71.62
409.567	87.62
409.791	82.62
410.014	84.62
410.238	91.62
410.461	85.62
410.685	91.62
410.908	92.62
411.132	99.62
411.355	103.62
411.578	101.62
411.802	83.62
412.025	73.62
412.249	89.62
412.472	79.62
412.695	89.62
412.919	104.62
413.142	80.62
413.365	82.62
413.589	82.62
413.812	92.62
414.035	92.62
414.258	92.62
414.482	85.62
414.705	77.62
414.928	76.62
415.151	95.62
415.374	98.62
415.597	98.62
415.821	81.62
416.044	90.62
416.267	83.62
416.49	89.62
416.713	79.62
416.936	89.62
417.159	95.62
417.382	85.62
417.605	86.62
417.828	97.62
418.051	81.62
418.274	89.62
418.497	87.62
418.72	100.62
418.943	83.62
419.166	84.62
419.389	93.62
419.611	88.62
419.834	82.62
420.057	86.62
420.28	91.62
420.503	73.62
420.726	91.62
420.948	94.62
421.171	105.62
421.394	84.62
421.617	86.62
421.839	89.62
422.062	73.62
422.285	82.62
422.507	98.62
422.73	94.62
422.953	97.62
423.175	85.62
423.398	79.62
423.621	96.62
423.843	97.62
424.066	87.62
424.288	77.62
424.511	94.62
424.733	107.62
424.956	113.62
425.178	103.62
425.401	108.62
425.623	82.62
425.846	83.62
426.068	88.62
426.291	88.62
426.513	85.62
426.735	83.62
426.958	91.62
427.18	111.62
427.402	142.62
427.625	198.62
427.847	147.62
428.069	108.62
428.292	90.62
428.514	73.62
428.736	78.62
428.958	83.62
429.181	83.62
429.403	74.62
429.625	73.62
429.847	82.62
430.069	96.62
430.292	90.62
430.514	82.62
430.736	73.62
430.958	68.62
431.18	80.62
431.402	87.62
431.624	87.62
431.846	93.62
432.068	93.62
432.29	82.62
432.512	84.62
432.734	88.62
432.956	99.62
433.178	88.62
433.4	92.62
433.622	89.62
433.844	78.62
434.066	99.62
434.287	94.62
434.509	76.62
434.731	89.62
434.953	87.62
435.175	84.62
435.397	78.62
435.618	76.62
435.84	112.62
436.062	133.62
436.284	107.62
436.505	92.62
436.727	100.62
436.949	99.62
437.17	86.62
437.392	97.62
437.614	94.62
437.835	105.62
438.057	142.62
438.278	123.62
438.5	108.62
438.721	128.62
438.943	101.62
439.165	71.62
439.386	79.62
439.608	86.62
439.829	87.62
440.05	139.62
440.272	173.62
440.493	92.62
440.715	88.62
440.936	92.62
441.158	99.62
441.379	83.62
441.6	95.62
441.822	77.62
442.043	93.62
442.264	101.62
442.486	130.62
442.707	100.62
442.928	100.62
443.149	146.62
443.371	145.62
443.592	111.62
443.813	121.62
444.034	110.62
444.255	93.62
444.476	88.62
444.698	84.62
444.919	89.62
445.14	123.62
445.361	113.62
445.582	134.62
445.803	174.62
446.024	167.62
446.245	167.62
446.466	132.62
446.687	85.62
446.908	86.62
447.129	83.62
447.35	93.62
447.571	87.62
447.792	97.62
448.013	95.62
448.234	124.62
448.455	112.62
448.675	108.62
448.896	134.62
449.117	114.62
449.338	105.62
449.559	140.62
449.779	150.62
450	86.62
450.221	88.62
450.442	79.62
450.662	80.62
450.883	109.62
451.104	119.62
451.324	94.62
451.545	74.62
451.766	78.62
451.986	71.62
452.207	87.62
452.428	91.62
452.648	90.62
452.869	105.62
453.089	119.62
453.31	123.62
453.53	106.62
453.751	87.62
453.971	103.62
454.192	130.62
454.412	89.62
454.633	83.62
454.853	94.62
455.073	82.62
455.294	87.62
455.514	108.62
455.734	92.62
455.955	83.62
456.175	72.62
456.395	84.62
456.616	84.62
456.836	69.62
457.056	84.62
457.276	92.62
457.497	95.62
457.717	82.62
457.937	92.62
458.157	79.62
458.377	84.62
458.598	115.62
458.818	178.62
459.038	200.62
459.258	152.62
459.478	89.62
459.698	98.62
459.918	77.62
460.138	82.62
460.358	77.62
460.578	84.62
460.798	82.62
461.018	89.62
461.238	98.62
461.458	80.62
461.678	82.62
461.898	96.62
462.118	77.62
462.338	90.62
462.558	75.62
462.777	83.62
462.997	97.62
463.217	101.62
463.437	90.62
463.657	71.62
463.876	87.62
464.096	88.62
464.316	79.62
464.536	110.62
464.755	89.62
464.975	111.62
465.195	191.62
465.414	192.62
465.634	98.62
465.854	86.62
466.073	82.62
466.293	87.62
466.512	80.62
466.732	89.62
466.951	82.62
467.171	92.62
467.391	91.62
467.61	91.62
467.829	91.62
468.049	84.62
468.268	86.62
468.488	102.62
468.707	88.62
468.927	81.62
469.146	93.62
469.365	89.62
469.585	82.62
469.804	101.62
470.023	95.62
470.243	84.62
470.462	105.62
470.681	132.62
470.901	97.62
471.12	78.62
471.339	77.62
471.558	79.62
471.777	94.62
471.997	83.62
472.216	87.62
472.435	95.62
472.654	87.62
472.873	90.62
473.092	81.62
473.311	74.62
473.53	79.62
473.749	81.62
473.968	107.62
474.187	114.62
474.406	96.62
474.625	91.62
474.844	81.62
475.063	84.62
475.282	86.62
475.501	79.62
475.72	71.62
475.939	84.62
476.158	87.62
476.377	90.62
476.596	92.62
476.814	93.62
477.033	81.62
477.252	76.62
477.471	83.62
477.69	87.62
477.908	90.62
478.127	78.62
478.346	67.62
478.564	92.62
478.783	107.62
479.002	88.62
479.22	96.62
479.439	103.62
479.658	105.62
479.876	82.62
480.095	82.62
480.313	91.62
480.532	87.62
480.751	78.62
480.969	98.62
481.188	103.62
481.406	113.62
481.624	86.62
481.843	88.62
482.061	94.62
482.28	76.62
482.498	81.62
482.717	77.62
482.935	82.62
483.153	80.62
483.372	82.62
483.59	86.62
483.808	71.62
484.027	99.62
484.245	77.62
484.463	71.62
484.681	103.62
484.9	75.62
485.118	97.62
485.336	91.62
485.554	100.62
485.772	100.62
485.99	104.62
486.209	92.62
486.427	95.62
486.645	104.62
486.863	122.62
487.081	105.62
487.299	103.62
487.517	90.62
487.735	84.62
487.953	79.62
488.171	87.62
488.389	96.62
488.607	104.62
488.825	84.62
489.043	83.62
489.261	82.62
489.479	91.62
489.696	97.62
489.914	85.62
490.132	85.62
490.35	83.62
490.568	91.62
490.786	91.62
491.003	84.62
491.221	87.62
491.439	92.62
491.657	80.62
491.874	79.62
492.092	75.62
492.31	96.62
492.527	83.62
492.745	91.62
492.963	93.62
493.18	95.62
493.398	108.62
493.615	104.62
493.833	86.62
494.05	94.62
494.268	90.62
494.485	85.62
494.703	88.62
494.92	97.62
495.138	103.62
495.355	100.62
495.573	91.62
495.79	92.62
496.008	95.62
496.225	98.62
496.442	78.62
496.66	87.62
496.877	95.62
497.094	97.62
497.312	93.62
497.529	85.62
497.746	106.62
497.963	86.62
498.181	89.62
498.398	90.62
498.615	109.62
498.832	90.62
499.049	94.62
499.267	91.62
499.484	92.62
499.701	95.62
499.918	90.62
500.135	87.62
500.352	89.62
500.569	86.62
500.786	84.62
501.003	84.62
501.22	86.62
501.437	90.62
501.654	82.62
501.871	115.62
502.088	82.62
502.305	90.62
502.522	77.62
502.739	94.62
502.956	77.62
503.172	95.62
503.389	106.62
503.606	90.62
503.823	87.62
504.04	88.62
504.256	88.62
504.473	91.62
504.69	86.62
504.907	77.62
505.123	96.62
505.34	89.62
505.557	85.62
505.773	102.62
505.99	95.62
506.207	92.62
506.423	90.62
506.64	93.62
506.856	90.62
507.073	84.62
507.289	88.62
507.506	102.62
507.722	116.62
507.939	127.62
508.155	106.62
508.372	96.62
508.588	83.62
508.805	107.62
509.021	99.62
509.238	94.62
509.454	102.62
509.67	96.62
509.887	133.62
510.103	132.62
510.319	247.62
510.536	971.62
510.752	3195.62
510.968	862.62
511.184	175.62
511.401	132.62
511.617	110.62
511.833	104.62
512.049	100.62
512.265	83.62
512.481	88.62
512.698	105.62
512.914	84.62
513.13	92.62
513.346	79.62
513.562	94.62
513.778	74.62
513.994	96.62
514.21	105.62
514.426	126.62
514.642	170.62
514.858	158.62
515.074	191.62
515.29	598.62
515.506	2177.62
515.721	778.62
515.937	207.62
516.153	126.62
516.369	95.62
