Data from Uncirc_2005_H10_HRD10591_00018.txt Node
Date: Wed Jan 03 10:28:28 EST 2024
User: Yrep
Spectrometer: HR+D1059
Trigger mode: 1
Integration Time (sec): 1.000000E-1
Scans to average: 1
Electric dark correction enabled: true
Nonlinearity correction enabled: false
Boxcar width: 0
XAxis mode: Wavelengths
Number of Pixels in Spectrum: 2048
>>>>>Begin Spectral Data<<<<<
223.165	-22.19
223.4	-22.19
223.635	-22.19
223.869	-20.19
224.104	-16.19
224.338	-7.19
224.573	-14.19
224.808	-16.19
225.042	-10.19
225.277	1.81
225.511	0.81
225.746	12.81
225.98	2.81
226.215	2.81
226.449	7.81
226.683	19.81
226.918	20.81
227.152	36.81
227.387	32.81
227.621	36.81
227.856	62.81
228.09	50.81
228.324	53.81
228.559	56.81
228.793	52.81
229.027	56.81
229.262	65.81
229.496	66.81
229.73	85.81
229.964	80.81
230.199	84.81
230.433	70.81
230.667	81.81
230.901	81.81
231.136	78.81
231.37	85.81
231.604	82.81
231.838	77.81
232.072	96.81
232.306	94.81
232.541	82.81
232.775	75.81
233.009	83.81
233.243	77.81
233.477	75.81
233.711	86.81
233.945	78.81
234.179	63.81
234.413	67.81
234.647	83.81
234.881	83.81
235.115	86.81
235.349	77.81
235.583	79.81
235.817	86.81
236.051	71.81
236.285	69.81
236.519	80.81
236.753	77.81
236.987	80.81
237.221	82.81
237.455	88.81
237.689	88.81
237.922	71.81
238.156	83.81
238.39	87.81
238.624	83.81
238.858	75.81
239.091	75.81
239.325	64.81
239.559	84.81
239.793	77.81
240.027	77.81
240.26	72.81
240.494	83.81
240.728	78.81
240.961	82.81
241.195	73.81
241.429	78.81
241.662	75.81
241.896	75.81
242.13	72.81
242.363	82.81
242.597	78.81
242.83	86.81
243.064	87.81
243.298	74.81
243.531	82.81
243.765	90.81
243.998	73.81
244.232	79.81
244.465	84.81
244.699	73.81
244.932	72.81
245.166	79.81
245.399	86.81
245.633	69.81
245.866	75.81
246.099	75.81
246.333	76.81
246.566	76.81
246.8	84.81
247.033	61.81
247.266	76.81
247.5	83.81
247.733	73.81
247.966	82.81
248.2	75.81
248.433	77.81
248.666	82.81
248.899	75.81
249.133	85.81
249.366	98.81
249.599	109.81
249.832	87.81
250.066	78.81
250.299	87.81
250.532	80.81
250.765	69.81
250.998	65.81
251.231	68.81
251.465	81.81
251.698	83.81
251.931	87.81
252.164	69.81
252.397	80.81
252.63	79.81
252.863	85.81
253.096	73.81
253.329	97.81
253.562	93.81
253.795	78.81
254.028	82.81
254.261	90.81
254.494	79.81
254.727	94.81
254.96	77.81
255.193	85.81
255.426	85.81
255.659	71.81
255.892	70.81
256.124	61.81
256.357	89.81
256.59	77.81
256.823	77.81
257.056	78.81
257.289	78.81
257.521	70.81
257.754	88.81
257.987	95.81
258.22	85.81
258.452	83.81
258.685	86.81
258.918	78.81
259.151	79.81
259.383	91.81
259.616	82.81
259.849	74.81
260.081	82.81
260.314	87.81
260.547	102.81
260.779	84.81
261.012	79.81
261.244	45.81
261.477	86.81
261.71	80.81
261.942	116.81
262.175	116.81
262.407	104.81
262.64	85.81
262.872	85.81
263.105	89.81
263.337	91.81
263.57	94.81
263.802	90.81
264.035	89.81
264.267	88.81
264.499	86.81
264.732	88.81
264.964	91.81
265.197	76.81
265.429	85.81
265.661	88.81
265.894	86.81
266.126	81.81
266.358	81.81
266.591	87.81
266.823	83.81
267.055	69.81
267.287	85.81
267.52	77.81
267.752	92.81
267.984	85.81
268.216	94.81
268.448	73.81
268.681	80.81
268.913	95.81
269.145	96.81
269.377	87.81
269.609	82.81
269.841	77.81
270.073	90.81
270.306	100.81
270.538	80.81
270.77	96.81
271.002	80.81
271.234	90.81
271.466	91.81
271.698	79.81
271.93	84.81
272.162	101.81
272.394	89.81
272.626	82.81
272.858	87.81
273.09	96.81
273.322	87.81
273.553	89.81
273.785	89.81
274.017	86.81
274.249	110.81
274.481	89.81
274.713	80.81
274.945	82.81
275.176	82.81
275.408	75.81
275.64	89.81
275.872	83.81
276.104	81.81
276.335	94.81
276.567	111.81
276.799	116.81
277.031	107.81
277.262	99.81
277.494	96.81
277.726	78.81
277.957	87.81
278.189	92.81
278.421	84.81
278.652	70.81
278.884	80.81
279.115	91.81
279.347	85.81
279.579	84.81
279.81	90.81
280.042	87.81
280.273	77.81
280.505	77.81
280.736	80.81
280.968	82.81
281.199	88.81
281.431	85.81
281.662	73.81
281.894	93.81
282.125	103.81
282.356	124.81
282.588	161.81
282.819	122.81
283.051	92.81
283.282	83.81
283.513	86.81
283.745	68.81
283.976	88.81
284.207	78.81
284.439	100.81
284.67	95.81
284.901	81.81
285.132	89.81
285.364	75.81
285.595	86.81
285.826	93.81
286.057	97.81
286.288	93.81
286.52	88.81
286.751	86.81
286.982	85.81
287.213	101.81
287.444	93.81
287.675	93.81
287.906	86.81
288.138	107.81
288.369	94.81
288.6	80.81
288.831	87.81
289.062	88.81
289.293	100.81
289.524	98.81
289.755	77.81
289.986	91.81
290.217	90.81
290.448	80.81
290.679	90.81
290.91	81.81
291.141	76.81
291.371	82.81
291.602	77.81
291.833	88.81
292.064	88.81
292.295	107.81
292.526	103.81
292.757	83.81
292.987	89.81
293.218	88.81
293.449	81.81
293.68	84.81
293.91	93.81
294.141	97.81
294.372	95.81
294.603	100.81
294.833	92.81
295.064	86.81
295.295	95.81
295.525	99.81
295.756	87.81
295.987	120.81
296.217	148.81
296.448	123.81
296.679	108.81
296.909	91.81
297.14	82.81
297.37	90.81
297.601	75.81
297.831	91.81
298.062	82.81
298.292	88.81
298.523	86.81
298.753	80.81
298.984	82.81
299.214	96.81
299.445	86.81
299.675	88.81
299.905	72.81
300.136	89.81
300.366	87.81
300.597	94.81
300.827	100.81
301.057	92.81
301.288	94.81
301.518	81.81
301.748	88.81
301.979	95.81
302.209	87.81
302.439	98.81
302.669	95.81
302.9	84.81
303.13	95.81
303.36	89.81
303.59	90.81
303.82	95.81
304.051	101.81
304.281	101.81
304.511	89.81
304.741	88.81
304.971	86.81
305.201	77.81
305.431	89.81
305.661	80.81
305.891	90.81
306.121	106.81
306.352	94.81
306.582	108.81
306.812	83.81
307.042	81.81
307.272	72.81
307.502	102.81
307.731	99.81
307.961	97.81
308.191	78.81
308.421	86.81
308.651	98.81
308.881	98.81
309.111	90.81
309.341	88.81
309.571	91.81
309.8	87.81
310.03	94.81
310.26	93.81
310.49	100.81
310.72	116.81
310.949	103.81
311.179	96.81
311.409	88.81
311.639	84.81
311.868	88.81
312.098	96.81
312.328	96.81
312.557	87.81
312.787	92.81
313.017	91.81
313.246	103.81
313.476	88.81
313.706	94.81
313.935	97.81
314.165	111.81
314.394	111.81
314.624	100.81
314.853	95.81
315.083	97.81
315.312	94.81
315.542	83.81
315.771	96.81
316.001	95.81
316.23	100.81
316.46	94.81
316.689	99.81
316.919	110.81
317.148	87.81
317.377	88.81
317.607	93.81
317.836	82.81
318.065	77.81
318.295	91.81
318.524	75.81
318.753	88.81
318.983	94.81
319.212	91.81
319.441	92.81
319.67	107.81
319.9	105.81
320.129	106.81
320.358	82.81
320.587	106.81
320.816	88.81
321.046	115.81
321.275	109.81
321.504	108.81
321.733	102.81
321.962	109.81
322.191	101.81
322.42	101.81
322.649	112.81
322.878	116.81
323.108	129.81
323.337	129.81
323.566	135.81
323.795	165.81
324.024	225.81
324.253	422.81
324.482	871.81
324.71	1838.81
324.939	2465.81
325.168	910.81
325.397	259.81
325.626	158.81
325.855	137.81
326.084	146.81
326.313	141.81
326.542	162.81
326.77	245.81
326.999	473.81
327.228	1006.81
327.457	1858.81
327.686	1479.81
327.914	410.81
328.143	193.81
328.372	154.81
328.6	127.81
328.829	125.81
329.058	124.81
329.287	132.81
329.515	99.81
329.744	95.81
329.972	99.81
330.201	122.81
330.43	101.81
330.658	110.81
330.887	139.81
331.115	124.81
331.344	104.81
331.572	105.81
331.801	100.81
332.03	127.81
332.258	104.81
332.486	103.81
332.715	83.81
332.943	94.81
333.172	95.81
333.4	98.81
333.629	103.81
333.857	97.81
334.085	121.81
334.314	107.81
334.542	101.81
334.771	94.81
334.999	91.81
335.227	106.81
335.455	113.81
335.684	94.81
335.912	95.81
336.14	103.81
336.369	91.81
336.597	114.81
336.825	85.81
337.053	88.81
337.281	104.81
337.51	93.81
337.738	100.81
337.966	92.81
338.194	93.81
338.422	97.81
338.65	72.81
338.878	79.81
339.106	90.81
339.334	99.81
339.562	100.81
339.79	103.81
340.018	88.81
340.246	90.81
340.474	95.81
340.702	94.81
340.93	85.81
341.158	94.81
341.386	105.81
341.614	93.81
341.842	87.81
342.07	106.81
342.298	108.81
342.526	102.81
342.754	87.81
342.981	65.81
343.209	88.81
343.437	98.81
343.665	86.81
343.893	93.81
344.12	103.81
344.348	102.81
344.576	107.81
344.804	85.81
345.031	106.81
345.259	103.81
345.487	82.81
345.714	102.81
345.942	85.81
346.17	93.81
346.397	106.81
346.625	98.81
346.853	99.81
347.08	94.81
347.308	108.81
347.535	111.81
347.763	102.81
347.99	97.81
348.218	104.81
348.445	104.81
348.673	97.81
348.9	95.81
349.128	101.81
349.355	89.81
349.583	106.81
349.81	92.81
350.037	106.81
350.265	85.81
350.492	104.81
350.72	85.81
350.947	115.81
351.174	105.81
351.402	100.81
351.629	104.81
351.856	110.81
352.083	111.81
352.311	119.81
352.538	116.81
352.765	110.81
352.992	117.81
353.22	117.81
353.447	104.81
353.674	110.81
353.901	102.81
354.128	95.81
354.355	92.81
354.583	99.81
354.81	89.81
355.037	100.81
355.264	96.81
355.491	86.81
355.718	91.81
355.945	100.81
356.172	102.81
356.399	98.81
356.626	101.81
356.853	93.81
357.08	88.81
357.307	94.81
357.534	85.81
357.761	98.81
357.988	108.81
358.215	94.81
358.441	90.81
358.668	96.81
358.895	96.81
359.122	95.81
359.349	90.81
359.576	99.81
359.802	99.81
360.029	124.81
360.256	122.81
360.483	110.81
360.709	97.81
360.936	101.81
361.163	101.81
361.39	101.81
361.616	96.81
361.843	88.81
362.07	96.81
362.296	91.81
362.523	79.81
362.749	102.81
362.976	95.81
363.203	89.81
363.429	95.81
363.656	115.81
363.882	97.81
364.109	80.81
364.335	95.81
364.562	95.81
364.788	88.81
365.015	103.81
365.241	103.81
365.468	100.81
365.694	99.81
365.92	100.81
366.147	98.81
366.373	81.81
366.599	85.81
366.826	86.81
367.052	95.81
367.278	85.81
367.505	91.81
367.731	106.81
367.957	85.81
368.184	97.81
368.41	96.81
368.636	95.81
368.862	118.81
369.089	115.81
369.315	96.81
369.541	95.81
369.767	94.81
369.993	86.81
370.219	100.81
370.445	89.81
370.672	104.81
370.898	82.81
371.124	81.81
371.35	106.81
371.576	101.81
371.802	80.81
372.028	92.81
372.254	94.81
372.48	97.81
372.706	87.81
372.932	86.81
373.158	98.81
373.384	84.81
373.61	92.81
373.835	91.81
374.061	87.81
374.287	91.81
374.513	88.81
374.739	90.81
374.965	97.81
375.191	89.81
375.416	92.81
375.642	79.81
375.868	99.81
376.094	88.81
376.319	80.81
376.545	93.81
376.771	92.81
376.997	100.81
377.222	86.81
377.448	88.81
377.674	89.81
377.899	79.81
378.125	99.81
378.35	87.81
378.576	96.81
378.802	95.81
379.027	87.81
379.253	89.81
379.478	93.81
379.704	102.81
379.929	98.81
380.155	92.81
380.38	83.81
380.606	83.81
380.831	109.81
381.057	101.81
381.282	97.81
381.507	96.81
381.733	104.81
381.958	93.81
382.184	105.81
382.409	95.81
382.634	110.81
382.86	112.81
383.085	111.81
383.31	108.81
383.535	108.81
383.761	91.81
383.986	109.81
384.211	103.81
384.436	86.81
384.662	107.81
384.887	130.81
385.112	102.81
385.337	116.81
385.562	113.81
385.787	104.81
386.013	115.81
386.238	116.81
386.463	109.81
386.688	116.81
386.913	116.81
387.138	129.81
387.363	102.81
387.588	110.81
387.813	108.81
388.038	104.81
388.263	113.81
388.488	115.81
388.713	102.81
388.938	91.81
389.163	104.81
389.387	79.81
389.612	101.81
389.837	80.81
390.062	83.81
390.287	90.81
390.512	96.81
390.736	94.81
390.961	94.81
391.186	95.81
391.411	85.81
391.636	98.81
391.86	86.81
392.085	93.81
392.31	83.81
392.534	87.81
392.759	98.81
392.984	88.81
393.208	100.81
393.433	104.81
393.658	76.81
393.882	95.81
394.107	85.81
394.331	89.81
394.556	80.81
394.78	87.81
395.005	92.81
395.229	78.81
395.454	88.81
395.678	87.81
395.903	81.81
396.127	87.81
396.352	87.81
396.576	68.81
396.801	81.81
397.025	82.81
397.249	74.81
397.474	95.81
397.698	106.81
397.922	79.81
398.147	82.81
398.371	87.81
398.595	98.81
398.82	95.81
399.044	81.81
399.268	86.81
399.492	73.81
399.717	80.81
399.941	88.81
400.165	91.81
400.389	80.81
400.613	93.81
400.837	97.81
401.062	87.81
401.286	76.81
401.51	85.81
401.734	88.81
401.958	101.81
402.182	130.81
402.406	162.81
402.63	123.81
402.854	98.81
403.078	104.81
403.302	78.81
403.526	95.81
403.75	95.81
403.974	78.81
404.198	90.81
404.422	97.81
404.645	88.81
404.869	92.81
405.093	97.81
405.317	93.81
405.541	103.81
405.765	103.81
405.988	115.81
406.212	183.81
406.436	262.81
406.66	166.81
406.883	109.81
407.107	83.81
407.331	102.81
407.555	103.81
407.778	106.81
408.002	87.81
408.226	87.81
408.449	95.81
408.673	90.81
408.896	95.81
409.12	123.81
409.344	83.81
409.567	90.81
409.791	92.81
410.014	103.81
410.238	97.81
410.461	93.81
410.685	106.81
410.908	101.81
411.132	117.81
411.355	100.81
411.578	88.81
411.802	99.81
412.025	94.81
412.249	89.81
412.472	109.81
412.695	99.81
412.919	89.81
413.142	99.81
413.365	95.81
413.589	77.81
413.812	103.81
414.035	89.81
414.258	96.81
414.482	118.81
414.705	85.81
414.928	86.81
415.151	86.81
415.374	86.81
415.597	92.81
415.821	87.81
416.044	99.81
416.267	100.81
416.49	91.81
416.713	93.81
416.936	91.81
417.159	74.81
417.382	94.81
417.605	86.81
417.828	104.81
418.051	86.81
418.274	80.81
418.497	89.81
418.72	76.81
418.943	87.81
419.166	83.81
419.389	87.81
419.611	99.81
419.834	88.81
420.057	83.81
420.28	82.81
420.503	97.81
420.726	91.81
420.948	92.81
421.171	70.81
421.394	102.81
421.617	91.81
421.839	99.81
422.062	99.81
422.285	92.81
422.507	96.81
422.73	96.81
422.953	100.81
423.175	96.81
423.398	80.81
423.621	98.81
423.843	82.81
424.066	86.81
424.288	83.81
424.511	94.81
424.733	94.81
424.956	95.81
425.178	103.81
425.401	104.81
425.623	107.81
425.846	108.81
426.068	93.81
426.291	98.81
426.513	94.81
426.735	88.81
426.958	87.81
427.18	112.81
427.402	157.81
427.625	202.81
427.847	132.81
428.069	111.81
428.292	74.81
428.514	79.81
428.736	80.81
428.958	90.81
429.181	85.81
429.403	86.81
429.625	80.81
429.847	79.81
430.069	107.81
430.292	88.81
430.514	99.81
430.736	86.81
430.958	96.81
431.18	83.81
431.402	92.81
431.624	84.81
431.846	85.81
432.068	83.81
432.29	82.81
432.512	73.81
432.734	95.81
432.956	83.81
433.178	95.81
433.4	107.81
433.622	98.81
433.844	85.81
434.066	97.81
434.287	92.81
434.509	93.81
434.731	78.81
434.953	76.81
435.175	92.81
435.397	103.81
435.618	94.81
435.84	105.81
436.062	119.81
436.284	113.81
436.505	96.81
436.727	91.81
436.949	93.81
437.17	78.81
437.392	94.81
437.614	86.81
437.835	111.81
438.057	128.81
438.278	103.81
438.5	106.81
438.721	126.81
438.943	94.81
439.165	89.81
439.386	84.81
439.608	92.81
439.829	92.81
440.05	140.81
440.272	148.81
440.493	100.81
440.715	101.81
440.936	97.81
441.158	89.81
441.379	79.81
441.6	94.81
441.822	101.81
442.043	87.81
442.264	105.81
442.486	111.81
442.707	101.81
442.928	98.81
443.149	139.81
443.371	138.81
443.592	131.81
443.813	111.81
444.034	114.81
444.255	91.81
444.476	85.81
444.698	88.81
444.919	96.81
445.14	131.81
445.361	126.81
445.582	111.81
445.803	155.81
446.024	146.81
446.245	133.81
446.466	117.81
446.687	91.81
446.908	88.81
447.129	74.81
447.35	93.81
447.571	112.81
447.792	107.81
448.013	107.81
448.234	115.81
448.455	100.81
448.675	95.81
448.896	103.81
449.117	94.81
449.338	109.81
449.559	119.81
449.779	136.81
450	101.81
450.221	79.81
450.442	92.81
450.662	108.81
450.883	111.81
451.104	116.81
451.324	98.81
451.545	79.81
451.766	96.81
451.986	81.81
452.207	91.81
452.428	95.81
452.648	96.81
452.869	120.81
453.089	117.81
453.31	126.81
453.53	85.81
453.751	100.81
453.971	101.81
454.192	97.81
454.412	82.81
454.633	90.81
454.853	91.81
455.073	80.81
455.294	98.81
455.514	109.81
455.734	84.81
455.955	96.81
456.175	94.81
456.395	100.81
456.616	91.81
456.836	88.81
457.056	75.81
457.276	94.81
457.497	84.81
457.717	78.81
457.937	71.81
458.157	89.81
458.377	97.81
458.598	115.81
458.818	176.81
459.038	171.81
459.258	125.81
459.478	83.81
459.698	82.81
459.918	102.81
460.138	94.81
460.358	85.81
460.578	83.81
460.798	86.81
461.018	93.81
461.238	94.81
461.458	87.81
461.678	96.81
461.898	94.81
462.118	85.81
462.338	71.81
462.558	83.81
462.777	84.81
462.997	78.81
463.217	94.81
463.437	94.81
463.657	85.81
463.876	96.81
464.096	86.81
464.316	96.81
464.536	98.81
464.755	98.81
464.975	88.81
465.195	182.81
465.414	175.81
465.634	87.81
465.854	90.81
466.073	95.81
466.293	91.81
466.512	89.81
466.732	81.81
466.951	95.81
467.171	97.81
467.391	79.81
467.61	98.81
467.829	102.81
468.049	91.81
468.268	90.81
468.488	95.81
468.707	88.81
468.927	97.81
469.146	75.81
469.365	92.81
469.585	88.81
469.804	95.81
470.023	101.81
470.243	93.81
470.462	101.81
470.681	107.81
470.901	99.81
471.12	86.81
471.339	106.81
471.558	90.81
471.777	91.81
471.997	91.81
472.216	85.81
472.435	107.81
472.654	88.81
472.873	98.81
473.092	71.81
473.311	94.81
473.53	82.81
473.749	96.81
473.968	106.81
474.187	98.81
474.406	95.81
474.625	87.81
474.844	83.81
475.063	94.81
475.282	82.81
475.501	94.81
475.72	90.81
475.939	76.81
476.158	91.81
476.377	94.81
476.596	90.81
476.814	93.81
477.033	87.81
477.252	90.81
477.471	87.81
477.69	83.81
477.908	104.81
478.127	88.81
478.346	91.81
478.564	87.81
478.783	90.81
479.002	107.81
479.22	90.81
479.439	84.81
479.658	119.81
479.876	90.81
480.095	93.81
480.313	100.81
480.532	106.81
480.751	94.81
480.969	94.81
481.188	101.81
481.406	107.81
481.624	93.81
481.843	87.81
482.061	85.81
482.28	77.81
482.498	92.81
482.717	100.81
482.935	95.81
483.153	87.81
483.372	94.81
483.59	88.81
483.808	76.81
484.027	94.81
484.245	97.81
484.463	85.81
484.681	103.81
484.9	99.81
485.118	102.81
485.336	106.81
485.554	96.81
485.772	84.81
485.99	102.81
486.209	102.81
486.427	111.81
486.645	118.81
486.863	131.81
487.081	93.81
487.299	94.81
487.517	99.81
487.735	100.81
487.953	99.81
488.171	91.81
488.389	91.81
488.607	96.81
488.825	96.81
489.043	81.81
489.261	84.81
489.479	88.81
489.696	83.81
489.914	79.81
490.132	99.81
490.35	94.81
490.568	81.81
490.786	80.81
491.003	79.81
491.221	93.81
491.439	88.81
491.657	94.81
491.874	97.81
492.092	90.81
492.31	97.81
492.527	100.81
492.745	66.81
492.963	83.81
493.18	91.81
493.398	97.81
493.615	97.81
493.833	91.81
494.05	85.81
494.268	87.81
494.485	90.81
494.703	87.81
494.92	90.81
495.138	76.81
495.355	90.81
495.573	91.81
495.79	83.81
496.008	109.81
496.225	102.81
496.442	91.81
496.66	100.81
496.877	83.81
497.094	76.81
497.312	86.81
497.529	92.81
497.746	90.81
497.963	93.81
498.181	99.81
498.398	79.81
498.615	112.81
498.832	98.81
499.049	85.81
499.267	94.81
499.484	92.81
499.701	93.81
499.918	72.81
500.135	101.81
500.352	94.81
500.569	71.81
500.786	95.81
501.003	94.81
501.22	92.81
501.437	87.81
501.654	87.81
501.871	119.81
502.088	98.81
502.305	86.81
502.522	87.81
502.739	87.81
502.956	93.81
503.172	101.81
503.389	111.81
503.606	108.81
503.823	105.81
504.04	109.81
504.256	91.81
504.473	84.81
504.69	87.81
504.907	97.81
505.123	103.81
505.34	87.81
505.557	91.81
505.773	94.81
505.99	84.81
506.207	97.81
506.423	71.81
506.64	94.81
506.856	86.81
507.073	99.81
507.289	93.81
507.506	100.81
507.722	132.81
507.939	109.81
508.155	98.81
508.372	83.81
508.588	87.81
508.805	106.81
509.021	81.81
509.238	105.81
509.454	95.81
509.67	102.81
509.887	94.81
510.103	123.81
510.319	220.81
510.536	820.81
510.752	2638.81
510.968	718.81
511.184	162.81
511.401	128.81
511.617	106.81
511.833	96.81
512.049	92.81
512.265	71.81
512.481	80.81
512.698	103.81
512.914	103.81
513.13	92.81
513.346	90.81
513.562	87.81
513.778	88.81
513.994	96.81
514.21	108.81
514.426	127.81
514.642	148.81
514.858	148.81
515.074	190.81
