Data from Uncirc_2005_H10_HRD10591_00043.txt Node
Date: Wed Jan 03 10:28:33 EST 2024
User: Yrep
Spectrometer: HR+D1059
Trigger mode: 1
Integration Time (sec): 1.000000E-1
Scans to average: 1
Electric dark correction enabled: true
Nonlinearity correction enabled: false
Boxcar width: 0
XAxis mode: Wavelengths
Number of Pixels in Spectrum: 2048
>>>>>Begin Spectral Data<<<<<
223.165	-22.75
223.4	-22.75
223.635	-22.75
223.869	-22.75
224.104	-25.75
224.338	-20.75
224.573	1.25
224.808	-11.75
225.042	-0.75
225.277	-16.75
225.511	-9.75
225.746	8.25
225.98	8.25
226.215	22.25
226.449	15.25
226.683	16.25
226.918	38.25
227.152	21.25
227.387	47.25
227.621	56.25
227.856	52.25
228.09	52.25
228.324	59.25
228.559	62.25
228.793	67.25
229.027	70.25
229.262	72.25
229.496	74.25
229.73	71.25
229.964	86.25
230.199	75.25
230.433	83.25
230.667	82.25
230.901	96.25
231.136	82.25
231.37	90.25
231.604	93.25
231.838	87.25
232.072	80.25
232.306	89.25
232.541	77.25
232.775	88.25
233.009	83.25
233.243	73.25
233.477	102.25
233.711	90.25
233.945	83.25
234.179	87.25
234.413	79.25
234.647	89.25
234.881	67.25
235.115	93.25
235.349	92.25
235.583	84.25
235.817	75.25
236.051	83.25
236.285	80.25
236.519	75.25
236.753	88.25
236.987	82.25
237.221	94.25
237.455	78.25
237.689	68.25
237.922	85.25
238.156	74.25
238.39	85.25
238.624	77.25
238.858	81.25
239.091	77.25
239.325	74.25
239.559	65.25
239.793	101.25
240.027	82.25
240.26	82.25
240.494	89.25
240.728	78.25
240.961	70.25
241.195	91.25
241.429	83.25
241.662	75.25
241.896	76.25
242.13	69.25
242.363	87.25
242.597	85.25
242.83	86.25
243.064	83.25
243.298	58.25
243.531	81.25
243.765	79.25
243.998	80.25
244.232	95.25
244.465	88.25
244.699	97.25
244.932	67.25
245.166	79.25
245.399	79.25
245.633	86.25
245.866	74.25
246.099	65.25
246.333	89.25
246.566	89.25
246.8	67.25
247.033	71.25
247.266	84.25
247.5	79.25
247.733	87.25
247.966	84.25
248.2	81.25
248.433	90.25
248.666	77.25
248.899	82.25
249.133	90.25
249.366	104.25
249.599	105.25
249.832	95.25
250.066	80.25
250.299	87.25
250.532	80.25
250.765	93.25
250.998	88.25
251.231	68.25
251.465	84.25
251.698	72.25
251.931	86.25
252.164	91.25
252.397	92.25
252.63	87.25
252.863	77.25
253.096	76.25
253.329	84.25
253.562	90.25
253.795	80.25
254.028	78.25
254.261	97.25
254.494	91.25
254.727	74.25
254.96	81.25
255.193	91.25
255.426	72.25
255.659	81.25
255.892	86.25
256.124	75.25
256.357	82.25
256.59	84.25
256.823	91.25
257.056	77.25
257.289	81.25
257.521	72.25
257.754	74.25
257.987	81.25
258.22	83.25
258.452	88.25
258.685	90.25
258.918	73.25
259.151	80.25
259.383	95.25
259.616	96.25
259.849	84.25
260.081	91.25
260.314	83.25
260.547	84.25
260.779	92.25
261.012	82.25
261.244	91.25
261.477	85.25
261.71	91.25
261.942	108.25
262.175	109.25
262.407	92.25
262.64	85.25
262.872	89.25
263.105	85.25
263.337	77.25
263.57	84.25
263.802	81.25
264.035	91.25
264.267	73.25
264.499	78.25
264.732	97.25
264.964	87.25
265.197	87.25
265.429	80.25
265.661	95.25
265.894	88.25
266.126	83.25
266.358	77.25
266.591	90.25
266.823	87.25
267.055	84.25
267.287	88.25
267.52	83.25
267.752	90.25
267.984	75.25
268.216	82.25
268.448	90.25
268.681	83.25
268.913	83.25
269.145	86.25
269.377	89.25
269.609	88.25
269.841	97.25
270.073	89.25
270.306	81.25
270.538	91.25
270.77	81.25
271.002	92.25
271.234	76.25
271.466	78.25
271.698	91.25
271.93	105.25
272.162	88.25
272.394	83.25
272.626	88.25
272.858	80.25
273.09	89.25
273.322	97.25
273.553	97.25
273.785	85.25
274.017	95.25
274.249	90.25
274.481	83.25
274.713	96.25
274.945	90.25
275.176	86.25
275.408	94.25
275.64	71.25
275.872	102.25
276.104	94.25
276.335	93.25
276.567	91.25
276.799	107.25
277.031	95.25
277.262	87.25
277.494	89.25
277.726	85.25
277.957	94.25
278.189	89.25
278.421	79.25
278.652	97.25
278.884	78.25
279.115	95.25
279.347	105.25
279.579	97.25
279.81	103.25
280.042	97.25
280.273	90.25
280.505	86.25
280.736	88.25
280.968	80.25
281.199	89.25
281.431	87.25
281.662	94.25
281.894	94.25
282.125	97.25
282.356	91.25
282.588	123.25
282.819	121.25
283.051	94.25
283.282	78.25
283.513	77.25
283.745	92.25
283.976	101.25
284.207	82.25
284.439	87.25
284.67	89.25
284.901	101.25
285.132	89.25
285.364	81.25
285.595	91.25
285.826	83.25
286.057	91.25
286.288	87.25
286.52	96.25
286.751	73.25
286.982	81.25
287.213	90.25
287.444	93.25
287.675	79.25
287.906	94.25
288.138	93.25
288.369	89.25
288.6	103.25
288.831	84.25
289.062	91.25
289.293	103.25
289.524	85.25
289.755	88.25
289.986	100.25
290.217	89.25
290.448	98.25
290.679	87.25
290.91	82.25
291.141	97.25
291.371	100.25
291.602	89.25
291.833	97.25
292.064	88.25
292.295	80.25
292.526	104.25
292.757	94.25
292.987	86.25
293.218	95.25
293.449	97.25
293.68	88.25
293.91	77.25
294.141	75.25
294.372	88.25
294.603	87.25
294.833	87.25
295.064	87.25
295.295	94.25
295.525	88.25
295.756	106.25
295.987	113.25
296.217	137.25
296.448	118.25
296.679	109.25
296.909	95.25
297.14	96.25
297.37	94.25
297.601	88.25
297.831	84.25
298.062	82.25
298.292	88.25
298.523	98.25
298.753	86.25
298.984	85.25
299.214	91.25
299.445	83.25
299.675	97.25
299.905	109.25
300.136	93.25
300.366	92.25
300.597	90.25
300.827	101.25
301.057	92.25
301.288	95.25
301.518	91.25
301.748	84.25
301.979	119.25
302.209	98.25
302.439	96.25
302.669	85.25
302.9	95.25
303.13	90.25
303.36	88.25
303.59	108.25
303.82	95.25
304.051	95.25
304.281	95.25
304.511	97.25
304.741	98.25
304.971	89.25
305.201	83.25
305.431	97.25
305.661	98.25
305.891	103.25
306.121	97.25
306.352	92.25
306.582	111.25
306.812	88.25
307.042	96.25
307.272	102.25
307.502	95.25
307.731	94.25
307.961	101.25
308.191	103.25
308.421	96.25
308.651	97.25
308.881	102.25
309.111	83.25
309.341	99.25
309.571	107.25
309.8	93.25
310.03	110.25
310.26	102.25
310.49	103.25
310.72	98.25
310.949	101.25
311.179	110.25
311.409	99.25
311.639	96.25
311.868	83.25
312.098	97.25
312.328	105.25
312.557	110.25
312.787	114.25
313.017	99.25
313.246	109.25
313.476	112.25
313.706	92.25
313.935	103.25
314.165	99.25
314.394	85.25
314.624	98.25
314.853	89.25
315.083	88.25
315.312	95.25
315.542	95.25
315.771	103.25
316.001	102.25
316.23	105.25
316.46	80.25
316.689	83.25
316.919	96.25
317.148	86.25
317.377	94.25
317.607	103.25
317.836	94.25
318.065	105.25
318.295	95.25
318.524	88.25
318.753	94.25
318.983	88.25
319.212	95.25
319.441	117.25
319.67	108.25
319.9	95.25
320.129	101.25
320.358	98.25
320.587	105.25
320.816	96.25
321.046	116.25
321.275	112.25
321.504	107.25
321.733	106.25
321.962	104.25
322.191	117.25
322.42	93.25
322.649	110.25
322.878	114.25
323.108	129.25
323.337	128.25
323.566	139.25
323.795	161.25
324.024	206.25
324.253	394.25
324.482	842.25
324.71	1719.25
324.939	2255.25
325.168	852.25
325.397	243.25
325.626	162.25
325.855	132.25
326.084	127.25
326.313	139.25
326.542	159.25
326.77	239.25
326.999	458.25
327.228	948.25
327.457	1768.25
327.686	1387.25
327.914	368.25
328.143	186.25
328.372	154.25
328.6	111.25
328.829	118.25
329.058	125.25
329.287	141.25
329.515	109.25
329.744	104.25
329.972	104.25
330.201	101.25
330.43	97.25
330.658	119.25
330.887	126.25
331.115	141.25
331.344	105.25
331.572	96.25
331.801	98.25
332.03	111.25
332.258	97.25
332.486	98.25
332.715	91.25
332.943	103.25
333.172	85.25
333.4	108.25
333.629	112.25
333.857	114.25
334.085	110.25
334.314	98.25
334.542	95.25
334.771	110.25
334.999	104.25
335.227	101.25
335.455	98.25
335.684	103.25
335.912	105.25
336.14	90.25
336.369	86.25
336.597	97.25
336.825	99.25
337.053	82.25
337.281	102.25
337.51	90.25
337.738	97.25
337.966	91.25
338.194	109.25
338.422	104.25
338.65	98.25
338.878	96.25
339.106	86.25
339.334	93.25
339.562	100.25
339.79	97.25
340.018	99.25
340.246	89.25
340.474	107.25
340.702	102.25
340.93	105.25
341.158	104.25
341.386	89.25
341.614	85.25
341.842	98.25
342.07	97.25
342.298	97.25
342.526	85.25
342.754	91.25
342.981	90.25
343.209	106.25
343.437	116.25
343.665	94.25
343.893	103.25
344.12	91.25
344.348	81.25
344.576	68.25
344.804	81.25
345.031	99.25
345.259	105.25
345.487	88.25
345.714	99.25
345.942	101.25
346.17	104.25
346.397	86.25
346.625	101.25
346.853	83.25
347.08	86.25
347.308	99.25
347.535	98.25
347.763	101.25
347.99	101.25
348.218	102.25
348.445	94.25
348.673	96.25
348.9	97.25
349.128	86.25
349.355	81.25
349.583	80.25
349.81	93.25
350.037	101.25
350.265	99.25
350.492	98.25
350.72	103.25
350.947	107.25
351.174	108.25
351.402	98.25
351.629	116.25
351.856	115.25
352.083	102.25
352.311	126.25
352.538	112.25
352.765	115.25
352.992	107.25
353.22	112.25
353.447	100.25
353.674	101.25
353.901	92.25
354.128	104.25
354.355	100.25
354.583	93.25
354.81	101.25
355.037	94.25
355.264	98.25
355.491	102.25
355.718	97.25
355.945	99.25
356.172	89.25
356.399	97.25
356.626	105.25
356.853	108.25
357.08	103.25
357.307	90.25
357.534	102.25
357.761	99.25
357.988	88.25
358.215	98.25
358.441	98.25
358.668	94.25
358.895	106.25
359.122	88.25
359.349	89.25
359.576	95.25
359.802	117.25
360.029	127.25
360.256	107.25
360.483	106.25
360.709	86.25
360.936	89.25
361.163	96.25
361.39	94.25
361.616	93.25
361.843	102.25
362.07	102.25
362.296	85.25
362.523	99.25
362.749	98.25
362.976	97.25
363.203	91.25
363.429	101.25
363.656	101.25
363.882	89.25
364.109	91.25
364.335	100.25
364.562	94.25
364.788	103.25
365.015	94.25
365.241	96.25
365.468	118.25
365.694	102.25
365.92	97.25
366.147	109.25
366.373	94.25
366.599	85.25
366.826	81.25
367.052	83.25
367.278	87.25
367.505	106.25
367.731	97.25
367.957	96.25
368.184	98.25
368.41	94.25
368.636	106.25
368.862	122.25
369.089	104.25
369.315	91.25
369.541	87.25
369.767	89.25
369.993	99.25
370.219	90.25
370.445	106.25
370.672	86.25
370.898	99.25
371.124	100.25
371.35	101.25
371.576	99.25
371.802	90.25
372.028	72.25
372.254	91.25
372.48	95.25
372.706	98.25
372.932	96.25
373.158	82.25
373.384	86.25
373.61	90.25
373.835	105.25
374.061	80.25
374.287	81.25
374.513	90.25
374.739	106.25
374.965	91.25
375.191	112.25
375.416	99.25
375.642	90.25
375.868	89.25
376.094	96.25
376.319	94.25
376.545	94.25
376.771	96.25
376.997	98.25
377.222	106.25
377.448	91.25
377.674	87.25
377.899	91.25
378.125	97.25
378.35	97.25
378.576	91.25
378.802	82.25
379.027	74.25
379.253	95.25
379.478	107.25
379.704	96.25
379.929	90.25
380.155	110.25
380.38	113.25
380.606	92.25
380.831	82.25
381.057	106.25
381.282	90.25
381.507	90.25
381.733	112.25
381.958	101.25
382.184	86.25
382.409	89.25
382.634	100.25
382.86	91.25
383.085	101.25
383.31	119.25
383.535	99.25
383.761	95.25
383.986	106.25
384.211	91.25
384.436	109.25
384.662	90.25
384.887	111.25
385.112	114.25
385.337	100.25
385.562	112.25
385.787	114.25
386.013	111.25
386.238	109.25
386.463	106.25
386.688	116.25
386.913	118.25
387.138	106.25
387.363	99.25
387.588	105.25
387.813	100.25
388.038	110.25
388.263	120.25
388.488	110.25
388.713	88.25
388.938	104.25
389.163	97.25
389.387	102.25
389.612	103.25
389.837	98.25
390.062	94.25
390.287	99.25
390.512	94.25
390.736	98.25
390.961	90.25
391.186	99.25
391.411	91.25
391.636	89.25
391.86	90.25
392.085	91.25
392.31	90.25
392.534	95.25
392.759	85.25
392.984	91.25
393.208	83.25
393.433	86.25
393.658	94.25
393.882	91.25
394.107	92.25
394.331	93.25
394.556	96.25
394.78	88.25
395.005	87.25
395.229	92.25
395.454	89.25
395.678	81.25
395.903	87.25
396.127	105.25
396.352	79.25
396.576	90.25
396.801	78.25
397.025	89.25
397.249	93.25
397.474	97.25
397.698	97.25
397.922	85.25
398.147	95.25
398.371	86.25
398.595	104.25
398.82	97.25
399.044	79.25
399.268	87.25
399.492	92.25
399.717	87.25
399.941	94.25
400.165	88.25
400.389	103.25
400.613	84.25
400.837	78.25
401.062	93.25
401.286	86.25
401.51	109.25
401.734	91.25
401.958	114.25
402.182	127.25
402.406	162.25
402.63	116.25
402.854	81.25
403.078	81.25
403.302	99.25
403.526	104.25
403.75	86.25
403.974	93.25
404.198	86.25
404.422	80.25
404.645	90.25
404.869	92.25
405.093	83.25
405.317	80.25
405.541	98.25
405.765	107.25
405.988	119.25
406.212	163.25
406.436	208.25
406.66	127.25
406.883	101.25
407.107	90.25
407.331	101.25
407.555	107.25
407.778	100.25
408.002	101.25
408.226	102.25
408.449	93.25
408.673	89.25
408.896	96.25
409.12	88.25
409.344	72.25
409.567	96.25
409.791	91.25
410.014	103.25
410.238	101.25
410.461	91.25
410.685	92.25
410.908	111.25
411.132	95.25
411.355	103.25
411.578	90.25
411.802	99.25
412.025	89.25
412.249	100.25
412.472	88.25
412.695	84.25
412.919	95.25
413.142	89.25
413.365	87.25
413.589	91.25
413.812	88.25
414.035	86.25
414.258	74.25
414.482	87.25
414.705	69.25
414.928	95.25
415.151	101.25
415.374	90.25
415.597	90.25
415.821	102.25
416.044	89.25
416.267	82.25
416.49	96.25
416.713	90.25
416.936	100.25
417.159	83.25
417.382	78.25
417.605	86.25
417.828	103.25
418.051	92.25
418.274	90.25
418.497	94.25
418.72	77.25
418.943	83.25
419.166	89.25
419.389	91.25
419.611	98.25
419.834	94.25
420.057	99.25
420.28	99.25
420.503	85.25
420.726	86.25
420.948	82.25
421.171	90.25
421.394	101.25
421.617	95.25
421.839	96.25
422.062	97.25
422.285	94.25
422.507	99.25
422.73	111.25
422.953	89.25
423.175	121.25
423.398	95.25
423.621	90.25
423.843	75.25
424.066	88.25
424.288	88.25
424.511	92.25
424.733	85.25
424.956	119.25
425.178	102.25
425.401	120.25
425.623	96.25
425.846	91.25
426.068	109.25
426.291	84.25
426.513	109.25
426.735	104.25
426.958	98.25
427.18	108.25
427.402	143.25
427.625	164.25
427.847	125.25
428.069	95.25
428.292	88.25
428.514	74.25
428.736	100.25
428.958	82.25
429.181	83.25
429.403	75.25
429.625	87.25
429.847	100.25
430.069	91.25
430.292	91.25
430.514	96.25
430.736	84.25
430.958	89.25
431.18	83.25
431.402	87.25
431.624	93.25
431.846	85.25
432.068	80.25
432.29	103.25
432.512	84.25
432.734	107.25
432.956	86.25
433.178	112.25
433.4	118.25
433.622	103.25
433.844	93.25
434.066	82.25
434.287	102.25
434.509	91.25
434.731	95.25
434.953	93.25
435.175	90.25
435.397	110.25
435.618	91.25
435.84	104.25
436.062	114.25
436.284	124.25
436.505	104.25
436.727	115.25
436.949	91.25
437.17	95.25
437.392	113.25
437.614	103.25
437.835	106.25
438.057	108.25
438.278	115.25
438.5	100.25
438.721	131.25
438.943	104.25
439.165	88.25
439.386	80.25
439.608	100.25
439.829	84.25
440.05	134.25
440.272	130.25
440.493	109.25
440.715	98.25
440.936	91.25
441.158	91.25
441.379	91.25
441.6	99.25
441.822	99.25
442.043	85.25
442.264	102.25
442.486	98.25
442.707	102.25
442.928	109.25
443.149	132.25
443.371	120.25
443.592	124.25
443.813	114.25
444.034	121.25
444.255	102.25
444.476	94.25
444.698	93.25
444.919	95.25
445.14	119.25
445.361	117.25
445.582	110.25
445.803	139.25
446.024	141.25
446.245	138.25
446.466	118.25
446.687	93.25
446.908	83.25
447.129	103.25
447.35	71.25
447.571	109.25
447.792	94.25
448.013	96.25
448.234	102.25
448.455	105.25
448.675	121.25
448.896	136.25
449.117	110.25
449.338	111.25
449.559	122.25
449.779	136.25
450	109.25
450.221	89.25
450.442	85.25
450.662	98.25
450.883	99.25
451.104	103.25
451.324	105.25
451.545	94.25
451.766	77.25
451.986	95.25
452.207	96.25
452.428	96.25
452.648	98.25
452.869	108.25
453.089	109.25
453.31	125.25
453.53	89.25
453.751	107.25
453.971	103.25
454.192	97.25
454.412	86.25
454.633	83.25
454.853	88.25
455.073	87.25
455.294	79.25
455.514	104.25
455.734	88.25
455.955	81.25
456.175	85.25
456.395	90.25
456.616	87.25
456.836	80.25
457.056	88.25
457.276	76.25
457.497	95.25
457.717	105.25
457.937	100.25
458.157	81.25
458.377	82.25
458.598	112.25
458.818	139.25
459.038	153.25
459.258	122.25
459.478	85.25
459.698	88.25
459.918	90.25
460.138	90.25
460.358	77.25
460.578	94.25
460.798	91.25
461.018	100.25
461.238	94.25
461.458	77.25
461.678	101.25
461.898	79.25
462.118	91.25
462.338	79.25
462.558	80.25
462.777	82.25
462.997	79.25
463.217	82.25
463.437	91.25
463.657	79.25
463.876	98.25
464.096	97.25
464.316	95.25
464.536	91.25
464.755	90.25
464.975	109.25
465.195	173.25
465.414	145.25
465.634	111.25
465.854	95.25
466.073	109.25
466.293	87.25
466.512	91.25
466.732	85.25
466.951	70.25
467.171	118.25
467.391	93.25
467.61	96.25
467.829	104.25
468.049	107.25
468.268	97.25
468.488	88.25
468.707	85.25
468.927	96.25
469.146	79.25
469.365	89.25
469.585	105.25
469.804	101.25
470.023	98.25
470.243	92.25
470.462	114.25
470.681	105.25
470.901	103.25
471.12	86.25
471.339	89.25
471.558	81.25
471.777	101.25
471.997	89.25
472.216	89.25
472.435	100.25
472.654	97.25
472.873	79.25
473.092	91.25
473.311	83.25
473.53	80.25
473.749	91.25
473.968	95.25
474.187	91.25
474.406	99.25
474.625	95.25
474.844	98.25
475.063	96.25
475.282	99.25
475.501	85.25
475.72	97.25
475.939	86.25
476.158	88.25
476.377	97.25
476.596	82.25
476.814	98.25
477.033	93.25
477.252	92.25
477.471	91.25
477.69	87.25
477.908	91.25
478.127	89.25
478.346	101.25
478.564	98.25
478.783	97.25
479.002	112.25
479.22	92.25
479.439	92.25
479.658	89.25
479.876	90.25
480.095	87.25
480.313	86.25
480.532	81.25
480.751	115.25
480.969	91.25
481.188	108.25
481.406	98.25
481.624	96.25
481.843	97.25
482.061	94.25
482.28	93.25
482.498	106.25
482.717	86.25
482.935	102.25
483.153	81.25
483.372	87.25
483.59	82.25
483.808	78.25
484.027	90.25
484.245	90.25
484.463	82.25
484.681	96.25
484.9	83.25
485.118	94.25
485.336	97.25
485.554	96.25
485.772	112.25
485.99	111.25
486.209	114.25
486.427	99.25
486.645	115.25
486.863	105.25
487.081	96.25
487.299	102.25
487.517	79.25
487.735	91.25
487.953	100.25
488.171	91.25
488.389	90.25
488.607	106.25
488.825	92.25
489.043	75.25
489.261	87.25
489.479	83.25
489.696	87.25
489.914	93.25
490.132	103.25
490.35	87.25
490.568	104.25
490.786	94.25
491.003	96.25
491.221	94.25
491.439	106.25
491.657	89.25
491.874	99.25
492.092	105.25
492.31	85.25
492.527	108.25
492.745	99.25
492.963	88.25
493.18	93.25
493.398	86.25
493.615	93.25
493.833	84.25
494.05	76.25
494.268	88.25
494.485	89.25
494.703	88.25
494.92	94.25
495.138	107.25
495.355	97.25
495.573	98.25
495.79	79.25
496.008	101.25
496.225	88.25
496.442	83.25
496.66	81.25
496.877	96.25
497.094	86.25
497.312	104.25
497.529	93.25
497.746	97.25
497.963	102.25
498.181	81.25
498.398	99.25
498.615	112.25
498.832	96.25
499.049	93.25
499.267	90.25
499.484	100.25
499.701	94.25
499.918	91.25
500.135	95.25
500.352	100.25
500.569	99.25
500.786	90.25
501.003	96.25
501.22	77.25
501.437	87.25
501.654	93.25
501.871	97.25
502.088	100.25
502.305	87.25
502.522	101.25
502.739	102.25
502.956	83.25
503.172	82.25
503.389	107.25
503.606	97.25
503.823	96.25
504.04	98.25
504.256	89.25
504.473	91.25
504.69	97.25
504.907	98.25
505.123	97.25
505.34	76.25
505.557	86.25
505.773	87.25
505.99	101.25
506.207	100.25
506.423	85.25
506.64	91.25
506.856	94.25
507.073	94.25
507.289	82.25
507.506	99.25
507.722	95.25
507.939	114.25
508.155	99.25
508.372	104.25
508.588	106.25
508.805	99.25
509.021	99.25
509.238	102.25
509.454	95.25
509.67	107.25
509.887	105.25
510.103	128.25
510.319	200.25
510.536	700.25
510.752	2174.25
510.968	618.25
511.184	163.25
511.401	100.25
511.617	93.25
511.833	85.25
512.049	80.25
512.265	93.25
512.481	102.25
512.698	102.25
512.914	97.25
513.13	82.25
513.346	106.25
513.562	98.25
513.778	94.25
513.994	103.25
514.21	102.25
514.426	112.25
514.642	140.25
