Data from Uncirc_2005_H10_HRD10591_00100.txt Node
Date: Wed Jan 03 10:28:44 EST 2024
User: Yrep
Spectrometer: HR+D1059
Trigger mode: 1
Integration Time (sec): 1.000000E-1
Scans to average: 1
Electric dark correction enabled: true
Nonlinearity correction enabled: false
Boxcar width: 0
XAxis mode: Wavelengths
Number of Pixels in Spectrum: 2048
>>>>>Begin Spectral Data<<<<<
223.165	-21.88
223.4	-21.88
223.635	-21.88
223.869	-32.88
224.104	-33.88
224.338	-22.88
224.573	-6.88
224.808	-8.88
225.042	-7.88
225.277	-5.88
225.511	-3.88
225.746	7.12
225.98	6.12
226.215	27.12
226.449	20.12
226.683	8.12
226.918	37.12
227.152	39.12
227.387	34.12
227.621	37.12
227.856	50.12
228.09	39.12
228.324	70.12
228.559	56.12
228.793	43.12
229.027	62.12
229.262	64.12
229.496	76.12
229.73	68.12
229.964	79.12
230.199	79.12
230.433	75.12
230.667	77.12
230.901	87.12
231.136	78.12
231.37	85.12
231.604	92.12
231.838	96.12
232.072	78.12
232.306	90.12
232.541	82.12
232.775	82.12
233.009	77.12
233.243	78.12
233.477	91.12
233.711	86.12
233.945	80.12
234.179	87.12
234.413	74.12
234.647	66.12
234.881	79.12
235.115	87.12
235.349	90.12
235.583	68.12
235.817	72.12
236.051	71.12
236.285	83.12
236.519	76.12
236.753	86.12
236.987	87.12
237.221	75.12
237.455	98.12
237.689	86.12
237.922	70.12
238.156	72.12
238.39	69.12
238.624	71.12
238.858	87.12
239.091	82.12
239.325	84.12
239.559	93.12
239.793	84.12
240.027	98.12
240.26	76.12
240.494	75.12
240.728	71.12
240.961	84.12
241.195	79.12
241.429	71.12
241.662	61.12
241.896	62.12
242.13	83.12
242.363	74.12
242.597	83.12
242.83	83.12
243.064	76.12
243.298	80.12
243.531	77.12
243.765	72.12
243.998	77.12
244.232	74.12
244.465	86.12
244.699	85.12
244.932	102.12
245.166	77.12
245.399	79.12
245.633	65.12
245.866	75.12
246.099	78.12
246.333	71.12
246.566	79.12
246.8	78.12
247.033	83.12
247.266	71.12
247.5	80.12
247.733	79.12
247.966	80.12
248.2	63.12
248.433	84.12
248.666	81.12
248.899	78.12
249.133	80.12
249.366	110.12
249.599	103.12
249.832	87.12
250.066	71.12
250.299	68.12
250.532	82.12
250.765	83.12
250.998	82.12
251.231	78.12
251.465	73.12
251.698	75.12
251.931	88.12
252.164	85.12
252.397	76.12
252.63	77.12
252.863	85.12
253.096	73.12
253.329	88.12
253.562	77.12
253.795	75.12
254.028	90.12
254.261	78.12
254.494	82.12
254.727	82.12
254.96	98.12
255.193	75.12
255.426	84.12
255.659	67.12
255.892	78.12
256.124	76.12
256.357	83.12
256.59	92.12
256.823	71.12
257.056	85.12
257.289	83.12
257.521	85.12
257.754	81.12
257.987	78.12
258.22	78.12
258.452	76.12
258.685	74.12
258.918	89.12
259.151	79.12
259.383	87.12
259.616	92.12
259.849	86.12
260.081	79.12
260.314	91.12
260.547	82.12
260.779	84.12
261.012	93.12
261.244	85.12
261.477	86.12
261.71	99.12
261.942	99.12
262.175	109.12
262.407	99.12
262.64	84.12
262.872	94.12
263.105	87.12
263.337	88.12
263.57	93.12
263.802	85.12
264.035	90.12
264.267	78.12
264.499	94.12
264.732	96.12
264.964	92.12
265.197	84.12
265.429	78.12
265.661	90.12
265.894	92.12
266.126	76.12
266.358	81.12
266.591	83.12
266.823	79.12
267.055	68.12
267.287	80.12
267.52	83.12
267.752	68.12
267.984	77.12
268.216	82.12
268.448	92.12
268.681	79.12
268.913	94.12
269.145	82.12
269.377	84.12
269.609	75.12
269.841	82.12
270.073	85.12
270.306	82.12
270.538	93.12
270.77	91.12
271.002	85.12
271.234	95.12
271.466	78.12
271.698	66.12
271.93	75.12
272.162	87.12
272.394	76.12
272.626	82.12
272.858	98.12
273.09	70.12
273.322	85.12
273.553	84.12
273.785	89.12
274.017	87.12
274.249	76.12
274.481	85.12
274.713	90.12
274.945	93.12
275.176	97.12
275.408	87.12
275.64	92.12
275.872	84.12
276.104	90.12
276.335	85.12
276.567	98.12
276.799	100.12
277.031	95.12
277.262	81.12
277.494	83.12
277.726	84.12
277.957	82.12
278.189	88.12
278.421	105.12
278.652	78.12
278.884	95.12
279.115	87.12
279.347	86.12
279.579	82.12
279.81	90.12
280.042	75.12
280.273	83.12
280.505	88.12
280.736	96.12
280.968	85.12
281.199	100.12
281.431	83.12
281.662	88.12
281.894	94.12
282.125	93.12
282.356	110.12
282.588	134.12
282.819	112.12
283.051	97.12
283.282	80.12
283.513	80.12
283.745	97.12
283.976	84.12
284.207	79.12
284.439	85.12
284.67	96.12
284.901	88.12
285.132	74.12
285.364	91.12
285.595	93.12
285.826	73.12
286.057	92.12
286.288	88.12
286.52	86.12
286.751	80.12
286.982	84.12
287.213	92.12
287.444	98.12
287.675	90.12
287.906	83.12
288.138	79.12
288.369	87.12
288.6	92.12
288.831	80.12
289.062	95.12
289.293	83.12
289.524	92.12
289.755	84.12
289.986	83.12
290.217	84.12
290.448	85.12
290.679	86.12
290.91	101.12
291.141	83.12
291.371	97.12
291.602	89.12
291.833	98.12
292.064	80.12
292.295	87.12
292.526	97.12
292.757	87.12
292.987	88.12
293.218	98.12
293.449	85.12
293.68	96.12
293.91	85.12
294.141	83.12
294.372	90.12
294.603	91.12
294.833	92.12
295.064	87.12
295.295	93.12
295.525	96.12
295.756	86.12
295.987	119.12
296.217	146.12
296.448	139.12
296.679	108.12
296.909	82.12
297.14	95.12
297.37	100.12
297.601	99.12
297.831	86.12
298.062	93.12
298.292	87.12
298.523	75.12
298.753	94.12
298.984	101.12
299.214	83.12
299.445	88.12
299.675	96.12
299.905	97.12
300.136	87.12
300.366	92.12
300.597	78.12
300.827	88.12
301.057	99.12
301.288	101.12
301.518	111.12
301.748	103.12
301.979	93.12
302.209	93.12
302.439	87.12
302.669	87.12
302.9	98.12
303.13	97.12
303.36	100.12
303.59	109.12
303.82	102.12
304.051	85.12
304.281	86.12
304.511	104.12
304.741	87.12
304.971	96.12
305.201	87.12
305.431	82.12
305.661	82.12
305.891	89.12
306.121	100.12
306.352	99.12
306.582	106.12
306.812	103.12
307.042	100.12
307.272	95.12
307.502	99.12
307.731	78.12
307.961	86.12
308.191	91.12
308.421	103.12
308.651	86.12
308.881	94.12
309.111	80.12
309.341	83.12
309.571	96.12
309.8	87.12
310.03	88.12
310.26	104.12
310.49	85.12
310.72	95.12
310.949	105.12
311.179	102.12
311.409	88.12
311.639	94.12
311.868	109.12
312.098	102.12
312.328	94.12
312.557	97.12
312.787	106.12
313.017	104.12
313.246	96.12
313.476	109.12
313.706	87.12
313.935	93.12
314.165	92.12
314.394	102.12
314.624	82.12
314.853	101.12
315.083	106.12
315.312	90.12
315.542	80.12
315.771	93.12
316.001	96.12
316.23	95.12
316.46	95.12
316.689	94.12
316.919	80.12
317.148	77.12
317.377	98.12
317.607	85.12
317.836	83.12
318.065	101.12
318.295	92.12
318.524	99.12
318.753	93.12
318.983	92.12
319.212	91.12
319.441	94.12
319.67	102.12
319.9	103.12
320.129	92.12
320.358	95.12
320.587	103.12
320.816	86.12
321.046	92.12
321.275	95.12
321.504	99.12
321.733	100.12
321.962	101.12
322.191	101.12
322.42	103.12
322.649	112.12
322.878	117.12
323.108	111.12
323.337	116.12
323.566	129.12
323.795	160.12
324.024	213.12
324.253	413.12
324.482	835.12
324.71	1794.12
324.939	2400.12
325.168	865.12
325.397	240.12
325.626	151.12
325.855	110.12
326.084	134.12
326.313	139.12
326.542	162.12
326.77	235.12
326.999	493.12
327.228	1008.12
327.457	1816.12
327.686	1490.12
327.914	403.12
328.143	190.12
328.372	154.12
328.6	124.12
328.829	117.12
329.058	127.12
329.287	123.12
329.515	118.12
329.744	96.12
329.972	102.12
330.201	99.12
330.43	108.12
330.658	119.12
330.887	135.12
331.115	120.12
331.344	103.12
331.572	94.12
331.801	96.12
332.03	107.12
332.258	87.12
332.486	86.12
332.715	83.12
332.943	104.12
333.172	95.12
333.4	114.12
333.629	99.12
333.857	106.12
334.085	112.12
334.314	103.12
334.542	105.12
334.771	96.12
334.999	93.12
335.227	108.12
335.455	99.12
335.684	75.12
335.912	100.12
336.14	97.12
336.369	90.12
336.597	101.12
336.825	94.12
337.053	107.12
337.281	95.12
337.51	86.12
337.738	83.12
337.966	97.12
338.194	91.12
338.422	87.12
338.65	92.12
338.878	106.12
339.106	104.12
339.334	87.12
339.562	81.12
339.79	92.12
340.018	94.12
340.246	90.12
340.474	101.12
340.702	91.12
340.93	95.12
341.158	91.12
341.386	94.12
341.614	107.12
341.842	96.12
342.07	87.12
342.298	85.12
342.526	86.12
342.754	85.12
342.981	80.12
343.209	93.12
343.437	99.12
343.665	81.12
343.893	95.12
344.12	80.12
344.348	86.12
344.576	87.12
344.804	102.12
345.031	101.12
345.259	83.12
345.487	83.12
345.714	85.12
345.942	92.12
346.17	100.12
346.397	86.12
346.625	91.12
346.853	95.12
347.08	74.12
347.308	94.12
347.535	87.12
347.763	104.12
347.99	93.12
348.218	89.12
348.445	121.12
348.673	105.12
348.9	86.12
349.128	86.12
349.355	98.12
349.583	92.12
349.81	95.12
350.037	103.12
350.265	113.12
350.492	82.12
350.72	101.12
350.947	111.12
351.174	98.12
351.402	110.12
351.629	106.12
351.856	88.12
352.083	104.12
352.311	99.12
352.538	108.12
352.765	113.12
352.992	114.12
353.22	101.12
353.447	106.12
353.674	104.12
353.901	87.12
354.128	107.12
354.355	91.12
354.583	96.12
354.81	91.12
355.037	86.12
355.264	92.12
355.491	89.12
355.718	100.12
355.945	91.12
356.172	87.12
356.399	111.12
356.626	99.12
356.853	89.12
357.08	99.12
357.307	96.12
357.534	100.12
357.761	102.12
357.988	89.12
358.215	104.12
358.441	92.12
358.668	88.12
358.895	88.12
359.122	92.12
359.349	98.12
359.576	86.12
359.802	98.12
360.029	112.12
360.256	117.12
360.483	98.12
360.709	89.12
360.936	86.12
361.163	98.12
361.39	83.12
361.616	105.12
361.843	86.12
362.07	97.12
362.296	94.12
362.523	77.12
362.749	87.12
362.976	65.12
363.203	83.12
363.429	100.12
363.656	101.12
363.882	94.12
364.109	77.12
364.335	104.12
364.562	89.12
364.788	98.12
365.015	95.12
365.241	102.12
365.468	106.12
365.694	107.12
365.92	96.12
366.147	96.12
366.373	91.12
366.599	93.12
366.826	88.12
367.052	84.12
367.278	87.12
367.505	92.12
367.731	92.12
367.957	98.12
368.184	93.12
368.41	100.12
368.636	94.12
368.862	111.12
369.089	92.12
369.315	89.12
369.541	90.12
369.767	91.12
369.993	90.12
370.219	81.12
370.445	94.12
370.672	78.12
370.898	86.12
371.124	93.12
371.35	80.12
371.576	91.12
371.802	90.12
372.028	77.12
372.254	101.12
372.48	106.12
372.706	92.12
372.932	81.12
373.158	92.12
373.384	84.12
373.61	83.12
373.835	84.12
374.061	90.12
374.287	89.12
374.513	74.12
374.739	85.12
374.965	92.12
375.191	92.12
375.416	84.12
375.642	85.12
375.868	90.12
376.094	84.12
376.319	67.12
376.545	85.12
376.771	78.12
376.997	85.12
377.222	95.12
377.448	95.12
377.674	84.12
377.899	87.12
378.125	90.12
378.35	86.12
378.576	94.12
378.802	86.12
379.027	107.12
379.253	90.12
379.478	82.12
379.704	94.12
379.929	106.12
380.155	94.12
380.38	98.12
380.606	86.12
380.831	92.12
381.057	85.12
381.282	103.12
381.507	101.12
381.733	105.12
381.958	87.12
382.184	78.12
382.409	89.12
382.634	101.12
382.86	91.12
383.085	107.12
383.31	103.12
383.535	102.12
383.761	97.12
383.986	101.12
384.211	103.12
384.436	78.12
384.662	90.12
384.887	102.12
385.112	106.12
385.337	105.12
385.562	100.12
385.787	98.12
386.013	96.12
386.238	118.12
386.463	99.12
386.688	99.12
386.913	93.12
387.138	86.12
387.363	102.12
387.588	98.12
387.813	100.12
388.038	116.12
388.263	95.12
388.488	85.12
388.713	91.12
388.938	100.12
389.163	81.12
389.387	92.12
389.612	98.12
389.837	95.12
390.062	100.12
390.287	101.12
390.512	90.12
390.736	100.12
390.961	96.12
391.186	90.12
391.411	90.12
391.636	80.12
391.86	86.12
392.085	86.12
392.31	80.12
392.534	80.12
392.759	87.12
392.984	77.12
393.208	109.12
393.433	70.12
393.658	85.12
393.882	95.12
394.107	76.12
394.331	90.12
394.556	84.12
394.78	82.12
395.005	85.12
395.229	99.12
395.454	72.12
395.678	86.12
395.903	91.12
396.127	85.12
396.352	96.12
396.576	69.12
396.801	98.12
397.025	74.12
397.249	91.12
397.474	79.12
397.698	100.12
397.922	74.12
398.147	90.12
398.371	86.12
398.595	86.12
398.82	86.12
399.044	100.12
399.268	102.12
399.492	92.12
399.717	97.12
399.941	92.12
400.165	87.12
400.389	89.12
400.613	90.12
400.837	104.12
401.062	94.12
401.286	80.12
401.51	91.12
401.734	88.12
401.958	113.12
402.182	122.12
402.406	155.12
402.63	112.12
402.854	85.12
403.078	84.12
403.302	91.12
403.526	88.12
403.75	96.12
403.974	100.12
404.198	82.12
404.422	74.12
404.645	90.12
404.869	96.12
405.093	104.12
405.317	102.12
405.541	96.12
405.765	88.12
405.988	114.12
406.212	146.12
406.436	203.12
406.66	145.12
406.883	95.12
407.107	92.12
407.331	105.12
407.555	87.12
407.778	94.12
408.002	91.12
408.226	83.12
408.449	74.12
408.673	102.12
408.896	84.12
409.12	87.12
409.344	84.12
409.567	96.12
409.791	72.12
410.014	95.12
410.238	99.12
410.461	86.12
410.685	99.12
410.908	101.12
411.132	98.12
411.355	98.12
411.578	99.12
411.802	86.12
412.025	78.12
412.249	97.12
412.472	96.12
412.695	101.12
412.919	82.12
413.142	93.12
413.365	96.12
413.589	98.12
413.812	95.12
414.035	91.12
414.258	95.12
414.482	95.12
414.705	94.12
414.928	94.12
415.151	99.12
415.374	82.12
415.597	94.12
415.821	94.12
416.044	89.12
416.267	88.12
416.49	82.12
416.713	91.12
416.936	89.12
417.159	91.12
417.382	104.12
417.605	88.12
417.828	99.12
418.051	94.12
418.274	99.12
418.497	89.12
418.72	93.12
418.943	98.12
419.166	95.12
419.389	75.12
419.611	87.12
419.834	86.12
420.057	84.12
420.28	84.12
420.503	83.12
420.726	85.12
420.948	86.12
421.171	97.12
421.394	100.12
421.617	80.12
421.839	79.12
422.062	85.12
422.285	89.12
422.507	101.12
422.73	106.12
422.953	88.12
423.175	91.12
423.398	85.12
423.621	99.12
423.843	84.12
424.066	93.12
424.288	94.12
424.511	100.12
424.733	99.12
424.956	98.12
425.178	107.12
425.401	97.12
425.623	91.12
425.846	96.12
426.068	100.12
426.291	89.12
426.513	94.12
426.735	94.12
426.958	97.12
427.18	92.12
427.402	137.12
427.625	156.12
427.847	133.12
428.069	100.12
428.292	84.12
428.514	91.12
428.736	96.12
428.958	77.12
429.181	88.12
429.403	74.12
429.625	88.12
429.847	81.12
430.069	107.12
430.292	88.12
430.514	88.12
430.736	98.12
430.958	76.12
431.18	99.12
431.402	88.12
431.624	83.12
431.846	85.12
432.068	94.12
432.29	99.12
432.512	82.12
432.734	97.12
432.956	94.12
433.178	92.12
433.4	104.12
433.622	98.12
433.844	88.12
434.066	88.12
434.287	100.12
434.509	95.12
434.731	94.12
434.953	92.12
435.175	77.12
435.397	87.12
435.618	83.12
435.84	101.12
436.062	139.12
436.284	128.12
436.505	96.12
436.727	102.12
436.949	93.12
437.17	93.12
437.392	89.12
437.614	85.12
437.835	106.12
438.057	112.12
438.278	101.12
438.5	101.12
438.721	124.12
438.943	99.12
439.165	80.12
439.386	91.12
439.608	93.12
439.829	105.12
440.05	120.12
440.272	138.12
440.493	86.12
440.715	97.12
440.936	77.12
441.158	76.12
441.379	88.12
441.6	78.12
441.822	95.12
442.043	87.12
442.264	119.12
442.486	102.12
442.707	85.12
442.928	102.12
443.149	113.12
443.371	127.12
443.592	100.12
443.813	97.12
444.034	112.12
444.255	98.12
444.476	85.12
444.698	81.12
444.919	101.12
445.14	132.12
445.361	109.12
445.582	116.12
445.803	141.12
446.024	131.12
446.245	129.12
446.466	114.12
446.687	87.12
446.908	82.12
447.129	95.12
447.35	86.12
447.571	103.12
447.792	96.12
448.013	101.12
448.234	106.12
448.455	100.12
448.675	115.12
448.896	114.12
449.117	96.12
449.338	97.12
449.559	135.12
449.779	139.12
450	94.12
450.221	91.12
450.442	84.12
450.662	94.12
450.883	106.12
451.104	113.12
451.324	95.12
451.545	90.12
451.766	93.12
451.986	82.12
452.207	80.12
452.428	96.12
452.648	93.12
452.869	99.12
453.089	114.12
453.31	115.12
453.53	83.12
453.751	94.12
453.971	94.12
454.192	111.12
454.412	84.12
454.633	88.12
454.853	83.12
455.073	86.12
455.294	99.12
455.514	94.12
455.734	90.12
455.955	96.12
456.175	90.12
456.395	80.12
456.616	89.12
456.836	94.12
457.056	99.12
457.276	79.12
457.497	74.12
457.717	88.12
457.937	85.12
458.157	82.12
458.377	94.12
458.598	98.12
458.818	138.12
459.038	142.12
459.258	97.12
459.478	99.12
459.698	95.12
459.918	70.12
460.138	82.12
460.358	97.12
460.578	103.12
460.798	93.12
461.018	82.12
461.238	85.12
461.458	111.12
461.678	100.12
461.898	90.12
462.118	87.12
462.338	84.12
462.558	90.12
462.777	87.12
462.997	77.12
463.217	69.12
463.437	83.12
463.657	86.12
463.876	84.12
464.096	93.12
464.316	92.12
464.536	89.12
464.755	86.12
464.975	104.12
465.195	166.12
465.414	142.12
465.634	92.12
465.854	99.12
466.073	87.12
466.293	79.12
466.512	83.12
466.732	86.12
466.951	78.12
467.171	94.12
467.391	91.12
467.61	99.12
467.829	100.12
468.049	84.12
468.268	94.12
468.488	88.12
468.707	91.12
468.927	80.12
469.146	82.12
469.365	84.12
469.585	81.12
469.804	94.12
470.023	103.12
470.243	84.12
470.462	97.12
470.681	107.12
470.901	79.12
471.12	93.12
471.339	76.12
471.558	91.12
471.777	81.12
471.997	78.12
472.216	90.12
472.435	96.12
472.654	91.12
472.873	83.12
473.092	98.12
473.311	93.12
473.53	90.12
473.749	87.12
473.968	87.12
474.187	118.12
474.406	86.12
474.625	81.12
474.844	67.12
475.063	85.12
475.282	78.12
475.501	64.12
475.72	89.12
475.939	106.12
476.158	91.12
476.377	91.12
476.596	98.12
476.814	104.12
477.033	88.12
477.252	92.12
477.471	84.12
477.69	96.12
477.908	93.12
478.127	84.12
478.346	84.12
478.564	92.12
478.783	103.12
479.002	98.12
479.22	95.12
479.439	107.12
479.658	103.12
479.876	101.12
480.095	90.12
480.313	96.12
480.532	94.12
480.751	96.12
480.969	109.12
481.188	102.12
481.406	105.12
481.624	83.12
481.843	91.12
482.061	96.12
482.28	78.12
482.498	94.12
482.717	78.12
482.935	86.12
483.153	87.12
483.372	92.12
483.59	95.12
483.808	100.12
484.027	102.12
484.245	77.12
484.463	85.12
484.681	79.12
484.9	99.12
485.118	103.12
485.336	102.12
485.554	107.12
485.772	100.12
485.99	94.12
486.209	97.12
486.427	112.12
486.645	113.12
486.863	104.12
487.081	98.12
487.299	93.12
487.517	98.12
487.735	92.12
487.953	94.12
488.171	94.12
488.389	107.12
488.607	96.12
488.825	95.12
489.043	84.12
489.261	100.12
489.479	78.12
489.696	85.12
489.914	84.12
490.132	94.12
490.35	82.12
490.568	87.12
490.786	94.12
491.003	84.12
491.221	94.12
491.439	85.12
491.657	98.12
491.874	79.12
492.092	80.12
492.31	97.12
492.527	91.12
492.745	82.12
492.963	86.12
493.18	90.12
493.398	97.12
493.615	93.12
493.833	103.12
494.05	91.12
494.268	78.12
494.485	96.12
494.703	94.12
494.92	80.12
495.138	92.12
495.355	93.12
495.573	106.12
495.79	103.12
496.008	83.12
496.225	103.12
496.442	87.12
496.66	92.12
496.877	89.12
497.094	96.12
497.312	88.12
497.529	88.12
497.746	88.12
497.963	98.12
498.181	87.12
498.398	90.12
498.615	99.12
498.832	105.12
499.049	86.12
499.267	92.12
499.484	88.12
499.701	102.12
499.918	95.12
500.135	91.12
500.352	90.12
500.569	89.12
500.786	79.12
501.003	80.12
501.22	95.12
501.437	84.12
501.654	83.12
501.871	112.12
502.088	93.12
502.305	83.12
502.522	85.12
502.739	89.12
502.956	94.12
503.172	87.12
503.389	78.12
503.606	94.12
503.823	103.12
504.04	81.12
504.256	87.12
504.473	97.12
504.69	94.12
504.907	88.12
505.123	98.12
505.34	107.12
505.557	71.12
505.773	86.12
505.99	98.12
506.207	90.12
506.423	99.12
506.64	90.12
506.856	80.12
507.073	94.12
507.289	94.12
507.506	87.12
507.722	110.12
507.939	114.12
508.155	82.12
508.372	73.12
508.588	92.12
508.805	91.12
509.021	101.12
509.238	114.12
509.454	99.12
509.67	97.12
509.887	106.12
510.103	116.12
510.319	224.12
510.536	735.12
510.752	2311.12
510.968	660.12
511.184	156.12
511.401	110.12
511.617	102.12
511.833	94.12
512.049	96.12
512.265	95.12
512.481	88.12
512.698	91.12
512.914	98.12
513.13	82.12
513.346	89.12
513.562	93.12
513.778	91.12
513.994	109.12
514.21	97.12
514.426	116.12
514.642	132.12
514.858	119.12
515.074	172.12
515.29	430.12
515.506	1395.12
515.721	527.12
515.937	144.12
