Data from Uncirc_2005_H10_HRD10591_00028.txt Node
Date: Wed Jan 03 10:28:30 EST 2024
User: Yrep
Spectrometer: HR+D1059
Trigger mode: 1
Integration Time (sec): 1.000000E-1
Scans to average: 1
Electric dark correction enabled: true
Nonlinearity correction enabled: false
Boxcar width: 0
XAxis mode: Wavelengths
Number of Pixels in Spectrum: 2048
>>>>>Begin Spectral Data<<<<<
223.165	-17.44
223.4	-17.44
223.635	-17.44
223.869	-11.44
224.104	-30.44
224.338	-18.44
224.573	-16.44
224.808	-12.44
225.042	-15.44
225.277	-6.44
225.511	-8.44
225.746	10.56
225.98	0.56
226.215	15.56
226.449	26.56
226.683	22.56
226.918	34.56
227.152	26.56
227.387	31.56
227.621	44.56
227.856	40.56
228.09	53.56
228.324	47.56
228.559	44.56
228.793	52.56
229.027	42.56
229.262	53.56
229.496	78.56
229.73	79.56
229.964	84.56
230.199	79.56
230.433	91.56
230.667	76.56
230.901	79.56
231.136	85.56
231.37	63.56
231.604	78.56
231.838	62.56
232.072	90.56
232.306	88.56
232.541	74.56
232.775	73.56
233.009	99.56
233.243	76.56
233.477	79.56
233.711	84.56
233.945	77.56
234.179	79.56
234.413	66.56
234.647	85.56
234.881	80.56
235.115	83.56
235.349	92.56
235.583	89.56
235.817	69.56
236.051	84.56
236.285	70.56
236.519	72.56
236.753	91.56
236.987	81.56
237.221	85.56
237.455	92.56
237.689	73.56
237.922	62.56
238.156	84.56
238.39	69.56
238.624	69.56
238.858	89.56
239.091	82.56
239.325	79.56
239.559	93.56
239.793	73.56
240.027	80.56
240.26	69.56
240.494	79.56
240.728	94.56
240.961	75.56
241.195	78.56
241.429	79.56
241.662	67.56
241.896	65.56
242.13	74.56
242.363	68.56
242.597	78.56
242.83	76.56
243.064	77.56
243.298	74.56
243.531	67.56
243.765	76.56
243.998	63.56
244.232	64.56
244.465	83.56
244.699	78.56
244.932	70.56
245.166	75.56
245.399	69.56
245.633	84.56
245.866	72.56
246.099	68.56
246.333	73.56
246.566	86.56
246.8	82.56
247.033	92.56
247.266	85.56
247.5	79.56
247.733	71.56
247.966	80.56
248.2	84.56
248.433	66.56
248.666	78.56
248.899	75.56
249.133	93.56
249.366	92.56
249.599	93.56
249.832	73.56
250.066	85.56
250.299	86.56
250.532	80.56
250.765	84.56
250.998	76.56
251.231	78.56
251.465	88.56
251.698	82.56
251.931	92.56
252.164	70.56
252.397	80.56
252.63	85.56
252.863	77.56
253.096	68.56
253.329	89.56
253.562	72.56
253.795	86.56
254.028	86.56
254.261	85.56
254.494	71.56
254.727	76.56
254.96	75.56
255.193	80.56
255.426	79.56
255.659	72.56
255.892	74.56
256.124	83.56
256.357	70.56
256.59	99.56
256.823	83.56
257.056	69.56
257.289	75.56
257.521	78.56
257.754	95.56
257.987	82.56
258.22	87.56
258.452	83.56
258.685	84.56
258.918	92.56
259.151	83.56
259.383	91.56
259.616	92.56
259.849	87.56
260.081	72.56
260.314	72.56
260.547	82.56
260.779	86.56
261.012	73.56
261.244	86.56
261.477	89.56
261.71	100.56
261.942	109.56
262.175	113.56
262.407	100.56
262.64	76.56
262.872	72.56
263.105	84.56
263.337	82.56
263.57	78.56
263.802	81.56
264.035	89.56
264.267	75.56
264.499	88.56
264.732	77.56
264.964	78.56
265.197	88.56
265.429	83.56
265.661	81.56
265.894	95.56
266.126	76.56
266.358	75.56
266.591	76.56
266.823	88.56
267.055	85.56
267.287	78.56
267.52	71.56
267.752	79.56
267.984	78.56
268.216	78.56
268.448	78.56
268.681	74.56
268.913	84.56
269.145	98.56
269.377	80.56
269.609	79.56
269.841	92.56
270.073	89.56
270.306	84.56
270.538	69.56
270.77	80.56
271.002	90.56
271.234	92.56
271.466	87.56
271.698	83.56
271.93	69.56
272.162	83.56
272.394	92.56
272.626	86.56
272.858	80.56
273.09	85.56
273.322	81.56
273.553	86.56
273.785	75.56
274.017	80.56
274.249	93.56
274.481	82.56
274.713	78.56
274.945	82.56
275.176	88.56
275.408	109.56
275.64	77.56
275.872	89.56
276.104	92.56
276.335	94.56
276.567	101.56
276.799	96.56
277.031	108.56
277.262	84.56
277.494	90.56
277.726	76.56
277.957	90.56
278.189	105.56
278.421	81.56
278.652	78.56
278.884	82.56
279.115	93.56
279.347	73.56
279.579	81.56
279.81	72.56
280.042	81.56
280.273	92.56
280.505	82.56
280.736	75.56
280.968	71.56
281.199	95.56
281.431	86.56
281.662	102.56
281.894	93.56
282.125	89.56
282.356	113.56
282.588	133.56
282.819	104.56
283.051	98.56
283.282	85.56
283.513	86.56
283.745	95.56
283.976	83.56
284.207	77.56
284.439	87.56
284.67	85.56
284.901	90.56
285.132	94.56
285.364	88.56
285.595	82.56
285.826	91.56
286.057	90.56
286.288	68.56
286.52	83.56
286.751	73.56
286.982	76.56
287.213	96.56
287.444	101.56
287.675	95.56
287.906	93.56
288.138	89.56
288.369	91.56
288.6	85.56
288.831	83.56
289.062	89.56
289.293	83.56
289.524	85.56
289.755	89.56
289.986	74.56
290.217	75.56
290.448	76.56
290.679	80.56
290.91	76.56
291.141	91.56
291.371	89.56
291.602	76.56
291.833	80.56
292.064	83.56
292.295	82.56
292.526	88.56
292.757	77.56
292.987	81.56
293.218	65.56
293.449	83.56
293.68	87.56
293.91	70.56
294.141	80.56
294.372	91.56
294.603	85.56
294.833	87.56
295.064	85.56
295.295	92.56
295.525	106.56
295.756	92.56
295.987	124.56
296.217	140.56
296.448	121.56
296.679	88.56
296.909	90.56
297.14	86.56
297.37	82.56
297.601	91.56
297.831	82.56
298.062	104.56
298.292	84.56
298.523	92.56
298.753	84.56
298.984	85.56
299.214	108.56
299.445	95.56
299.675	90.56
299.905	88.56
300.136	83.56
300.366	85.56
300.597	90.56
300.827	99.56
301.057	103.56
301.288	101.56
301.518	100.56
301.748	88.56
301.979	91.56
302.209	86.56
302.439	93.56
302.669	82.56
302.9	100.56
303.13	81.56
303.36	84.56
303.59	107.56
303.82	107.56
304.051	93.56
304.281	97.56
304.511	89.56
304.741	76.56
304.971	95.56
305.201	92.56
305.431	94.56
305.661	88.56
305.891	95.56
306.121	84.56
306.352	104.56
306.582	98.56
306.812	85.56
307.042	93.56
307.272	97.56
307.502	94.56
307.731	94.56
307.961	70.56
308.191	90.56
308.421	91.56
308.651	91.56
308.881	82.56
309.111	94.56
309.341	94.56
309.571	93.56
309.8	104.56
310.03	92.56
310.26	87.56
310.49	92.56
310.72	90.56
310.949	112.56
311.179	94.56
311.409	90.56
311.639	85.56
311.868	101.56
312.098	110.56
312.328	99.56
312.557	98.56
312.787	117.56
313.017	103.56
313.246	97.56
313.476	91.56
313.706	88.56
313.935	80.56
314.165	93.56
314.394	105.56
314.624	97.56
314.853	89.56
315.083	82.56
315.312	88.56
315.542	89.56
315.771	96.56
316.001	82.56
316.23	86.56
316.46	92.56
316.689	98.56
316.919	95.56
317.148	98.56
317.377	89.56
317.607	93.56
317.836	74.56
318.065	96.56
318.295	97.56
318.524	92.56
318.753	97.56
318.983	100.56
319.212	101.56
319.441	94.56
319.67	105.56
319.9	92.56
320.129	77.56
320.358	100.56
320.587	85.56
320.816	104.56
321.046	99.56
321.275	82.56
321.504	97.56
321.733	101.56
321.962	104.56
322.191	86.56
322.42	94.56
322.649	109.56
322.878	103.56
323.108	117.56
323.337	126.56
323.566	148.56
323.795	166.56
324.024	218.56
324.253	413.56
324.482	930.56
324.71	1912.56
324.939	2594.56
325.168	932.56
325.397	260.56
325.626	158.56
325.855	126.56
326.084	125.56
326.313	126.56
326.542	165.56
326.77	229.56
326.999	513.56
327.228	1062.56
327.457	1985.56
327.686	1567.56
327.914	406.56
328.143	196.56
328.372	161.56
328.6	115.56
328.829	122.56
329.058	131.56
329.287	133.56
329.515	133.56
329.744	98.56
329.972	91.56
330.201	92.56
330.43	118.56
330.658	135.56
330.887	142.56
331.115	140.56
331.344	96.56
331.572	97.56
331.801	97.56
332.03	97.56
332.258	88.56
332.486	99.56
332.715	85.56
332.943	106.56
333.172	94.56
333.4	96.56
333.629	106.56
333.857	116.56
334.085	111.56
334.314	103.56
334.542	105.56
334.771	84.56
334.999	99.56
335.227	94.56
335.455	86.56
335.684	99.56
335.912	85.56
336.14	87.56
336.369	106.56
336.597	100.56
336.825	112.56
337.053	98.56
337.281	96.56
337.51	96.56
337.738	91.56
337.966	90.56
338.194	102.56
338.422	100.56
338.65	91.56
338.878	92.56
339.106	73.56
339.334	102.56
339.562	70.56
339.79	85.56
340.018	84.56
340.246	91.56
340.474	93.56
340.702	102.56
340.93	89.56
341.158	99.56
341.386	93.56
341.614	95.56
341.842	111.56
342.07	95.56
342.298	91.56
342.526	92.56
342.754	86.56
342.981	98.56
343.209	92.56
343.437	102.56
343.665	81.56
343.893	86.56
344.12	89.56
344.348	89.56
344.576	94.56
344.804	96.56
345.031	111.56
345.259	92.56
345.487	99.56
345.714	82.56
345.942	83.56
346.17	92.56
346.397	85.56
346.625	88.56
346.853	90.56
347.08	86.56
347.308	96.56
347.535	101.56
347.763	92.56
347.99	99.56
348.218	98.56
348.445	110.56
348.673	104.56
348.9	95.56
349.128	81.56
349.355	80.56
349.583	79.56
349.81	88.56
350.037	82.56
350.265	98.56
350.492	103.56
350.72	85.56
350.947	92.56
351.174	117.56
351.402	113.56
351.629	106.56
351.856	95.56
352.083	110.56
352.311	99.56
352.538	108.56
352.765	112.56
352.992	112.56
353.22	114.56
353.447	100.56
353.674	89.56
353.901	105.56
354.128	96.56
354.355	101.56
354.583	94.56
354.81	90.56
355.037	100.56
355.264	96.56
355.491	81.56
355.718	84.56
355.945	85.56
356.172	96.56
356.399	95.56
356.626	104.56
356.853	107.56
357.08	89.56
357.307	94.56
357.534	94.56
357.761	74.56
357.988	90.56
358.215	76.56
358.441	97.56
358.668	97.56
358.895	93.56
359.122	85.56
359.349	83.56
359.576	93.56
359.802	85.56
360.029	107.56
360.256	110.56
360.483	100.56
360.709	91.56
360.936	85.56
361.163	100.56
361.39	92.56
361.616	101.56
361.843	80.56
362.07	107.56
362.296	92.56
362.523	85.56
362.749	82.56
362.976	97.56
363.203	76.56
363.429	78.56
363.656	77.56
363.882	88.56
364.109	80.56
364.335	74.56
364.562	86.56
364.788	84.56
365.015	94.56
365.241	90.56
365.468	103.56
365.694	117.56
365.92	96.56
366.147	92.56
366.373	98.56
366.599	84.56
366.826	87.56
367.052	96.56
367.278	80.56
367.505	86.56
367.731	83.56
367.957	73.56
368.184	84.56
368.41	93.56
368.636	128.56
368.862	115.56
369.089	113.56
369.315	93.56
369.541	81.56
369.767	99.56
369.993	78.56
370.219	90.56
370.445	88.56
370.672	82.56
370.898	91.56
371.124	83.56
371.35	75.56
371.576	101.56
371.802	82.56
372.028	93.56
372.254	86.56
372.48	100.56
372.706	90.56
372.932	76.56
373.158	84.56
373.384	98.56
373.61	96.56
373.835	95.56
374.061	97.56
374.287	109.56
374.513	88.56
374.739	99.56
374.965	86.56
375.191	91.56
375.416	89.56
375.642	72.56
375.868	90.56
376.094	90.56
376.319	90.56
376.545	88.56
376.771	89.56
376.997	89.56
377.222	75.56
377.448	94.56
377.674	89.56
377.899	92.56
378.125	95.56
378.35	87.56
378.576	86.56
378.802	96.56
379.027	81.56
379.253	81.56
379.478	99.56
379.704	86.56
379.929	90.56
380.155	86.56
380.38	97.56
380.606	89.56
380.831	92.56
381.057	95.56
381.282	85.56
381.507	75.56
381.733	101.56
381.958	92.56
382.184	106.56
382.409	97.56
382.634	110.56
382.86	102.56
383.085	100.56
383.31	95.56
383.535	87.56
383.761	110.56
383.986	93.56
384.211	94.56
384.436	91.56
384.662	106.56
384.887	98.56
385.112	109.56
385.337	108.56
385.562	92.56
385.787	110.56
386.013	110.56
386.238	129.56
386.463	107.56
386.688	106.56
386.913	99.56
387.138	101.56
387.363	100.56
387.588	104.56
387.813	112.56
388.038	112.56
388.263	97.56
388.488	121.56
388.713	92.56
388.938	88.56
389.163	86.56
389.387	99.56
389.612	99.56
389.837	92.56
390.062	90.56
390.287	94.56
390.512	85.56
390.736	97.56
390.961	80.56
391.186	85.56
391.411	93.56
391.636	95.56
391.86	99.56
392.085	89.56
392.31	94.56
392.534	83.56
392.759	77.56
392.984	89.56
393.208	90.56
393.433	81.56
393.658	85.56
393.882	84.56
394.107	92.56
394.331	88.56
394.556	93.56
394.78	101.56
395.005	94.56
395.229	74.56
395.454	89.56
395.678	87.56
395.903	89.56
396.127	93.56
396.352	79.56
396.576	84.56
396.801	81.56
397.025	82.56
397.249	71.56
397.474	89.56
397.698	86.56
397.922	99.56
398.147	83.56
398.371	87.56
398.595	78.56
398.82	84.56
399.044	83.56
399.268	74.56
399.492	79.56
399.717	85.56
399.941	95.56
400.165	106.56
400.389	91.56
400.613	70.56
400.837	84.56
401.062	93.56
401.286	90.56
401.51	87.56
401.734	96.56
401.958	77.56
402.182	118.56
402.406	164.56
402.63	124.56
402.854	85.56
403.078	95.56
403.302	81.56
403.526	85.56
403.75	88.56
403.974	75.56
404.198	91.56
404.422	81.56
404.645	93.56
404.869	86.56
405.093	89.56
405.317	81.56
405.541	96.56
405.765	98.56
405.988	111.56
406.212	184.56
406.436	235.56
406.66	157.56
406.883	101.56
407.107	94.56
407.331	101.56
407.555	102.56
407.778	105.56
408.002	89.56
408.226	91.56
408.449	94.56
408.673	81.56
408.896	83.56
409.12	105.56
409.344	83.56
409.567	91.56
409.791	88.56
410.014	93.56
410.238	81.56
410.461	81.56
410.685	77.56
410.908	101.56
411.132	109.56
411.355	107.56
411.578	86.56
411.802	80.56
412.025	99.56
412.249	94.56
412.472	94.56
412.695	105.56
412.919	85.56
413.142	88.56
413.365	78.56
413.589	81.56
413.812	92.56
414.035	87.56
414.258	77.56
414.482	93.56
414.705	90.56
414.928	83.56
415.151	94.56
415.374	86.56
415.597	78.56
415.821	93.56
416.044	93.56
416.267	71.56
416.49	82.56
416.713	88.56
416.936	93.56
417.159	81.56
417.382	83.56
417.605	82.56
417.828	84.56
418.051	82.56
418.274	69.56
418.497	78.56
418.72	74.56
418.943	94.56
419.166	98.56
419.389	101.56
419.611	98.56
419.834	87.56
420.057	83.56
420.28	87.56
420.503	98.56
420.726	80.56
420.948	82.56
421.171	90.56
421.394	95.56
421.617	85.56
421.839	79.56
422.062	83.56
422.285	95.56
422.507	102.56
422.73	105.56
422.953	89.56
423.175	86.56
423.398	92.56
423.621	100.56
423.843	78.56
424.066	92.56
424.288	94.56
424.511	91.56
424.733	100.56
424.956	93.56
425.178	99.56
425.401	98.56
425.623	102.56
425.846	94.56
426.068	83.56
426.291	90.56
426.513	91.56
426.735	76.56
426.958	94.56
427.18	117.56
427.402	148.56
427.625	185.56
427.847	128.56
428.069	100.56
428.292	88.56
428.514	83.56
428.736	68.56
428.958	84.56
429.181	67.56
429.403	93.56
429.625	86.56
429.847	80.56
430.069	89.56
430.292	100.56
430.514	101.56
430.736	80.56
430.958	94.56
431.18	77.56
431.402	91.56
431.624	84.56
431.846	87.56
432.068	81.56
432.29	75.56
432.512	92.56
432.734	92.56
432.956	92.56
433.178	90.56
433.4	95.56
433.622	86.56
433.844	88.56
434.066	75.56
434.287	99.56
434.509	84.56
434.731	88.56
434.953	90.56
435.175	98.56
435.397	97.56
435.618	92.56
435.84	109.56
436.062	129.56
436.284	110.56
436.505	97.56
436.727	105.56
436.949	80.56
437.17	84.56
437.392	92.56
437.614	71.56
437.835	109.56
438.057	132.56
438.278	116.56
438.5	132.56
438.721	149.56
438.943	110.56
439.165	89.56
439.386	79.56
439.608	96.56
439.829	93.56
440.05	115.56
440.272	136.56
440.493	101.56
440.715	81.56
440.936	89.56
441.158	83.56
441.379	65.56
441.6	89.56
441.822	87.56
442.043	84.56
442.264	115.56
442.486	100.56
442.707	93.56
442.928	123.56
443.149	148.56
443.371	141.56
443.592	108.56
443.813	134.56
444.034	127.56
444.255	98.56
444.476	89.56
444.698	84.56
444.919	100.56
445.14	136.56
445.361	134.56
445.582	133.56
445.803	149.56
446.024	164.56
446.245	153.56
446.466	106.56
446.687	101.56
446.908	90.56
447.129	93.56
447.35	79.56
447.571	90.56
447.792	92.56
448.013	91.56
448.234	122.56
448.455	94.56
448.675	106.56
448.896	142.56
449.117	99.56
449.338	120.56
449.559	156.56
449.779	149.56
450	102.56
450.221	93.56
450.442	92.56
450.662	102.56
450.883	113.56
451.104	112.56
451.324	104.56
451.545	75.56
451.766	81.56
451.986	91.56
452.207	93.56
452.428	86.56
452.648	80.56
452.869	105.56
453.089	125.56
453.31	115.56
453.53	90.56
453.751	98.56
453.971	120.56
454.192	110.56
454.412	96.56
454.633	101.56
454.853	83.56
455.073	86.56
455.294	94.56
455.514	92.56
455.734	105.56
455.955	100.56
456.175	81.56
456.395	77.56
456.616	86.56
456.836	74.56
457.056	77.56
457.276	78.56
457.497	67.56
457.717	89.56
457.937	76.56
458.157	82.56
458.377	95.56
458.598	109.56
458.818	162.56
459.038	164.56
459.258	121.56
459.478	87.56
459.698	94.56
459.918	98.56
460.138	86.56
460.358	78.56
460.578	89.56
460.798	83.56
461.018	80.56
461.238	87.56
461.458	91.56
461.678	91.56
461.898	84.56
462.118	87.56
462.338	75.56
462.558	85.56
462.777	89.56
462.997	85.56
463.217	91.56
463.437	96.56
463.657	91.56
463.876	89.56
464.096	89.56
464.316	88.56
464.536	88.56
464.755	83.56
464.975	105.56
465.195	178.56
465.414	171.56
465.634	80.56
465.854	69.56
466.073	77.56
466.293	82.56
466.512	82.56
466.732	77.56
466.951	97.56
467.171	101.56
467.391	92.56
467.61	105.56
467.829	93.56
468.049	82.56
468.268	92.56
468.488	85.56
468.707	88.56
468.927	92.56
469.146	89.56
469.365	86.56
469.585	85.56
469.804	98.56
470.023	94.56
470.243	94.56
470.462	87.56
470.681	117.56
470.901	89.56
471.12	89.56
471.339	69.56
471.558	94.56
471.777	96.56
471.997	80.56
472.216	92.56
472.435	84.56
472.654	80.56
472.873	80.56
473.092	92.56
473.311	86.56
473.53	80.56
473.749	88.56
473.968	104.56
474.187	109.56
474.406	103.56
474.625	94.56
474.844	86.56
475.063	91.56
475.282	81.56
475.501	78.56
475.72	94.56
475.939	82.56
476.158	89.56
476.377	89.56
476.596	91.56
476.814	93.56
477.033	89.56
477.252	94.56
477.471	86.56
477.69	86.56
477.908	73.56
478.127	90.56
478.346	99.56
478.564	88.56
478.783	93.56
479.002	93.56
479.22	83.56
479.439	84.56
479.658	107.56
479.876	99.56
480.095	78.56
480.313	113.56
480.532	88.56
480.751	98.56
480.969	96.56
481.188	98.56
481.406	101.56
481.624	82.56
481.843	94.56
482.061	93.56
482.28	91.56
482.498	90.56
482.717	90.56
482.935	80.56
483.153	87.56
483.372	81.56
483.59	85.56
483.808	103.56
484.027	90.56
484.245	93.56
484.463	97.56
484.681	91.56
484.9	90.56
485.118	109.56
485.336	94.56
485.554	98.56
485.772	89.56
485.99	81.56
486.209	115.56
486.427	116.56
486.645	106.56
486.863	115.56
487.081	97.56
487.299	94.56
487.517	89.56
487.735	86.56
487.953	98.56
488.171	96.56
488.389	95.56
488.607	94.56
488.825	83.56
489.043	98.56
489.261	86.56
489.479	78.56
489.696	83.56
489.914	100.56
490.132	90.56
490.35	95.56
490.568	84.56
490.786	102.56
491.003	101.56
491.221	91.56
491.439	94.56
491.657	92.56
491.874	87.56
492.092	93.56
492.31	92.56
492.527	91.56
492.745	97.56
492.963	77.56
493.18	107.56
493.398	90.56
493.615	95.56
493.833	92.56
494.05	88.56
494.268	94.56
494.485	86.56
494.703	82.56
494.92	75.56
495.138	105.56
495.355	95.56
495.573	85.56
495.79	98.56
496.008	97.56
496.225	90.56
496.442	82.56
496.66	83.56
496.877	79.56
497.094	94.56
497.312	84.56
497.529	87.56
497.746	83.56
497.963	93.56
498.181	99.56
498.398	107.56
498.615	110.56
498.832	102.56
499.049	95.56
499.267	79.56
499.484	84.56
499.701	93.56
499.918	84.56
500.135	76.56
500.352	86.56
500.569	93.56
500.786	97.56
501.003	98.56
501.22	90.56
501.437	104.56
501.654	101.56
501.871	111.56
502.088	89.56
502.305	103.56
502.522	91.56
502.739	105.56
502.956	95.56
503.172	86.56
503.389	91.56
503.606	101.56
503.823	103.56
504.04	96.56
504.256	82.56
504.473	93.56
504.69	94.56
504.907	95.56
505.123	78.56
505.34	91.56
505.557	97.56
505.773	82.56
505.99	83.56
506.207	94.56
506.423	81.56
506.64	85.56
506.856	94.56
507.073	92.56
507.289	86.56
507.506	93.56
507.722	115.56
507.939	107.56
508.155	99.56
508.372	99.56
508.588	96.56
508.805	92.56
509.021	85.56
509.238	99.56
509.454	91.56
509.67	102.56
509.887	109.56
510.103	120.56
510.319	224.56
510.536	768.56
510.752	2384.56
510.968	691.56
511.184	144.56
511.401	94.56
511.617	96.56
511.833	90.56
512.049	79.56
512.265	87.56
512.481	99.56
512.698	84.56
512.914	93.56
513.13	94.56
513.346	82.56
513.562	101.56
513.778	86.56
513.994	105.56
514.21	112.56
514.426	111.56
514.642	145.56
514.858	136.56
515.074	176.56
515.29	481.56
515.506	1647.56
515.721	612.56
515.937	161.56
