Data from Uncirc_2005_H10_HRD10591_00046.txt Node
Date: Wed Jan 03 10:28:34 EST 2024
User: Yrep
Spectrometer: HR+D1059
Trigger mode: 1
Integration Time (sec): 1.000000E-1
Scans to average: 1
Electric dark correction enabled: true
Nonlinearity correction enabled: false
Boxcar width: 0
XAxis mode: Wavelengths
Number of Pixels in Spectrum: 2048
>>>>>Begin Spectral Data<<<<<
223.165	-3.88
223.4	-3.88
223.635	-3.88
223.869	-26.88
224.104	-7.88
224.338	-18.88
224.573	-18.88
224.808	-24.88
225.042	-11.88
225.277	3.12
225.511	-12.88
225.746	17.12
225.98	13.12
226.215	22.12
226.449	13.12
226.683	21.12
226.918	23.12
227.152	13.12
227.387	29.12
227.621	20.12
227.856	44.12
228.09	45.12
228.324	67.12
228.559	53.12
228.793	55.12
229.027	59.12
229.262	69.12
229.496	69.12
229.73	84.12
229.964	72.12
230.199	78.12
230.433	103.12
230.667	89.12
230.901	74.12
231.136	88.12
231.37	71.12
231.604	83.12
231.838	76.12
232.072	86.12
232.306	80.12
232.541	79.12
232.775	84.12
233.009	84.12
233.243	100.12
233.477	79.12
233.711	77.12
233.945	76.12
234.179	74.12
234.413	85.12
234.647	85.12
234.881	82.12
235.115	70.12
235.349	56.12
235.583	80.12
235.817	71.12
236.051	88.12
236.285	73.12
236.519	89.12
236.753	80.12
236.987	83.12
237.221	87.12
237.455	78.12
237.689	81.12
237.922	72.12
238.156	86.12
238.39	70.12
238.624	68.12
238.858	94.12
239.091	83.12
239.325	79.12
239.559	87.12
239.793	77.12
240.027	76.12
240.26	68.12
240.494	68.12
240.728	66.12
240.961	80.12
241.195	75.12
241.429	77.12
241.662	83.12
241.896	89.12
242.13	75.12
242.363	82.12
242.597	81.12
242.83	86.12
243.064	67.12
243.298	77.12
243.531	70.12
243.765	80.12
243.998	79.12
244.232	65.12
244.465	86.12
244.699	88.12
244.932	96.12
245.166	83.12
245.399	76.12
245.633	84.12
245.866	87.12
246.099	78.12
246.333	81.12
246.566	80.12
246.8	71.12
247.033	80.12
247.266	83.12
247.5	85.12
247.733	95.12
247.966	96.12
248.2	74.12
248.433	77.12
248.666	76.12
248.899	78.12
249.133	79.12
249.366	104.12
249.599	96.12
249.832	87.12
250.066	81.12
250.299	86.12
250.532	76.12
250.765	73.12
250.998	82.12
251.231	82.12
251.465	96.12
251.698	84.12
251.931	79.12
252.164	81.12
252.397	88.12
252.63	78.12
252.863	86.12
253.096	79.12
253.329	82.12
253.562	83.12
253.795	88.12
254.028	101.12
254.261	83.12
254.494	73.12
254.727	86.12
254.96	81.12
255.193	80.12
255.426	88.12
255.659	92.12
255.892	81.12
256.124	85.12
256.357	91.12
256.59	99.12
256.823	85.12
257.056	80.12
257.289	69.12
257.521	80.12
257.754	81.12
257.987	80.12
258.22	76.12
258.452	90.12
258.685	79.12
258.918	84.12
259.151	77.12
259.383	94.12
259.616	84.12
259.849	73.12
260.081	65.12
260.314	87.12
260.547	71.12
260.779	74.12
261.012	67.12
261.244	82.12
261.477	92.12
261.71	93.12
261.942	103.12
262.175	113.12
262.407	81.12
262.64	82.12
262.872	78.12
263.105	83.12
263.337	80.12
263.57	90.12
263.802	85.12
264.035	99.12
264.267	73.12
264.499	81.12
264.732	86.12
264.964	84.12
265.197	96.12
265.429	83.12
265.661	69.12
265.894	80.12
266.126	87.12
266.358	79.12
266.591	78.12
266.823	73.12
267.055	76.12
267.287	83.12
267.52	85.12
267.752	97.12
267.984	88.12
268.216	80.12
268.448	79.12
268.681	76.12
268.913	82.12
269.145	98.12
269.377	79.12
269.609	74.12
269.841	72.12
270.073	82.12
270.306	82.12
270.538	85.12
270.77	85.12
271.002	78.12
271.234	80.12
271.466	89.12
271.698	71.12
271.93	87.12
272.162	72.12
272.394	79.12
272.626	79.12
272.858	73.12
273.09	91.12
273.322	79.12
273.553	82.12
273.785	99.12
274.017	77.12
274.249	71.12
274.481	84.12
274.713	92.12
274.945	89.12
275.176	86.12
275.408	93.12
275.64	97.12
275.872	87.12
276.104	91.12
276.335	83.12
276.567	95.12
276.799	112.12
277.031	97.12
277.262	94.12
277.494	72.12
277.726	79.12
277.957	83.12
278.189	93.12
278.421	80.12
278.652	83.12
278.884	78.12
279.115	76.12
279.347	73.12
279.579	75.12
279.81	75.12
280.042	78.12
280.273	87.12
280.505	81.12
280.736	83.12
280.968	86.12
281.199	88.12
281.431	81.12
281.662	94.12
281.894	85.12
282.125	103.12
282.356	98.12
282.588	132.12
282.819	94.12
283.051	110.12
283.282	79.12
283.513	77.12
283.745	96.12
283.976	92.12
284.207	77.12
284.439	90.12
284.67	97.12
284.901	89.12
285.132	84.12
285.364	90.12
285.595	85.12
285.826	84.12
286.057	95.12
286.288	89.12
286.52	88.12
286.751	86.12
286.982	77.12
287.213	100.12
287.444	86.12
287.675	80.12
287.906	91.12
288.138	95.12
288.369	94.12
288.6	96.12
288.831	97.12
289.062	107.12
289.293	94.12
289.524	75.12
289.755	96.12
289.986	84.12
290.217	95.12
290.448	91.12
290.679	98.12
290.91	82.12
291.141	86.12
291.371	95.12
291.602	88.12
291.833	102.12
292.064	85.12
292.295	87.12
292.526	80.12
292.757	77.12
292.987	78.12
293.218	96.12
293.449	81.12
293.68	87.12
293.91	95.12
294.141	92.12
294.372	93.12
294.603	82.12
294.833	82.12
295.064	90.12
295.295	75.12
295.525	84.12
295.756	95.12
295.987	105.12
296.217	118.12
296.448	116.12
296.679	93.12
296.909	88.12
297.14	80.12
297.37	87.12
297.601	91.12
297.831	86.12
298.062	98.12
298.292	97.12
298.523	87.12
298.753	75.12
298.984	77.12
299.214	88.12
299.445	87.12
299.675	80.12
299.905	82.12
300.136	88.12
300.366	77.12
300.597	90.12
300.827	90.12
301.057	95.12
301.288	93.12
301.518	86.12
301.748	87.12
301.979	94.12
302.209	99.12
302.439	98.12
302.669	93.12
302.9	88.12
303.13	85.12
303.36	88.12
303.59	87.12
303.82	100.12
304.051	101.12
304.281	96.12
304.511	103.12
304.741	92.12
304.971	93.12
305.201	96.12
305.431	89.12
305.661	102.12
305.891	84.12
306.121	96.12
306.352	97.12
306.582	94.12
306.812	91.12
307.042	89.12
307.272	102.12
307.502	102.12
307.731	90.12
307.961	96.12
308.191	82.12
308.421	97.12
308.651	92.12
308.881	80.12
309.111	86.12
309.341	94.12
309.571	96.12
309.8	103.12
310.03	98.12
310.26	93.12
310.49	99.12
310.72	102.12
310.949	105.12
311.179	99.12
311.409	91.12
311.639	100.12
311.868	100.12
312.098	98.12
312.328	89.12
312.557	95.12
312.787	97.12
313.017	102.12
313.246	102.12
313.476	97.12
313.706	84.12
313.935	94.12
314.165	102.12
314.394	112.12
314.624	85.12
314.853	97.12
315.083	85.12
315.312	71.12
315.542	86.12
315.771	82.12
316.001	88.12
316.23	97.12
316.46	86.12
316.689	85.12
316.919	79.12
317.148	92.12
317.377	89.12
317.607	106.12
317.836	106.12
318.065	98.12
318.295	98.12
318.524	87.12
318.753	96.12
318.983	100.12
319.212	94.12
319.441	111.12
319.67	108.12
319.9	103.12
320.129	91.12
320.358	95.12
320.587	101.12
320.816	99.12
321.046	98.12
321.275	91.12
321.504	84.12
321.733	92.12
321.962	108.12
322.191	108.12
322.42	100.12
322.649	90.12
322.878	100.12
323.108	111.12
323.337	118.12
323.566	141.12
323.795	147.12
324.024	221.12
324.253	425.12
324.482	846.12
324.71	1752.12
324.939	2322.12
325.168	865.12
325.397	254.12
325.626	158.12
325.855	130.12
326.084	142.12
326.313	135.12
326.542	143.12
326.77	240.12
326.999	497.12
327.228	1035.12
327.457	1845.12
327.686	1438.12
327.914	381.12
328.143	193.12
328.372	139.12
328.6	135.12
328.829	119.12
329.058	138.12
329.287	122.12
329.515	108.12
329.744	96.12
329.972	109.12
330.201	109.12
330.43	119.12
330.658	96.12
330.887	134.12
331.115	119.12
331.344	92.12
331.572	106.12
331.801	98.12
332.03	104.12
332.258	99.12
332.486	99.12
332.715	92.12
332.943	95.12
333.172	101.12
333.4	94.12
333.629	121.12
333.857	109.12
334.085	115.12
334.314	101.12
334.542	95.12
334.771	104.12
334.999	90.12
335.227	116.12
335.455	106.12
335.684	96.12
335.912	112.12
336.14	88.12
336.369	106.12
336.597	84.12
336.825	98.12
337.053	103.12
337.281	88.12
337.51	95.12
337.738	102.12
337.966	95.12
338.194	107.12
338.422	88.12
338.65	87.12
338.878	87.12
339.106	104.12
339.334	99.12
339.562	74.12
339.79	96.12
340.018	96.12
340.246	92.12
340.474	95.12
340.702	103.12
340.93	85.12
341.158	101.12
341.386	91.12
341.614	108.12
341.842	94.12
342.07	102.12
342.298	83.12
342.526	87.12
342.754	86.12
342.981	80.12
343.209	85.12
343.437	93.12
343.665	115.12
343.893	87.12
344.12	106.12
344.348	90.12
344.576	102.12
344.804	96.12
345.031	92.12
345.259	96.12
345.487	96.12
345.714	105.12
345.942	96.12
346.17	100.12
346.397	105.12
346.625	101.12
346.853	88.12
347.08	97.12
347.308	108.12
347.535	107.12
347.763	108.12
347.99	97.12
348.218	102.12
348.445	110.12
348.673	99.12
348.9	103.12
349.128	96.12
349.355	92.12
349.583	94.12
349.81	94.12
350.037	95.12
350.265	89.12
350.492	80.12
350.72	95.12
350.947	103.12
351.174	105.12
351.402	111.12
351.629	105.12
351.856	105.12
352.083	93.12
352.311	102.12
352.538	108.12
352.765	119.12
352.992	119.12
353.22	108.12
353.447	111.12
353.674	95.12
353.901	102.12
354.128	98.12
354.355	95.12
354.583	100.12
354.81	95.12
355.037	124.12
355.264	112.12
355.491	109.12
355.718	94.12
355.945	104.12
356.172	94.12
356.399	100.12
356.626	94.12
356.853	90.12
357.08	103.12
357.307	83.12
357.534	96.12
357.761	93.12
357.988	87.12
358.215	106.12
358.441	88.12
358.668	88.12
358.895	85.12
359.122	115.12
359.349	90.12
359.576	100.12
359.802	103.12
360.029	90.12
360.256	110.12
360.483	103.12
360.709	100.12
360.936	100.12
361.163	89.12
361.39	113.12
361.616	104.12
361.843	92.12
362.07	97.12
362.296	95.12
362.523	94.12
362.749	84.12
362.976	89.12
363.203	96.12
363.429	89.12
363.656	96.12
363.882	93.12
364.109	98.12
364.335	102.12
364.562	91.12
364.788	95.12
365.015	87.12
365.241	99.12
365.468	110.12
365.694	107.12
365.92	95.12
366.147	92.12
366.373	91.12
366.599	95.12
366.826	99.12
367.052	86.12
367.278	72.12
367.505	86.12
367.731	102.12
367.957	92.12
368.184	88.12
368.41	102.12
368.636	102.12
368.862	110.12
369.089	120.12
369.315	90.12
369.541	76.12
369.767	97.12
369.993	88.12
370.219	97.12
370.445	92.12
370.672	94.12
370.898	94.12
371.124	97.12
371.35	94.12
371.576	79.12
371.802	87.12
372.028	86.12
372.254	88.12
372.48	95.12
372.706	91.12
372.932	100.12
373.158	102.12
373.384	93.12
373.61	88.12
373.835	71.12
374.061	92.12
374.287	80.12
374.513	91.12
374.739	87.12
374.965	94.12
375.191	85.12
375.416	111.12
375.642	108.12
375.868	96.12
376.094	86.12
376.319	95.12
376.545	85.12
376.771	99.12
376.997	79.12
377.222	94.12
377.448	103.12
377.674	94.12
377.899	92.12
378.125	83.12
378.35	92.12
378.576	92.12
378.802	94.12
379.027	100.12
379.253	87.12
379.478	84.12
379.704	92.12
379.929	86.12
380.155	83.12
380.38	91.12
380.606	104.12
380.831	95.12
381.057	95.12
381.282	90.12
381.507	95.12
381.733	95.12
381.958	106.12
382.184	106.12
382.409	111.12
382.634	99.12
382.86	105.12
383.085	105.12
383.31	94.12
383.535	97.12
383.761	112.12
383.986	101.12
384.211	95.12
384.436	106.12
384.662	93.12
384.887	111.12
385.112	117.12
385.337	111.12
385.562	95.12
385.787	97.12
386.013	130.12
386.238	114.12
386.463	113.12
386.688	127.12
386.913	100.12
387.138	96.12
387.363	106.12
387.588	91.12
387.813	96.12
388.038	102.12
388.263	123.12
388.488	103.12
388.713	103.12
388.938	96.12
389.163	94.12
389.387	94.12
389.612	80.12
389.837	96.12
390.062	90.12
390.287	89.12
390.512	88.12
390.736	91.12
390.961	101.12
391.186	101.12
391.411	100.12
391.636	93.12
391.86	83.12
392.085	94.12
392.31	90.12
392.534	80.12
392.759	84.12
392.984	88.12
393.208	87.12
393.433	80.12
393.658	97.12
393.882	87.12
394.107	93.12
394.331	90.12
394.556	99.12
394.78	102.12
395.005	95.12
395.229	93.12
395.454	86.12
395.678	96.12
395.903	98.12
396.127	85.12
396.352	100.12
396.576	88.12
396.801	75.12
397.025	109.12
397.249	77.12
397.474	101.12
397.698	91.12
397.922	91.12
398.147	80.12
398.371	97.12
398.595	92.12
398.82	94.12
399.044	87.12
399.268	87.12
399.492	86.12
399.717	94.12
399.941	101.12
400.165	100.12
400.389	88.12
400.613	97.12
400.837	96.12
401.062	95.12
401.286	95.12
401.51	95.12
401.734	84.12
401.958	102.12
402.182	129.12
402.406	146.12
402.63	117.12
402.854	85.12
403.078	83.12
403.302	88.12
403.526	97.12
403.75	82.12
403.974	98.12
404.198	98.12
404.422	91.12
404.645	84.12
404.869	88.12
405.093	91.12
405.317	99.12
405.541	99.12
405.765	84.12
405.988	103.12
406.212	146.12
406.436	218.12
406.66	139.12
406.883	82.12
407.107	99.12
407.331	91.12
407.555	99.12
407.778	95.12
408.002	86.12
408.226	93.12
408.449	97.12
408.673	93.12
408.896	94.12
409.12	96.12
409.344	97.12
409.567	88.12
409.791	100.12
410.014	97.12
410.238	110.12
410.461	100.12
410.685	94.12
410.908	98.12
411.132	111.12
411.355	108.12
411.578	92.12
411.802	81.12
412.025	99.12
412.249	99.12
412.472	101.12
412.695	98.12
412.919	84.12
413.142	75.12
413.365	91.12
413.589	86.12
413.812	96.12
414.035	102.12
414.258	92.12
414.482	99.12
414.705	99.12
414.928	90.12
415.151	98.12
415.374	95.12
415.597	84.12
415.821	94.12
416.044	91.12
416.267	75.12
416.49	75.12
416.713	88.12
416.936	82.12
417.159	89.12
417.382	104.12
417.605	97.12
417.828	97.12
418.051	102.12
418.274	96.12
418.497	84.12
418.72	94.12
418.943	81.12
419.166	80.12
419.389	103.12
419.611	96.12
419.834	95.12
420.057	99.12
420.28	83.12
420.503	73.12
420.726	74.12
420.948	67.12
421.171	100.12
421.394	95.12
421.617	97.12
421.839	87.12
422.062	88.12
422.285	96.12
422.507	95.12
422.73	114.12
422.953	84.12
423.175	94.12
423.398	78.12
423.621	93.12
423.843	84.12
424.066	79.12
424.288	94.12
424.511	102.12
424.733	110.12
424.956	101.12
425.178	110.12
425.401	108.12
425.623	109.12
425.846	92.12
426.068	88.12
426.291	95.12
426.513	101.12
426.735	87.12
426.958	101.12
427.18	110.12
427.402	147.12
427.625	179.12
427.847	147.12
428.069	100.12
428.292	91.12
428.514	94.12
428.736	93.12
428.958	81.12
429.181	91.12
429.403	89.12
429.625	102.12
429.847	89.12
430.069	93.12
430.292	96.12
430.514	81.12
430.736	90.12
430.958	98.12
431.18	87.12
431.402	89.12
431.624	101.12
431.846	97.12
432.068	81.12
432.29	70.12
432.512	95.12
432.734	71.12
432.956	97.12
433.178	83.12
433.4	82.12
433.622	98.12
433.844	99.12
434.066	93.12
434.287	102.12
434.509	101.12
434.731	91.12
434.953	80.12
435.175	94.12
435.397	86.12
435.618	89.12
435.84	100.12
436.062	111.12
436.284	118.12
436.505	112.12
436.727	104.12
436.949	92.12
437.17	76.12
437.392	92.12
437.614	87.12
437.835	116.12
438.057	114.12
438.278	115.12
438.5	115.12
438.721	126.12
438.943	99.12
439.165	82.12
439.386	96.12
439.608	79.12
439.829	93.12
440.05	117.12
440.272	131.12
440.493	106.12
440.715	79.12
440.936	93.12
441.158	94.12
441.379	93.12
441.6	83.12
441.822	96.12
442.043	101.12
442.264	107.12
442.486	100.12
442.707	99.12
442.928	116.12
443.149	128.12
443.371	139.12
443.592	99.12
443.813	99.12
444.034	103.12
444.255	99.12
444.476	88.12
444.698	91.12
444.919	91.12
445.14	126.12
445.361	126.12
445.582	115.12
445.803	140.12
446.024	148.12
446.245	114.12
446.466	110.12
446.687	102.12
446.908	81.12
447.129	86.12
447.35	86.12
447.571	88.12
447.792	105.12
448.013	98.12
448.234	100.12
448.455	105.12
448.675	121.12
448.896	121.12
449.117	104.12
449.338	113.12
449.559	134.12
449.779	134.12
450	94.12
450.221	81.12
450.442	84.12
450.662	97.12
450.883	115.12
451.104	119.12
451.324	101.12
451.545	88.12
451.766	102.12
451.986	95.12
452.207	113.12
452.428	88.12
452.648	94.12
452.869	102.12
453.089	91.12
453.31	113.12
453.53	99.12
453.751	97.12
453.971	92.12
454.192	106.12
454.412	92.12
454.633	88.12
454.853	78.12
455.073	78.12
455.294	88.12
455.514	100.12
455.734	99.12
455.955	93.12
456.175	71.12
456.395	82.12
456.616	75.12
456.836	85.12
457.056	85.12
457.276	87.12
457.497	94.12
457.717	95.12
457.937	82.12
458.157	87.12
458.377	93.12
458.598	107.12
458.818	154.12
459.038	145.12
459.258	126.12
459.478	96.12
459.698	90.12
459.918	80.12
460.138	71.12
460.358	97.12
460.578	95.12
460.798	95.12
461.018	90.12
461.238	85.12
461.458	91.12
461.678	83.12
461.898	94.12
462.118	88.12
462.338	85.12
462.558	83.12
462.777	84.12
462.997	91.12
463.217	98.12
463.437	95.12
463.657	90.12
463.876	92.12
464.096	97.12
464.316	87.12
464.536	101.12
464.755	100.12
464.975	109.12
465.195	173.12
465.414	157.12
465.634	101.12
465.854	93.12
466.073	86.12
466.293	84.12
466.512	81.12
466.732	90.12
466.951	92.12
467.171	94.12
467.391	97.12
467.61	104.12
467.829	102.12
468.049	84.12
468.268	75.12
468.488	99.12
468.707	79.12
468.927	84.12
469.146	98.12
469.365	93.12
469.585	98.12
469.804	109.12
470.023	103.12
470.243	92.12
470.462	98.12
470.681	103.12
470.901	89.12
471.12	106.12
471.339	96.12
471.558	88.12
471.777	96.12
471.997	92.12
472.216	89.12
472.435	89.12
472.654	87.12
472.873	102.12
473.092	84.12
473.311	80.12
473.53	77.12
473.749	100.12
473.968	102.12
474.187	90.12
474.406	88.12
474.625	96.12
474.844	100.12
475.063	97.12
475.282	73.12
475.501	91.12
475.72	92.12
475.939	87.12
476.158	87.12
476.377	89.12
476.596	98.12
476.814	102.12
477.033	99.12
477.252	82.12
477.471	96.12
477.69	86.12
477.908	78.12
478.127	84.12
478.346	93.12
478.564	89.12
478.783	87.12
479.002	91.12
479.22	95.12
479.439	105.12
479.658	94.12
479.876	92.12
480.095	84.12
480.313	100.12
480.532	92.12
480.751	84.12
480.969	94.12
481.188	105.12
481.406	99.12
481.624	88.12
481.843	93.12
482.061	85.12
482.28	96.12
482.498	72.12
482.717	87.12
482.935	92.12
483.153	82.12
483.372	84.12
483.59	91.12
483.808	86.12
484.027	85.12
484.245	87.12
484.463	88.12
484.681	107.12
484.9	95.12
485.118	94.12
485.336	106.12
485.554	91.12
485.772	100.12
485.99	105.12
486.209	112.12
486.427	108.12
486.645	105.12
486.863	112.12
487.081	94.12
487.299	81.12
487.517	89.12
487.735	83.12
487.953	88.12
488.171	98.12
488.389	93.12
488.607	97.12
488.825	77.12
489.043	104.12
489.261	96.12
489.479	81.12
489.696	95.12
489.914	79.12
490.132	96.12
490.35	99.12
490.568	99.12
490.786	81.12
491.003	83.12
491.221	91.12
491.439	92.12
491.657	94.12
491.874	86.12
492.092	88.12
492.31	88.12
492.527	87.12
492.745	106.12
492.963	99.12
493.18	94.12
493.398	88.12
493.615	100.12
493.833	99.12
494.05	99.12
494.268	85.12
494.485	94.12
494.703	71.12
494.92	108.12
495.138	89.12
495.355	93.12
495.573	84.12
495.79	94.12
496.008	95.12
496.225	85.12
496.442	104.12
496.66	101.12
496.877	79.12
497.094	99.12
497.312	94.12
497.529	85.12
497.746	97.12
497.963	95.12
498.181	77.12
498.398	103.12
498.615	109.12
498.832	111.12
499.049	94.12
499.267	96.12
499.484	100.12
499.701	98.12
499.918	83.12
500.135	84.12
500.352	87.12
500.569	86.12
500.786	84.12
501.003	93.12
501.22	87.12
501.437	78.12
501.654	92.12
501.871	112.12
502.088	84.12
502.305	86.12
502.522	95.12
502.739	88.12
502.956	86.12
503.172	107.12
503.389	97.12
503.606	108.12
503.823	103.12
504.04	80.12
504.256	96.12
504.473	93.12
504.69	89.12
504.907	93.12
505.123	90.12
505.34	87.12
505.557	95.12
505.773	88.12
505.99	94.12
506.207	87.12
506.423	83.12
506.64	100.12
506.856	99.12
507.073	92.12
507.289	95.12
507.506	104.12
507.722	117.12
507.939	110.12
508.155	102.12
508.372	106.12
508.588	97.12
508.805	94.12
509.021	107.12
509.238	105.12
509.454	81.12
509.67	101.12
509.887	114.12
510.103	130.12
510.319	212.12
510.536	781.12
510.752	2335.12
510.968	666.12
511.184	162.12
511.401	109.12
511.617	94.12
511.833	83.12
512.049	94.12
512.265	104.12
512.481	99.12
512.698	84.12
512.914	93.12
513.13	96.12
513.346	111.12
513.562	96.12
513.778	104.12
513.994	90.12
514.21	95.12
514.426	116.12
514.642	138.12
514.858	131.12
515.074	152.12
515.29	454.12
