Data from Uncirc_2005_H10_HRD10591_00003.txt Node
Date: Wed Jan 03 10:28:25 EST 2024
User: Yrep
Spectrometer: HR+D1059
Trigger mode: 1
Integration Time (sec): 1.000000E-1
Scans to average: 1
Electric dark correction enabled: true
Nonlinearity correction enabled: false
Boxcar width: 0
XAxis mode: Wavelengths
Number of Pixels in Spectrum: 2048
>>>>>Begin Spectral Data<<<<<
223.165	-22.25
223.4	-22.25
223.635	-22.25
223.869	-6.25
224.104	-22.25
224.338	-18.25
224.573	-23.25
224.808	-11.25
225.042	9.75
225.277	-5.25
225.511	-0.25
225.746	2.75
225.98	4.75
226.215	13.75
226.449	8.75
226.683	20.75
226.918	30.75
227.152	17.75
227.387	33.75
227.621	48.75
227.856	38.75
228.09	34.75
228.324	53.75
228.559	47.75
228.793	50.75
229.027	59.75
229.262	63.75
229.496	82.75
229.73	77.75
229.964	87.75
230.199	77.75
230.433	86.75
230.667	77.75
230.901	72.75
231.136	69.75
231.37	74.75
231.604	67.75
231.838	89.75
232.072	75.75
232.306	90.75
232.541	95.75
232.775	71.75
233.009	73.75
233.243	76.75
233.477	78.75
233.711	84.75
233.945	81.75
234.179	83.75
234.413	82.75
234.647	77.75
234.881	73.75
235.115	82.75
235.349	78.75
235.583	80.75
235.817	83.75
236.051	78.75
236.285	74.75
236.519	78.75
236.753	79.75
236.987	80.75
237.221	73.75
237.455	98.75
237.689	73.75
237.922	81.75
238.156	78.75
238.39	63.75
238.624	69.75
238.858	72.75
239.091	83.75
239.325	73.75
239.559	73.75
239.793	75.75
240.027	93.75
240.26	71.75
240.494	82.75
240.728	79.75
240.961	79.75
241.195	93.75
241.429	74.75
241.662	71.75
241.896	90.75
242.13	82.75
242.363	79.75
242.597	81.75
242.83	78.75
243.064	86.75
243.298	79.75
243.531	79.75
243.765	67.75
243.998	75.75
244.232	79.75
244.465	69.75
244.699	79.75
244.932	81.75
245.166	79.75
245.399	92.75
245.633	81.75
245.866	81.75
246.099	79.75
246.333	70.75
246.566	80.75
246.8	77.75
247.033	77.75
247.266	60.75
247.5	61.75
247.733	73.75
247.966	73.75
248.2	100.75
248.433	82.75
248.666	71.75
248.899	75.75
249.133	83.75
249.366	92.75
249.599	96.75
249.832	95.75
250.066	72.75
250.299	66.75
250.532	91.75
250.765	86.75
250.998	73.75
251.231	82.75
251.465	77.75
251.698	77.75
251.931	64.75
252.164	70.75
252.397	84.75
252.63	77.75
252.863	83.75
253.096	74.75
253.329	81.75
253.562	83.75
253.795	71.75
254.028	77.75
254.261	84.75
254.494	79.75
254.727	85.75
254.96	87.75
255.193	79.75
255.426	76.75
255.659	71.75
255.892	82.75
256.124	81.75
256.357	85.75
256.59	80.75
256.823	89.75
257.056	86.75
257.289	76.75
257.521	77.75
257.754	84.75
257.987	80.75
258.22	77.75
258.452	79.75
258.685	82.75
258.918	77.75
259.151	86.75
259.383	69.75
259.616	98.75
259.849	72.75
260.081	64.75
260.314	85.75
260.547	89.75
260.779	85.75
261.012	90.75
261.244	89.75
261.477	93.75
261.71	91.75
261.942	116.75
262.175	116.75
262.407	93.75
262.64	79.75
262.872	77.75
263.105	95.75
263.337	93.75
263.57	74.75
263.802	80.75
264.035	85.75
264.267	79.75
264.499	86.75
264.732	75.75
264.964	92.75
265.197	89.75
265.429	79.75
265.661	95.75
265.894	87.75
266.126	94.75
266.358	84.75
266.591	74.75
266.823	78.75
267.055	73.75
267.287	82.75
267.52	75.75
267.752	83.75
267.984	73.75
268.216	83.75
268.448	82.75
268.681	86.75
268.913	90.75
269.145	71.75
269.377	77.75
269.609	82.75
269.841	85.75
270.073	73.75
270.306	91.75
270.538	82.75
270.77	76.75
271.002	76.75
271.234	83.75
271.466	81.75
271.698	81.75
271.93	78.75
272.162	80.75
272.394	89.75
272.626	90.75
272.858	91.75
273.09	68.75
273.322	82.75
273.553	95.75
273.785	87.75
274.017	82.75
274.249	85.75
274.481	88.75
274.713	81.75
274.945	97.75
275.176	93.75
275.408	82.75
275.64	79.75
275.872	76.75
276.104	82.75
276.335	88.75
276.567	99.75
276.799	103.75
277.031	103.75
277.262	95.75
277.494	81.75
277.726	83.75
277.957	84.75
278.189	80.75
278.421	79.75
278.652	96.75
278.884	87.75
279.115	82.75
279.347	93.75
279.579	67.75
279.81	85.75
280.042	97.75
280.273	85.75
280.505	87.75
280.736	87.75
280.968	90.75
281.199	78.75
281.431	82.75
281.662	79.75
281.894	82.75
282.125	83.75
282.356	95.75
282.588	136.75
282.819	125.75
283.051	99.75
283.282	97.75
283.513	78.75
283.745	77.75
283.976	89.75
284.207	85.75
284.439	75.75
284.67	82.75
284.901	73.75
285.132	102.75
285.364	86.75
285.595	91.75
285.826	79.75
286.057	87.75
286.288	82.75
286.52	81.75
286.751	93.75
286.982	80.75
287.213	73.75
287.444	81.75
287.675	95.75
287.906	92.75
288.138	84.75
288.369	84.75
288.6	103.75
288.831	88.75
289.062	79.75
289.293	83.75
289.524	76.75
289.755	81.75
289.986	78.75
290.217	87.75
290.448	80.75
290.679	85.75
290.91	84.75
291.141	93.75
291.371	98.75
291.602	86.75
291.833	101.75
292.064	87.75
292.295	85.75
292.526	71.75
292.757	100.75
292.987	87.75
293.218	91.75
293.449	86.75
293.68	81.75
293.91	86.75
294.141	94.75
294.372	78.75
294.603	89.75
294.833	79.75
295.064	85.75
295.295	87.75
295.525	80.75
295.756	83.75
295.987	102.75
296.217	154.75
296.448	112.75
296.679	83.75
296.909	87.75
297.14	80.75
297.37	83.75
297.601	94.75
297.831	96.75
298.062	94.75
298.292	101.75
298.523	85.75
298.753	96.75
298.984	94.75
299.214	92.75
299.445	86.75
299.675	81.75
299.905	77.75
300.136	91.75
300.366	92.75
300.597	99.75
300.827	98.75
301.057	92.75
301.288	100.75
301.518	95.75
301.748	87.75
301.979	84.75
302.209	91.75
302.439	95.75
302.669	78.75
302.9	81.75
303.13	100.75
303.36	93.75
303.59	99.75
303.82	99.75
304.051	91.75
304.281	94.75
304.511	101.75
304.741	101.75
304.971	105.75
305.201	90.75
305.431	76.75
305.661	76.75
305.891	82.75
306.121	77.75
306.352	100.75
306.582	100.75
306.812	90.75
307.042	90.75
307.272	90.75
307.502	95.75
307.731	101.75
307.961	93.75
308.191	93.75
308.421	68.75
308.651	98.75
308.881	85.75
309.111	79.75
309.341	106.75
309.571	114.75
309.8	95.75
310.03	90.75
310.26	92.75
310.49	106.75
310.72	92.75
310.949	99.75
311.179	92.75
311.409	92.75
311.639	90.75
311.868	85.75
312.098	94.75
312.328	94.75
312.557	94.75
312.787	95.75
313.017	106.75
313.246	105.75
313.476	96.75
313.706	99.75
313.935	87.75
314.165	83.75
314.394	87.75
314.624	101.75
314.853	88.75
315.083	99.75
315.312	82.75
315.542	93.75
315.771	100.75
316.001	90.75
316.23	87.75
316.46	94.75
316.689	105.75
316.919	99.75
317.148	95.75
317.377	92.75
317.607	106.75
317.836	95.75
318.065	94.75
318.295	92.75
318.524	105.75
318.753	98.75
318.983	85.75
319.212	92.75
319.441	101.75
319.67	117.75
319.9	94.75
320.129	102.75
320.358	96.75
320.587	98.75
320.816	78.75
321.046	99.75
321.275	108.75
321.504	105.75
321.733	89.75
321.962	99.75
322.191	99.75
322.42	112.75
322.649	105.75
322.878	104.75
323.108	102.75
323.337	123.75
323.566	130.75
323.795	160.75
324.024	211.75
324.253	404.75
324.482	839.75
324.71	1753.75
324.939	2393.75
325.168	854.75
325.397	231.75
325.626	144.75
325.855	132.75
326.084	141.75
326.313	137.75
326.542	149.75
326.77	233.75
326.999	471.75
327.228	975.75
327.457	1826.75
327.686	1497.75
327.914	403.75
328.143	181.75
328.372	150.75
328.6	138.75
328.829	109.75
329.058	129.75
329.287	121.75
329.515	108.75
329.744	112.75
329.972	105.75
330.201	97.75
330.43	114.75
330.658	125.75
330.887	147.75
331.115	111.75
331.344	92.75
331.572	107.75
331.801	106.75
332.03	92.75
332.258	108.75
332.486	93.75
332.715	105.75
332.943	93.75
333.172	105.75
333.4	103.75
333.629	104.75
333.857	100.75
334.085	97.75
334.314	96.75
334.542	93.75
334.771	102.75
334.999	96.75
335.227	93.75
335.455	102.75
335.684	91.75
335.912	101.75
336.14	94.75
336.369	100.75
336.597	86.75
336.825	95.75
337.053	78.75
337.281	99.75
337.51	103.75
337.738	85.75
337.966	91.75
338.194	102.75
338.422	101.75
338.65	87.75
338.878	92.75
339.106	81.75
339.334	102.75
339.562	106.75
339.79	89.75
340.018	89.75
340.246	84.75
340.474	97.75
340.702	94.75
340.93	84.75
341.158	95.75
341.386	93.75
341.614	78.75
341.842	95.75
342.07	90.75
342.298	101.75
342.526	88.75
342.754	99.75
342.981	82.75
343.209	92.75
343.437	78.75
343.665	105.75
343.893	96.75
344.12	96.75
344.348	91.75
344.576	70.75
344.804	94.75
345.031	98.75
345.259	108.75
345.487	85.75
345.714	96.75
345.942	98.75
346.17	93.75
346.397	92.75
346.625	86.75
346.853	109.75
347.08	77.75
347.308	100.75
347.535	96.75
347.763	92.75
347.99	97.75
348.218	94.75
348.445	92.75
348.673	112.75
348.9	92.75
349.128	95.75
349.355	92.75
349.583	84.75
349.81	92.75
350.037	109.75
350.265	90.75
350.492	97.75
350.72	98.75
350.947	89.75
351.174	110.75
351.402	121.75
351.629	98.75
351.856	109.75
352.083	106.75
352.311	105.75
352.538	115.75
352.765	100.75
352.992	98.75
353.22	100.75
353.447	98.75
353.674	100.75
353.901	107.75
354.128	107.75
354.355	106.75
354.583	104.75
354.81	94.75
355.037	98.75
355.264	100.75
355.491	85.75
355.718	96.75
355.945	96.75
356.172	87.75
356.399	101.75
356.626	92.75
356.853	79.75
357.08	89.75
357.307	89.75
357.534	82.75
357.761	98.75
357.988	91.75
358.215	109.75
358.441	113.75
358.668	87.75
358.895	92.75
359.122	85.75
359.349	85.75
359.576	87.75
359.802	87.75
360.029	113.75
360.256	109.75
360.483	97.75
360.709	96.75
360.936	73.75
361.163	76.75
361.39	79.75
361.616	91.75
361.843	92.75
362.07	95.75
362.296	92.75
362.523	94.75
362.749	88.75
362.976	91.75
363.203	96.75
363.429	83.75
363.656	74.75
363.882	90.75
364.109	86.75
364.335	98.75
364.562	86.75
364.788	79.75
365.015	85.75
365.241	93.75
365.468	87.75
365.694	98.75
365.92	80.75
366.147	91.75
366.373	89.75
366.599	89.75
366.826	89.75
367.052	79.75
367.278	80.75
367.505	82.75
367.731	90.75
367.957	106.75
368.184	107.75
368.41	94.75
368.636	98.75
368.862	123.75
369.089	97.75
369.315	96.75
369.541	95.75
369.767	80.75
369.993	102.75
370.219	103.75
370.445	87.75
370.672	87.75
370.898	79.75
371.124	86.75
371.35	83.75
371.576	82.75
371.802	83.75
372.028	84.75
372.254	97.75
372.48	87.75
372.706	86.75
372.932	85.75
373.158	88.75
373.384	83.75
373.61	101.75
373.835	86.75
374.061	92.75
374.287	85.75
374.513	84.75
374.739	105.75
374.965	87.75
375.191	108.75
375.416	100.75
375.642	97.75
375.868	97.75
376.094	96.75
376.319	100.75
376.545	105.75
376.771	76.75
376.997	85.75
377.222	85.75
377.448	99.75
377.674	89.75
377.899	90.75
378.125	82.75
378.35	95.75
378.576	103.75
378.802	111.75
379.027	100.75
379.253	99.75
379.478	102.75
379.704	100.75
379.929	101.75
380.155	91.75
380.38	99.75
380.606	96.75
380.831	93.75
381.057	96.75
381.282	93.75
381.507	102.75
381.733	95.75
381.958	108.75
382.184	115.75
382.409	114.75
382.634	102.75
382.86	111.75
383.085	124.75
383.31	108.75
383.535	116.75
383.761	105.75
383.986	110.75
384.211	111.75
384.436	100.75
384.662	105.75
384.887	120.75
385.112	112.75
385.337	130.75
385.562	121.75
385.787	108.75
386.013	114.75
386.238	123.75
386.463	109.75
386.688	120.75
386.913	122.75
387.138	113.75
387.363	127.75
387.588	120.75
387.813	116.75
388.038	114.75
388.263	132.75
388.488	136.75
388.713	103.75
388.938	86.75
389.163	96.75
389.387	86.75
389.612	95.75
389.837	95.75
390.062	95.75
390.287	83.75
390.512	89.75
390.736	84.75
390.961	83.75
391.186	101.75
391.411	78.75
391.636	90.75
391.86	99.75
392.085	97.75
392.31	85.75
392.534	82.75
392.759	90.75
392.984	96.75
393.208	97.75
393.433	89.75
393.658	102.75
393.882	81.75
394.107	86.75
394.331	76.75
394.556	86.75
394.78	69.75
395.005	87.75
395.229	86.75
395.454	89.75
395.678	86.75
395.903	72.75
396.127	76.75
396.352	75.75
396.576	82.75
396.801	75.75
397.025	91.75
397.249	82.75
397.474	87.75
397.698	92.75
397.922	96.75
398.147	97.75
398.371	79.75
398.595	73.75
398.82	75.75
399.044	96.75
399.268	94.75
399.492	81.75
399.717	85.75
399.941	80.75
400.165	84.75
400.389	93.75
400.613	93.75
400.837	86.75
401.062	94.75
401.286	83.75
401.51	92.75
401.734	92.75
401.958	78.75
402.182	113.75
402.406	149.75
402.63	108.75
402.854	85.75
403.078	90.75
403.302	84.75
403.526	83.75
403.75	78.75
403.974	103.75
404.198	79.75
404.422	80.75
404.645	72.75
404.869	85.75
405.093	88.75
405.317	87.75
405.541	105.75
405.765	96.75
405.988	114.75
406.212	140.75
406.436	218.75
406.66	126.75
406.883	103.75
407.107	91.75
407.331	110.75
407.555	106.75
407.778	102.75
408.002	92.75
408.226	76.75
408.449	84.75
408.673	96.75
408.896	108.75
409.12	92.75
409.344	102.75
409.567	87.75
409.791	75.75
410.014	87.75
410.238	91.75
410.461	93.75
410.685	82.75
410.908	94.75
411.132	104.75
411.355	119.75
411.578	90.75
411.802	96.75
412.025	87.75
412.249	90.75
412.472	85.75
412.695	88.75
412.919	92.75
413.142	98.75
413.365	71.75
413.589	84.75
413.812	99.75
414.035	80.75
414.258	92.75
414.482	81.75
414.705	96.75
414.928	94.75
415.151	92.75
415.374	84.75
415.597	91.75
415.821	90.75
416.044	93.75
416.267	86.75
416.49	98.75
416.713	89.75
416.936	89.75
417.159	87.75
417.382	94.75
417.605	87.75
417.828	94.75
418.051	92.75
418.274	81.75
418.497	86.75
418.72	85.75
418.943	85.75
419.166	86.75
419.389	84.75
419.611	94.75
419.834	81.75
420.057	82.75
420.28	74.75
420.503	88.75
420.726	93.75
420.948	102.75
421.171	100.75
421.394	87.75
421.617	91.75
421.839	84.75
422.062	81.75
422.285	98.75
422.507	108.75
422.73	85.75
422.953	82.75
423.175	73.75
423.398	91.75
423.621	95.75
423.843	90.75
424.066	79.75
424.288	82.75
424.511	101.75
424.733	106.75
424.956	99.75
425.178	98.75
425.401	108.75
425.623	97.75
425.846	99.75
426.068	98.75
426.291	66.75
426.513	93.75
426.735	81.75
426.958	89.75
427.18	94.75
427.402	158.75
427.625	175.75
427.847	126.75
428.069	97.75
428.292	82.75
428.514	96.75
428.736	100.75
428.958	81.75
429.181	82.75
429.403	87.75
429.625	96.75
429.847	95.75
430.069	104.75
430.292	89.75
430.514	86.75
430.736	83.75
430.958	78.75
431.18	83.75
431.402	84.75
431.624	91.75
431.846	81.75
432.068	85.75
432.29	82.75
432.512	81.75
432.734	79.75
432.956	82.75
433.178	100.75
433.4	106.75
433.622	100.75
433.844	90.75
434.066	96.75
434.287	100.75
434.509	85.75
434.731	91.75
434.953	70.75
435.175	79.75
435.397	87.75
435.618	78.75
435.84	96.75
436.062	142.75
436.284	134.75
436.505	102.75
436.727	113.75
436.949	95.75
437.17	96.75
437.392	89.75
437.614	87.75
437.835	103.75
438.057	131.75
438.278	108.75
438.5	109.75
438.721	133.75
438.943	100.75
439.165	84.75
439.386	88.75
439.608	93.75
439.829	99.75
440.05	126.75
440.272	155.75
440.493	117.75
440.715	106.75
440.936	97.75
441.158	92.75
441.379	88.75
441.6	92.75
441.822	94.75
442.043	94.75
442.264	107.75
442.486	107.75
442.707	81.75
442.928	102.75
443.149	131.75
443.371	131.75
443.592	122.75
443.813	93.75
444.034	123.75
444.255	107.75
444.476	86.75
444.698	101.75
444.919	95.75
445.14	126.75
445.361	124.75
445.582	125.75
445.803	149.75
446.024	146.75
446.245	145.75
446.466	112.75
446.687	82.75
446.908	89.75
447.129	85.75
447.35	99.75
447.571	83.75
447.792	93.75
448.013	90.75
448.234	112.75
448.455	110.75
448.675	127.75
448.896	154.75
449.117	98.75
449.338	103.75
449.559	143.75
449.779	143.75
450	93.75
450.221	85.75
450.442	100.75
450.662	108.75
450.883	114.75
451.104	105.75
451.324	103.75
451.545	95.75
451.766	91.75
451.986	92.75
452.207	95.75
452.428	87.75
452.648	78.75
452.869	106.75
453.089	104.75
453.31	100.75
453.53	90.75
453.751	95.75
453.971	115.75
454.192	114.75
454.412	100.75
454.633	85.75
454.853	82.75
455.073	86.75
455.294	89.75
455.514	103.75
455.734	90.75
455.955	84.75
456.175	85.75
456.395	89.75
456.616	92.75
456.836	86.75
457.056	88.75
457.276	75.75
457.497	84.75
457.717	81.75
457.937	91.75
458.157	87.75
458.377	81.75
458.598	104.75
458.818	138.75
459.038	155.75
459.258	105.75
459.478	91.75
459.698	86.75
459.918	84.75
460.138	94.75
460.358	71.75
460.578	89.75
460.798	101.75
461.018	105.75
461.238	92.75
461.458	87.75
461.678	91.75
461.898	88.75
462.118	89.75
462.338	86.75
462.558	86.75
462.777	102.75
462.997	71.75
463.217	77.75
463.437	80.75
463.657	81.75
463.876	98.75
464.096	85.75
464.316	104.75
464.536	91.75
464.755	94.75
464.975	100.75
465.195	167.75
465.414	157.75
465.634	109.75
465.854	79.75
466.073	85.75
466.293	77.75
466.512	90.75
466.732	85.75
466.951	84.75
467.171	93.75
467.391	81.75
467.61	99.75
467.829	100.75
468.049	100.75
468.268	90.75
468.488	94.75
468.707	82.75
468.927	86.75
469.146	82.75
469.365	83.75
469.585	81.75
469.804	86.75
470.023	85.75
470.243	106.75
470.462	102.75
470.681	106.75
470.901	79.75
471.12	84.75
471.339	78.75
471.558	92.75
471.777	89.75
471.997	86.75
472.216	93.75
472.435	85.75
472.654	88.75
472.873	72.75
473.092	85.75
473.311	82.75
473.53	74.75
473.749	91.75
473.968	86.75
474.187	106.75
474.406	106.75
474.625	82.75
474.844	73.75
475.063	82.75
475.282	100.75
475.501	86.75
475.72	83.75
475.939	81.75
476.158	70.75
476.377	87.75
476.596	88.75
476.814	98.75
477.033	95.75
477.252	86.75
477.471	68.75
477.69	81.75
477.908	97.75
478.127	77.75
478.346	97.75
478.564	90.75
478.783	94.75
479.002	94.75
479.22	102.75
479.439	103.75
479.658	102.75
479.876	103.75
480.095	90.75
480.313	81.75
480.532	83.75
480.751	78.75
480.969	91.75
481.188	104.75
481.406	98.75
481.624	82.75
481.843	89.75
482.061	84.75
482.28	96.75
482.498	84.75
482.717	88.75
482.935	96.75
483.153	102.75
483.372	87.75
483.59	91.75
483.808	91.75
484.027	95.75
484.245	81.75
484.463	93.75
484.681	87.75
484.9	87.75
485.118	101.75
485.336	97.75
485.554	85.75
485.772	93.75
485.99	104.75
486.209	102.75
486.427	110.75
486.645	110.75
486.863	98.75
487.081	93.75
487.299	95.75
487.517	89.75
487.735	87.75
487.953	86.75
488.171	99.75
488.389	97.75
488.607	95.75
488.825	87.75
489.043	92.75
489.261	95.75
489.479	91.75
489.696	72.75
489.914	83.75
490.132	101.75
490.35	110.75
490.568	90.75
490.786	91.75
491.003	94.75
491.221	81.75
491.439	97.75
491.657	91.75
491.874	87.75
492.092	93.75
492.31	84.75
492.527	84.75
492.745	79.75
492.963	81.75
493.18	93.75
493.398	92.75
493.615	100.75
493.833	94.75
494.05	92.75
494.268	96.75
494.485	86.75
494.703	92.75
494.92	82.75
495.138	81.75
495.355	94.75
495.573	84.75
495.79	94.75
496.008	95.75
496.225	101.75
496.442	94.75
496.66	101.75
496.877	100.75
497.094	93.75
497.312	82.75
497.529	80.75
497.746	90.75
497.963	77.75
498.181	85.75
498.398	98.75
498.615	114.75
498.832	106.75
499.049	101.75
499.267	82.75
499.484	99.75
499.701	99.75
499.918	84.75
500.135	101.75
500.352	92.75
500.569	80.75
500.786	103.75
501.003	84.75
501.22	83.75
501.437	77.75
501.654	89.75
501.871	100.75
502.088	75.75
502.305	94.75
502.522	83.75
502.739	65.75
502.956	96.75
503.172	84.75
503.389	88.75
503.606	102.75
503.823	101.75
504.04	89.75
504.256	86.75
504.473	88.75
504.69	89.75
504.907	65.75
505.123	79.75
505.34	98.75
505.557	95.75
505.773	91.75
505.99	80.75
506.207	94.75
506.423	81.75
506.64	87.75
506.856	100.75
507.073	81.75
507.289	90.75
507.506	96.75
507.722	113.75
507.939	103.75
508.155	91.75
508.372	93.75
508.588	100.75
508.805	98.75
509.021	94.75
509.238	107.75
509.454	101.75
509.67	102.75
509.887	102.75
510.103	138.75
510.319	189.75
510.536	665.75
510.752	2025.75
510.968	575.75
511.184	145.75
511.401	107.75
511.617	85.75
511.833	102.75
512.049	79.75
512.265	88.75
512.481	85.75
512.698	106.75
512.914	101.75
513.13	91.75
513.346	90.75
513.562	108.75
513.778	87.75
513.994	78.75
514.21	97.75
514.426	123.75
514.642	139.75
514.858	130.75
515.074	160.75
515.29	399.75
515.506	1368.75
