Data from Uncirc_2005_H10_HRD10591_00035.txt Node
Date: Wed Jan 03 10:28:31 EST 2024
User: Yrep
Spectrometer: HR+D1059
Trigger mode: 1
Integration Time (sec): 1.000000E-1
Scans to average: 1
Electric dark correction enabled: true
Nonlinearity correction enabled: false
Boxcar width: 0
XAxis mode: Wavelengths
Number of Pixels in Spectrum: 2048
>>>>>Begin Spectral Data<<<<<
223.165	-13.19
223.4	-13.19
223.635	-13.19
223.869	-22.19
224.104	-18.19
224.338	-14.19
224.573	-18.19
224.808	-27.19
225.042	-15.19
225.277	-0.19
225.511	-1.19
225.746	0.81
225.98	11.81
226.215	6.81
226.449	14.81
226.683	19.81
226.918	40.81
227.152	34.81
227.387	41.81
227.621	44.81
227.856	61.81
228.09	40.81
228.324	39.81
228.559	60.81
228.793	56.81
229.027	60.81
229.262	62.81
229.496	75.81
229.73	98.81
229.964	84.81
230.199	78.81
230.433	73.81
230.667	86.81
230.901	65.81
231.136	86.81
231.37	80.81
231.604	85.81
231.838	82.81
232.072	78.81
232.306	86.81
232.541	90.81
232.775	90.81
233.009	78.81
233.243	79.81
233.477	77.81
233.711	78.81
233.945	93.81
234.179	61.81
234.413	78.81
234.647	78.81
234.881	86.81
235.115	89.81
235.349	74.81
235.583	78.81
235.817	81.81
236.051	74.81
236.285	70.81
236.519	80.81
236.753	97.81
236.987	96.81
237.221	79.81
237.455	101.81
237.689	66.81
237.922	81.81
238.156	74.81
238.39	72.81
238.624	86.81
238.858	101.81
239.091	84.81
239.325	83.81
239.559	77.81
239.793	84.81
240.027	82.81
240.26	90.81
240.494	66.81
240.728	77.81
240.961	84.81
241.195	74.81
241.429	84.81
241.662	90.81
241.896	75.81
242.13	86.81
242.363	69.81
242.597	76.81
242.83	70.81
243.064	78.81
243.298	76.81
243.531	82.81
243.765	76.81
243.998	78.81
244.232	83.81
244.465	83.81
244.699	85.81
244.932	84.81
245.166	89.81
245.399	86.81
245.633	68.81
245.866	78.81
246.099	72.81
246.333	83.81
246.566	82.81
246.8	69.81
247.033	77.81
247.266	87.81
247.5	84.81
247.733	67.81
247.966	79.81
248.2	92.81
248.433	79.81
248.666	89.81
248.899	88.81
249.133	84.81
249.366	103.81
249.599	102.81
249.832	71.81
250.066	84.81
250.299	69.81
250.532	84.81
250.765	80.81
250.998	79.81
251.231	71.81
251.465	95.81
251.698	92.81
251.931	72.81
252.164	75.81
252.397	76.81
252.63	89.81
252.863	86.81
253.096	87.81
253.329	90.81
253.562	76.81
253.795	77.81
254.028	83.81
254.261	82.81
254.494	66.81
254.727	79.81
254.96	82.81
255.193	91.81
255.426	74.81
255.659	92.81
255.892	76.81
256.124	73.81
256.357	72.81
256.59	76.81
256.823	74.81
257.056	86.81
257.289	76.81
257.521	86.81
257.754	66.81
257.987	60.81
258.22	74.81
258.452	81.81
258.685	81.81
258.918	85.81
259.151	84.81
259.383	78.81
259.616	86.81
259.849	97.81
260.081	79.81
260.314	75.81
260.547	85.81
260.779	96.81
261.012	92.81
261.244	91.81
261.477	105.81
261.71	104.81
261.942	103.81
262.175	99.81
262.407	74.81
262.64	81.81
262.872	85.81
263.105	93.81
263.337	64.81
263.57	83.81
263.802	85.81
264.035	82.81
264.267	70.81
264.499	87.81
264.732	84.81
264.964	84.81
265.197	86.81
265.429	71.81
265.661	82.81
265.894	85.81
266.126	97.81
266.358	78.81
266.591	101.81
266.823	85.81
267.055	80.81
267.287	85.81
267.52	81.81
267.752	78.81
267.984	93.81
268.216	92.81
268.448	77.81
268.681	77.81
268.913	84.81
269.145	90.81
269.377	80.81
269.609	92.81
269.841	84.81
270.073	83.81
270.306	87.81
270.538	83.81
270.77	78.81
271.002	80.81
271.234	88.81
271.466	75.81
271.698	82.81
271.93	88.81
272.162	87.81
272.394	95.81
272.626	88.81
272.858	93.81
273.09	88.81
273.322	94.81
273.553	85.81
273.785	94.81
274.017	80.81
274.249	82.81
274.481	90.81
274.713	75.81
274.945	89.81
275.176	81.81
275.408	79.81
275.64	88.81
275.872	67.81
276.104	86.81
276.335	85.81
276.567	96.81
276.799	96.81
277.031	102.81
277.262	93.81
277.494	94.81
277.726	80.81
277.957	94.81
278.189	76.81
278.421	72.81
278.652	90.81
278.884	88.81
279.115	88.81
279.347	78.81
279.579	88.81
279.81	90.81
280.042	79.81
280.273	98.81
280.505	96.81
280.736	90.81
280.968	82.81
281.199	97.81
281.431	90.81
281.662	84.81
281.894	94.81
282.125	94.81
282.356	109.81
282.588	129.81
282.819	118.81
283.051	98.81
283.282	82.81
283.513	91.81
283.745	91.81
283.976	86.81
284.207	88.81
284.439	88.81
284.67	79.81
284.901	83.81
285.132	87.81
285.364	88.81
285.595	93.81
285.826	83.81
286.057	89.81
286.288	83.81
286.52	90.81
286.751	87.81
286.982	90.81
287.213	74.81
287.444	85.81
287.675	82.81
287.906	84.81
288.138	89.81
288.369	104.81
288.6	83.81
288.831	86.81
289.062	88.81
289.293	73.81
289.524	102.81
289.755	88.81
289.986	90.81
290.217	98.81
290.448	69.81
290.679	93.81
290.91	95.81
291.141	86.81
291.371	88.81
291.602	81.81
291.833	100.81
292.064	78.81
292.295	76.81
292.526	81.81
292.757	94.81
292.987	99.81
293.218	85.81
293.449	90.81
293.68	87.81
293.91	97.81
294.141	91.81
294.372	92.81
294.603	96.81
294.833	99.81
295.064	85.81
295.295	99.81
295.525	98.81
295.756	118.81
295.987	115.81
296.217	116.81
296.448	128.81
296.679	97.81
296.909	84.81
297.14	91.81
297.37	89.81
297.601	83.81
297.831	95.81
298.062	86.81
298.292	93.81
298.523	76.81
298.753	89.81
298.984	101.81
299.214	94.81
299.445	94.81
299.675	87.81
299.905	102.81
300.136	96.81
300.366	94.81
300.597	79.81
300.827	91.81
301.057	85.81
301.288	103.81
301.518	101.81
301.748	96.81
301.979	105.81
302.209	96.81
302.439	82.81
302.669	87.81
302.9	100.81
303.13	89.81
303.36	92.81
303.59	105.81
303.82	104.81
304.051	108.81
304.281	88.81
304.511	89.81
304.741	105.81
304.971	92.81
305.201	92.81
305.431	84.81
305.661	89.81
305.891	87.81
306.121	97.81
306.352	124.81
306.582	107.81
306.812	94.81
307.042	105.81
307.272	98.81
307.502	92.81
307.731	86.81
307.961	90.81
308.191	85.81
308.421	86.81
308.651	91.81
308.881	85.81
309.111	107.81
309.341	94.81
309.571	99.81
309.8	110.81
310.03	101.81
310.26	95.81
310.49	107.81
310.72	113.81
310.949	102.81
311.179	91.81
311.409	84.81
311.639	103.81
311.868	100.81
312.098	110.81
312.328	95.81
312.557	91.81
312.787	108.81
313.017	105.81
313.246	86.81
313.476	96.81
313.706	109.81
313.935	101.81
314.165	100.81
314.394	89.81
314.624	108.81
314.853	92.81
315.083	95.81
315.312	104.81
315.542	94.81
315.771	103.81
316.001	106.81
316.23	111.81
316.46	84.81
316.689	89.81
316.919	94.81
317.148	81.81
317.377	94.81
317.607	94.81
317.836	92.81
318.065	94.81
318.295	81.81
318.524	95.81
318.753	98.81
318.983	93.81
319.212	88.81
319.441	107.81
319.67	112.81
319.9	95.81
320.129	96.81
320.358	104.81
320.587	96.81
320.816	100.81
321.046	104.81
321.275	93.81
321.504	108.81
321.733	103.81
321.962	99.81
322.191	104.81
322.42	101.81
322.649	113.81
322.878	104.81
323.108	110.81
323.337	121.81
323.566	146.81
323.795	157.81
324.024	195.81
324.253	382.81
324.482	788.81
324.71	1609.81
324.939	2142.81
325.168	797.81
325.397	246.81
325.626	139.81
325.855	126.81
326.084	119.81
326.313	127.81
326.542	161.81
326.77	233.81
326.999	453.81
327.228	926.81
327.457	1681.81
327.686	1351.81
327.914	361.81
328.143	177.81
328.372	148.81
328.6	129.81
328.829	124.81
329.058	116.81
329.287	133.81
329.515	102.81
329.744	109.81
329.972	105.81
330.201	112.81
330.43	106.81
330.658	125.81
330.887	125.81
331.115	123.81
331.344	110.81
331.572	110.81
331.801	102.81
332.03	106.81
332.258	110.81
332.486	85.81
332.715	89.81
332.943	95.81
333.172	93.81
333.4	85.81
333.629	110.81
333.857	102.81
334.085	92.81
334.314	93.81
334.542	122.81
334.771	79.81
334.999	107.81
335.227	105.81
335.455	103.81
335.684	108.81
335.912	102.81
336.14	110.81
336.369	92.81
336.597	91.81
336.825	78.81
337.053	84.81
337.281	100.81
337.51	89.81
337.738	86.81
337.966	97.81
338.194	98.81
338.422	107.81
338.65	94.81
338.878	90.81
339.106	83.81
339.334	107.81
339.562	88.81
339.79	90.81
340.018	92.81
340.246	91.81
340.474	86.81
340.702	99.81
340.93	102.81
341.158	79.81
341.386	101.81
341.614	104.81
341.842	90.81
342.07	103.81
342.298	89.81
342.526	87.81
342.754	111.81
342.981	97.81
343.209	98.81
343.437	110.81
343.665	98.81
343.893	101.81
344.12	102.81
344.348	88.81
344.576	95.81
344.804	107.81
345.031	89.81
345.259	111.81
345.487	105.81
345.714	103.81
345.942	82.81
346.17	107.81
346.397	84.81
346.625	101.81
346.853	84.81
347.08	109.81
347.308	114.81
347.535	104.81
347.763	103.81
347.99	101.81
348.218	115.81
348.445	101.81
348.673	97.81
348.9	97.81
349.128	90.81
349.355	87.81
349.583	90.81
349.81	94.81
350.037	87.81
350.265	84.81
350.492	91.81
350.72	105.81
350.947	109.81
351.174	122.81
351.402	99.81
351.629	95.81
351.856	100.81
352.083	97.81
352.311	109.81
352.538	110.81
352.765	120.81
352.992	116.81
353.22	126.81
353.447	93.81
353.674	111.81
353.901	93.81
354.128	95.81
354.355	95.81
354.583	113.81
354.81	102.81
355.037	97.81
355.264	99.81
355.491	98.81
355.718	99.81
355.945	98.81
356.172	91.81
356.399	105.81
356.626	86.81
356.853	84.81
357.08	90.81
357.307	92.81
357.534	86.81
357.761	86.81
357.988	103.81
358.215	97.81
358.441	101.81
358.668	95.81
358.895	102.81
359.122	79.81
359.349	98.81
359.576	89.81
359.802	88.81
360.029	112.81
360.256	97.81
360.483	98.81
360.709	99.81
360.936	101.81
361.163	101.81
361.39	99.81
361.616	105.81
361.843	101.81
362.07	99.81
362.296	103.81
362.523	114.81
362.749	105.81
362.976	80.81
363.203	100.81
363.429	81.81
363.656	103.81
363.882	91.81
364.109	102.81
364.335	88.81
364.562	110.81
364.788	99.81
365.015	79.81
365.241	104.81
365.468	107.81
365.694	96.81
365.92	79.81
366.147	82.81
366.373	88.81
366.599	103.81
366.826	102.81
367.052	104.81
367.278	90.81
367.505	96.81
367.731	104.81
367.957	77.81
368.184	103.81
368.41	98.81
368.636	110.81
368.862	109.81
369.089	94.81
369.315	96.81
369.541	92.81
369.767	95.81
369.993	100.81
370.219	90.81
370.445	90.81
370.672	85.81
370.898	102.81
371.124	100.81
371.35	90.81
371.576	99.81
371.802	97.81
372.028	90.81
372.254	98.81
372.48	84.81
372.706	100.81
372.932	95.81
373.158	88.81
373.384	94.81
373.61	78.81
373.835	105.81
374.061	98.81
374.287	105.81
374.513	96.81
374.739	98.81
374.965	104.81
375.191	94.81
375.416	94.81
375.642	97.81
375.868	111.81
376.094	106.81
376.319	97.81
376.545	99.81
376.771	94.81
376.997	97.81
377.222	95.81
377.448	94.81
377.674	89.81
377.899	91.81
378.125	89.81
378.35	98.81
378.576	92.81
378.802	111.81
379.027	95.81
379.253	93.81
379.478	104.81
379.704	97.81
379.929	105.81
380.155	88.81
380.38	100.81
380.606	104.81
380.831	90.81
381.057	108.81
381.282	93.81
381.507	90.81
381.733	95.81
381.958	92.81
382.184	109.81
382.409	99.81
382.634	95.81
382.86	109.81
383.085	102.81
383.31	109.81
383.535	115.81
383.761	116.81
383.986	104.81
384.211	103.81
384.436	113.81
384.662	110.81
384.887	106.81
385.112	98.81
385.337	116.81
385.562	125.81
385.787	113.81
386.013	110.81
386.238	120.81
386.463	106.81
386.688	109.81
386.913	102.81
387.138	117.81
387.363	102.81
387.588	111.81
387.813	112.81
388.038	103.81
388.263	126.81
388.488	110.81
388.713	105.81
388.938	99.81
389.163	105.81
389.387	95.81
389.612	94.81
389.837	104.81
390.062	94.81
390.287	84.81
390.512	113.81
390.736	93.81
390.961	81.81
391.186	102.81
391.411	106.81
391.636	95.81
391.86	88.81
392.085	89.81
392.31	97.81
392.534	97.81
392.759	82.81
392.984	101.81
393.208	89.81
393.433	107.81
393.658	100.81
393.882	100.81
394.107	96.81
394.331	86.81
394.556	78.81
394.78	99.81
395.005	81.81
395.229	88.81
395.454	88.81
395.678	89.81
395.903	93.81
396.127	90.81
396.352	90.81
396.576	84.81
396.801	100.81
397.025	93.81
397.249	95.81
397.474	94.81
397.698	80.81
397.922	96.81
398.147	88.81
398.371	96.81
398.595	74.81
398.82	84.81
399.044	92.81
399.268	83.81
399.492	92.81
399.717	86.81
399.941	101.81
400.165	100.81
400.389	88.81
400.613	77.81
400.837	89.81
401.062	86.81
401.286	92.81
401.51	97.81
401.734	93.81
401.958	96.81
402.182	114.81
402.406	146.81
402.63	107.81
402.854	96.81
403.078	102.81
403.302	109.81
403.526	90.81
403.75	83.81
403.974	102.81
404.198	87.81
404.422	77.81
404.645	81.81
404.869	96.81
405.093	102.81
405.317	90.81
405.541	96.81
405.765	90.81
405.988	107.81
406.212	172.81
406.436	194.81
406.66	144.81
406.883	110.81
407.107	93.81
407.331	106.81
407.555	93.81
407.778	110.81
408.002	100.81
408.226	98.81
408.449	96.81
408.673	86.81
408.896	97.81
409.12	102.81
409.344	80.81
409.567	109.81
409.791	93.81
410.014	90.81
410.238	96.81
410.461	102.81
410.685	97.81
410.908	109.81
411.132	112.81
411.355	89.81
411.578	89.81
411.802	85.81
412.025	93.81
412.249	86.81
412.472	94.81
412.695	95.81
412.919	89.81
413.142	97.81
413.365	93.81
413.589	94.81
413.812	87.81
414.035	100.81
414.258	82.81
414.482	96.81
414.705	92.81
414.928	95.81
415.151	104.81
415.374	102.81
415.597	95.81
415.821	85.81
416.044	102.81
416.267	88.81
416.49	96.81
416.713	115.81
416.936	88.81
417.159	86.81
417.382	88.81
417.605	93.81
417.828	87.81
418.051	101.81
418.274	101.81
418.497	102.81
418.72	99.81
418.943	106.81
419.166	97.81
419.389	104.81
419.611	90.81
419.834	93.81
420.057	87.81
420.28	93.81
420.503	103.81
420.726	76.81
420.948	92.81
421.171	100.81
421.394	94.81
421.617	86.81
421.839	87.81
422.062	95.81
422.285	96.81
422.507	109.81
422.73	95.81
422.953	104.81
423.175	102.81
423.398	99.81
423.621	90.81
423.843	85.81
424.066	89.81
424.288	81.81
424.511	99.81
424.733	93.81
424.956	95.81
425.178	105.81
425.401	99.81
425.623	105.81
425.846	94.81
426.068	108.81
426.291	88.81
426.513	81.81
426.735	99.81
426.958	81.81
427.18	111.81
427.402	141.81
427.625	148.81
427.847	119.81
428.069	102.81
428.292	86.81
428.514	98.81
428.736	90.81
428.958	88.81
429.181	81.81
429.403	91.81
429.625	102.81
429.847	86.81
430.069	99.81
430.292	95.81
430.514	86.81
430.736	77.81
430.958	100.81
431.18	88.81
431.402	88.81
431.624	91.81
431.846	89.81
432.068	89.81
432.29	94.81
432.512	77.81
432.734	84.81
432.956	86.81
433.178	103.81
433.4	93.81
433.622	97.81
433.844	94.81
434.066	92.81
434.287	101.81
434.509	83.81
434.731	82.81
434.953	92.81
435.175	87.81
435.397	106.81
435.618	97.81
435.84	97.81
436.062	117.81
436.284	113.81
436.505	113.81
436.727	97.81
436.949	100.81
437.17	98.81
437.392	85.81
437.614	84.81
437.835	95.81
438.057	115.81
438.278	109.81
438.5	106.81
438.721	116.81
438.943	93.81
439.165	76.81
439.386	95.81
439.608	100.81
439.829	93.81
440.05	126.81
440.272	120.81
440.493	93.81
440.715	102.81
440.936	91.81
441.158	96.81
441.379	82.81
441.6	86.81
441.822	96.81
442.043	102.81
442.264	103.81
442.486	91.81
442.707	104.81
442.928	86.81
443.149	136.81
443.371	125.81
443.592	103.81
443.813	113.81
444.034	111.81
444.255	90.81
444.476	102.81
444.698	89.81
444.919	84.81
445.14	141.81
445.361	117.81
445.582	106.81
445.803	122.81
446.024	131.81
446.245	130.81
446.466	116.81
446.687	102.81
446.908	90.81
447.129	90.81
447.35	96.81
447.571	92.81
447.792	103.81
448.013	98.81
448.234	99.81
448.455	106.81
448.675	116.81
448.896	117.81
449.117	101.81
449.338	95.81
449.559	142.81
449.779	133.81
450	94.81
450.221	91.81
450.442	87.81
450.662	91.81
450.883	99.81
451.104	93.81
451.324	97.81
451.545	90.81
451.766	89.81
451.986	88.81
452.207	95.81
452.428	85.81
452.648	96.81
452.869	101.81
453.089	113.81
453.31	121.81
453.53	93.81
453.751	89.81
453.971	114.81
454.192	106.81
454.412	94.81
454.633	101.81
454.853	77.81
455.073	84.81
455.294	90.81
455.514	101.81
455.734	88.81
455.955	82.81
456.175	97.81
456.395	75.81
456.616	96.81
456.836	86.81
457.056	82.81
457.276	85.81
457.497	89.81
457.717	82.81
457.937	103.81
458.157	85.81
458.377	90.81
458.598	95.81
458.818	147.81
459.038	143.81
459.258	103.81
459.478	86.81
459.698	96.81
459.918	91.81
460.138	81.81
460.358	86.81
460.578	94.81
460.798	89.81
461.018	88.81
461.238	99.81
461.458	92.81
461.678	73.81
461.898	76.81
462.118	79.81
462.338	84.81
462.558	84.81
462.777	81.81
462.997	98.81
463.217	89.81
463.437	90.81
463.657	98.81
463.876	94.81
464.096	90.81
464.316	86.81
464.536	90.81
464.755	86.81
464.975	104.81
465.195	164.81
465.414	156.81
465.634	100.81
465.854	98.81
466.073	87.81
466.293	90.81
466.512	84.81
466.732	95.81
466.951	88.81
467.171	97.81
467.391	86.81
467.61	109.81
467.829	100.81
468.049	89.81
468.268	93.81
468.488	87.81
468.707	104.81
468.927	85.81
469.146	83.81
469.365	79.81
469.585	99.81
469.804	97.81
470.023	101.81
470.243	99.81
470.462	98.81
470.681	104.81
470.901	101.81
471.12	100.81
471.339	91.81
471.558	82.81
471.777	90.81
471.997	98.81
472.216	108.81
472.435	99.81
472.654	92.81
472.873	91.81
473.092	84.81
473.311	92.81
473.53	100.81
473.749	97.81
473.968	100.81
474.187	90.81
474.406	92.81
474.625	95.81
474.844	93.81
475.063	85.81
475.282	90.81
475.501	88.81
475.72	90.81
475.939	90.81
476.158	100.81
476.377	97.81
476.596	101.81
476.814	108.81
477.033	99.81
477.252	98.81
477.471	102.81
477.69	80.81
477.908	88.81
478.127	81.81
478.346	95.81
478.564	79.81
478.783	99.81
479.002	103.81
479.22	85.81
479.439	104.81
479.658	110.81
479.876	99.81
480.095	83.81
480.313	82.81
480.532	92.81
480.751	88.81
480.969	104.81
481.188	109.81
481.406	96.81
481.624	102.81
481.843	97.81
482.061	90.81
482.28	94.81
482.498	94.81
482.717	92.81
482.935	94.81
483.153	98.81
483.372	91.81
483.59	92.81
483.808	104.81
484.027	95.81
484.245	99.81
484.463	89.81
484.681	82.81
484.9	90.81
485.118	90.81
485.336	96.81
485.554	95.81
485.772	105.81
485.99	104.81
486.209	92.81
486.427	125.81
486.645	125.81
486.863	118.81
487.081	99.81
487.299	98.81
487.517	101.81
487.735	89.81
487.953	89.81
488.171	106.81
488.389	96.81
488.607	85.81
488.825	88.81
489.043	85.81
489.261	103.81
489.479	95.81
489.696	94.81
489.914	102.81
490.132	105.81
490.35	88.81
490.568	81.81
490.786	102.81
491.003	103.81
491.221	85.81
491.439	97.81
491.657	109.81
491.874	94.81
492.092	98.81
492.31	88.81
492.527	82.81
492.745	94.81
492.963	96.81
493.18	87.81
493.398	95.81
493.615	96.81
493.833	109.81
494.05	95.81
494.268	80.81
494.485	87.81
494.703	86.81
494.92	103.81
495.138	98.81
495.355	84.81
495.573	88.81
495.79	93.81
496.008	95.81
496.225	98.81
496.442	84.81
496.66	101.81
496.877	85.81
497.094	115.81
497.312	105.81
497.529	96.81
497.746	87.81
497.963	78.81
498.181	95.81
498.398	92.81
498.615	109.81
498.832	112.81
499.049	94.81
499.267	89.81
499.484	103.81
499.701	96.81
499.918	90.81
500.135	85.81
500.352	93.81
500.569	104.81
500.786	88.81
501.003	68.81
501.22	79.81
501.437	86.81
501.654	111.81
501.871	103.81
502.088	100.81
502.305	89.81
502.522	93.81
502.739	97.81
502.956	87.81
503.172	90.81
503.389	94.81
503.606	108.81
503.823	101.81
504.04	92.81
504.256	98.81
504.473	93.81
504.69	95.81
504.907	92.81
505.123	97.81
505.34	92.81
505.557	92.81
505.773	92.81
505.99	105.81
506.207	81.81
506.423	100.81
506.64	101.81
506.856	101.81
507.073	83.81
507.289	100.81
507.506	104.81
507.722	111.81
507.939	102.81
508.155	94.81
508.372	103.81
508.588	97.81
508.805	97.81
509.021	106.81
509.238	100.81
509.454	97.81
509.67	114.81
509.887	95.81
510.103	132.81
510.319	192.81
510.536	717.81
510.752	2120.81
510.968	629.81
511.184	150.81
511.401	121.81
511.617	101.81
511.833	97.81
512.049	88.81
512.265	71.81
512.481	94.81
512.698	96.81
512.914	111.81
513.13	102.81
513.346	85.81
513.562	97.81
513.778	108.81
513.994	96.81
514.21	97.81
514.426	116.81
