Data from Uncirc_2005_H10_HRD10591_00040.txt Node
Date: Wed Jan 03 10:28:32 EST 2024
User: Yrep
Spectrometer: HR+D1059
Trigger mode: 1
Integration Time (sec): 1.000000E-1
Scans to average: 1
Electric dark correction enabled: true
Nonlinearity correction enabled: false
Boxcar width: 0
XAxis mode: Wavelengths
Number of Pixels in Spectrum: 2048
>>>>>Begin Spectral Data<<<<<
223.165	-22.88
223.4	-22.88
223.635	-22.88
223.869	-14.88
224.104	-19.88
224.338	-21.88
224.573	-17.88
224.808	-4.88
225.042	-0.88
225.277	-5.88
225.511	-8.88
225.746	-2.88
225.98	-2.88
226.215	19.12
226.449	15.12
226.683	32.12
226.918	23.12
227.152	34.12
227.387	43.12
227.621	29.12
227.856	51.12
228.09	50.12
228.324	39.12
228.559	50.12
228.793	69.12
229.027	57.12
229.262	65.12
229.496	70.12
229.73	75.12
229.964	60.12
230.199	87.12
230.433	86.12
230.667	75.12
230.901	83.12
231.136	85.12
231.37	69.12
231.604	76.12
231.838	69.12
232.072	84.12
232.306	65.12
232.541	89.12
232.775	82.12
233.009	80.12
233.243	79.12
233.477	78.12
233.711	65.12
233.945	74.12
234.179	84.12
234.413	65.12
234.647	84.12
234.881	84.12
235.115	89.12
235.349	77.12
235.583	90.12
235.817	68.12
236.051	87.12
236.285	71.12
236.519	88.12
236.753	95.12
236.987	75.12
237.221	77.12
237.455	83.12
237.689	90.12
237.922	69.12
238.156	76.12
238.39	78.12
238.624	81.12
238.858	87.12
239.091	74.12
239.325	83.12
239.559	92.12
239.793	79.12
240.027	58.12
240.26	74.12
240.494	67.12
240.728	77.12
240.961	89.12
241.195	81.12
241.429	75.12
241.662	70.12
241.896	95.12
242.13	69.12
242.363	73.12
242.597	65.12
242.83	73.12
243.064	53.12
243.298	87.12
243.531	71.12
243.765	75.12
243.998	69.12
244.232	63.12
244.465	72.12
244.699	75.12
244.932	82.12
245.166	96.12
245.399	81.12
245.633	72.12
245.866	83.12
246.099	62.12
246.333	76.12
246.566	73.12
246.8	79.12
247.033	81.12
247.266	89.12
247.5	94.12
247.733	63.12
247.966	88.12
248.2	83.12
248.433	75.12
248.666	82.12
248.899	82.12
249.133	70.12
249.366	100.12
249.599	95.12
249.832	73.12
250.066	77.12
250.299	77.12
250.532	77.12
250.765	74.12
250.998	73.12
251.231	71.12
251.465	87.12
251.698	78.12
251.931	76.12
252.164	70.12
252.397	82.12
252.63	83.12
252.863	76.12
253.096	76.12
253.329	96.12
253.562	87.12
253.795	85.12
254.028	68.12
254.261	69.12
254.494	65.12
254.727	74.12
254.96	74.12
255.193	83.12
255.426	87.12
255.659	73.12
255.892	75.12
256.124	68.12
256.357	87.12
256.59	90.12
256.823	87.12
257.056	76.12
257.289	80.12
257.521	72.12
257.754	66.12
257.987	90.12
258.22	87.12
258.452	88.12
258.685	73.12
258.918	89.12
259.151	78.12
259.383	74.12
259.616	83.12
259.849	69.12
260.081	86.12
260.314	78.12
260.547	83.12
260.779	81.12
261.012	91.12
261.244	95.12
261.477	90.12
261.71	91.12
261.942	105.12
262.175	106.12
262.407	97.12
262.64	95.12
262.872	83.12
263.105	83.12
263.337	83.12
263.57	95.12
263.802	87.12
264.035	78.12
264.267	61.12
264.499	88.12
264.732	78.12
264.964	79.12
265.197	106.12
265.429	84.12
265.661	78.12
265.894	81.12
266.126	77.12
266.358	85.12
266.591	83.12
266.823	94.12
267.055	77.12
267.287	93.12
267.52	81.12
267.752	74.12
267.984	83.12
268.216	83.12
268.448	74.12
268.681	93.12
268.913	85.12
269.145	91.12
269.377	76.12
269.609	81.12
269.841	87.12
270.073	95.12
270.306	86.12
270.538	111.12
270.77	81.12
271.002	76.12
271.234	80.12
271.466	93.12
271.698	79.12
271.93	82.12
272.162	79.12
272.394	82.12
272.626	78.12
272.858	79.12
273.09	90.12
273.322	85.12
273.553	92.12
273.785	77.12
274.017	73.12
274.249	75.12
274.481	93.12
274.713	79.12
274.945	93.12
275.176	85.12
275.408	91.12
275.64	91.12
275.872	86.12
276.104	78.12
276.335	75.12
276.567	99.12
276.799	114.12
277.031	101.12
277.262	91.12
277.494	83.12
277.726	78.12
277.957	83.12
278.189	91.12
278.421	84.12
278.652	81.12
278.884	79.12
279.115	94.12
279.347	89.12
279.579	89.12
279.81	90.12
280.042	83.12
280.273	84.12
280.505	74.12
280.736	77.12
280.968	100.12
281.199	86.12
281.431	91.12
281.662	87.12
281.894	89.12
282.125	102.12
282.356	113.12
282.588	138.12
282.819	107.12
283.051	97.12
283.282	75.12
283.513	87.12
283.745	99.12
283.976	90.12
284.207	69.12
284.439	85.12
284.67	93.12
284.901	85.12
285.132	80.12
285.364	98.12
285.595	94.12
285.826	98.12
286.057	78.12
286.288	102.12
286.52	93.12
286.751	83.12
286.982	94.12
287.213	73.12
287.444	80.12
287.675	82.12
287.906	89.12
288.138	83.12
288.369	100.12
288.6	92.12
288.831	92.12
289.062	82.12
289.293	93.12
289.524	89.12
289.755	78.12
289.986	77.12
290.217	92.12
290.448	93.12
290.679	92.12
290.91	89.12
291.141	87.12
291.371	88.12
291.602	95.12
291.833	93.12
292.064	86.12
292.295	95.12
292.526	75.12
292.757	93.12
292.987	80.12
293.218	78.12
293.449	95.12
293.68	99.12
293.91	83.12
294.141	97.12
294.372	85.12
294.603	90.12
294.833	76.12
295.064	88.12
295.295	99.12
295.525	95.12
295.756	90.12
295.987	119.12
296.217	142.12
296.448	144.12
296.679	89.12
296.909	83.12
297.14	88.12
297.37	73.12
297.601	86.12
297.831	80.12
298.062	85.12
298.292	80.12
298.523	105.12
298.753	85.12
298.984	100.12
299.214	68.12
299.445	99.12
299.675	81.12
299.905	99.12
300.136	95.12
300.366	92.12
300.597	88.12
300.827	94.12
301.057	94.12
301.288	86.12
301.518	103.12
301.748	83.12
301.979	90.12
302.209	88.12
302.439	79.12
302.669	82.12
302.9	90.12
303.13	106.12
303.36	98.12
303.59	111.12
303.82	92.12
304.051	94.12
304.281	79.12
304.511	92.12
304.741	84.12
304.971	73.12
305.201	93.12
305.431	98.12
305.661	85.12
305.891	106.12
306.121	92.12
306.352	112.12
306.582	92.12
306.812	97.12
307.042	94.12
307.272	109.12
307.502	85.12
307.731	92.12
307.961	101.12
308.191	94.12
308.421	87.12
308.651	95.12
308.881	87.12
309.111	100.12
309.341	86.12
309.571	100.12
309.8	99.12
310.03	88.12
310.26	101.12
310.49	101.12
310.72	98.12
310.949	100.12
311.179	92.12
311.409	87.12
311.639	90.12
311.868	102.12
312.098	109.12
312.328	92.12
312.557	97.12
312.787	101.12
313.017	106.12
313.246	101.12
313.476	93.12
313.706	87.12
313.935	92.12
314.165	105.12
314.394	103.12
314.624	87.12
314.853	94.12
315.083	95.12
315.312	86.12
315.542	99.12
315.771	99.12
316.001	96.12
316.23	97.12
316.46	92.12
316.689	98.12
316.919	106.12
317.148	108.12
317.377	102.12
317.607	100.12
317.836	98.12
318.065	85.12
318.295	89.12
318.524	81.12
318.753	91.12
318.983	95.12
319.212	99.12
319.441	114.12
319.67	111.12
319.9	98.12
320.129	77.12
320.358	83.12
320.587	100.12
320.816	95.12
321.046	94.12
321.275	94.12
321.504	82.12
321.733	94.12
321.962	113.12
322.191	97.12
322.42	122.12
322.649	120.12
322.878	100.12
323.108	120.12
323.337	131.12
323.566	144.12
323.795	151.12
324.024	220.12
324.253	429.12
324.482	930.12
324.71	1931.12
324.939	2622.12
325.168	927.12
325.397	265.12
325.626	145.12
325.855	133.12
326.084	145.12
326.313	139.12
326.542	169.12
326.77	270.12
326.999	489.12
327.228	1071.12
327.457	1945.12
327.686	1512.12
327.914	400.12
328.143	209.12
328.372	149.12
328.6	119.12
328.829	135.12
329.058	136.12
329.287	116.12
329.515	111.12
329.744	116.12
329.972	94.12
330.201	98.12
330.43	105.12
330.658	124.12
330.887	139.12
331.115	125.12
331.344	103.12
331.572	85.12
331.801	114.12
332.03	95.12
332.258	104.12
332.486	91.12
332.715	83.12
332.943	88.12
333.172	105.12
333.4	98.12
333.629	102.12
333.857	115.12
334.085	108.12
334.314	97.12
334.542	91.12
334.771	88.12
334.999	100.12
335.227	113.12
335.455	102.12
335.684	88.12
335.912	86.12
336.14	91.12
336.369	112.12
336.597	112.12
336.825	111.12
337.053	102.12
337.281	95.12
337.51	88.12
337.738	77.12
337.966	101.12
338.194	94.12
338.422	105.12
338.65	96.12
338.878	85.12
339.106	98.12
339.334	92.12
339.562	92.12
339.79	92.12
340.018	94.12
340.246	91.12
340.474	79.12
340.702	101.12
340.93	89.12
341.158	98.12
341.386	95.12
341.614	93.12
341.842	86.12
342.07	100.12
342.298	101.12
342.526	93.12
342.754	89.12
342.981	94.12
343.209	80.12
343.437	97.12
343.665	86.12
343.893	83.12
344.12	101.12
344.348	109.12
344.576	97.12
344.804	109.12
345.031	97.12
345.259	94.12
345.487	86.12
345.714	100.12
345.942	105.12
346.17	92.12
346.397	92.12
346.625	100.12
346.853	100.12
347.08	84.12
347.308	97.12
347.535	84.12
347.763	98.12
347.99	108.12
348.218	105.12
348.445	106.12
348.673	96.12
348.9	102.12
349.128	105.12
349.355	87.12
349.583	111.12
349.81	102.12
350.037	101.12
350.265	87.12
350.492	106.12
350.72	93.12
350.947	103.12
351.174	110.12
351.402	109.12
351.629	106.12
351.856	105.12
352.083	93.12
352.311	100.12
352.538	116.12
352.765	122.12
352.992	107.12
353.22	110.12
353.447	98.12
353.674	93.12
353.901	82.12
354.128	95.12
354.355	102.12
354.583	99.12
354.81	102.12
355.037	105.12
355.264	84.12
355.491	95.12
355.718	86.12
355.945	103.12
356.172	92.12
356.399	87.12
356.626	92.12
356.853	97.12
357.08	93.12
357.307	85.12
357.534	95.12
357.761	85.12
357.988	84.12
358.215	101.12
358.441	105.12
358.668	90.12
358.895	87.12
359.122	96.12
359.349	92.12
359.576	90.12
359.802	104.12
360.029	114.12
360.256	104.12
360.483	94.12
360.709	104.12
360.936	89.12
361.163	108.12
361.39	88.12
361.616	91.12
361.843	93.12
362.07	96.12
362.296	94.12
362.523	94.12
362.749	92.12
362.976	86.12
363.203	83.12
363.429	92.12
363.656	85.12
363.882	78.12
364.109	86.12
364.335	87.12
364.562	85.12
364.788	89.12
365.015	93.12
365.241	101.12
365.468	100.12
365.694	109.12
365.92	98.12
366.147	89.12
366.373	87.12
366.599	83.12
366.826	92.12
367.052	94.12
367.278	91.12
367.505	83.12
367.731	90.12
367.957	89.12
368.184	95.12
368.41	104.12
368.636	119.12
368.862	118.12
369.089	121.12
369.315	106.12
369.541	84.12
369.767	85.12
369.993	93.12
370.219	95.12
370.445	100.12
370.672	80.12
370.898	83.12
371.124	81.12
371.35	87.12
371.576	91.12
371.802	86.12
372.028	93.12
372.254	81.12
372.48	87.12
372.706	96.12
372.932	89.12
373.158	90.12
373.384	105.12
373.61	94.12
373.835	84.12
374.061	101.12
374.287	102.12
374.513	86.12
374.739	90.12
374.965	91.12
375.191	78.12
375.416	91.12
375.642	73.12
375.868	72.12
376.094	95.12
376.319	105.12
376.545	88.12
376.771	86.12
376.997	83.12
377.222	104.12
377.448	80.12
377.674	78.12
377.899	83.12
378.125	72.12
378.35	85.12
378.576	86.12
378.802	95.12
379.027	81.12
379.253	87.12
379.478	81.12
379.704	94.12
379.929	95.12
380.155	90.12
380.38	98.12
380.606	91.12
380.831	92.12
381.057	97.12
381.282	87.12
381.507	106.12
381.733	106.12
381.958	89.12
382.184	98.12
382.409	106.12
382.634	91.12
382.86	92.12
383.085	105.12
383.31	99.12
383.535	108.12
383.761	99.12
383.986	98.12
384.211	91.12
384.436	98.12
384.662	93.12
384.887	105.12
385.112	96.12
385.337	107.12
385.562	113.12
385.787	109.12
386.013	110.12
386.238	109.12
386.463	118.12
386.688	126.12
386.913	109.12
387.138	106.12
387.363	117.12
387.588	109.12
387.813	101.12
388.038	110.12
388.263	111.12
388.488	114.12
388.713	91.12
388.938	81.12
389.163	89.12
389.387	87.12
389.612	89.12
389.837	90.12
390.062	101.12
390.287	93.12
390.512	102.12
390.736	96.12
390.961	97.12
391.186	98.12
391.411	102.12
391.636	94.12
391.86	104.12
392.085	87.12
392.31	72.12
392.534	71.12
392.759	76.12
392.984	87.12
393.208	98.12
393.433	85.12
393.658	99.12
393.882	83.12
394.107	78.12
394.331	85.12
394.556	85.12
394.78	81.12
395.005	98.12
395.229	90.12
395.454	82.12
395.678	92.12
395.903	86.12
396.127	97.12
396.352	84.12
396.576	98.12
396.801	87.12
397.025	80.12
397.249	96.12
397.474	88.12
397.698	94.12
397.922	88.12
398.147	80.12
398.371	92.12
398.595	81.12
398.82	72.12
399.044	97.12
399.268	78.12
399.492	83.12
399.717	93.12
399.941	88.12
400.165	76.12
400.389	101.12
400.613	87.12
400.837	87.12
401.062	93.12
401.286	101.12
401.51	89.12
401.734	100.12
401.958	106.12
402.182	128.12
402.406	172.12
402.63	124.12
402.854	93.12
403.078	92.12
403.302	77.12
403.526	73.12
403.75	89.12
403.974	91.12
404.198	89.12
404.422	80.12
404.645	86.12
404.869	98.12
405.093	102.12
405.317	88.12
405.541	109.12
405.765	104.12
405.988	116.12
406.212	179.12
406.436	234.12
406.66	154.12
406.883	107.12
407.107	101.12
407.331	110.12
407.555	101.12
407.778	94.12
408.002	94.12
408.226	74.12
408.449	81.12
408.673	93.12
408.896	103.12
409.12	94.12
409.344	87.12
409.567	87.12
409.791	92.12
410.014	92.12
410.238	93.12
410.461	89.12
410.685	101.12
410.908	105.12
411.132	89.12
411.355	98.12
411.578	87.12
411.802	83.12
412.025	93.12
412.249	87.12
412.472	96.12
412.695	93.12
412.919	94.12
413.142	89.12
413.365	93.12
413.589	81.12
413.812	80.12
414.035	93.12
414.258	85.12
414.482	82.12
414.705	98.12
414.928	84.12
415.151	89.12
415.374	99.12
415.597	74.12
415.821	76.12
416.044	78.12
416.267	87.12
416.49	86.12
416.713	97.12
416.936	90.12
417.159	80.12
417.382	91.12
417.605	89.12
417.828	91.12
418.051	85.12
418.274	88.12
418.497	83.12
418.72	80.12
418.943	91.12
419.166	103.12
419.389	95.12
419.611	80.12
419.834	79.12
420.057	87.12
420.28	92.12
420.503	84.12
420.726	92.12
420.948	86.12
421.171	85.12
421.394	80.12
421.617	80.12
421.839	86.12
422.062	79.12
422.285	82.12
422.507	105.12
422.73	103.12
422.953	102.12
423.175	100.12
423.398	100.12
423.621	87.12
423.843	77.12
424.066	86.12
424.288	101.12
424.511	98.12
424.733	81.12
424.956	115.12
425.178	102.12
425.401	106.12
425.623	92.12
425.846	93.12
426.068	94.12
426.291	89.12
426.513	107.12
426.735	92.12
426.958	100.12
427.18	111.12
427.402	135.12
427.625	176.12
427.847	127.12
428.069	99.12
428.292	90.12
428.514	83.12
428.736	78.12
428.958	91.12
429.181	90.12
429.403	85.12
429.625	97.12
429.847	94.12
430.069	105.12
430.292	83.12
430.514	95.12
430.736	97.12
430.958	94.12
431.18	85.12
431.402	80.12
431.624	82.12
431.846	80.12
432.068	81.12
432.29	98.12
432.512	96.12
432.734	85.12
432.956	97.12
433.178	87.12
433.4	96.12
433.622	93.12
433.844	88.12
434.066	98.12
434.287	94.12
434.509	83.12
434.731	67.12
434.953	84.12
435.175	66.12
435.397	73.12
435.618	84.12
435.84	102.12
436.062	127.12
436.284	113.12
436.505	114.12
436.727	110.12
436.949	83.12
437.17	92.12
437.392	92.12
437.614	102.12
437.835	118.12
438.057	124.12
438.278	113.12
438.5	116.12
438.721	121.12
438.943	93.12
439.165	98.12
439.386	88.12
439.608	74.12
439.829	100.12
440.05	119.12
440.272	149.12
440.493	111.12
440.715	93.12
440.936	88.12
441.158	86.12
441.379	87.12
441.6	106.12
441.822	110.12
442.043	93.12
442.264	108.12
442.486	100.12
442.707	95.12
442.928	112.12
443.149	129.12
443.371	147.12
443.592	116.12
443.813	115.12
444.034	122.12
444.255	85.12
444.476	89.12
444.698	92.12
444.919	86.12
445.14	126.12
445.361	110.12
445.582	110.12
445.803	138.12
446.024	146.12
446.245	138.12
446.466	117.12
446.687	87.12
446.908	107.12
447.129	98.12
447.35	85.12
447.571	97.12
447.792	81.12
448.013	86.12
448.234	99.12
448.455	93.12
448.675	110.12
448.896	126.12
449.117	80.12
449.338	99.12
449.559	137.12
449.779	139.12
450	83.12
450.221	93.12
450.442	93.12
450.662	86.12
450.883	113.12
451.104	119.12
451.324	98.12
451.545	85.12
451.766	92.12
451.986	76.12
452.207	89.12
452.428	98.12
452.648	106.12
452.869	107.12
453.089	123.12
453.31	113.12
453.53	94.12
453.751	95.12
453.971	86.12
454.192	125.12
454.412	87.12
454.633	84.12
454.853	85.12
455.073	107.12
455.294	99.12
455.514	107.12
455.734	97.12
455.955	77.12
456.175	86.12
456.395	86.12
456.616	72.12
456.836	88.12
457.056	72.12
457.276	75.12
457.497	88.12
457.717	77.12
457.937	65.12
458.157	93.12
458.377	93.12
458.598	110.12
458.818	162.12
459.038	171.12
459.258	130.12
459.478	87.12
459.698	91.12
459.918	82.12
460.138	82.12
460.358	91.12
460.578	86.12
460.798	86.12
461.018	75.12
461.238	73.12
461.458	73.12
461.678	84.12
461.898	85.12
462.118	79.12
462.338	89.12
462.558	82.12
462.777	75.12
462.997	86.12
463.217	94.12
463.437	102.12
463.657	84.12
463.876	74.12
464.096	95.12
464.316	98.12
464.536	81.12
464.755	80.12
464.975	114.12
465.195	168.12
465.414	155.12
465.634	96.12
465.854	95.12
466.073	94.12
466.293	89.12
466.512	81.12
466.732	84.12
466.951	79.12
467.171	102.12
467.391	89.12
467.61	101.12
467.829	99.12
468.049	98.12
468.268	96.12
468.488	79.12
468.707	83.12
468.927	87.12
469.146	79.12
469.365	83.12
469.585	96.12
469.804	105.12
470.023	100.12
470.243	85.12
470.462	102.12
470.681	107.12
470.901	93.12
471.12	82.12
471.339	87.12
471.558	85.12
471.777	86.12
471.997	82.12
472.216	93.12
472.435	81.12
472.654	94.12
472.873	102.12
473.092	95.12
473.311	75.12
473.53	78.12
473.749	81.12
473.968	90.12
474.187	104.12
474.406	96.12
474.625	84.12
474.844	87.12
475.063	103.12
475.282	93.12
475.501	85.12
475.72	87.12
475.939	90.12
476.158	82.12
476.377	103.12
476.596	92.12
476.814	93.12
477.033	104.12
477.252	99.12
477.471	79.12
477.69	95.12
477.908	77.12
478.127	94.12
478.346	89.12
478.564	92.12
478.783	80.12
479.002	94.12
479.22	93.12
479.439	103.12
479.658	100.12
479.876	93.12
480.095	93.12
480.313	88.12
480.532	91.12
480.751	89.12
480.969	85.12
481.188	86.12
481.406	103.12
481.624	94.12
481.843	84.12
482.061	94.12
482.28	96.12
482.498	98.12
482.717	91.12
482.935	97.12
483.153	93.12
483.372	75.12
483.59	85.12
483.808	97.12
484.027	94.12
484.245	92.12
484.463	90.12
484.681	92.12
484.9	92.12
485.118	107.12
485.336	85.12
485.554	91.12
485.772	96.12
485.99	101.12
486.209	113.12
486.427	114.12
486.645	109.12
486.863	127.12
487.081	97.12
487.299	87.12
487.517	98.12
487.735	93.12
487.953	101.12
488.171	95.12
488.389	87.12
488.607	107.12
488.825	94.12
489.043	90.12
489.261	93.12
489.479	99.12
489.696	89.12
489.914	87.12
490.132	92.12
490.35	84.12
490.568	93.12
490.786	90.12
491.003	98.12
491.221	88.12
491.439	91.12
491.657	91.12
491.874	83.12
492.092	91.12
492.31	86.12
492.527	83.12
492.745	96.12
492.963	76.12
493.18	87.12
493.398	93.12
493.615	101.12
493.833	93.12
494.05	92.12
494.268	92.12
494.485	82.12
494.703	99.12
494.92	79.12
495.138	84.12
495.355	84.12
495.573	90.12
495.79	94.12
496.008	76.12
496.225	86.12
496.442	99.12
496.66	93.12
496.877	82.12
497.094	102.12
497.312	84.12
497.529	82.12
497.746	92.12
497.963	102.12
498.181	89.12
498.398	93.12
498.615	118.12
498.832	98.12
499.049	85.12
499.267	90.12
499.484	83.12
499.701	82.12
499.918	93.12
500.135	89.12
500.352	93.12
500.569	80.12
500.786	91.12
501.003	82.12
501.22	96.12
501.437	86.12
501.654	92.12
501.871	110.12
502.088	86.12
502.305	95.12
502.522	87.12
502.739	80.12
502.956	104.12
503.172	89.12
503.389	90.12
503.606	112.12
503.823	95.12
504.04	86.12
504.256	101.12
504.473	100.12
504.69	84.12
504.907	107.12
505.123	87.12
505.34	92.12
505.557	86.12
505.773	93.12
505.99	107.12
506.207	91.12
506.423	95.12
506.64	86.12
506.856	90.12
507.073	98.12
507.289	76.12
507.506	102.12
507.722	118.12
507.939	126.12
508.155	95.12
508.372	95.12
508.588	93.12
508.805	97.12
509.021	93.12
509.238	84.12
509.454	92.12
509.67	99.12
509.887	108.12
510.103	135.12
510.319	224.12
510.536	823.12
510.752	2658.12
510.968	758.12
511.184	177.12
511.401	124.12
511.617	105.12
511.833	99.12
512.049	77.12
512.265	93.12
512.481	84.12
512.698	92.12
512.914	87.12
513.13	97.12
513.346	97.12
513.562	91.12
513.778	94.12
513.994	97.12
514.21	114.12
514.426	122.12
514.642	129.12
514.858	124.12
515.074	189.12
515.29	527.12
515.506	1798.12
