Data from Uncirc_2005_H10_HRD10591_00053.txt Node
Date: Wed Jan 03 10:28:35 EST 2024
User: Yrep
Spectrometer: HR+D1059
Trigger mode: 1
Integration Time (sec): 1.000000E-1
Scans to average: 1
Electric dark correction enabled: true
Nonlinearity correction enabled: false
Boxcar width: 0
XAxis mode: Wavelengths
Number of Pixels in Spectrum: 2048
>>>>>Begin Spectral Data<<<<<
223.165	-13.5
223.4	-13.5
223.635	-13.5
223.869	-13.5
224.104	-15.5
224.338	-21.5
224.573	-20.5
224.808	-5.5
225.042	-5.5
225.277	-13.5
225.511	7.5
225.746	9.5
225.98	-14.5
226.215	10.5
226.449	1.5
226.683	40.5
226.918	18.5
227.152	35.5
227.387	28.5
227.621	48.5
227.856	40.5
228.09	51.5
228.324	48.5
228.559	58.5
228.793	60.5
229.027	66.5
229.262	70.5
229.496	83.5
229.73	74.5
229.964	74.5
230.199	83.5
230.433	78.5
230.667	86.5
230.901	83.5
231.136	88.5
231.37	84.5
231.604	81.5
231.838	78.5
232.072	83.5
232.306	86.5
232.541	72.5
232.775	84.5
233.009	91.5
233.243	75.5
233.477	78.5
233.711	73.5
233.945	84.5
234.179	80.5
234.413	83.5
234.647	101.5
234.881	100.5
235.115	88.5
235.349	92.5
235.583	88.5
235.817	86.5
236.051	94.5
236.285	96.5
236.519	67.5
236.753	78.5
236.987	86.5
237.221	87.5
237.455	92.5
237.689	90.5
237.922	81.5
238.156	82.5
238.39	71.5
238.624	77.5
238.858	74.5
239.091	80.5
239.325	91.5
239.559	89.5
239.793	81.5
240.027	91.5
240.26	82.5
240.494	86.5
240.728	88.5
240.961	84.5
241.195	78.5
241.429	94.5
241.662	81.5
241.896	88.5
242.13	99.5
242.363	86.5
242.597	83.5
242.83	79.5
243.064	84.5
243.298	75.5
243.531	86.5
243.765	81.5
243.998	87.5
244.232	80.5
244.465	94.5
244.699	82.5
244.932	86.5
245.166	96.5
245.399	66.5
245.633	71.5
245.866	74.5
246.099	86.5
246.333	81.5
246.566	80.5
246.8	84.5
247.033	80.5
247.266	80.5
247.5	89.5
247.733	84.5
247.966	78.5
248.2	80.5
248.433	87.5
248.666	94.5
248.899	88.5
249.133	103.5
249.366	103.5
249.599	92.5
249.832	83.5
250.066	86.5
250.299	73.5
250.532	83.5
250.765	70.5
250.998	86.5
251.231	80.5
251.465	85.5
251.698	83.5
251.931	90.5
252.164	75.5
252.397	95.5
252.63	79.5
252.863	67.5
253.096	76.5
253.329	91.5
253.562	78.5
253.795	74.5
254.028	81.5
254.261	75.5
254.494	94.5
254.727	85.5
254.96	70.5
255.193	83.5
255.426	94.5
255.659	78.5
255.892	90.5
256.124	80.5
256.357	69.5
256.59	74.5
256.823	71.5
257.056	76.5
257.289	90.5
257.521	85.5
257.754	83.5
257.987	85.5
258.22	81.5
258.452	89.5
258.685	92.5
258.918	85.5
259.151	85.5
259.383	70.5
259.616	87.5
259.849	96.5
260.081	79.5
260.314	81.5
260.547	90.5
260.779	80.5
261.012	81.5
261.244	94.5
261.477	101.5
261.71	82.5
261.942	113.5
262.175	96.5
262.407	95.5
262.64	84.5
262.872	105.5
263.105	99.5
263.337	83.5
263.57	76.5
263.802	89.5
264.035	76.5
264.267	82.5
264.499	86.5
264.732	87.5
264.964	85.5
265.197	94.5
265.429	87.5
265.661	93.5
265.894	98.5
266.126	81.5
266.358	80.5
266.591	81.5
266.823	89.5
267.055	85.5
267.287	78.5
267.52	75.5
267.752	92.5
267.984	99.5
268.216	111.5
268.448	92.5
268.681	84.5
268.913	84.5
269.145	75.5
269.377	94.5
269.609	88.5
269.841	78.5
270.073	85.5
270.306	99.5
270.538	106.5
270.77	68.5
271.002	95.5
271.234	80.5
271.466	90.5
271.698	92.5
271.93	92.5
272.162	90.5
272.394	87.5
272.626	77.5
272.858	91.5
273.09	98.5
273.322	88.5
273.553	99.5
273.785	92.5
274.017	84.5
274.249	84.5
274.481	89.5
274.713	71.5
274.945	79.5
275.176	83.5
275.408	90.5
275.64	78.5
275.872	91.5
276.104	101.5
276.335	86.5
276.567	91.5
276.799	111.5
277.031	84.5
277.262	96.5
277.494	87.5
277.726	100.5
277.957	72.5
278.189	87.5
278.421	99.5
278.652	89.5
278.884	78.5
279.115	88.5
279.347	90.5
279.579	84.5
279.81	87.5
280.042	88.5
280.273	94.5
280.505	86.5
280.736	79.5
280.968	97.5
281.199	89.5
281.431	92.5
281.662	90.5
281.894	80.5
282.125	105.5
282.356	108.5
282.588	148.5
282.819	107.5
283.051	77.5
283.282	100.5
283.513	80.5
283.745	81.5
283.976	91.5
284.207	84.5
284.439	96.5
284.67	93.5
284.901	87.5
285.132	92.5
285.364	90.5
285.595	78.5
285.826	86.5
286.057	88.5
286.288	83.5
286.52	74.5
286.751	89.5
286.982	81.5
287.213	89.5
287.444	96.5
287.675	102.5
287.906	104.5
288.138	98.5
288.369	97.5
288.6	95.5
288.831	95.5
289.062	88.5
289.293	80.5
289.524	79.5
289.755	96.5
289.986	88.5
290.217	89.5
290.448	83.5
290.679	84.5
290.91	87.5
291.141	82.5
291.371	91.5
291.602	96.5
291.833	87.5
292.064	84.5
292.295	88.5
292.526	76.5
292.757	84.5
292.987	104.5
293.218	84.5
293.449	93.5
293.68	102.5
293.91	98.5
294.141	97.5
294.372	92.5
294.603	83.5
294.833	92.5
295.064	88.5
295.295	92.5
295.525	107.5
295.756	93.5
295.987	110.5
296.217	122.5
296.448	103.5
296.679	91.5
296.909	86.5
297.14	85.5
297.37	93.5
297.601	95.5
297.831	104.5
298.062	106.5
298.292	85.5
298.523	95.5
298.753	106.5
298.984	95.5
299.214	100.5
299.445	79.5
299.675	82.5
299.905	104.5
300.136	81.5
300.366	88.5
300.597	92.5
300.827	92.5
301.057	91.5
301.288	99.5
301.518	91.5
301.748	102.5
301.979	93.5
302.209	88.5
302.439	87.5
302.669	91.5
302.9	93.5
303.13	91.5
303.36	96.5
303.59	102.5
303.82	110.5
304.051	104.5
304.281	93.5
304.511	85.5
304.741	99.5
304.971	94.5
305.201	89.5
305.431	94.5
305.661	100.5
305.891	88.5
306.121	92.5
306.352	100.5
306.582	107.5
306.812	104.5
307.042	86.5
307.272	91.5
307.502	89.5
307.731	87.5
307.961	99.5
308.191	99.5
308.421	102.5
308.651	91.5
308.881	90.5
309.111	99.5
309.341	102.5
309.571	89.5
309.8	108.5
310.03	96.5
310.26	97.5
310.49	101.5
310.72	99.5
310.949	101.5
311.179	89.5
311.409	103.5
311.639	91.5
311.868	100.5
312.098	100.5
312.328	105.5
312.557	112.5
312.787	90.5
313.017	107.5
313.246	92.5
313.476	104.5
313.706	106.5
313.935	111.5
314.165	99.5
314.394	106.5
314.624	80.5
314.853	101.5
315.083	100.5
315.312	93.5
315.542	88.5
315.771	107.5
316.001	85.5
316.23	96.5
316.46	88.5
316.689	85.5
316.919	92.5
317.148	101.5
317.377	116.5
317.607	107.5
317.836	83.5
318.065	90.5
318.295	102.5
318.524	98.5
318.753	82.5
318.983	91.5
319.212	97.5
319.441	103.5
319.67	105.5
319.9	98.5
320.129	99.5
320.358	81.5
320.587	108.5
320.816	99.5
321.046	98.5
321.275	90.5
321.504	95.5
321.733	91.5
321.962	88.5
322.191	111.5
322.42	101.5
322.649	126.5
322.878	100.5
323.108	107.5
323.337	140.5
323.566	146.5
323.795	148.5
324.024	232.5
324.253	418.5
324.482	873.5
324.71	1870.5
324.939	2411.5
325.168	872.5
325.397	263.5
325.626	158.5
325.855	144.5
326.084	142.5
326.313	139.5
326.542	150.5
326.77	252.5
326.999	493.5
327.228	1029.5
327.457	1890.5
327.686	1489.5
327.914	401.5
328.143	196.5
328.372	139.5
328.6	135.5
328.829	115.5
329.058	134.5
329.287	140.5
329.515	107.5
329.744	101.5
329.972	99.5
330.201	97.5
330.43	106.5
330.658	118.5
330.887	131.5
331.115	105.5
331.344	90.5
331.572	98.5
331.801	101.5
332.03	107.5
332.258	108.5
332.486	93.5
332.715	111.5
332.943	88.5
333.172	99.5
333.4	98.5
333.629	106.5
333.857	123.5
334.085	102.5
334.314	90.5
334.542	100.5
334.771	97.5
334.999	102.5
335.227	115.5
335.455	106.5
335.684	94.5
335.912	104.5
336.14	95.5
336.369	84.5
336.597	88.5
336.825	100.5
337.053	77.5
337.281	84.5
337.51	114.5
337.738	115.5
337.966	83.5
338.194	95.5
338.422	82.5
338.65	91.5
338.878	94.5
339.106	106.5
339.334	87.5
339.562	95.5
339.79	92.5
340.018	93.5
340.246	96.5
340.474	97.5
340.702	92.5
340.93	79.5
341.158	95.5
341.386	110.5
341.614	102.5
341.842	101.5
342.07	88.5
342.298	101.5
342.526	101.5
342.754	94.5
342.981	77.5
343.209	116.5
343.437	92.5
343.665	102.5
343.893	82.5
344.12	107.5
344.348	89.5
344.576	99.5
344.804	89.5
345.031	89.5
345.259	91.5
345.487	91.5
345.714	102.5
345.942	98.5
346.17	97.5
346.397	102.5
346.625	94.5
346.853	98.5
347.08	84.5
347.308	97.5
347.535	107.5
347.763	111.5
347.99	101.5
348.218	92.5
348.445	103.5
348.673	97.5
348.9	106.5
349.128	89.5
349.355	93.5
349.583	109.5
349.81	107.5
350.037	99.5
350.265	97.5
350.492	106.5
350.72	98.5
350.947	103.5
351.174	122.5
351.402	115.5
351.629	100.5
351.856	96.5
352.083	110.5
352.311	92.5
352.538	106.5
352.765	104.5
352.992	117.5
353.22	125.5
353.447	109.5
353.674	111.5
353.901	98.5
354.128	112.5
354.355	111.5
354.583	92.5
354.81	101.5
355.037	98.5
355.264	86.5
355.491	90.5
355.718	91.5
355.945	91.5
356.172	97.5
356.399	92.5
356.626	99.5
356.853	106.5
357.08	103.5
357.307	92.5
357.534	95.5
357.761	96.5
357.988	98.5
358.215	100.5
358.441	95.5
358.668	91.5
358.895	92.5
359.122	90.5
359.349	89.5
359.576	90.5
359.802	85.5
360.029	112.5
360.256	116.5
360.483	106.5
360.709	88.5
360.936	102.5
361.163	104.5
361.39	91.5
361.616	111.5
361.843	106.5
362.07	88.5
362.296	99.5
362.523	108.5
362.749	100.5
362.976	89.5
363.203	99.5
363.429	98.5
363.656	85.5
363.882	89.5
364.109	108.5
364.335	100.5
364.562	88.5
364.788	99.5
365.015	107.5
365.241	103.5
365.468	106.5
365.694	106.5
365.92	90.5
366.147	82.5
366.373	100.5
366.599	94.5
366.826	97.5
367.052	99.5
367.278	91.5
367.505	88.5
367.731	82.5
367.957	91.5
368.184	93.5
368.41	102.5
368.636	106.5
368.862	106.5
369.089	92.5
369.315	90.5
369.541	94.5
369.767	95.5
369.993	86.5
370.219	95.5
370.445	102.5
370.672	90.5
370.898	83.5
371.124	91.5
371.35	100.5
371.576	100.5
371.802	70.5
372.028	82.5
372.254	97.5
372.48	94.5
372.706	97.5
372.932	90.5
373.158	105.5
373.384	91.5
373.61	100.5
373.835	98.5
374.061	101.5
374.287	86.5
374.513	97.5
374.739	81.5
374.965	86.5
375.191	99.5
375.416	99.5
375.642	94.5
375.868	95.5
376.094	113.5
376.319	81.5
376.545	97.5
376.771	91.5
376.997	98.5
377.222	90.5
377.448	96.5
377.674	85.5
377.899	84.5
378.125	85.5
378.35	101.5
378.576	88.5
378.802	96.5
379.027	106.5
379.253	89.5
379.478	96.5
379.704	91.5
379.929	94.5
380.155	100.5
380.38	108.5
380.606	91.5
380.831	95.5
381.057	99.5
381.282	89.5
381.507	92.5
381.733	106.5
381.958	97.5
382.184	99.5
382.409	102.5
382.634	99.5
382.86	98.5
383.085	121.5
383.31	119.5
383.535	99.5
383.761	98.5
383.986	97.5
384.211	84.5
384.436	109.5
384.662	111.5
384.887	109.5
385.112	121.5
385.337	115.5
385.562	105.5
385.787	101.5
386.013	108.5
386.238	108.5
386.463	115.5
386.688	111.5
386.913	109.5
387.138	110.5
387.363	117.5
387.588	101.5
387.813	98.5
388.038	107.5
388.263	123.5
388.488	122.5
388.713	105.5
388.938	98.5
389.163	90.5
389.387	116.5
389.612	97.5
389.837	101.5
390.062	91.5
390.287	84.5
390.512	83.5
390.736	91.5
390.961	91.5
391.186	90.5
391.411	98.5
391.636	89.5
391.86	105.5
392.085	85.5
392.31	86.5
392.534	95.5
392.759	82.5
392.984	96.5
393.208	89.5
393.433	88.5
393.658	80.5
393.882	91.5
394.107	106.5
394.331	91.5
394.556	96.5
394.78	88.5
395.005	104.5
395.229	89.5
395.454	89.5
395.678	86.5
395.903	82.5
396.127	85.5
396.352	92.5
396.576	98.5
396.801	105.5
397.025	91.5
397.249	93.5
397.474	90.5
397.698	94.5
397.922	108.5
398.147	98.5
398.371	90.5
398.595	83.5
398.82	82.5
399.044	92.5
399.268	82.5
399.492	86.5
399.717	91.5
399.941	99.5
400.165	107.5
400.389	97.5
400.613	88.5
400.837	84.5
401.062	83.5
401.286	104.5
401.51	89.5
401.734	84.5
401.958	110.5
402.182	127.5
402.406	166.5
402.63	123.5
402.854	104.5
403.078	88.5
403.302	92.5
403.526	92.5
403.75	74.5
403.974	87.5
404.198	91.5
404.422	76.5
404.645	92.5
404.869	76.5
405.093	102.5
405.317	70.5
405.541	103.5
405.765	99.5
405.988	123.5
406.212	171.5
406.436	225.5
406.66	129.5
406.883	87.5
407.107	90.5
407.331	97.5
407.555	89.5
407.778	94.5
408.002	104.5
408.226	96.5
408.449	84.5
408.673	109.5
408.896	97.5
409.12	96.5
409.344	93.5
409.567	86.5
409.791	92.5
410.014	106.5
410.238	98.5
410.461	87.5
410.685	82.5
410.908	94.5
411.132	119.5
411.355	110.5
411.578	86.5
411.802	103.5
412.025	98.5
412.249	96.5
412.472	98.5
412.695	94.5
412.919	107.5
413.142	80.5
413.365	91.5
413.589	98.5
413.812	84.5
414.035	100.5
414.258	102.5
414.482	87.5
414.705	88.5
414.928	84.5
415.151	91.5
415.374	108.5
415.597	86.5
415.821	87.5
416.044	86.5
416.267	73.5
416.49	89.5
416.713	79.5
416.936	88.5
417.159	104.5
417.382	83.5
417.605	86.5
417.828	95.5
418.051	91.5
418.274	91.5
418.497	90.5
418.72	92.5
418.943	106.5
419.166	96.5
419.389	85.5
419.611	81.5
419.834	89.5
420.057	92.5
420.28	95.5
420.503	97.5
420.726	90.5
420.948	90.5
421.171	102.5
421.394	92.5
421.617	91.5
421.839	89.5
422.062	92.5
422.285	98.5
422.507	105.5
422.73	105.5
422.953	105.5
423.175	107.5
423.398	94.5
423.621	101.5
423.843	82.5
424.066	88.5
424.288	88.5
424.511	91.5
424.733	104.5
424.956	112.5
425.178	98.5
425.401	87.5
425.623	97.5
425.846	99.5
426.068	100.5
426.291	98.5
426.513	97.5
426.735	86.5
426.958	96.5
427.18	104.5
427.402	136.5
427.625	172.5
427.847	128.5
428.069	103.5
428.292	87.5
428.514	91.5
428.736	88.5
428.958	96.5
429.181	91.5
429.403	86.5
429.625	95.5
429.847	83.5
430.069	100.5
430.292	101.5
430.514	91.5
430.736	94.5
430.958	87.5
431.18	104.5
431.402	94.5
431.624	93.5
431.846	99.5
432.068	90.5
432.29	105.5
432.512	102.5
432.734	96.5
432.956	108.5
433.178	102.5
433.4	97.5
433.622	89.5
433.844	95.5
434.066	98.5
434.287	82.5
434.509	107.5
434.731	93.5
434.953	78.5
435.175	83.5
435.397	87.5
435.618	97.5
435.84	123.5
436.062	120.5
436.284	139.5
436.505	104.5
436.727	105.5
436.949	112.5
437.17	91.5
437.392	95.5
437.614	88.5
437.835	100.5
438.057	117.5
438.278	103.5
438.5	113.5
438.721	130.5
438.943	102.5
439.165	100.5
439.386	83.5
439.608	96.5
439.829	101.5
440.05	108.5
440.272	136.5
440.493	102.5
440.715	89.5
440.936	90.5
441.158	89.5
441.379	99.5
441.6	96.5
441.822	100.5
442.043	94.5
442.264	87.5
442.486	110.5
442.707	88.5
442.928	103.5
443.149	142.5
443.371	121.5
443.592	115.5
443.813	121.5
444.034	113.5
444.255	93.5
444.476	89.5
444.698	96.5
444.919	100.5
445.14	141.5
445.361	124.5
445.582	115.5
445.803	138.5
446.024	132.5
446.245	137.5
446.466	103.5
446.687	110.5
446.908	102.5
447.129	88.5
447.35	77.5
447.571	105.5
447.792	95.5
448.013	96.5
448.234	97.5
448.455	95.5
448.675	131.5
448.896	138.5
449.117	112.5
449.338	97.5
449.559	139.5
449.779	140.5
450	100.5
450.221	88.5
450.442	86.5
450.662	101.5
450.883	101.5
451.104	100.5
451.324	98.5
451.545	89.5
451.766	87.5
451.986	96.5
452.207	91.5
452.428	98.5
452.648	106.5
452.869	105.5
453.089	101.5
453.31	108.5
453.53	93.5
453.751	95.5
453.971	113.5
454.192	108.5
454.412	98.5
454.633	96.5
454.853	90.5
455.073	82.5
455.294	102.5
455.514	112.5
455.734	108.5
455.955	93.5
456.175	88.5
456.395	93.5
456.616	81.5
456.836	73.5
457.056	83.5
457.276	85.5
457.497	82.5
457.717	82.5
457.937	99.5
458.157	98.5
458.377	95.5
458.598	115.5
458.818	131.5
459.038	145.5
459.258	112.5
459.478	85.5
459.698	88.5
459.918	85.5
460.138	87.5
460.358	90.5
460.578	64.5
460.798	86.5
461.018	90.5
461.238	91.5
461.458	98.5
461.678	99.5
461.898	90.5
462.118	98.5
462.338	92.5
462.558	85.5
462.777	98.5
462.997	79.5
463.217	66.5
463.437	76.5
463.657	92.5
463.876	94.5
464.096	89.5
464.316	79.5
464.536	89.5
464.755	102.5
464.975	95.5
465.195	166.5
465.414	139.5
465.634	96.5
465.854	86.5
466.073	89.5
466.293	87.5
466.512	79.5
466.732	86.5
466.951	98.5
467.171	94.5
467.391	81.5
467.61	115.5
467.829	85.5
468.049	94.5
468.268	82.5
468.488	86.5
468.707	90.5
468.927	93.5
469.146	80.5
469.365	93.5
469.585	96.5
469.804	97.5
470.023	90.5
470.243	101.5
470.462	114.5
470.681	107.5
470.901	90.5
471.12	95.5
471.339	98.5
471.558	85.5
471.777	84.5
471.997	84.5
472.216	94.5
472.435	97.5
472.654	89.5
472.873	87.5
473.092	82.5
473.311	87.5
473.53	83.5
473.749	95.5
473.968	115.5
474.187	113.5
474.406	90.5
474.625	105.5
474.844	89.5
475.063	78.5
475.282	84.5
475.501	87.5
475.72	89.5
475.939	82.5
476.158	82.5
476.377	90.5
476.596	96.5
476.814	101.5
477.033	101.5
477.252	83.5
477.471	85.5
477.69	98.5
477.908	93.5
478.127	103.5
478.346	87.5
478.564	108.5
478.783	94.5
479.002	91.5
479.22	91.5
479.439	92.5
479.658	101.5
479.876	110.5
480.095	103.5
480.313	98.5
480.532	90.5
480.751	92.5
480.969	104.5
481.188	107.5
481.406	101.5
481.624	84.5
481.843	97.5
482.061	79.5
482.28	94.5
482.498	98.5
482.717	97.5
482.935	92.5
483.153	91.5
483.372	97.5
483.59	90.5
483.808	89.5
484.027	87.5
484.245	97.5
484.463	92.5
484.681	114.5
484.9	102.5
485.118	94.5
485.336	102.5
485.554	99.5
485.772	110.5
485.99	95.5
486.209	99.5
486.427	91.5
486.645	108.5
486.863	115.5
487.081	109.5
487.299	105.5
487.517	108.5
487.735	103.5
487.953	110.5
488.171	99.5
488.389	98.5
488.607	105.5
488.825	88.5
489.043	99.5
489.261	100.5
489.479	77.5
489.696	87.5
489.914	87.5
490.132	95.5
490.35	98.5
490.568	108.5
490.786	102.5
491.003	103.5
491.221	108.5
491.439	96.5
491.657	89.5
491.874	96.5
492.092	91.5
492.31	106.5
492.527	96.5
492.745	78.5
492.963	94.5
493.18	95.5
493.398	92.5
493.615	92.5
493.833	106.5
494.05	92.5
494.268	99.5
494.485	99.5
494.703	85.5
494.92	90.5
495.138	88.5
495.355	89.5
495.573	112.5
495.79	100.5
496.008	92.5
496.225	97.5
496.442	86.5
496.66	85.5
496.877	107.5
497.094	102.5
497.312	95.5
497.529	96.5
497.746	89.5
497.963	84.5
498.181	100.5
498.398	96.5
498.615	98.5
498.832	113.5
499.049	98.5
499.267	101.5
499.484	102.5
499.701	101.5
499.918	93.5
500.135	82.5
500.352	96.5
500.569	89.5
500.786	86.5
501.003	103.5
501.22	96.5
501.437	82.5
501.654	106.5
501.871	98.5
502.088	82.5
502.305	85.5
502.522	89.5
502.739	79.5
502.956	97.5
503.172	97.5
503.389	92.5
503.606	106.5
503.823	102.5
504.04	95.5
504.256	88.5
504.473	92.5
504.69	97.5
504.907	105.5
505.123	84.5
505.34	96.5
505.557	92.5
505.773	97.5
505.99	87.5
506.207	83.5
506.423	104.5
506.64	104.5
506.856	82.5
507.073	98.5
507.289	71.5
507.506	97.5
507.722	105.5
507.939	105.5
508.155	99.5
508.372	100.5
508.588	99.5
508.805	106.5
509.021	107.5
509.238	113.5
509.454	112.5
509.67	108.5
509.887	108.5
510.103	132.5
510.319	200.5
510.536	738.5
510.752	2263.5
510.968	656.5
511.184	156.5
511.401	113.5
511.617	114.5
511.833	94.5
512.049	100.5
512.265	91.5
512.481	105.5
512.698	103.5
512.914	98.5
513.13	93.5
513.346	99.5
513.562	119.5
513.778	92.5
513.994	103.5
514.21	100.5
514.426	138.5
514.642	139.5
514.858	115.5
515.074	154.5
515.29	443.5
515.506	1350.5
515.721	515.5
515.937	167.5
516.153	118.5
516.369	95.5
516.585	103.5
516.801	96.5
517.016	97.5
517.232	96.5
517.448	95.5
517.664	95.5
517.879	92.5
518.095	82.5
518.311	92.5
518.527	99.5
518.742	99.5
518.958	109.5
519.173	96.5
519.389	106.5
519.605	98.5
519.82	98.5
520.036	105.5
520.251	128.5
520.467	112.5
520.682	102.5
520.898	112.5
521.113	98.5
521.329	133.5
521.544	196.5
521.76	537.5
521.975	2280.5
522.19	1370.5
522.406	300.5
522.621	121.5
522.836	90.5
523.052	101.5
523.267	110.5
523.482	105.5
523.698	95.5
523.913	106.5
524.128	94.5
524.343	107.5
524.559	92.5
524.774	95.5
524.989	85.5
525.204	107.5
525.419	101.5
525.634	95.5
525.849	94.5
526.064	91.5
526.28	112.5
526.495	87.5
526.71	75.5
526.925	89.5
527.14	91.5
527.355	87.5
527.57	98.5
527.785	101.5
527.999	95.5
528.214	100.5
528.429	107.5
528.644	91.5
528.859	91.5
529.074	95.5
529.289	117.5
529.503	175.5
529.718	105.5
529.933	101.5
530.148	96.5
530.363	99.5
530.577	92.5
530.792	86.5
531.007	103.5
531.221	97.5
531.436	82.5
531.651	90.5
531.865	100.5
532.08	105.5
532.295	92.5
532.509	102.5
532.724	100.5
532.938	96.5
533.153	105.5
533.367	99.5
533.582	102.5
