Data from Uncirc_2005_H10_HRD10591_00026.txt Node
Date: Wed Jan 03 10:28:30 EST 2024
User: Yrep
Spectrometer: HR+D1059
Trigger mode: 1
Integration Time (sec): 1.000000E-1
Scans to average: 1
Electric dark correction enabled: true
Nonlinearity correction enabled: false
Boxcar width: 0
XAxis mode: Wavelengths
Number of Pixels in Spectrum: 2048
>>>>>Begin Spectral Data<<<<<
223.165	-22.25
223.4	-22.25
223.635	-22.25
223.869	-33.25
224.104	-16.25
224.338	-21.25
224.573	-11.25
224.808	-2.25
225.042	-7.25
225.277	-6.25
225.511	1.75
225.746	21.75
225.98	2.75
226.215	14.75
226.449	16.75
226.683	14.75
226.918	19.75
227.152	27.75
227.387	30.75
227.621	44.75
227.856	57.75
228.09	38.75
228.324	50.75
228.559	42.75
228.793	44.75
229.027	52.75
229.262	65.75
229.496	74.75
229.73	81.75
229.964	53.75
230.199	62.75
230.433	70.75
230.667	75.75
230.901	66.75
231.136	69.75
231.37	85.75
231.604	84.75
231.838	64.75
232.072	76.75
232.306	76.75
232.541	84.75
232.775	88.75
233.009	82.75
233.243	81.75
233.477	78.75
233.711	89.75
233.945	82.75
234.179	70.75
234.413	80.75
234.647	69.75
234.881	72.75
235.115	75.75
235.349	72.75
235.583	79.75
235.817	78.75
236.051	72.75
236.285	89.75
236.519	82.75
236.753	73.75
236.987	70.75
237.221	87.75
237.455	80.75
237.689	77.75
237.922	89.75
238.156	66.75
238.39	76.75
238.624	79.75
238.858	73.75
239.091	87.75
239.325	74.75
239.559	74.75
239.793	72.75
240.027	89.75
240.26	69.75
240.494	93.75
240.728	65.75
240.961	61.75
241.195	74.75
241.429	78.75
241.662	72.75
241.896	65.75
242.13	61.75
242.363	86.75
242.597	72.75
242.83	95.75
243.064	85.75
243.298	82.75
243.531	81.75
243.765	75.75
243.998	66.75
244.232	82.75
244.465	63.75
244.699	75.75
244.932	84.75
245.166	86.75
245.399	80.75
245.633	78.75
245.866	92.75
246.099	82.75
246.333	83.75
246.566	68.75
246.8	62.75
247.033	73.75
247.266	68.75
247.5	62.75
247.733	81.75
247.966	74.75
248.2	77.75
248.433	66.75
248.666	97.75
248.899	69.75
249.133	93.75
249.366	95.75
249.599	97.75
249.832	77.75
250.066	66.75
250.299	72.75
250.532	72.75
250.765	94.75
250.998	92.75
251.231	98.75
251.465	79.75
251.698	76.75
251.931	78.75
252.164	78.75
252.397	73.75
252.63	77.75
252.863	80.75
253.096	79.75
253.329	67.75
253.562	86.75
253.795	79.75
254.028	93.75
254.261	79.75
254.494	83.75
254.727	81.75
254.96	75.75
255.193	63.75
255.426	77.75
255.659	91.75
255.892	77.75
256.124	72.75
256.357	81.75
256.59	83.75
256.823	89.75
257.056	77.75
257.289	82.75
257.521	77.75
257.754	92.75
257.987	84.75
258.22	76.75
258.452	82.75
258.685	74.75
258.918	78.75
259.151	84.75
259.383	92.75
259.616	80.75
259.849	72.75
260.081	78.75
260.314	69.75
260.547	74.75
260.779	78.75
261.012	83.75
261.244	78.75
261.477	93.75
261.71	86.75
261.942	114.75
262.175	93.75
262.407	79.75
262.64	81.75
262.872	89.75
263.105	84.75
263.337	74.75
263.57	73.75
263.802	83.75
264.035	94.75
264.267	83.75
264.499	69.75
264.732	86.75
264.964	69.75
265.197	79.75
265.429	91.75
265.661	85.75
265.894	69.75
266.126	78.75
266.358	94.75
266.591	78.75
266.823	89.75
267.055	77.75
267.287	79.75
267.52	77.75
267.752	80.75
267.984	80.75
268.216	78.75
268.448	78.75
268.681	74.75
268.913	78.75
269.145	81.75
269.377	77.75
269.609	74.75
269.841	85.75
270.073	75.75
270.306	83.75
270.538	83.75
270.77	71.75
271.002	87.75
271.234	100.75
271.466	94.75
271.698	74.75
271.93	95.75
272.162	80.75
272.394	90.75
272.626	82.75
272.858	90.75
273.09	74.75
273.322	83.75
273.553	87.75
273.785	82.75
274.017	92.75
274.249	81.75
274.481	85.75
274.713	81.75
274.945	93.75
275.176	84.75
275.408	80.75
275.64	88.75
275.872	95.75
276.104	79.75
276.335	80.75
276.567	97.75
276.799	92.75
277.031	87.75
277.262	88.75
277.494	77.75
277.726	95.75
277.957	76.75
278.189	91.75
278.421	92.75
278.652	72.75
278.884	93.75
279.115	84.75
279.347	81.75
279.579	62.75
279.81	84.75
280.042	79.75
280.273	76.75
280.505	86.75
280.736	89.75
280.968	82.75
281.199	84.75
281.431	86.75
281.662	86.75
281.894	84.75
282.125	84.75
282.356	101.75
282.588	120.75
282.819	113.75
283.051	97.75
283.282	85.75
283.513	80.75
283.745	80.75
283.976	95.75
284.207	85.75
284.439	87.75
284.67	92.75
284.901	89.75
285.132	76.75
285.364	94.75
285.595	85.75
285.826	83.75
286.057	90.75
286.288	87.75
286.52	79.75
286.751	79.75
286.982	92.75
287.213	85.75
287.444	96.75
287.675	90.75
287.906	84.75
288.138	90.75
288.369	78.75
288.6	84.75
288.831	87.75
289.062	85.75
289.293	77.75
289.524	77.75
289.755	83.75
289.986	81.75
290.217	91.75
290.448	77.75
290.679	86.75
290.91	91.75
291.141	86.75
291.371	93.75
291.602	91.75
291.833	82.75
292.064	79.75
292.295	82.75
292.526	89.75
292.757	89.75
292.987	91.75
293.218	95.75
293.449	78.75
293.68	85.75
293.91	84.75
294.141	82.75
294.372	84.75
294.603	76.75
294.833	102.75
295.064	83.75
295.295	86.75
295.525	92.75
295.756	105.75
295.987	120.75
296.217	120.75
296.448	109.75
296.679	95.75
296.909	83.75
297.14	92.75
297.37	94.75
297.601	94.75
297.831	94.75
298.062	110.75
298.292	91.75
298.523	90.75
298.753	79.75
298.984	75.75
299.214	91.75
299.445	82.75
299.675	92.75
299.905	86.75
300.136	87.75
300.366	85.75
300.597	92.75
300.827	88.75
301.057	97.75
301.288	95.75
301.518	81.75
301.748	94.75
301.979	98.75
302.209	71.75
302.439	88.75
302.669	94.75
302.9	81.75
303.13	90.75
303.36	96.75
303.59	93.75
303.82	102.75
304.051	91.75
304.281	94.75
304.511	84.75
304.741	83.75
304.971	89.75
305.201	81.75
305.431	92.75
305.661	84.75
305.891	81.75
306.121	95.75
306.352	102.75
306.582	94.75
306.812	84.75
307.042	85.75
307.272	107.75
307.502	85.75
307.731	91.75
307.961	93.75
308.191	79.75
308.421	91.75
308.651	87.75
308.881	94.75
309.111	96.75
309.341	82.75
309.571	100.75
309.8	92.75
310.03	79.75
310.26	107.75
310.49	86.75
310.72	82.75
310.949	84.75
311.179	103.75
311.409	105.75
311.639	89.75
311.868	97.75
312.098	95.75
312.328	93.75
312.557	101.75
312.787	82.75
313.017	95.75
313.246	76.75
313.476	82.75
313.706	88.75
313.935	106.75
314.165	99.75
314.394	87.75
314.624	104.75
314.853	106.75
315.083	85.75
315.312	90.75
315.542	82.75
315.771	83.75
316.001	89.75
316.23	89.75
316.46	81.75
316.689	87.75
316.919	84.75
317.148	92.75
317.377	86.75
317.607	85.75
317.836	82.75
318.065	87.75
318.295	104.75
318.524	92.75
318.753	86.75
318.983	90.75
319.212	93.75
319.441	100.75
319.67	80.75
319.9	86.75
320.129	78.75
320.358	85.75
320.587	97.75
320.816	103.75
321.046	85.75
321.275	92.75
321.504	88.75
321.733	101.75
321.962	96.75
322.191	99.75
322.42	97.75
322.649	99.75
322.878	107.75
323.108	104.75
323.337	99.75
323.566	133.75
323.795	149.75
324.024	188.75
324.253	397.75
324.482	797.75
324.71	1652.75
324.939	2183.75
325.168	769.75
325.397	234.75
325.626	136.75
325.855	126.75
326.084	118.75
326.313	121.75
326.542	134.75
326.77	221.75
326.999	467.75
327.228	941.75
327.457	1699.75
327.686	1345.75
327.914	363.75
328.143	182.75
328.372	128.75
328.6	127.75
328.829	105.75
329.058	118.75
329.287	111.75
329.515	99.75
329.744	115.75
329.972	87.75
330.201	91.75
330.43	112.75
330.658	118.75
330.887	111.75
331.115	103.75
331.344	108.75
331.572	91.75
331.801	91.75
332.03	88.75
332.258	100.75
332.486	86.75
332.715	97.75
332.943	96.75
333.172	88.75
333.4	107.75
333.629	101.75
333.857	97.75
334.085	89.75
334.314	68.75
334.542	103.75
334.771	92.75
334.999	91.75
335.227	99.75
335.455	98.75
335.684	87.75
335.912	99.75
336.14	100.75
336.369	103.75
336.597	108.75
336.825	99.75
337.053	77.75
337.281	89.75
337.51	83.75
337.738	76.75
337.966	96.75
338.194	96.75
338.422	90.75
338.65	74.75
338.878	98.75
339.106	94.75
339.334	107.75
339.562	104.75
339.79	89.75
340.018	89.75
340.246	89.75
340.474	104.75
340.702	96.75
340.93	91.75
341.158	94.75
341.386	89.75
341.614	86.75
341.842	79.75
342.07	76.75
342.298	88.75
342.526	77.75
342.754	62.75
342.981	93.75
343.209	85.75
343.437	105.75
343.665	95.75
343.893	81.75
344.12	81.75
344.348	97.75
344.576	91.75
344.804	88.75
345.031	95.75
345.259	82.75
345.487	99.75
345.714	88.75
345.942	87.75
346.17	93.75
346.397	87.75
346.625	94.75
346.853	89.75
347.08	84.75
347.308	92.75
347.535	98.75
347.763	100.75
347.99	83.75
348.218	73.75
348.445	93.75
348.673	90.75
348.9	90.75
349.128	100.75
349.355	98.75
349.583	92.75
349.81	96.75
350.037	87.75
350.265	95.75
350.492	88.75
350.72	92.75
350.947	90.75
351.174	98.75
351.402	95.75
351.629	98.75
351.856	89.75
352.083	94.75
352.311	104.75
352.538	102.75
352.765	105.75
352.992	98.75
353.22	113.75
353.447	102.75
353.674	99.75
353.901	87.75
354.128	86.75
354.355	93.75
354.583	96.75
354.81	106.75
355.037	95.75
355.264	82.75
355.491	92.75
355.718	88.75
355.945	99.75
356.172	105.75
356.399	96.75
356.626	92.75
356.853	83.75
357.08	98.75
357.307	94.75
357.534	88.75
357.761	82.75
357.988	93.75
358.215	96.75
358.441	84.75
358.668	118.75
358.895	103.75
359.122	95.75
359.349	93.75
359.576	87.75
359.802	96.75
360.029	102.75
360.256	96.75
360.483	88.75
360.709	96.75
360.936	84.75
361.163	90.75
361.39	94.75
361.616	86.75
361.843	96.75
362.07	72.75
362.296	82.75
362.523	94.75
362.749	76.75
362.976	103.75
363.203	99.75
363.429	89.75
363.656	82.75
363.882	96.75
364.109	88.75
364.335	88.75
364.562	96.75
364.788	92.75
365.015	89.75
365.241	93.75
365.468	109.75
365.694	91.75
365.92	101.75
366.147	95.75
366.373	68.75
366.599	82.75
366.826	81.75
367.052	86.75
367.278	88.75
367.505	80.75
367.731	71.75
367.957	78.75
368.184	97.75
368.41	104.75
368.636	112.75
368.862	93.75
369.089	93.75
369.315	102.75
369.541	83.75
369.767	82.75
369.993	87.75
370.219	89.75
370.445	85.75
370.672	95.75
370.898	75.75
371.124	86.75
371.35	83.75
371.576	86.75
371.802	75.75
372.028	90.75
372.254	87.75
372.48	93.75
372.706	96.75
372.932	92.75
373.158	92.75
373.384	92.75
373.61	102.75
373.835	82.75
374.061	86.75
374.287	86.75
374.513	80.75
374.739	80.75
374.965	89.75
375.191	81.75
375.416	91.75
375.642	85.75
375.868	92.75
376.094	99.75
376.319	89.75
376.545	98.75
376.771	79.75
376.997	96.75
377.222	94.75
377.448	93.75
377.674	84.75
377.899	82.75
378.125	90.75
378.35	100.75
378.576	85.75
378.802	94.75
379.027	92.75
379.253	96.75
379.478	76.75
379.704	90.75
379.929	84.75
380.155	75.75
380.38	88.75
380.606	99.75
380.831	82.75
381.057	100.75
381.282	90.75
381.507	87.75
381.733	90.75
381.958	87.75
382.184	86.75
382.409	92.75
382.634	100.75
382.86	91.75
383.085	109.75
383.31	100.75
383.535	98.75
383.761	102.75
383.986	101.75
384.211	102.75
384.436	94.75
384.662	115.75
384.887	112.75
385.112	104.75
385.337	88.75
385.562	102.75
385.787	104.75
386.013	99.75
386.238	127.75
386.463	102.75
386.688	103.75
386.913	98.75
387.138	116.75
387.363	87.75
387.588	105.75
387.813	100.75
388.038	117.75
388.263	104.75
388.488	119.75
388.713	85.75
388.938	86.75
389.163	79.75
389.387	93.75
389.612	82.75
389.837	84.75
390.062	84.75
390.287	89.75
390.512	103.75
390.736	86.75
390.961	98.75
391.186	85.75
391.411	80.75
391.636	85.75
391.86	74.75
392.085	92.75
392.31	87.75
392.534	83.75
392.759	89.75
392.984	77.75
393.208	86.75
393.433	91.75
393.658	80.75
393.882	88.75
394.107	85.75
394.331	81.75
394.556	81.75
394.78	81.75
395.005	81.75
395.229	84.75
395.454	81.75
395.678	90.75
395.903	93.75
396.127	76.75
396.352	93.75
396.576	80.75
396.801	92.75
397.025	91.75
397.249	84.75
397.474	80.75
397.698	97.75
397.922	86.75
398.147	84.75
398.371	92.75
398.595	81.75
398.82	72.75
399.044	87.75
399.268	81.75
399.492	77.75
399.717	88.75
399.941	89.75
400.165	74.75
400.389	93.75
400.613	88.75
400.837	83.75
401.062	91.75
401.286	84.75
401.51	85.75
401.734	82.75
401.958	92.75
402.182	110.75
402.406	144.75
402.63	100.75
402.854	89.75
403.078	91.75
403.302	93.75
403.526	102.75
403.75	83.75
403.974	80.75
404.198	92.75
404.422	73.75
404.645	93.75
404.869	88.75
405.093	87.75
405.317	98.75
405.541	74.75
405.765	90.75
405.988	105.75
406.212	173.75
406.436	180.75
406.66	144.75
406.883	103.75
407.107	93.75
407.331	92.75
407.555	104.75
407.778	104.75
408.002	93.75
408.226	73.75
408.449	86.75
408.673	92.75
408.896	93.75
409.12	95.75
409.344	90.75
409.567	90.75
409.791	94.75
410.014	91.75
410.238	90.75
410.461	92.75
410.685	92.75
410.908	101.75
411.132	120.75
411.355	94.75
411.578	88.75
411.802	81.75
412.025	71.75
412.249	91.75
412.472	86.75
412.695	90.75
412.919	81.75
413.142	81.75
413.365	83.75
413.589	87.75
413.812	88.75
414.035	92.75
414.258	84.75
414.482	88.75
414.705	96.75
414.928	82.75
415.151	102.75
415.374	110.75
415.597	88.75
415.821	77.75
416.044	86.75
416.267	82.75
416.49	78.75
416.713	83.75
416.936	95.75
417.159	79.75
417.382	87.75
417.605	95.75
417.828	97.75
418.051	89.75
418.274	83.75
418.497	73.75
418.72	79.75
418.943	87.75
419.166	91.75
419.389	95.75
419.611	70.75
419.834	86.75
420.057	77.75
420.28	86.75
420.503	83.75
420.726	89.75
420.948	98.75
421.171	90.75
421.394	101.75
421.617	104.75
421.839	89.75
422.062	80.75
422.285	80.75
422.507	88.75
422.73	95.75
422.953	84.75
423.175	91.75
423.398	73.75
423.621	75.75
423.843	86.75
424.066	77.75
424.288	95.75
424.511	91.75
424.733	97.75
424.956	92.75
425.178	104.75
425.401	91.75
425.623	95.75
425.846	78.75
426.068	69.75
426.291	82.75
426.513	84.75
426.735	90.75
426.958	88.75
427.18	89.75
427.402	135.75
427.625	156.75
427.847	129.75
428.069	96.75
428.292	83.75
428.514	81.75
428.736	74.75
428.958	76.75
429.181	84.75
429.403	99.75
429.625	88.75
429.847	87.75
430.069	93.75
430.292	76.75
430.514	88.75
430.736	86.75
430.958	77.75
431.18	80.75
431.402	63.75
431.624	73.75
431.846	84.75
432.068	78.75
432.29	80.75
432.512	83.75
432.734	94.75
432.956	97.75
433.178	100.75
433.4	101.75
433.622	79.75
433.844	88.75
434.066	84.75
434.287	92.75
434.509	90.75
434.731	92.75
434.953	84.75
435.175	82.75
435.397	84.75
435.618	79.75
435.84	107.75
436.062	117.75
436.284	110.75
436.505	91.75
436.727	107.75
436.949	92.75
437.17	84.75
437.392	94.75
437.614	83.75
437.835	97.75
438.057	123.75
438.278	92.75
438.5	100.75
438.721	105.75
438.943	98.75
439.165	77.75
439.386	81.75
439.608	99.75
439.829	98.75
440.05	120.75
440.272	128.75
440.493	89.75
440.715	92.75
440.936	91.75
441.158	72.75
441.379	80.75
441.6	85.75
441.822	107.75
442.043	97.75
442.264	90.75
442.486	81.75
442.707	83.75
442.928	93.75
443.149	131.75
443.371	130.75
443.592	96.75
443.813	109.75
444.034	93.75
444.255	74.75
444.476	77.75
444.698	81.75
444.919	88.75
445.14	115.75
445.361	112.75
445.582	108.75
445.803	126.75
446.024	129.75
446.245	132.75
446.466	114.75
446.687	83.75
446.908	78.75
447.129	68.75
447.35	74.75
447.571	90.75
447.792	87.75
448.013	97.75
448.234	105.75
448.455	100.75
448.675	112.75
448.896	109.75
449.117	90.75
449.338	96.75
449.559	116.75
449.779	126.75
450	96.75
450.221	85.75
450.442	75.75
450.662	91.75
450.883	98.75
451.104	109.75
451.324	83.75
451.545	74.75
451.766	91.75
451.986	74.75
452.207	91.75
452.428	74.75
452.648	83.75
452.869	103.75
453.089	103.75
453.31	114.75
453.53	94.75
453.751	78.75
453.971	92.75
454.192	102.75
454.412	92.75
454.633	83.75
454.853	94.75
455.073	90.75
455.294	84.75
455.514	82.75
455.734	75.75
455.955	80.75
456.175	83.75
456.395	70.75
456.616	68.75
456.836	84.75
457.056	82.75
457.276	97.75
457.497	93.75
457.717	78.75
457.937	74.75
458.157	86.75
458.377	91.75
458.598	80.75
458.818	132.75
459.038	152.75
459.258	109.75
459.478	90.75
459.698	77.75
459.918	83.75
460.138	86.75
460.358	104.75
460.578	82.75
460.798	84.75
461.018	96.75
461.238	72.75
461.458	70.75
461.678	86.75
461.898	84.75
462.118	78.75
462.338	82.75
462.558	84.75
462.777	90.75
462.997	86.75
463.217	85.75
463.437	84.75
463.657	82.75
463.876	84.75
464.096	85.75
464.316	75.75
464.536	85.75
464.755	87.75
464.975	89.75
465.195	152.75
465.414	138.75
465.634	93.75
465.854	83.75
466.073	85.75
466.293	94.75
466.512	74.75
466.732	85.75
466.951	85.75
467.171	77.75
467.391	98.75
467.61	96.75
467.829	78.75
468.049	88.75
468.268	89.75
468.488	75.75
468.707	75.75
468.927	78.75
469.146	77.75
469.365	80.75
469.585	85.75
469.804	98.75
470.023	96.75
470.243	80.75
470.462	90.75
470.681	111.75
470.901	91.75
471.12	86.75
471.339	92.75
471.558	77.75
471.777	82.75
471.997	93.75
472.216	78.75
472.435	93.75
472.654	94.75
472.873	86.75
473.092	81.75
473.311	92.75
473.53	85.75
473.749	97.75
473.968	80.75
474.187	93.75
474.406	97.75
474.625	90.75
474.844	93.75
475.063	79.75
475.282	84.75
475.501	78.75
475.72	66.75
475.939	77.75
476.158	82.75
476.377	71.75
476.596	72.75
476.814	84.75
477.033	104.75
477.252	90.75
477.471	94.75
477.69	81.75
477.908	73.75
478.127	93.75
478.346	84.75
478.564	91.75
478.783	93.75
479.002	93.75
479.22	93.75
479.439	91.75
479.658	95.75
479.876	75.75
480.095	91.75
480.313	94.75
480.532	99.75
480.751	96.75
480.969	86.75
481.188	81.75
481.406	99.75
481.624	80.75
481.843	84.75
482.061	90.75
482.28	82.75
482.498	79.75
482.717	90.75
482.935	88.75
483.153	92.75
483.372	83.75
483.59	85.75
483.808	85.75
484.027	70.75
484.245	98.75
484.463	101.75
484.681	96.75
484.9	83.75
485.118	96.75
485.336	84.75
485.554	106.75
485.772	93.75
485.99	103.75
486.209	90.75
486.427	109.75
486.645	91.75
486.863	105.75
487.081	91.75
487.299	96.75
487.517	99.75
487.735	90.75
487.953	99.75
488.171	97.75
488.389	82.75
488.607	92.75
488.825	86.75
489.043	90.75
489.261	83.75
489.479	94.75
489.696	93.75
489.914	96.75
490.132	103.75
490.35	83.75
490.568	85.75
490.786	92.75
491.003	93.75
491.221	91.75
491.439	95.75
491.657	77.75
491.874	101.75
492.092	94.75
492.31	95.75
492.527	107.75
492.745	82.75
492.963	83.75
493.18	106.75
493.398	92.75
493.615	114.75
493.833	93.75
494.05	85.75
494.268	94.75
494.485	90.75
494.703	79.75
494.92	80.75
495.138	83.75
495.355	101.75
495.573	91.75
495.79	84.75
496.008	92.75
496.225	83.75
496.442	85.75
496.66	92.75
496.877	79.75
497.094	111.75
497.312	88.75
497.529	92.75
497.746	87.75
497.963	102.75
498.181	86.75
498.398	97.75
498.615	88.75
498.832	101.75
499.049	80.75
499.267	85.75
499.484	82.75
499.701	95.75
499.918	77.75
500.135	84.75
500.352	97.75
500.569	94.75
500.786	82.75
501.003	74.75
501.22	93.75
501.437	89.75
501.654	95.75
501.871	102.75
502.088	80.75
502.305	94.75
502.522	81.75
502.739	94.75
502.956	101.75
503.172	82.75
503.389	92.75
503.606	110.75
503.823	83.75
504.04	85.75
504.256	82.75
504.473	89.75
504.69	67.75
504.907	104.75
505.123	86.75
505.34	86.75
505.557	90.75
505.773	75.75
505.99	98.75
506.207	81.75
506.423	92.75
506.64	90.75
506.856	73.75
507.073	98.75
507.289	86.75
507.506	82.75
507.722	94.75
507.939	105.75
508.155	83.75
508.372	95.75
508.588	96.75
508.805	77.75
509.021	99.75
509.238	97.75
509.454	81.75
509.67	93.75
509.887	98.75
510.103	109.75
510.319	186.75
510.536	674.75
510.752	2072.75
510.968	604.75
511.184	127.75
511.401	91.75
511.617	88.75
511.833	96.75
512.049	94.75
512.265	90.75
512.481	99.75
512.698	95.75
512.914	112.75
513.13	82.75
513.346	83.75
513.562	78.75
513.778	93.75
513.994	96.75
514.21	106.75
514.426	116.75
514.642	141.75
514.858	122.75
515.074	167.75
515.29	404.75
515.506	1272.75
515.721	479.75
515.937	137.75
516.153	114.75
516.369	95.75
516.585	83.75
516.801	104.75
517.016	88.75
