Data from Uncirc_2005_H10_HRD10591_00006.txt Node
Date: Wed Jan 03 10:28:26 EST 2024
User: Yrep
Spectrometer: HR+D1059
Trigger mode: 1
Integration Time (sec): 1.000000E-1
Scans to average: 1
Electric dark correction enabled: true
Nonlinearity correction enabled: false
Boxcar width: 0
XAxis mode: Wavelengths
Number of Pixels in Spectrum: 2048
>>>>>Begin Spectral Data<<<<<
223.165	-20.5
223.4	-20.5
223.635	-20.5
223.869	-13.5
224.104	-7.5
224.338	-16.5
224.573	-11.5
224.808	-10.5
225.042	-19.5
225.277	-7.5
225.511	-17.5
225.746	-6.5
225.98	3.5
226.215	20.5
226.449	35.5
226.683	20.5
226.918	13.5
227.152	37.5
227.387	34.5
227.621	27.5
227.856	42.5
228.09	45.5
228.324	51.5
228.559	50.5
228.793	52.5
229.027	74.5
229.262	68.5
229.496	68.5
229.73	77.5
229.964	80.5
230.199	77.5
230.433	72.5
230.667	86.5
230.901	84.5
231.136	83.5
231.37	82.5
231.604	68.5
231.838	74.5
232.072	97.5
232.306	78.5
232.541	76.5
232.775	83.5
233.009	77.5
233.243	79.5
233.477	85.5
233.711	89.5
233.945	87.5
234.179	86.5
234.413	76.5
234.647	67.5
234.881	91.5
235.115	80.5
235.349	89.5
235.583	77.5
235.817	81.5
236.051	71.5
236.285	74.5
236.519	81.5
236.753	70.5
236.987	80.5
237.221	76.5
237.455	92.5
237.689	67.5
237.922	65.5
238.156	76.5
238.39	76.5
238.624	81.5
238.858	73.5
239.091	82.5
239.325	91.5
239.559	69.5
239.793	80.5
240.027	66.5
240.26	65.5
240.494	76.5
240.728	82.5
240.961	65.5
241.195	80.5
241.429	88.5
241.662	81.5
241.896	90.5
242.13	68.5
242.363	68.5
242.597	88.5
242.83	70.5
243.064	78.5
243.298	72.5
243.531	73.5
243.765	87.5
243.998	88.5
244.232	79.5
244.465	90.5
244.699	84.5
244.932	65.5
245.166	92.5
245.399	88.5
245.633	91.5
245.866	74.5
246.099	75.5
246.333	81.5
246.566	64.5
246.8	71.5
247.033	89.5
247.266	72.5
247.5	75.5
247.733	86.5
247.966	79.5
248.2	62.5
248.433	85.5
248.666	70.5
248.899	81.5
249.133	85.5
249.366	100.5
249.599	82.5
249.832	76.5
250.066	92.5
250.299	72.5
250.532	64.5
250.765	75.5
250.998	70.5
251.231	84.5
251.465	72.5
251.698	68.5
251.931	84.5
252.164	85.5
252.397	70.5
252.63	76.5
252.863	62.5
253.096	84.5
253.329	75.5
253.562	79.5
253.795	76.5
254.028	79.5
254.261	77.5
254.494	78.5
254.727	91.5
254.96	81.5
255.193	75.5
255.426	90.5
255.659	82.5
255.892	67.5
256.124	88.5
256.357	75.5
256.59	74.5
256.823	73.5
257.056	83.5
257.289	77.5
257.521	81.5
257.754	73.5
257.987	65.5
258.22	77.5
258.452	76.5
258.685	70.5
258.918	76.5
259.151	69.5
259.383	91.5
259.616	73.5
259.849	81.5
260.081	73.5
260.314	71.5
260.547	69.5
260.779	70.5
261.012	76.5
261.244	79.5
261.477	88.5
261.71	88.5
261.942	102.5
262.175	93.5
262.407	79.5
262.64	76.5
262.872	80.5
263.105	76.5
263.337	85.5
263.57	89.5
263.802	86.5
264.035	81.5
264.267	70.5
264.499	84.5
264.732	59.5
264.964	73.5
265.197	81.5
265.429	84.5
265.661	84.5
265.894	79.5
266.126	91.5
266.358	82.5
266.591	76.5
266.823	84.5
267.055	76.5
267.287	83.5
267.52	81.5
267.752	73.5
267.984	96.5
268.216	97.5
268.448	80.5
268.681	86.5
268.913	80.5
269.145	82.5
269.377	88.5
269.609	82.5
269.841	68.5
270.073	71.5
270.306	85.5
270.538	85.5
270.77	88.5
271.002	79.5
271.234	80.5
271.466	74.5
271.698	79.5
271.93	90.5
272.162	84.5
272.394	77.5
272.626	82.5
272.858	83.5
273.09	63.5
273.322	77.5
273.553	80.5
273.785	80.5
274.017	80.5
274.249	76.5
274.481	81.5
274.713	70.5
274.945	83.5
275.176	82.5
275.408	100.5
275.64	80.5
275.872	81.5
276.104	86.5
276.335	90.5
276.567	74.5
276.799	105.5
277.031	98.5
277.262	101.5
277.494	92.5
277.726	84.5
277.957	88.5
278.189	77.5
278.421	90.5
278.652	93.5
278.884	90.5
279.115	77.5
279.347	90.5
279.579	91.5
279.81	80.5
280.042	65.5
280.273	84.5
280.505	78.5
280.736	90.5
280.968	81.5
281.199	79.5
281.431	89.5
281.662	76.5
281.894	80.5
282.125	101.5
282.356	112.5
282.588	122.5
282.819	107.5
283.051	90.5
283.282	82.5
283.513	91.5
283.745	86.5
283.976	91.5
284.207	82.5
284.439	78.5
284.67	74.5
284.901	96.5
285.132	72.5
285.364	83.5
285.595	82.5
285.826	79.5
286.057	89.5
286.288	76.5
286.52	80.5
286.751	65.5
286.982	73.5
287.213	81.5
287.444	80.5
287.675	71.5
287.906	86.5
288.138	85.5
288.369	94.5
288.6	89.5
288.831	91.5
289.062	93.5
289.293	83.5
289.524	73.5
289.755	88.5
289.986	86.5
290.217	84.5
290.448	75.5
290.679	84.5
290.91	85.5
291.141	82.5
291.371	75.5
291.602	91.5
291.833	81.5
292.064	86.5
292.295	92.5
292.526	85.5
292.757	86.5
292.987	91.5
293.218	84.5
293.449	85.5
293.68	77.5
293.91	83.5
294.141	65.5
294.372	78.5
294.603	86.5
294.833	93.5
295.064	85.5
295.295	96.5
295.525	97.5
295.756	91.5
295.987	120.5
296.217	130.5
296.448	114.5
296.679	86.5
296.909	108.5
297.14	96.5
297.37	88.5
297.601	91.5
297.831	95.5
298.062	85.5
298.292	83.5
298.523	84.5
298.753	89.5
298.984	89.5
299.214	84.5
299.445	92.5
299.675	85.5
299.905	85.5
300.136	80.5
300.366	88.5
300.597	81.5
300.827	80.5
301.057	93.5
301.288	85.5
301.518	98.5
301.748	79.5
301.979	90.5
302.209	79.5
302.439	97.5
302.669	88.5
302.9	83.5
303.13	87.5
303.36	83.5
303.59	108.5
303.82	99.5
304.051	81.5
304.281	92.5
304.511	88.5
304.741	91.5
304.971	85.5
305.201	83.5
305.431	83.5
305.661	81.5
305.891	84.5
306.121	79.5
306.352	95.5
306.582	93.5
306.812	114.5
307.042	95.5
307.272	100.5
307.502	81.5
307.731	90.5
307.961	98.5
308.191	82.5
308.421	81.5
308.651	97.5
308.881	96.5
309.111	88.5
309.341	92.5
309.571	78.5
309.8	90.5
310.03	99.5
310.26	85.5
310.49	94.5
310.72	110.5
310.949	107.5
311.179	90.5
311.409	89.5
311.639	99.5
311.868	96.5
312.098	84.5
312.328	86.5
312.557	104.5
312.787	104.5
313.017	103.5
313.246	91.5
313.476	85.5
313.706	89.5
313.935	81.5
314.165	93.5
314.394	85.5
314.624	78.5
314.853	89.5
315.083	94.5
315.312	78.5
315.542	96.5
315.771	97.5
316.001	66.5
316.23	95.5
316.46	88.5
316.689	85.5
316.919	85.5
317.148	98.5
317.377	98.5
317.607	89.5
317.836	86.5
318.065	103.5
318.295	80.5
318.524	91.5
318.753	91.5
318.983	82.5
319.212	99.5
319.441	85.5
319.67	103.5
319.9	69.5
320.129	85.5
320.358	93.5
320.587	103.5
320.816	100.5
321.046	85.5
321.275	90.5
321.504	98.5
321.733	105.5
321.962	100.5
322.191	85.5
322.42	101.5
322.649	112.5
322.878	95.5
323.108	114.5
323.337	117.5
323.566	125.5
323.795	144.5
324.024	189.5
324.253	400.5
324.482	844.5
324.71	1699.5
324.939	2243.5
325.168	812.5
325.397	230.5
325.626	147.5
325.855	118.5
326.084	125.5
326.313	122.5
326.542	147.5
326.77	218.5
326.999	463.5
327.228	974.5
327.457	1788.5
327.686	1408.5
327.914	370.5
328.143	191.5
328.372	124.5
328.6	120.5
328.829	113.5
329.058	128.5
329.287	134.5
329.515	99.5
329.744	85.5
329.972	86.5
330.201	99.5
330.43	107.5
330.658	113.5
330.887	130.5
331.115	108.5
331.344	97.5
331.572	87.5
331.801	94.5
332.03	98.5
332.258	97.5
332.486	95.5
332.715	88.5
332.943	73.5
333.172	100.5
333.4	106.5
333.629	95.5
333.857	97.5
334.085	87.5
334.314	80.5
334.542	85.5
334.771	114.5
334.999	86.5
335.227	101.5
335.455	86.5
335.684	80.5
335.912	95.5
336.14	107.5
336.369	102.5
336.597	90.5
336.825	101.5
337.053	100.5
337.281	105.5
337.51	96.5
337.738	80.5
337.966	90.5
338.194	87.5
338.422	87.5
338.65	98.5
338.878	100.5
339.106	81.5
339.334	87.5
339.562	84.5
339.79	80.5
340.018	91.5
340.246	92.5
340.474	92.5
340.702	78.5
340.93	105.5
341.158	92.5
341.386	96.5
341.614	111.5
341.842	83.5
342.07	92.5
342.298	90.5
342.526	96.5
342.754	92.5
342.981	89.5
343.209	87.5
343.437	97.5
343.665	93.5
343.893	86.5
344.12	100.5
344.348	93.5
344.576	81.5
344.804	80.5
345.031	84.5
345.259	92.5
345.487	82.5
345.714	90.5
345.942	89.5
346.17	85.5
346.397	92.5
346.625	91.5
346.853	96.5
347.08	90.5
347.308	91.5
347.535	86.5
347.763	86.5
347.99	90.5
348.218	92.5
348.445	95.5
348.673	94.5
348.9	98.5
349.128	82.5
349.355	97.5
349.583	93.5
349.81	99.5
350.037	89.5
350.265	88.5
350.492	91.5
350.72	90.5
350.947	81.5
351.174	89.5
351.402	105.5
351.629	98.5
351.856	81.5
352.083	99.5
352.311	98.5
352.538	90.5
352.765	114.5
352.992	120.5
353.22	113.5
353.447	106.5
353.674	86.5
353.901	97.5
354.128	102.5
354.355	89.5
354.583	96.5
354.81	94.5
355.037	92.5
355.264	88.5
355.491	96.5
355.718	87.5
355.945	95.5
356.172	100.5
356.399	101.5
356.626	106.5
356.853	96.5
357.08	92.5
357.307	89.5
357.534	86.5
357.761	86.5
357.988	104.5
358.215	98.5
358.441	101.5
358.668	94.5
358.895	100.5
359.122	90.5
359.349	95.5
359.576	88.5
359.802	81.5
360.029	107.5
360.256	93.5
360.483	91.5
360.709	84.5
360.936	84.5
361.163	86.5
361.39	96.5
361.616	86.5
361.843	81.5
362.07	105.5
362.296	92.5
362.523	81.5
362.749	86.5
362.976	94.5
363.203	92.5
363.429	78.5
363.656	84.5
363.882	81.5
364.109	82.5
364.335	85.5
364.562	106.5
364.788	85.5
365.015	94.5
365.241	103.5
365.468	107.5
365.694	85.5
365.92	96.5
366.147	79.5
366.373	80.5
366.599	89.5
366.826	102.5
367.052	90.5
367.278	94.5
367.505	75.5
367.731	90.5
367.957	95.5
368.184	83.5
368.41	92.5
368.636	109.5
368.862	108.5
369.089	91.5
369.315	83.5
369.541	84.5
369.767	74.5
369.993	106.5
370.219	89.5
370.445	80.5
370.672	84.5
370.898	71.5
371.124	78.5
371.35	86.5
371.576	90.5
371.802	95.5
372.028	84.5
372.254	85.5
372.48	73.5
372.706	96.5
372.932	91.5
373.158	76.5
373.384	100.5
373.61	104.5
373.835	105.5
374.061	96.5
374.287	79.5
374.513	111.5
374.739	93.5
374.965	113.5
375.191	93.5
375.416	81.5
375.642	80.5
375.868	84.5
376.094	75.5
376.319	95.5
376.545	83.5
376.771	81.5
376.997	88.5
377.222	92.5
377.448	110.5
377.674	104.5
377.899	93.5
378.125	83.5
378.35	82.5
378.576	85.5
378.802	93.5
379.027	98.5
379.253	89.5
379.478	101.5
379.704	114.5
379.929	92.5
380.155	99.5
380.38	86.5
380.606	97.5
380.831	90.5
381.057	94.5
381.282	106.5
381.507	94.5
381.733	104.5
381.958	94.5
382.184	99.5
382.409	106.5
382.634	105.5
382.86	91.5
383.085	105.5
383.31	109.5
383.535	104.5
383.761	113.5
383.986	86.5
384.211	78.5
384.436	113.5
384.662	108.5
384.887	109.5
385.112	117.5
385.337	125.5
385.562	121.5
385.787	118.5
386.013	112.5
386.238	112.5
386.463	110.5
386.688	126.5
386.913	121.5
387.138	123.5
387.363	109.5
387.588	112.5
387.813	109.5
388.038	117.5
388.263	126.5
388.488	130.5
388.713	80.5
388.938	101.5
389.163	82.5
389.387	74.5
389.612	104.5
389.837	83.5
390.062	88.5
390.287	84.5
390.512	87.5
390.736	91.5
390.961	82.5
391.186	89.5
391.411	101.5
391.636	105.5
391.86	93.5
392.085	73.5
392.31	76.5
392.534	85.5
392.759	84.5
392.984	81.5
393.208	94.5
393.433	109.5
393.658	104.5
393.882	99.5
394.107	70.5
394.331	78.5
394.556	67.5
394.78	86.5
395.005	93.5
395.229	84.5
395.454	87.5
395.678	81.5
395.903	83.5
396.127	93.5
396.352	81.5
396.576	83.5
396.801	72.5
397.025	82.5
397.249	74.5
397.474	80.5
397.698	84.5
397.922	90.5
398.147	86.5
398.371	91.5
398.595	89.5
398.82	92.5
399.044	74.5
399.268	84.5
399.492	84.5
399.717	93.5
399.941	83.5
400.165	88.5
400.389	90.5
400.613	90.5
400.837	86.5
401.062	79.5
401.286	82.5
401.51	76.5
401.734	91.5
401.958	105.5
402.182	112.5
402.406	130.5
402.63	107.5
402.854	80.5
403.078	92.5
403.302	87.5
403.526	85.5
403.75	75.5
403.974	91.5
404.198	70.5
404.422	92.5
404.645	90.5
404.869	89.5
405.093	81.5
405.317	108.5
405.541	103.5
405.765	95.5
405.988	106.5
406.212	146.5
406.436	199.5
406.66	134.5
406.883	105.5
407.107	91.5
407.331	93.5
407.555	94.5
407.778	98.5
408.002	93.5
408.226	84.5
408.449	93.5
408.673	93.5
408.896	93.5
409.12	85.5
409.344	98.5
409.567	91.5
409.791	92.5
410.014	85.5
410.238	93.5
410.461	93.5
410.685	111.5
410.908	93.5
411.132	87.5
411.355	90.5
411.578	81.5
411.802	79.5
412.025	91.5
412.249	91.5
412.472	83.5
412.695	100.5
412.919	93.5
413.142	90.5
413.365	82.5
413.589	80.5
413.812	75.5
414.035	89.5
414.258	76.5
414.482	73.5
414.705	82.5
414.928	98.5
415.151	81.5
415.374	90.5
415.597	84.5
415.821	91.5
416.044	91.5
416.267	78.5
416.49	81.5
416.713	100.5
416.936	87.5
417.159	99.5
417.382	87.5
417.605	84.5
417.828	87.5
418.051	97.5
418.274	73.5
418.497	89.5
418.72	89.5
418.943	89.5
419.166	94.5
419.389	99.5
419.611	101.5
419.834	74.5
420.057	76.5
420.28	77.5
420.503	80.5
420.726	82.5
420.948	80.5
421.171	86.5
421.394	86.5
421.617	78.5
421.839	81.5
422.062	85.5
422.285	89.5
422.507	108.5
422.73	107.5
422.953	101.5
423.175	98.5
423.398	90.5
423.621	86.5
423.843	83.5
424.066	98.5
424.288	96.5
424.511	88.5
424.733	102.5
424.956	98.5
425.178	100.5
425.401	96.5
425.623	108.5
425.846	100.5
426.068	85.5
426.291	84.5
426.513	81.5
426.735	83.5
426.958	98.5
427.18	106.5
427.402	127.5
427.625	180.5
427.847	125.5
428.069	105.5
428.292	101.5
428.514	82.5
428.736	85.5
428.958	86.5
429.181	84.5
429.403	87.5
429.625	86.5
429.847	95.5
430.069	102.5
430.292	73.5
430.514	90.5
430.736	78.5
430.958	91.5
431.18	91.5
431.402	86.5
431.624	90.5
431.846	76.5
432.068	84.5
432.29	72.5
432.512	82.5
432.734	88.5
432.956	109.5
433.178	83.5
433.4	93.5
433.622	101.5
433.844	85.5
434.066	85.5
434.287	87.5
434.509	84.5
434.731	76.5
434.953	95.5
435.175	76.5
435.397	96.5
435.618	86.5
435.84	94.5
436.062	123.5
436.284	109.5
436.505	89.5
436.727	91.5
436.949	96.5
437.17	85.5
437.392	90.5
437.614	89.5
437.835	107.5
438.057	106.5
438.278	113.5
438.5	96.5
438.721	117.5
438.943	94.5
439.165	90.5
439.386	82.5
439.608	88.5
439.829	85.5
440.05	124.5
440.272	150.5
440.493	83.5
440.715	83.5
440.936	90.5
441.158	78.5
441.379	106.5
441.6	84.5
441.822	84.5
442.043	84.5
442.264	99.5
442.486	92.5
442.707	94.5
442.928	102.5
443.149	115.5
443.371	111.5
443.592	110.5
443.813	114.5
444.034	120.5
444.255	90.5
444.476	88.5
444.698	81.5
444.919	90.5
445.14	123.5
445.361	122.5
445.582	105.5
445.803	126.5
446.024	136.5
446.245	148.5
446.466	118.5
446.687	102.5
446.908	89.5
447.129	79.5
447.35	91.5
447.571	80.5
447.792	98.5
448.013	102.5
448.234	89.5
448.455	105.5
448.675	113.5
448.896	124.5
449.117	89.5
449.338	97.5
449.559	137.5
449.779	134.5
450	80.5
450.221	86.5
450.442	85.5
450.662	106.5
450.883	110.5
451.104	103.5
451.324	92.5
451.545	87.5
451.766	80.5
451.986	87.5
452.207	96.5
452.428	79.5
452.648	88.5
452.869	94.5
453.089	103.5
453.31	108.5
453.53	93.5
453.751	81.5
453.971	100.5
454.192	88.5
454.412	81.5
454.633	77.5
454.853	86.5
455.073	95.5
455.294	92.5
455.514	113.5
455.734	80.5
455.955	86.5
456.175	83.5
456.395	98.5
456.616	75.5
456.836	67.5
457.056	83.5
457.276	71.5
457.497	91.5
457.717	86.5
457.937	92.5
458.157	80.5
458.377	89.5
458.598	107.5
458.818	136.5
459.038	146.5
459.258	115.5
459.478	98.5
459.698	94.5
459.918	90.5
460.138	81.5
460.358	76.5
460.578	86.5
460.798	95.5
461.018	95.5
461.238	79.5
461.458	76.5
461.678	85.5
461.898	90.5
462.118	69.5
462.338	85.5
462.558	100.5
462.777	81.5
462.997	80.5
463.217	88.5
463.437	83.5
463.657	93.5
463.876	69.5
464.096	102.5
464.316	98.5
464.536	106.5
464.755	82.5
464.975	87.5
465.195	136.5
465.414	137.5
465.634	78.5
465.854	73.5
466.073	82.5
466.293	90.5
466.512	77.5
466.732	75.5
466.951	92.5
467.171	83.5
467.391	86.5
467.61	100.5
467.829	95.5
468.049	84.5
468.268	93.5
468.488	79.5
468.707	84.5
468.927	101.5
469.146	82.5
469.365	84.5
469.585	95.5
469.804	97.5
470.023	90.5
470.243	85.5
470.462	94.5
470.681	93.5
470.901	85.5
471.12	98.5
471.339	75.5
471.558	96.5
471.777	84.5
471.997	91.5
472.216	98.5
472.435	98.5
472.654	92.5
472.873	86.5
473.092	78.5
473.311	75.5
473.53	76.5
473.749	84.5
473.968	80.5
474.187	100.5
474.406	95.5
474.625	79.5
474.844	86.5
475.063	86.5
475.282	74.5
475.501	95.5
475.72	102.5
475.939	91.5
476.158	84.5
476.377	87.5
476.596	88.5
476.814	102.5
477.033	93.5
477.252	77.5
477.471	84.5
477.69	69.5
477.908	72.5
478.127	95.5
478.346	88.5
478.564	97.5
478.783	91.5
479.002	81.5
479.22	82.5
479.439	96.5
479.658	106.5
479.876	92.5
480.095	94.5
480.313	85.5
480.532	92.5
480.751	89.5
480.969	95.5
481.188	106.5
481.406	90.5
481.624	92.5
481.843	93.5
482.061	94.5
482.28	90.5
482.498	93.5
482.717	94.5
482.935	76.5
483.153	89.5
483.372	98.5
483.59	94.5
483.808	88.5
484.027	93.5
484.245	96.5
484.463	92.5
484.681	87.5
484.9	104.5
485.118	88.5
485.336	97.5
485.554	100.5
485.772	104.5
485.99	99.5
486.209	94.5
486.427	101.5
486.645	111.5
486.863	108.5
487.081	94.5
487.299	98.5
487.517	98.5
487.735	104.5
487.953	83.5
488.171	95.5
488.389	92.5
488.607	94.5
488.825	88.5
489.043	86.5
489.261	93.5
489.479	85.5
489.696	82.5
489.914	86.5
490.132	93.5
490.35	84.5
490.568	78.5
490.786	102.5
491.003	97.5
491.221	95.5
491.439	95.5
491.657	103.5
491.874	95.5
492.092	91.5
492.31	84.5
492.527	69.5
492.745	93.5
492.963	81.5
493.18	93.5
493.398	81.5
493.615	93.5
493.833	84.5
494.05	85.5
494.268	82.5
494.485	95.5
494.703	94.5
494.92	81.5
495.138	86.5
495.355	81.5
495.573	85.5
495.79	97.5
496.008	80.5
496.225	93.5
496.442	96.5
496.66	89.5
496.877	97.5
497.094	91.5
497.312	84.5
497.529	89.5
497.746	93.5
497.963	90.5
498.181	90.5
498.398	67.5
498.615	101.5
498.832	88.5
499.049	84.5
499.267	91.5
499.484	81.5
499.701	85.5
499.918	86.5
500.135	79.5
500.352	92.5
500.569	90.5
500.786	86.5
501.003	80.5
501.22	86.5
501.437	90.5
501.654	91.5
501.871	95.5
502.088	90.5
502.305	100.5
502.522	89.5
502.739	87.5
502.956	95.5
503.172	89.5
503.389	88.5
503.606	106.5
503.823	97.5
504.04	90.5
504.256	99.5
504.473	95.5
504.69	90.5
504.907	89.5
505.123	89.5
505.34	75.5
505.557	76.5
505.773	97.5
505.99	82.5
506.207	99.5
506.423	104.5
506.64	84.5
506.856	86.5
507.073	99.5
507.289	86.5
507.506	102.5
507.722	109.5
507.939	106.5
508.155	82.5
508.372	80.5
508.588	94.5
508.805	97.5
509.021	101.5
509.238	94.5
509.454	88.5
509.67	100.5
509.887	108.5
510.103	129.5
510.319	203.5
510.536	700.5
510.752	2053.5
510.968	584.5
511.184	147.5
511.401	120.5
511.617	87.5
511.833	93.5
512.049	88.5
512.265	100.5
512.481	90.5
512.698	85.5
512.914	73.5
513.13	90.5
513.346	96.5
513.562	99.5
513.778	98.5
513.994	91.5
514.21	92.5
514.426	106.5
514.642	123.5
514.858	123.5
515.074	149.5
515.29	447.5
515.506	1315.5
515.721	499.5
515.937	142.5
516.153	101.5
516.369	84.5
516.585	86.5
516.801	106.5
517.016	87.5
517.232	94.5
517.448	80.5
517.664	98.5
517.879	94.5
518.095	85.5
518.311	92.5
518.527	78.5
518.742	95.5
518.958	93.5
519.173	100.5
519.389	85.5
519.605	95.5
519.82	101.5
520.036	108.5
520.251	115.5
520.467	100.5
520.682	90.5
520.898	95.5
521.113	100.5
521.329	124.5
521.544	210.5
521.76	517.5
521.975	2186.5
522.19	1334.5
522.406	312.5
522.621	123.5
522.836	101.5
523.052	89.5
523.267	86.5
523.482	88.5
523.698	97.5
523.913	113.5
524.128	99.5
524.343	87.5
524.559	80.5
524.774	98.5
524.989	89.5
525.204	99.5
525.419	106.5
525.634	94.5
525.849	69.5
526.064	85.5
526.28	99.5
526.495	94.5
526.71	81.5
526.925	84.5
527.14	89.5
527.355	88.5
527.57	89.5
527.785	92.5
527.999	81.5
528.214	86.5
528.429	91.5
528.644	82.5
528.859	86.5
529.074	82.5
529.289	118.5
529.503	155.5
529.718	98.5
529.933	100.5
530.148	99.5
530.363	92.5
530.577	87.5
530.792	85.5
531.007	89.5
531.221	90.5
531.436	99.5
531.651	70.5
531.865	95.5
532.08	86.5
532.295	85.5
532.509	79.5
532.724	92.5
532.938	87.5
533.153	78.5
533.367	92.5
533.582	104.5
533.796	107.5
534.011	94.5
534.225	95.5
534.44	85.5
534.654	87.5
534.868	90.5
535.083	88.5
535.297	90.5
535.511	98.5
535.726	113.5
535.94	95.5
536.154	83.5
