Data from Uncirc_2005_H10_HRD10591_00045.txt Node
Date: Wed Jan 03 10:28:33 EST 2024
User: Yrep
Spectrometer: HR+D1059
Trigger mode: 1
Integration Time (sec): 1.000000E-1
Scans to average: 1
Electric dark correction enabled: true
Nonlinearity correction enabled: false
Boxcar width: 0
XAxis mode: Wavelengths
Number of Pixels in Spectrum: 2048
>>>>>Begin Spectral Data<<<<<
223.165	-19.88
223.4	-19.88
223.635	-19.88
223.869	-31.88
224.104	-9.88
224.338	-16.88
224.573	-15.88
224.808	-8.88
225.042	3.12
225.277	-2.88
225.511	-2.88
225.746	4.12
225.98	3.12
226.215	4.12
226.449	19.12
226.683	17.12
226.918	20.12
227.152	38.12
227.387	35.12
227.621	35.12
227.856	45.12
228.09	36.12
228.324	46.12
228.559	45.12
228.793	62.12
229.027	71.12
229.262	81.12
229.496	73.12
229.73	104.12
229.964	87.12
230.199	76.12
230.433	72.12
230.667	77.12
230.901	80.12
231.136	80.12
231.37	90.12
231.604	80.12
231.838	71.12
232.072	89.12
232.306	70.12
232.541	88.12
232.775	71.12
233.009	95.12
233.243	74.12
233.477	86.12
233.711	85.12
233.945	78.12
234.179	73.12
234.413	74.12
234.647	88.12
234.881	82.12
235.115	87.12
235.349	83.12
235.583	95.12
235.817	80.12
236.051	80.12
236.285	75.12
236.519	89.12
236.753	69.12
236.987	88.12
237.221	94.12
237.455	100.12
237.689	78.12
237.922	71.12
238.156	76.12
238.39	93.12
238.624	77.12
238.858	85.12
239.091	81.12
239.325	75.12
239.559	70.12
239.793	69.12
240.027	91.12
240.26	78.12
240.494	72.12
240.728	80.12
240.961	78.12
241.195	79.12
241.429	64.12
241.662	87.12
241.896	84.12
242.13	83.12
242.363	71.12
242.597	84.12
242.83	78.12
243.064	64.12
243.298	88.12
243.531	65.12
243.765	83.12
243.998	87.12
244.232	77.12
244.465	81.12
244.699	82.12
244.932	102.12
245.166	75.12
245.399	69.12
245.633	81.12
245.866	70.12
246.099	67.12
246.333	72.12
246.566	79.12
246.8	75.12
247.033	103.12
247.266	71.12
247.5	68.12
247.733	83.12
247.966	87.12
248.2	92.12
248.433	62.12
248.666	84.12
248.899	88.12
249.133	77.12
249.366	88.12
249.599	100.12
249.832	85.12
250.066	80.12
250.299	81.12
250.532	77.12
250.765	82.12
250.998	73.12
251.231	68.12
251.465	77.12
251.698	78.12
251.931	81.12
252.164	79.12
252.397	76.12
252.63	75.12
252.863	87.12
253.096	81.12
253.329	78.12
253.562	77.12
253.795	83.12
254.028	82.12
254.261	76.12
254.494	76.12
254.727	77.12
254.96	87.12
255.193	98.12
255.426	73.12
255.659	88.12
255.892	78.12
256.124	85.12
256.357	78.12
256.59	86.12
256.823	89.12
257.056	88.12
257.289	84.12
257.521	84.12
257.754	74.12
257.987	78.12
258.22	84.12
258.452	75.12
258.685	80.12
258.918	81.12
259.151	65.12
259.383	82.12
259.616	72.12
259.849	75.12
260.081	82.12
260.314	68.12
260.547	85.12
260.779	94.12
261.012	89.12
261.244	95.12
261.477	77.12
261.71	105.12
261.942	95.12
262.175	114.12
262.407	72.12
262.64	79.12
262.872	86.12
263.105	75.12
263.337	77.12
263.57	84.12
263.802	80.12
264.035	77.12
264.267	80.12
264.499	86.12
264.732	86.12
264.964	76.12
265.197	74.12
265.429	80.12
265.661	91.12
265.894	82.12
266.126	80.12
266.358	81.12
266.591	97.12
266.823	84.12
267.055	85.12
267.287	96.12
267.52	87.12
267.752	88.12
267.984	84.12
268.216	87.12
268.448	88.12
268.681	80.12
268.913	78.12
269.145	71.12
269.377	84.12
269.609	87.12
269.841	87.12
270.073	77.12
270.306	75.12
270.538	90.12
270.77	89.12
271.002	71.12
271.234	90.12
271.466	87.12
271.698	89.12
271.93	84.12
272.162	82.12
272.394	80.12
272.626	81.12
272.858	86.12
273.09	83.12
273.322	82.12
273.553	98.12
273.785	87.12
274.017	87.12
274.249	88.12
274.481	80.12
274.713	77.12
274.945	81.12
275.176	89.12
275.408	82.12
275.64	87.12
275.872	94.12
276.104	79.12
276.335	89.12
276.567	86.12
276.799	89.12
277.031	106.12
277.262	106.12
277.494	93.12
277.726	88.12
277.957	81.12
278.189	87.12
278.421	93.12
278.652	92.12
278.884	85.12
279.115	91.12
279.347	81.12
279.579	86.12
279.81	86.12
280.042	102.12
280.273	91.12
280.505	81.12
280.736	94.12
280.968	82.12
281.199	102.12
281.431	95.12
281.662	89.12
281.894	91.12
282.125	92.12
282.356	111.12
282.588	139.12
282.819	115.12
283.051	91.12
283.282	88.12
283.513	96.12
283.745	90.12
283.976	91.12
284.207	82.12
284.439	86.12
284.67	92.12
284.901	81.12
285.132	82.12
285.364	87.12
285.595	85.12
285.826	93.12
286.057	91.12
286.288	79.12
286.52	96.12
286.751	79.12
286.982	96.12
287.213	90.12
287.444	97.12
287.675	95.12
287.906	85.12
288.138	99.12
288.369	93.12
288.6	105.12
288.831	89.12
289.062	90.12
289.293	93.12
289.524	83.12
289.755	84.12
289.986	89.12
290.217	87.12
290.448	83.12
290.679	74.12
290.91	84.12
291.141	81.12
291.371	100.12
291.602	87.12
291.833	93.12
292.064	85.12
292.295	79.12
292.526	76.12
292.757	84.12
292.987	84.12
293.218	99.12
293.449	93.12
293.68	94.12
293.91	100.12
294.141	83.12
294.372	94.12
294.603	97.12
294.833	105.12
295.064	86.12
295.295	86.12
295.525	84.12
295.756	100.12
295.987	107.12
296.217	130.12
296.448	104.12
296.679	86.12
296.909	94.12
297.14	98.12
297.37	82.12
297.601	94.12
297.831	106.12
298.062	83.12
298.292	86.12
298.523	87.12
298.753	88.12
298.984	81.12
299.214	85.12
299.445	81.12
299.675	96.12
299.905	88.12
300.136	84.12
300.366	93.12
300.597	97.12
300.827	97.12
301.057	92.12
301.288	96.12
301.518	97.12
301.748	87.12
301.979	88.12
302.209	96.12
302.439	93.12
302.669	88.12
302.9	85.12
303.13	72.12
303.36	94.12
303.59	87.12
303.82	107.12
304.051	76.12
304.281	92.12
304.511	95.12
304.741	89.12
304.971	64.12
305.201	102.12
305.431	83.12
305.661	90.12
305.891	101.12
306.121	79.12
306.352	92.12
306.582	98.12
306.812	92.12
307.042	93.12
307.272	94.12
307.502	113.12
307.731	106.12
307.961	93.12
308.191	96.12
308.421	85.12
308.651	92.12
308.881	105.12
309.111	101.12
309.341	92.12
309.571	109.12
309.8	104.12
310.03	95.12
310.26	88.12
310.49	80.12
310.72	88.12
310.949	103.12
311.179	108.12
311.409	95.12
311.639	91.12
311.868	105.12
312.098	88.12
312.328	90.12
312.557	96.12
312.787	100.12
313.017	106.12
313.246	98.12
313.476	83.12
313.706	88.12
313.935	87.12
314.165	97.12
314.394	102.12
314.624	91.12
314.853	106.12
315.083	90.12
315.312	98.12
315.542	92.12
315.771	104.12
316.001	100.12
316.23	88.12
316.46	98.12
316.689	94.12
316.919	93.12
317.148	100.12
317.377	94.12
317.607	95.12
317.836	90.12
318.065	94.12
318.295	83.12
318.524	82.12
318.753	88.12
318.983	88.12
319.212	108.12
319.441	112.12
319.67	116.12
319.9	87.12
320.129	88.12
320.358	96.12
320.587	106.12
320.816	99.12
321.046	93.12
321.275	113.12
321.504	107.12
321.733	107.12
321.962	96.12
322.191	104.12
322.42	103.12
322.649	116.12
322.878	108.12
323.108	129.12
323.337	129.12
323.566	146.12
323.795	161.12
324.024	204.12
324.253	400.12
324.482	843.12
324.71	1727.12
324.939	2229.12
325.168	836.12
325.397	252.12
325.626	161.12
325.855	133.12
326.084	112.12
326.313	144.12
326.542	144.12
326.77	237.12
326.999	487.12
327.228	993.12
327.457	1790.12
327.686	1409.12
327.914	368.12
328.143	190.12
328.372	141.12
328.6	117.12
328.829	110.12
329.058	138.12
329.287	128.12
329.515	114.12
329.744	109.12
329.972	88.12
330.201	110.12
330.43	108.12
330.658	107.12
330.887	137.12
331.115	108.12
331.344	111.12
331.572	97.12
331.801	111.12
332.03	110.12
332.258	89.12
332.486	82.12
332.715	87.12
332.943	95.12
333.172	92.12
333.4	101.12
333.629	99.12
333.857	106.12
334.085	113.12
334.314	97.12
334.542	103.12
334.771	99.12
334.999	97.12
335.227	107.12
335.455	94.12
335.684	90.12
335.912	109.12
336.14	104.12
336.369	103.12
336.597	94.12
336.825	96.12
337.053	95.12
337.281	87.12
337.51	107.12
337.738	92.12
337.966	94.12
338.194	86.12
338.422	87.12
338.65	97.12
338.878	85.12
339.106	89.12
339.334	95.12
339.562	98.12
339.79	90.12
340.018	88.12
340.246	92.12
340.474	94.12
340.702	95.12
340.93	103.12
341.158	94.12
341.386	95.12
341.614	85.12
341.842	112.12
342.07	91.12
342.298	89.12
342.526	101.12
342.754	89.12
342.981	84.12
343.209	85.12
343.437	91.12
343.665	94.12
343.893	83.12
344.12	80.12
344.348	95.12
344.576	84.12
344.804	92.12
345.031	105.12
345.259	103.12
345.487	93.12
345.714	107.12
345.942	86.12
346.17	99.12
346.397	86.12
346.625	100.12
346.853	96.12
347.08	90.12
347.308	92.12
347.535	109.12
347.763	98.12
347.99	83.12
348.218	109.12
348.445	99.12
348.673	98.12
348.9	99.12
349.128	113.12
349.355	102.12
349.583	97.12
349.81	85.12
350.037	88.12
350.265	84.12
350.492	97.12
350.72	90.12
350.947	96.12
351.174	98.12
351.402	108.12
351.629	98.12
351.856	95.12
352.083	110.12
352.311	118.12
352.538	104.12
352.765	107.12
352.992	102.12
353.22	107.12
353.447	108.12
353.674	91.12
353.901	70.12
354.128	104.12
354.355	95.12
354.583	104.12
354.81	107.12
355.037	121.12
355.264	102.12
355.491	92.12
355.718	95.12
355.945	93.12
356.172	98.12
356.399	93.12
356.626	105.12
356.853	113.12
357.08	95.12
357.307	95.12
357.534	102.12
357.761	99.12
357.988	101.12
358.215	108.12
358.441	102.12
358.668	96.12
358.895	89.12
359.122	92.12
359.349	70.12
359.576	89.12
359.802	107.12
360.029	108.12
360.256	101.12
360.483	113.12
360.709	99.12
360.936	89.12
361.163	93.12
361.39	92.12
361.616	85.12
361.843	87.12
362.07	94.12
362.296	100.12
362.523	99.12
362.749	101.12
362.976	85.12
363.203	107.12
363.429	84.12
363.656	71.12
363.882	81.12
364.109	91.12
364.335	78.12
364.562	84.12
364.788	112.12
365.015	95.12
365.241	106.12
365.468	104.12
365.694	94.12
365.92	106.12
366.147	95.12
366.373	85.12
366.599	86.12
366.826	100.12
367.052	92.12
367.278	79.12
367.505	89.12
367.731	93.12
367.957	89.12
368.184	95.12
368.41	93.12
368.636	109.12
368.862	113.12
369.089	97.12
369.315	108.12
369.541	99.12
369.767	97.12
369.993	86.12
370.219	86.12
370.445	85.12
370.672	78.12
370.898	84.12
371.124	88.12
371.35	92.12
371.576	89.12
371.802	80.12
372.028	80.12
372.254	99.12
372.48	93.12
372.706	107.12
372.932	105.12
373.158	87.12
373.384	90.12
373.61	88.12
373.835	82.12
374.061	92.12
374.287	78.12
374.513	95.12
374.739	98.12
374.965	101.12
375.191	88.12
375.416	70.12
375.642	87.12
375.868	103.12
376.094	77.12
376.319	90.12
376.545	85.12
376.771	96.12
376.997	96.12
377.222	87.12
377.448	96.12
377.674	106.12
377.899	104.12
378.125	105.12
378.35	99.12
378.576	102.12
378.802	89.12
379.027	87.12
379.253	89.12
379.478	94.12
379.704	100.12
379.929	103.12
380.155	99.12
380.38	103.12
380.606	93.12
380.831	89.12
381.057	103.12
381.282	94.12
381.507	111.12
381.733	110.12
381.958	97.12
382.184	98.12
382.409	95.12
382.634	106.12
382.86	94.12
383.085	87.12
383.31	109.12
383.535	93.12
383.761	103.12
383.986	100.12
384.211	90.12
384.436	100.12
384.662	103.12
384.887	87.12
385.112	112.12
385.337	104.12
385.562	102.12
385.787	101.12
386.013	112.12
386.238	102.12
386.463	103.12
386.688	124.12
386.913	110.12
387.138	107.12
387.363	107.12
387.588	110.12
387.813	106.12
388.038	105.12
388.263	131.12
388.488	108.12
388.713	106.12
388.938	103.12
389.163	82.12
389.387	105.12
389.612	81.12
389.837	92.12
390.062	100.12
390.287	92.12
390.512	109.12
390.736	96.12
390.961	91.12
391.186	97.12
391.411	101.12
391.636	78.12
391.86	79.12
392.085	80.12
392.31	90.12
392.534	73.12
392.759	76.12
392.984	84.12
393.208	94.12
393.433	84.12
393.658	93.12
393.882	87.12
394.107	96.12
394.331	81.12
394.556	91.12
394.78	88.12
395.005	81.12
395.229	84.12
395.454	78.12
395.678	89.12
395.903	90.12
396.127	81.12
396.352	84.12
396.576	87.12
396.801	90.12
397.025	86.12
397.249	87.12
397.474	95.12
397.698	94.12
397.922	90.12
398.147	92.12
398.371	92.12
398.595	71.12
398.82	75.12
399.044	83.12
399.268	82.12
399.492	92.12
399.717	82.12
399.941	92.12
400.165	91.12
400.389	100.12
400.613	77.12
400.837	92.12
401.062	91.12
401.286	87.12
401.51	97.12
401.734	98.12
401.958	111.12
402.182	130.12
402.406	145.12
402.63	105.12
402.854	98.12
403.078	96.12
403.302	93.12
403.526	104.12
403.75	93.12
403.974	87.12
404.198	75.12
404.422	99.12
404.645	86.12
404.869	95.12
405.093	94.12
405.317	82.12
405.541	105.12
405.765	96.12
405.988	104.12
406.212	141.12
406.436	189.12
406.66	136.12
406.883	104.12
407.107	96.12
407.331	97.12
407.555	112.12
407.778	96.12
408.002	88.12
408.226	87.12
408.449	81.12
408.673	98.12
408.896	95.12
409.12	85.12
409.344	94.12
409.567	95.12
409.791	85.12
410.014	100.12
410.238	100.12
410.461	96.12
410.685	85.12
410.908	104.12
411.132	92.12
411.355	103.12
411.578	118.12
411.802	92.12
412.025	87.12
412.249	90.12
412.472	96.12
412.695	91.12
412.919	91.12
413.142	78.12
413.365	94.12
413.589	96.12
413.812	78.12
414.035	94.12
414.258	86.12
414.482	88.12
414.705	86.12
414.928	91.12
415.151	93.12
415.374	100.12
415.597	93.12
415.821	83.12
416.044	94.12
416.267	96.12
416.49	79.12
416.713	92.12
416.936	84.12
417.159	87.12
417.382	93.12
417.605	84.12
417.828	88.12
418.051	98.12
418.274	85.12
418.497	83.12
418.72	100.12
418.943	82.12
419.166	82.12
419.389	96.12
419.611	80.12
419.834	94.12
420.057	93.12
420.28	89.12
420.503	83.12
420.726	81.12
420.948	85.12
421.171	103.12
421.394	87.12
421.617	94.12
421.839	89.12
422.062	83.12
422.285	99.12
422.507	107.12
422.73	107.12
422.953	103.12
423.175	101.12
423.398	97.12
423.621	92.12
423.843	96.12
424.066	83.12
424.288	93.12
424.511	94.12
424.733	99.12
424.956	100.12
425.178	103.12
425.401	108.12
425.623	108.12
425.846	82.12
426.068	98.12
426.291	96.12
426.513	98.12
426.735	95.12
426.958	89.12
427.18	110.12
427.402	136.12
427.625	161.12
427.847	124.12
428.069	96.12
428.292	89.12
428.514	102.12
428.736	74.12
428.958	76.12
429.181	103.12
429.403	99.12
429.625	88.12
429.847	75.12
430.069	104.12
430.292	86.12
430.514	92.12
430.736	76.12
430.958	79.12
431.18	91.12
431.402	88.12
431.624	78.12
431.846	86.12
432.068	91.12
432.29	86.12
432.512	87.12
432.734	89.12
432.956	87.12
433.178	98.12
433.4	92.12
433.622	103.12
433.844	84.12
434.066	84.12
434.287	95.12
434.509	103.12
434.731	83.12
434.953	84.12
435.175	88.12
435.397	103.12
435.618	92.12
435.84	91.12
436.062	128.12
436.284	131.12
436.505	109.12
436.727	89.12
436.949	100.12
437.17	76.12
437.392	77.12
437.614	98.12
437.835	112.12
438.057	137.12
438.278	134.12
438.5	107.12
438.721	135.12
438.943	108.12
439.165	80.12
439.386	102.12
439.608	102.12
439.829	96.12
440.05	136.12
440.272	137.12
440.493	97.12
440.715	86.12
440.936	86.12
441.158	101.12
441.379	108.12
441.6	98.12
441.822	101.12
442.043	100.12
442.264	112.12
442.486	101.12
442.707	84.12
442.928	96.12
443.149	119.12
443.371	128.12
443.592	108.12
443.813	137.12
444.034	114.12
444.255	83.12
444.476	100.12
444.698	92.12
444.919	78.12
445.14	144.12
445.361	121.12
445.582	119.12
445.803	146.12
446.024	134.12
446.245	141.12
446.466	120.12
446.687	97.12
446.908	82.12
447.129	86.12
447.35	80.12
447.571	89.12
447.792	87.12
448.013	98.12
448.234	108.12
448.455	96.12
448.675	125.12
448.896	133.12
449.117	92.12
449.338	116.12
449.559	137.12
449.779	143.12
450	92.12
450.221	105.12
450.442	91.12
450.662	99.12
450.883	103.12
451.104	105.12
451.324	91.12
451.545	94.12
451.766	83.12
451.986	84.12
452.207	89.12
452.428	87.12
452.648	86.12
452.869	115.12
453.089	108.12
453.31	104.12
453.53	90.12
453.751	83.12
453.971	87.12
454.192	93.12
454.412	85.12
454.633	96.12
454.853	91.12
455.073	101.12
455.294	93.12
455.514	87.12
455.734	90.12
455.955	89.12
456.175	73.12
456.395	78.12
456.616	92.12
456.836	72.12
457.056	93.12
457.276	81.12
457.497	90.12
457.717	90.12
457.937	92.12
458.157	88.12
458.377	97.12
458.598	92.12
458.818	149.12
459.038	153.12
459.258	119.12
459.478	93.12
459.698	83.12
459.918	88.12
460.138	88.12
460.358	83.12
460.578	94.12
460.798	95.12
461.018	87.12
461.238	87.12
461.458	81.12
461.678	87.12
461.898	88.12
462.118	87.12
462.338	78.12
462.558	95.12
462.777	81.12
462.997	85.12
463.217	91.12
463.437	77.12
463.657	95.12
463.876	91.12
464.096	89.12
464.316	103.12
464.536	91.12
464.755	88.12
464.975	113.12
465.195	160.12
465.414	153.12
465.634	87.12
465.854	90.12
466.073	81.12
466.293	101.12
466.512	93.12
466.732	78.12
466.951	94.12
467.171	96.12
467.391	82.12
467.61	99.12
467.829	84.12
468.049	98.12
468.268	87.12
468.488	89.12
468.707	86.12
468.927	95.12
469.146	83.12
469.365	105.12
469.585	95.12
469.804	97.12
470.023	96.12
470.243	101.12
470.462	104.12
470.681	111.12
470.901	84.12
471.12	84.12
471.339	81.12
471.558	82.12
471.777	88.12
471.997	108.12
472.216	92.12
472.435	95.12
472.654	99.12
472.873	87.12
473.092	72.12
473.311	90.12
473.53	91.12
473.749	97.12
473.968	88.12
474.187	103.12
474.406	99.12
474.625	92.12
474.844	109.12
475.063	83.12
475.282	86.12
475.501	78.12
475.72	86.12
475.939	88.12
476.158	86.12
476.377	82.12
476.596	94.12
476.814	87.12
477.033	92.12
477.252	97.12
477.471	96.12
477.69	85.12
477.908	99.12
478.127	86.12
478.346	87.12
478.564	92.12
478.783	88.12
479.002	81.12
479.22	83.12
479.439	93.12
479.658	100.12
479.876	96.12
480.095	85.12
480.313	96.12
480.532	82.12
480.751	94.12
480.969	87.12
481.188	95.12
481.406	96.12
481.624	83.12
481.843	80.12
482.061	95.12
482.28	81.12
482.498	99.12
482.717	70.12
482.935	100.12
483.153	88.12
483.372	86.12
483.59	88.12
483.808	89.12
484.027	85.12
484.245	92.12
484.463	99.12
484.681	104.12
484.9	79.12
485.118	91.12
485.336	91.12
485.554	111.12
485.772	99.12
485.99	112.12
486.209	112.12
486.427	96.12
486.645	89.12
486.863	111.12
487.081	91.12
487.299	94.12
487.517	89.12
487.735	94.12
487.953	96.12
488.171	100.12
488.389	104.12
488.607	110.12
488.825	91.12
489.043	79.12
489.261	93.12
489.479	98.12
489.696	106.12
489.914	83.12
490.132	89.12
490.35	86.12
490.568	88.12
490.786	100.12
491.003	95.12
491.221	104.12
491.439	88.12
491.657	100.12
491.874	90.12
492.092	95.12
492.31	77.12
492.527	86.12
492.745	97.12
492.963	87.12
493.18	107.12
493.398	92.12
493.615	84.12
493.833	97.12
494.05	82.12
494.268	90.12
494.485	94.12
494.703	95.12
494.92	84.12
495.138	89.12
495.355	94.12
495.573	104.12
495.79	78.12
496.008	118.12
496.225	84.12
496.442	84.12
496.66	96.12
496.877	99.12
497.094	99.12
497.312	96.12
497.529	89.12
497.746	100.12
497.963	90.12
498.181	96.12
498.398	101.12
498.615	90.12
498.832	99.12
499.049	96.12
499.267	84.12
499.484	89.12
499.701	79.12
499.918	90.12
500.135	85.12
500.352	87.12
500.569	101.12
500.786	100.12
501.003	103.12
501.22	91.12
501.437	99.12
501.654	100.12
501.871	101.12
502.088	95.12
502.305	78.12
502.522	96.12
502.739	84.12
502.956	89.12
503.172	81.12
503.389	103.12
503.606	103.12
503.823	102.12
504.04	96.12
504.256	87.12
504.473	97.12
504.69	100.12
504.907	97.12
505.123	91.12
505.34	89.12
505.557	78.12
505.773	104.12
505.99	94.12
506.207	91.12
506.423	78.12
506.64	87.12
506.856	109.12
507.073	92.12
507.289	100.12
507.506	98.12
507.722	117.12
507.939	113.12
508.155	99.12
508.372	111.12
508.588	98.12
508.805	86.12
509.021	101.12
509.238	88.12
509.454	99.12
509.67	113.12
509.887	117.12
510.103	128.12
510.319	205.12
510.536	718.12
510.752	2083.12
510.968	624.12
511.184	147.12
511.401	104.12
511.617	89.12
511.833	91.12
512.049	77.12
512.265	80.12
512.481	107.12
512.698	108.12
512.914	114.12
513.13	87.12
513.346	85.12
513.562	89.12
513.778	84.12
513.994	87.12
514.21	95.12
514.426	127.12
514.642	122.12
514.858	110.12
515.074	169.12
515.29	417.12
