Data from Uncirc_2005_H10_HRD10591_00078.txt Node
Date: Wed Jan 03 10:28:40 EST 2024
User: Yrep
Spectrometer: HR+D1059
Trigger mode: 1
Integration Time (sec): 1.000000E-1
Scans to average: 1
Electric dark correction enabled: true
Nonlinearity correction enabled: false
Boxcar width: 0
XAxis mode: Wavelengths
Number of Pixels in Spectrum: 2048
>>>>>Begin Spectral Data<<<<<
223.165	-16.88
223.4	-16.88
223.635	-16.88
223.869	-21.88
224.104	-20.88
224.338	-30.88
224.573	-9.88
224.808	-5.88
225.042	-4.88
225.277	7.12
225.511	11.12
225.746	2.12
225.98	11.12
226.215	5.12
226.449	22.12
226.683	16.12
226.918	16.12
227.152	20.12
227.387	34.12
227.621	39.12
227.856	54.12
228.09	63.12
228.324	51.12
228.559	60.12
228.793	65.12
229.027	65.12
229.262	87.12
229.496	81.12
229.73	84.12
229.964	88.12
230.199	64.12
230.433	76.12
230.667	83.12
230.901	83.12
231.136	79.12
231.37	79.12
231.604	76.12
231.838	77.12
232.072	78.12
232.306	75.12
232.541	78.12
232.775	79.12
233.009	85.12
233.243	89.12
233.477	85.12
233.711	106.12
233.945	87.12
234.179	87.12
234.413	88.12
234.647	70.12
234.881	75.12
235.115	84.12
235.349	81.12
235.583	82.12
235.817	76.12
236.051	66.12
236.285	79.12
236.519	78.12
236.753	99.12
236.987	75.12
237.221	80.12
237.455	87.12
237.689	84.12
237.922	67.12
238.156	80.12
238.39	83.12
238.624	77.12
238.858	65.12
239.091	77.12
239.325	86.12
239.559	91.12
239.793	86.12
240.027	87.12
240.26	81.12
240.494	79.12
240.728	83.12
240.961	72.12
241.195	72.12
241.429	75.12
241.662	64.12
241.896	66.12
242.13	82.12
242.363	76.12
242.597	78.12
242.83	84.12
243.064	78.12
243.298	81.12
243.531	77.12
243.765	69.12
243.998	80.12
244.232	92.12
244.465	93.12
244.699	71.12
244.932	89.12
245.166	89.12
245.399	79.12
245.633	82.12
245.866	82.12
246.099	100.12
246.333	80.12
246.566	92.12
246.8	66.12
247.033	80.12
247.266	77.12
247.5	79.12
247.733	89.12
247.966	90.12
248.2	75.12
248.433	65.12
248.666	83.12
248.899	91.12
249.133	93.12
249.366	95.12
249.599	97.12
249.832	87.12
250.066	78.12
250.299	93.12
250.532	75.12
250.765	75.12
250.998	76.12
251.231	66.12
251.465	78.12
251.698	88.12
251.931	77.12
252.164	83.12
252.397	84.12
252.63	90.12
252.863	90.12
253.096	76.12
253.329	79.12
253.562	75.12
253.795	77.12
254.028	74.12
254.261	69.12
254.494	78.12
254.727	77.12
254.96	96.12
255.193	90.12
255.426	83.12
255.659	66.12
255.892	88.12
256.124	80.12
256.357	78.12
256.59	66.12
256.823	83.12
257.056	88.12
257.289	79.12
257.521	87.12
257.754	77.12
257.987	84.12
258.22	76.12
258.452	65.12
258.685	70.12
258.918	93.12
259.151	87.12
259.383	88.12
259.616	77.12
259.849	92.12
260.081	72.12
260.314	88.12
260.547	77.12
260.779	79.12
261.012	80.12
261.244	81.12
261.477	84.12
261.71	93.12
261.942	104.12
262.175	109.12
262.407	87.12
262.64	82.12
262.872	76.12
263.105	87.12
263.337	95.12
263.57	91.12
263.802	87.12
264.035	78.12
264.267	101.12
264.499	80.12
264.732	82.12
264.964	88.12
265.197	99.12
265.429	85.12
265.661	69.12
265.894	80.12
266.126	91.12
266.358	87.12
266.591	72.12
266.823	91.12
267.055	83.12
267.287	82.12
267.52	91.12
267.752	91.12
267.984	101.12
268.216	90.12
268.448	90.12
268.681	85.12
268.913	89.12
269.145	90.12
269.377	95.12
269.609	78.12
269.841	79.12
270.073	80.12
270.306	81.12
270.538	88.12
270.77	88.12
271.002	82.12
271.234	85.12
271.466	80.12
271.698	81.12
271.93	93.12
272.162	93.12
272.394	90.12
272.626	94.12
272.858	80.12
273.09	93.12
273.322	84.12
273.553	89.12
273.785	87.12
274.017	72.12
274.249	98.12
274.481	84.12
274.713	77.12
274.945	94.12
275.176	89.12
275.408	80.12
275.64	68.12
275.872	82.12
276.104	81.12
276.335	90.12
276.567	100.12
276.799	101.12
277.031	88.12
277.262	89.12
277.494	89.12
277.726	80.12
277.957	95.12
278.189	73.12
278.421	72.12
278.652	86.12
278.884	80.12
279.115	88.12
279.347	88.12
279.579	83.12
279.81	83.12
280.042	86.12
280.273	91.12
280.505	87.12
280.736	74.12
280.968	99.12
281.199	84.12
281.431	97.12
281.662	103.12
281.894	103.12
282.125	104.12
282.356	104.12
282.588	126.12
282.819	103.12
283.051	88.12
283.282	98.12
283.513	91.12
283.745	96.12
283.976	93.12
284.207	89.12
284.439	89.12
284.67	85.12
284.901	91.12
285.132	89.12
285.364	89.12
285.595	76.12
285.826	83.12
286.057	89.12
286.288	82.12
286.52	83.12
286.751	87.12
286.982	73.12
287.213	88.12
287.444	100.12
287.675	89.12
287.906	79.12
288.138	92.12
288.369	91.12
288.6	88.12
288.831	105.12
289.062	89.12
289.293	93.12
289.524	88.12
289.755	101.12
289.986	91.12
290.217	87.12
290.448	77.12
290.679	102.12
290.91	93.12
291.141	80.12
291.371	97.12
291.602	94.12
291.833	89.12
292.064	85.12
292.295	88.12
292.526	86.12
292.757	78.12
292.987	89.12
293.218	88.12
293.449	88.12
293.68	102.12
293.91	77.12
294.141	86.12
294.372	68.12
294.603	87.12
294.833	102.12
295.064	85.12
295.295	88.12
295.525	90.12
295.756	98.12
295.987	112.12
296.217	119.12
296.448	117.12
296.679	100.12
296.909	96.12
297.14	89.12
297.37	97.12
297.601	84.12
297.831	84.12
298.062	82.12
298.292	80.12
298.523	87.12
298.753	81.12
298.984	93.12
299.214	91.12
299.445	89.12
299.675	94.12
299.905	98.12
300.136	91.12
300.366	85.12
300.597	94.12
300.827	89.12
301.057	98.12
301.288	110.12
301.518	89.12
301.748	90.12
301.979	94.12
302.209	87.12
302.439	90.12
302.669	84.12
302.9	100.12
303.13	88.12
303.36	101.12
303.59	107.12
303.82	87.12
304.051	97.12
304.281	89.12
304.511	93.12
304.741	84.12
304.971	87.12
305.201	100.12
305.431	97.12
305.661	89.12
305.891	77.12
306.121	86.12
306.352	85.12
306.582	99.12
306.812	88.12
307.042	87.12
307.272	108.12
307.502	83.12
307.731	102.12
307.961	83.12
308.191	92.12
308.421	93.12
308.651	88.12
308.881	84.12
309.111	94.12
309.341	95.12
309.571	94.12
309.8	94.12
310.03	93.12
310.26	101.12
310.49	96.12
310.72	80.12
310.949	100.12
311.179	101.12
311.409	99.12
311.639	81.12
311.868	99.12
312.098	99.12
312.328	107.12
312.557	108.12
312.787	111.12
313.017	103.12
313.246	103.12
313.476	99.12
313.706	95.12
313.935	93.12
314.165	91.12
314.394	99.12
314.624	99.12
314.853	98.12
315.083	115.12
315.312	76.12
315.542	84.12
315.771	105.12
316.001	99.12
316.23	93.12
316.46	85.12
316.689	92.12
316.919	92.12
317.148	83.12
317.377	94.12
317.607	92.12
317.836	96.12
318.065	92.12
318.295	85.12
318.524	73.12
318.753	96.12
318.983	100.12
319.212	107.12
319.441	91.12
319.67	117.12
319.9	97.12
320.129	102.12
320.358	103.12
320.587	89.12
320.816	113.12
321.046	120.12
321.275	89.12
321.504	94.12
321.733	102.12
321.962	100.12
322.191	84.12
322.42	99.12
322.649	123.12
322.878	124.12
323.108	123.12
323.337	125.12
323.566	119.12
323.795	137.12
324.024	192.12
324.253	393.12
324.482	776.12
324.71	1549.12
324.939	2036.12
325.168	748.12
325.397	252.12
325.626	148.12
325.855	126.12
326.084	127.12
326.313	122.12
326.542	156.12
326.77	204.12
326.999	438.12
327.228	907.12
327.457	1636.12
327.686	1261.12
327.914	355.12
328.143	184.12
328.372	147.12
328.6	112.12
328.829	113.12
329.058	120.12
329.287	109.12
329.515	109.12
329.744	105.12
329.972	104.12
330.201	105.12
330.43	97.12
330.658	120.12
330.887	147.12
331.115	135.12
331.344	90.12
331.572	99.12
331.801	100.12
332.03	107.12
332.258	94.12
332.486	92.12
332.715	89.12
332.943	84.12
333.172	102.12
333.4	70.12
333.629	120.12
333.857	85.12
334.085	97.12
334.314	91.12
334.542	80.12
334.771	81.12
334.999	98.12
335.227	92.12
335.455	94.12
335.684	85.12
335.912	99.12
336.14	98.12
336.369	101.12
336.597	105.12
336.825	94.12
337.053	91.12
337.281	109.12
337.51	87.12
337.738	99.12
337.966	99.12
338.194	99.12
338.422	96.12
338.65	101.12
338.878	85.12
339.106	92.12
339.334	108.12
339.562	86.12
339.79	89.12
340.018	96.12
340.246	115.12
340.474	87.12
340.702	86.12
340.93	85.12
341.158	99.12
341.386	87.12
341.614	85.12
341.842	99.12
342.07	85.12
342.298	78.12
342.526	82.12
342.754	97.12
342.981	101.12
343.209	89.12
343.437	101.12
343.665	93.12
343.893	80.12
344.12	98.12
344.348	88.12
344.576	96.12
344.804	95.12
345.031	92.12
345.259	101.12
345.487	96.12
345.714	103.12
345.942	88.12
346.17	86.12
346.397	98.12
346.625	98.12
346.853	93.12
347.08	77.12
347.308	78.12
347.535	89.12
347.763	103.12
347.99	91.12
348.218	97.12
348.445	108.12
348.673	94.12
348.9	100.12
349.128	97.12
349.355	86.12
349.583	97.12
349.81	93.12
350.037	88.12
350.265	113.12
350.492	96.12
350.72	108.12
350.947	88.12
351.174	116.12
351.402	95.12
351.629	99.12
351.856	96.12
352.083	92.12
352.311	97.12
352.538	103.12
352.765	111.12
352.992	109.12
353.22	106.12
353.447	100.12
353.674	108.12
353.901	99.12
354.128	97.12
354.355	103.12
354.583	93.12
354.81	103.12
355.037	95.12
355.264	96.12
355.491	96.12
355.718	79.12
355.945	73.12
356.172	86.12
356.399	86.12
356.626	103.12
356.853	89.12
357.08	86.12
357.307	109.12
357.534	102.12
357.761	89.12
357.988	99.12
358.215	102.12
358.441	86.12
358.668	75.12
358.895	103.12
359.122	85.12
359.349	87.12
359.576	98.12
359.802	102.12
360.029	113.12
360.256	110.12
360.483	105.12
360.709	99.12
360.936	84.12
361.163	93.12
361.39	104.12
361.616	87.12
361.843	96.12
362.07	104.12
362.296	91.12
362.523	89.12
362.749	89.12
362.976	86.12
363.203	95.12
363.429	79.12
363.656	100.12
363.882	92.12
364.109	87.12
364.335	83.12
364.562	85.12
364.788	99.12
365.015	92.12
365.241	84.12
365.468	100.12
365.694	97.12
365.92	96.12
366.147	94.12
366.373	101.12
366.599	97.12
366.826	73.12
367.052	102.12
367.278	95.12
367.505	93.12
367.731	104.12
367.957	86.12
368.184	83.12
368.41	107.12
368.636	110.12
368.862	118.12
369.089	89.12
369.315	82.12
369.541	100.12
369.767	85.12
369.993	88.12
370.219	89.12
370.445	89.12
370.672	91.12
370.898	91.12
371.124	104.12
371.35	80.12
371.576	90.12
371.802	84.12
372.028	91.12
372.254	88.12
372.48	89.12
372.706	77.12
372.932	91.12
373.158	90.12
373.384	92.12
373.61	95.12
373.835	109.12
374.061	98.12
374.287	94.12
374.513	92.12
374.739	99.12
374.965	98.12
375.191	93.12
375.416	89.12
375.642	93.12
375.868	84.12
376.094	99.12
376.319	89.12
376.545	91.12
376.771	82.12
376.997	93.12
377.222	89.12
377.448	89.12
377.674	95.12
377.899	91.12
378.125	85.12
378.35	103.12
378.576	86.12
378.802	103.12
379.027	91.12
379.253	103.12
379.478	98.12
379.704	96.12
379.929	80.12
380.155	102.12
380.38	94.12
380.606	104.12
380.831	104.12
381.057	76.12
381.282	96.12
381.507	102.12
381.733	107.12
381.958	88.12
382.184	93.12
382.409	105.12
382.634	117.12
382.86	111.12
383.085	106.12
383.31	96.12
383.535	105.12
383.761	107.12
383.986	115.12
384.211	106.12
384.436	105.12
384.662	100.12
384.887	93.12
385.112	108.12
385.337	87.12
385.562	86.12
385.787	107.12
386.013	119.12
386.238	117.12
386.463	112.12
386.688	111.12
386.913	98.12
387.138	102.12
387.363	110.12
387.588	105.12
387.813	97.12
388.038	109.12
388.263	108.12
388.488	107.12
388.713	110.12
388.938	87.12
389.163	88.12
389.387	94.12
389.612	96.12
389.837	82.12
390.062	119.12
390.287	116.12
390.512	93.12
390.736	91.12
390.961	94.12
391.186	100.12
391.411	96.12
391.636	88.12
391.86	89.12
392.085	93.12
392.31	94.12
392.534	84.12
392.759	78.12
392.984	59.12
393.208	84.12
393.433	83.12
393.658	84.12
393.882	91.12
394.107	98.12
394.331	83.12
394.556	78.12
394.78	83.12
395.005	92.12
395.229	93.12
395.454	80.12
395.678	89.12
395.903	87.12
396.127	89.12
396.352	88.12
396.576	90.12
396.801	89.12
397.025	84.12
397.249	88.12
397.474	88.12
397.698	91.12
397.922	102.12
398.147	83.12
398.371	101.12
398.595	86.12
398.82	90.12
399.044	88.12
399.268	84.12
399.492	85.12
399.717	77.12
399.941	79.12
400.165	98.12
400.389	79.12
400.613	82.12
400.837	98.12
401.062	99.12
401.286	69.12
401.51	93.12
401.734	101.12
401.958	92.12
402.182	137.12
402.406	134.12
402.63	119.12
402.854	86.12
403.078	89.12
403.302	94.12
403.526	78.12
403.75	87.12
403.974	77.12
404.198	90.12
404.422	79.12
404.645	87.12
404.869	103.12
405.093	107.12
405.317	96.12
405.541	108.12
405.765	94.12
405.988	106.12
406.212	169.12
406.436	195.12
406.66	132.12
406.883	87.12
407.107	96.12
407.331	104.12
407.555	104.12
407.778	92.12
408.002	86.12
408.226	77.12
408.449	96.12
408.673	95.12
408.896	103.12
409.12	102.12
409.344	93.12
409.567	90.12
409.791	98.12
410.014	89.12
410.238	91.12
410.461	108.12
410.685	93.12
410.908	103.12
411.132	112.12
411.355	98.12
411.578	102.12
411.802	87.12
412.025	83.12
412.249	89.12
412.472	93.12
412.695	91.12
412.919	91.12
413.142	96.12
413.365	85.12
413.589	97.12
413.812	112.12
414.035	98.12
414.258	97.12
414.482	105.12
414.705	114.12
414.928	100.12
415.151	101.12
415.374	93.12
415.597	87.12
415.821	87.12
416.044	92.12
416.267	86.12
416.49	88.12
416.713	99.12
416.936	91.12
417.159	83.12
417.382	95.12
417.605	93.12
417.828	78.12
418.051	93.12
418.274	92.12
418.497	84.12
418.72	100.12
418.943	110.12
419.166	92.12
419.389	83.12
419.611	95.12
419.834	95.12
420.057	103.12
420.28	93.12
420.503	84.12
420.726	91.12
420.948	97.12
421.171	95.12
421.394	87.12
421.617	100.12
421.839	89.12
422.062	92.12
422.285	82.12
422.507	100.12
422.73	96.12
422.953	100.12
423.175	83.12
423.398	101.12
423.621	94.12
423.843	88.12
424.066	84.12
424.288	98.12
424.511	80.12
424.733	98.12
424.956	109.12
425.178	92.12
425.401	100.12
425.623	100.12
425.846	77.12
426.068	89.12
426.291	89.12
426.513	99.12
426.735	81.12
426.958	112.12
427.18	97.12
427.402	127.12
427.625	154.12
427.847	120.12
428.069	99.12
428.292	91.12
428.514	92.12
428.736	95.12
428.958	93.12
429.181	93.12
429.403	89.12
429.625	83.12
429.847	99.12
430.069	95.12
430.292	88.12
430.514	89.12
430.736	85.12
430.958	100.12
431.18	77.12
431.402	79.12
431.624	89.12
431.846	102.12
432.068	82.12
432.29	87.12
432.512	85.12
432.734	80.12
432.956	94.12
433.178	89.12
433.4	95.12
433.622	86.12
433.844	93.12
434.066	107.12
434.287	95.12
434.509	99.12
434.731	95.12
434.953	76.12
435.175	81.12
435.397	91.12
435.618	107.12
435.84	108.12
436.062	113.12
436.284	127.12
436.505	104.12
436.727	100.12
436.949	105.12
437.17	89.12
437.392	77.12
437.614	96.12
437.835	99.12
438.057	109.12
438.278	114.12
438.5	110.12
438.721	120.12
438.943	108.12
439.165	96.12
439.386	76.12
439.608	89.12
439.829	104.12
440.05	123.12
440.272	128.12
440.493	95.12
440.715	80.12
440.936	78.12
441.158	99.12
441.379	86.12
441.6	75.12
441.822	105.12
442.043	90.12
442.264	97.12
442.486	113.12
442.707	101.12
442.928	107.12
443.149	121.12
443.371	116.12
443.592	113.12
443.813	116.12
444.034	111.12
444.255	95.12
444.476	92.12
444.698	81.12
444.919	93.12
445.14	121.12
445.361	119.12
445.582	116.12
445.803	131.12
446.024	143.12
446.245	120.12
446.466	117.12
446.687	101.12
446.908	87.12
447.129	99.12
447.35	81.12
447.571	91.12
447.792	91.12
448.013	99.12
448.234	110.12
448.455	89.12
448.675	111.12
448.896	102.12
449.117	106.12
449.338	100.12
449.559	114.12
449.779	127.12
450	107.12
450.221	95.12
450.442	88.12
450.662	84.12
450.883	104.12
451.104	109.12
451.324	100.12
451.545	85.12
451.766	80.12
451.986	92.12
452.207	99.12
452.428	80.12
452.648	90.12
452.869	89.12
453.089	104.12
453.31	108.12
453.53	100.12
453.751	85.12
453.971	107.12
454.192	110.12
454.412	85.12
454.633	87.12
454.853	86.12
455.073	79.12
455.294	116.12
455.514	97.12
455.734	100.12
455.955	99.12
456.175	87.12
456.395	82.12
456.616	81.12
456.836	101.12
457.056	89.12
457.276	92.12
457.497	88.12
457.717	80.12
457.937	85.12
458.157	84.12
458.377	70.12
458.598	97.12
458.818	145.12
459.038	131.12
459.258	97.12
459.478	91.12
459.698	111.12
459.918	96.12
460.138	93.12
460.358	79.12
460.578	94.12
460.798	90.12
461.018	86.12
461.238	78.12
461.458	90.12
461.678	85.12
461.898	94.12
462.118	74.12
462.338	89.12
462.558	82.12
462.777	84.12
462.997	92.12
463.217	84.12
463.437	93.12
463.657	87.12
463.876	77.12
464.096	79.12
464.316	98.12
464.536	97.12
464.755	84.12
464.975	95.12
465.195	148.12
465.414	152.12
465.634	102.12
465.854	85.12
466.073	91.12
466.293	101.12
466.512	96.12
466.732	84.12
466.951	95.12
467.171	96.12
467.391	106.12
467.61	96.12
467.829	92.12
468.049	82.12
468.268	90.12
468.488	95.12
468.707	85.12
468.927	78.12
469.146	98.12
469.365	84.12
469.585	88.12
469.804	94.12
470.023	96.12
470.243	91.12
470.462	84.12
470.681	106.12
470.901	83.12
471.12	85.12
471.339	94.12
471.558	90.12
471.777	91.12
471.997	89.12
472.216	74.12
472.435	89.12
472.654	96.12
472.873	88.12
473.092	87.12
473.311	86.12
473.53	89.12
473.749	87.12
473.968	96.12
474.187	115.12
474.406	90.12
474.625	102.12
474.844	91.12
475.063	83.12
475.282	95.12
475.501	78.12
475.72	93.12
475.939	83.12
476.158	105.12
476.377	95.12
476.596	91.12
476.814	99.12
477.033	92.12
477.252	91.12
477.471	68.12
477.69	75.12
477.908	87.12
478.127	66.12
478.346	93.12
478.564	94.12
478.783	106.12
479.002	104.12
479.22	91.12
479.439	88.12
479.658	87.12
479.876	88.12
480.095	79.12
480.313	78.12
480.532	90.12
480.751	81.12
480.969	111.12
481.188	103.12
481.406	101.12
481.624	83.12
481.843	91.12
482.061	76.12
482.28	91.12
482.498	96.12
482.717	88.12
482.935	97.12
483.153	102.12
483.372	93.12
483.59	94.12
483.808	91.12
484.027	94.12
484.245	99.12
484.463	77.12
484.681	95.12
484.9	100.12
485.118	83.12
485.336	94.12
485.554	102.12
485.772	93.12
485.99	106.12
486.209	107.12
486.427	101.12
486.645	110.12
486.863	107.12
487.081	98.12
487.299	107.12
487.517	91.12
487.735	101.12
487.953	100.12
488.171	92.12
488.389	94.12
488.607	88.12
488.825	85.12
489.043	93.12
489.261	107.12
489.479	91.12
489.696	92.12
489.914	85.12
490.132	89.12
490.35	96.12
490.568	78.12
490.786	83.12
491.003	81.12
491.221	90.12
491.439	87.12
491.657	103.12
491.874	95.12
492.092	100.12
492.31	90.12
492.527	96.12
492.745	85.12
492.963	98.12
493.18	103.12
493.398	107.12
493.615	100.12
493.833	84.12
494.05	101.12
494.268	81.12
494.485	100.12
494.703	87.12
494.92	82.12
495.138	86.12
495.355	90.12
495.573	97.12
495.79	86.12
496.008	92.12
496.225	92.12
496.442	99.12
496.66	75.12
496.877	85.12
497.094	81.12
497.312	77.12
497.529	98.12
497.746	91.12
497.963	87.12
498.181	86.12
498.398	99.12
498.615	98.12
498.832	117.12
499.049	94.12
499.267	94.12
499.484	86.12
499.701	87.12
499.918	85.12
500.135	102.12
500.352	92.12
500.569	99.12
500.786	86.12
501.003	82.12
501.22	88.12
501.437	96.12
501.654	98.12
501.871	107.12
502.088	92.12
502.305	84.12
502.522	88.12
502.739	87.12
502.956	98.12
503.172	88.12
503.389	73.12
503.606	94.12
503.823	92.12
504.04	107.12
504.256	93.12
504.473	94.12
504.69	89.12
504.907	93.12
505.123	95.12
505.34	99.12
505.557	92.12
505.773	97.12
505.99	87.12
506.207	87.12
506.423	76.12
506.64	87.12
506.856	91.12
507.073	113.12
507.289	99.12
507.506	95.12
507.722	103.12
507.939	99.12
508.155	96.12
508.372	96.12
508.588	94.12
508.805	110.12
509.021	103.12
509.238	98.12
509.454	94.12
509.67	97.12
509.887	105.12
510.103	132.12
510.319	205.12
510.536	687.12
510.752	2103.12
510.968	601.12
511.184	157.12
511.401	112.12
511.617	88.12
511.833	93.12
512.049	103.12
512.265	89.12
512.481	93.12
512.698	84.12
512.914	85.12
513.13	77.12
513.346	96.12
513.562	93.12
513.778	86.12
513.994	93.12
514.21	97.12
514.426	119.12
514.642	119.12
514.858	129.12
515.074	165.12
515.29	393.12
515.506	1268.12
