Data from Uncirc_2005_H10_HRD10591_00036.txt Node
Date: Wed Jan 03 10:28:32 EST 2024
User: Yrep
Spectrometer: HR+D1059
Trigger mode: 1
Integration Time (sec): 1.000000E-1
Scans to average: 1
Electric dark correction enabled: true
Nonlinearity correction enabled: false
Boxcar width: 0
XAxis mode: Wavelengths
Number of Pixels in Spectrum: 2048
>>>>>Begin Spectral Data<<<<<
223.165	-20.25
223.4	-20.25
223.635	-20.25
223.869	-21.25
224.104	-23.25
224.338	-5.25
224.573	-11.25
224.808	-17.25
225.042	3.75
225.277	-1.25
225.511	5.75
225.746	0.75
225.98	-0.25
226.215	11.75
226.449	18.75
226.683	14.75
226.918	14.75
227.152	29.75
227.387	36.75
227.621	40.75
227.856	51.75
228.09	55.75
228.324	50.75
228.559	68.75
228.793	48.75
229.027	60.75
229.262	67.75
229.496	53.75
229.73	78.75
229.964	74.75
230.199	72.75
230.433	54.75
230.667	65.75
230.901	74.75
231.136	72.75
231.37	71.75
231.604	73.75
231.838	66.75
232.072	83.75
232.306	74.75
232.541	78.75
232.775	90.75
233.009	97.75
233.243	65.75
233.477	86.75
233.711	91.75
233.945	60.75
234.179	81.75
234.413	91.75
234.647	79.75
234.881	67.75
235.115	73.75
235.349	65.75
235.583	77.75
235.817	74.75
236.051	87.75
236.285	68.75
236.519	80.75
236.753	69.75
236.987	75.75
237.221	70.75
237.455	71.75
237.689	81.75
237.922	74.75
238.156	68.75
238.39	65.75
238.624	80.75
238.858	72.75
239.091	91.75
239.325	81.75
239.559	73.75
239.793	87.75
240.027	80.75
240.26	82.75
240.494	85.75
240.728	70.75
240.961	67.75
241.195	84.75
241.429	75.75
241.662	74.75
241.896	75.75
242.13	70.75
242.363	76.75
242.597	74.75
242.83	80.75
243.064	72.75
243.298	74.75
243.531	83.75
243.765	81.75
243.998	80.75
244.232	73.75
244.465	78.75
244.699	77.75
244.932	77.75
245.166	84.75
245.399	80.75
245.633	98.75
245.866	76.75
246.099	91.75
246.333	87.75
246.566	68.75
246.8	81.75
247.033	63.75
247.266	92.75
247.5	67.75
247.733	68.75
247.966	77.75
248.2	90.75
248.433	84.75
248.666	80.75
248.899	85.75
249.133	83.75
249.366	85.75
249.599	97.75
249.832	76.75
250.066	79.75
250.299	78.75
250.532	73.75
250.765	86.75
250.998	79.75
251.231	81.75
251.465	83.75
251.698	72.75
251.931	76.75
252.164	81.75
252.397	84.75
252.63	89.75
252.863	85.75
253.096	77.75
253.329	60.75
253.562	80.75
253.795	84.75
254.028	78.75
254.261	91.75
254.494	72.75
254.727	81.75
254.96	80.75
255.193	79.75
255.426	87.75
255.659	72.75
255.892	65.75
256.124	74.75
256.357	88.75
256.59	87.75
256.823	81.75
257.056	82.75
257.289	82.75
257.521	73.75
257.754	78.75
257.987	83.75
258.22	89.75
258.452	85.75
258.685	82.75
258.918	74.75
259.151	85.75
259.383	78.75
259.616	80.75
259.849	77.75
260.081	90.75
260.314	86.75
260.547	73.75
260.779	84.75
261.012	77.75
261.244	69.75
261.477	88.75
261.71	83.75
261.942	97.75
262.175	101.75
262.407	87.75
262.64	86.75
262.872	90.75
263.105	91.75
263.337	71.75
263.57	76.75
263.802	94.75
264.035	82.75
264.267	81.75
264.499	91.75
264.732	85.75
264.964	88.75
265.197	104.75
265.429	81.75
265.661	88.75
265.894	67.75
266.126	86.75
266.358	79.75
266.591	86.75
266.823	84.75
267.055	76.75
267.287	72.75
267.52	85.75
267.752	76.75
267.984	91.75
268.216	94.75
268.448	65.75
268.681	88.75
268.913	75.75
269.145	93.75
269.377	86.75
269.609	88.75
269.841	83.75
270.073	93.75
270.306	91.75
270.538	95.75
270.77	77.75
271.002	99.75
271.234	82.75
271.466	88.75
271.698	99.75
271.93	88.75
272.162	83.75
272.394	78.75
272.626	68.75
272.858	74.75
273.09	80.75
273.322	79.75
273.553	72.75
273.785	72.75
274.017	75.75
274.249	96.75
274.481	82.75
274.713	79.75
274.945	83.75
275.176	85.75
275.408	83.75
275.64	82.75
275.872	86.75
276.104	75.75
276.335	78.75
276.567	98.75
276.799	96.75
277.031	103.75
277.262	74.75
277.494	76.75
277.726	81.75
277.957	96.75
278.189	76.75
278.421	81.75
278.652	83.75
278.884	89.75
279.115	75.75
279.347	86.75
279.579	84.75
279.81	85.75
280.042	88.75
280.273	94.75
280.505	92.75
280.736	79.75
280.968	78.75
281.199	87.75
281.431	96.75
281.662	98.75
281.894	94.75
282.125	99.75
282.356	98.75
282.588	135.75
282.819	110.75
283.051	105.75
283.282	79.75
283.513	92.75
283.745	85.75
283.976	92.75
284.207	90.75
284.439	84.75
284.67	103.75
284.901	96.75
285.132	88.75
285.364	85.75
285.595	89.75
285.826	92.75
286.057	90.75
286.288	93.75
286.52	101.75
286.751	91.75
286.982	85.75
287.213	88.75
287.444	83.75
287.675	78.75
287.906	94.75
288.138	85.75
288.369	70.75
288.6	89.75
288.831	77.75
289.062	94.75
289.293	92.75
289.524	69.75
289.755	77.75
289.986	87.75
290.217	96.75
290.448	89.75
290.679	108.75
290.91	75.75
291.141	95.75
291.371	82.75
291.602	90.75
291.833	79.75
292.064	90.75
292.295	80.75
292.526	70.75
292.757	80.75
292.987	96.75
293.218	99.75
293.449	86.75
293.68	98.75
293.91	86.75
294.141	90.75
294.372	97.75
294.603	83.75
294.833	80.75
295.064	75.75
295.295	82.75
295.525	94.75
295.756	97.75
295.987	111.75
296.217	123.75
296.448	108.75
296.679	91.75
296.909	89.75
297.14	99.75
297.37	93.75
297.601	93.75
297.831	90.75
298.062	83.75
298.292	91.75
298.523	97.75
298.753	95.75
298.984	102.75
299.214	77.75
299.445	83.75
299.675	92.75
299.905	104.75
300.136	100.75
300.366	77.75
300.597	102.75
300.827	100.75
301.057	86.75
301.288	97.75
301.518	75.75
301.748	88.75
301.979	98.75
302.209	86.75
302.439	77.75
302.669	99.75
302.9	102.75
303.13	90.75
303.36	91.75
303.59	100.75
303.82	107.75
304.051	90.75
304.281	94.75
304.511	94.75
304.741	81.75
304.971	90.75
305.201	107.75
305.431	93.75
305.661	75.75
305.891	93.75
306.121	107.75
306.352	92.75
306.582	94.75
306.812	99.75
307.042	95.75
307.272	86.75
307.502	104.75
307.731	102.75
307.961	97.75
308.191	96.75
308.421	102.75
308.651	96.75
308.881	84.75
309.111	86.75
309.341	80.75
309.571	96.75
309.8	83.75
310.03	88.75
310.26	94.75
310.49	86.75
310.72	88.75
310.949	112.75
311.179	103.75
311.409	97.75
311.639	105.75
311.868	95.75
312.098	100.75
312.328	106.75
312.557	94.75
312.787	104.75
313.017	105.75
313.246	104.75
313.476	90.75
313.706	90.75
313.935	82.75
314.165	99.75
314.394	101.75
314.624	97.75
314.853	99.75
315.083	91.75
315.312	95.75
315.542	98.75
315.771	86.75
316.001	85.75
316.23	85.75
316.46	103.75
316.689	94.75
316.919	91.75
317.148	95.75
317.377	106.75
317.607	103.75
317.836	102.75
318.065	100.75
318.295	92.75
318.524	78.75
318.753	83.75
318.983	87.75
319.212	81.75
319.441	107.75
319.67	105.75
319.9	92.75
320.129	106.75
320.358	95.75
320.587	85.75
320.816	95.75
321.046	95.75
321.275	103.75
321.504	85.75
321.733	90.75
321.962	103.75
322.191	101.75
322.42	106.75
322.649	127.75
322.878	105.75
323.108	107.75
323.337	123.75
323.566	132.75
323.795	132.75
324.024	219.75
324.253	405.75
324.482	828.75
324.71	1734.75
324.939	2224.75
325.168	814.75
325.397	236.75
325.626	158.75
325.855	134.75
326.084	131.75
326.313	126.75
326.542	151.75
326.77	230.75
326.999	448.75
327.228	946.75
327.457	1694.75
327.686	1338.75
327.914	366.75
328.143	190.75
328.372	145.75
328.6	122.75
328.829	126.75
329.058	106.75
329.287	125.75
329.515	106.75
329.744	89.75
329.972	95.75
330.201	98.75
330.43	101.75
330.658	123.75
330.887	132.75
331.115	129.75
331.344	108.75
331.572	98.75
331.801	90.75
332.03	96.75
332.258	92.75
332.486	79.75
332.715	94.75
332.943	93.75
333.172	79.75
333.4	90.75
333.629	91.75
333.857	122.75
334.085	105.75
334.314	101.75
334.542	99.75
334.771	114.75
334.999	91.75
335.227	95.75
335.455	86.75
335.684	98.75
335.912	98.75
336.14	89.75
336.369	92.75
336.597	99.75
336.825	91.75
337.053	96.75
337.281	80.75
337.51	104.75
337.738	121.75
337.966	102.75
338.194	98.75
338.422	87.75
338.65	99.75
338.878	99.75
339.106	88.75
339.334	90.75
339.562	97.75
339.79	95.75
340.018	101.75
340.246	74.75
340.474	97.75
340.702	95.75
340.93	89.75
341.158	87.75
341.386	107.75
341.614	87.75
341.842	89.75
342.07	91.75
342.298	98.75
342.526	93.75
342.754	84.75
342.981	79.75
343.209	95.75
343.437	98.75
343.665	98.75
343.893	102.75
344.12	91.75
344.348	92.75
344.576	86.75
344.804	80.75
345.031	98.75
345.259	101.75
345.487	87.75
345.714	82.75
345.942	87.75
346.17	95.75
346.397	107.75
346.625	72.75
346.853	85.75
347.08	103.75
347.308	88.75
347.535	88.75
347.763	106.75
347.99	87.75
348.218	114.75
348.445	82.75
348.673	93.75
348.9	96.75
349.128	90.75
349.355	95.75
349.583	95.75
349.81	95.75
350.037	99.75
350.265	94.75
350.492	92.75
350.72	82.75
350.947	99.75
351.174	111.75
351.402	115.75
351.629	94.75
351.856	106.75
352.083	99.75
352.311	116.75
352.538	118.75
352.765	109.75
352.992	114.75
353.22	98.75
353.447	121.75
353.674	102.75
353.901	94.75
354.128	104.75
354.355	99.75
354.583	102.75
354.81	96.75
355.037	100.75
355.264	100.75
355.491	87.75
355.718	88.75
355.945	106.75
356.172	110.75
356.399	92.75
356.626	99.75
356.853	84.75
357.08	85.75
357.307	79.75
357.534	87.75
357.761	109.75
357.988	94.75
358.215	102.75
358.441	90.75
358.668	96.75
358.895	109.75
359.122	88.75
359.349	88.75
359.576	85.75
359.802	96.75
360.029	113.75
360.256	118.75
360.483	96.75
360.709	100.75
360.936	99.75
361.163	74.75
361.39	83.75
361.616	96.75
361.843	88.75
362.07	92.75
362.296	99.75
362.523	76.75
362.749	112.75
362.976	87.75
363.203	91.75
363.429	98.75
363.656	104.75
363.882	87.75
364.109	89.75
364.335	87.75
364.562	71.75
364.788	88.75
365.015	96.75
365.241	98.75
365.468	114.75
365.694	91.75
365.92	106.75
366.147	86.75
366.373	70.75
366.599	71.75
366.826	89.75
367.052	81.75
367.278	90.75
367.505	78.75
367.731	105.75
367.957	80.75
368.184	88.75
368.41	96.75
368.636	96.75
368.862	111.75
369.089	106.75
369.315	100.75
369.541	92.75
369.767	87.75
369.993	89.75
370.219	88.75
370.445	79.75
370.672	81.75
370.898	97.75
371.124	83.75
371.35	76.75
371.576	98.75
371.802	98.75
372.028	88.75
372.254	87.75
372.48	91.75
372.706	80.75
372.932	85.75
373.158	90.75
373.384	88.75
373.61	85.75
373.835	96.75
374.061	93.75
374.287	87.75
374.513	83.75
374.739	93.75
374.965	81.75
375.191	94.75
375.416	90.75
375.642	77.75
375.868	83.75
376.094	89.75
376.319	89.75
376.545	83.75
376.771	91.75
376.997	90.75
377.222	103.75
377.448	92.75
377.674	92.75
377.899	95.75
378.125	104.75
378.35	82.75
378.576	96.75
378.802	81.75
379.027	94.75
379.253	98.75
379.478	83.75
379.704	94.75
379.929	91.75
380.155	99.75
380.38	91.75
380.606	105.75
380.831	98.75
381.057	97.75
381.282	94.75
381.507	97.75
381.733	90.75
381.958	90.75
382.184	101.75
382.409	83.75
382.634	92.75
382.86	114.75
383.085	109.75
383.31	101.75
383.535	105.75
383.761	101.75
383.986	101.75
384.211	106.75
384.436	106.75
384.662	103.75
384.887	96.75
385.112	102.75
385.337	109.75
385.562	113.75
385.787	99.75
386.013	101.75
386.238	116.75
386.463	106.75
386.688	116.75
386.913	118.75
387.138	107.75
387.363	106.75
387.588	102.75
387.813	99.75
388.038	100.75
388.263	103.75
388.488	112.75
388.713	101.75
388.938	102.75
389.163	100.75
389.387	93.75
389.612	98.75
389.837	94.75
390.062	75.75
390.287	79.75
390.512	99.75
390.736	88.75
390.961	88.75
391.186	88.75
391.411	106.75
391.636	97.75
391.86	79.75
392.085	82.75
392.31	88.75
392.534	85.75
392.759	83.75
392.984	79.75
393.208	88.75
393.433	98.75
393.658	73.75
393.882	92.75
394.107	78.75
394.331	76.75
394.556	94.75
394.78	94.75
395.005	91.75
395.229	92.75
395.454	79.75
395.678	92.75
395.903	96.75
396.127	80.75
396.352	106.75
396.576	84.75
396.801	86.75
397.025	87.75
397.249	97.75
397.474	95.75
397.698	67.75
397.922	88.75
398.147	79.75
398.371	79.75
398.595	105.75
398.82	75.75
399.044	94.75
399.268	91.75
399.492	88.75
399.717	102.75
399.941	82.75
400.165	93.75
400.389	83.75
400.613	89.75
400.837	100.75
401.062	98.75
401.286	91.75
401.51	82.75
401.734	74.75
401.958	92.75
402.182	106.75
402.406	143.75
402.63	99.75
402.854	70.75
403.078	81.75
403.302	93.75
403.526	90.75
403.75	90.75
403.974	98.75
404.198	93.75
404.422	95.75
404.645	87.75
404.869	94.75
405.093	95.75
405.317	97.75
405.541	104.75
405.765	98.75
405.988	107.75
406.212	134.75
406.436	183.75
406.66	129.75
406.883	99.75
407.107	93.75
407.331	102.75
407.555	101.75
407.778	95.75
408.002	75.75
408.226	99.75
408.449	102.75
408.673	91.75
408.896	98.75
409.12	79.75
409.344	85.75
409.567	93.75
409.791	82.75
410.014	94.75
410.238	95.75
410.461	98.75
410.685	101.75
410.908	100.75
411.132	113.75
411.355	110.75
411.578	98.75
411.802	83.75
412.025	88.75
412.249	97.75
412.472	100.75
412.695	91.75
412.919	94.75
413.142	84.75
413.365	92.75
413.589	91.75
413.812	85.75
414.035	85.75
414.258	81.75
414.482	104.75
414.705	80.75
414.928	88.75
415.151	92.75
415.374	111.75
415.597	91.75
415.821	102.75
416.044	85.75
416.267	92.75
416.49	97.75
416.713	100.75
416.936	88.75
417.159	88.75
417.382	86.75
417.605	83.75
417.828	87.75
418.051	91.75
418.274	87.75
418.497	77.75
418.72	99.75
418.943	94.75
419.166	85.75
419.389	87.75
419.611	82.75
419.834	99.75
420.057	86.75
420.28	68.75
420.503	75.75
420.726	85.75
420.948	91.75
421.171	96.75
421.394	90.75
421.617	94.75
421.839	102.75
422.062	93.75
422.285	98.75
422.507	94.75
422.73	102.75
422.953	70.75
423.175	97.75
423.398	90.75
423.621	87.75
423.843	86.75
424.066	93.75
424.288	102.75
424.511	80.75
424.733	101.75
424.956	95.75
425.178	91.75
425.401	99.75
425.623	92.75
425.846	88.75
426.068	93.75
426.291	99.75
426.513	85.75
426.735	78.75
426.958	86.75
427.18	97.75
427.402	127.75
427.625	154.75
427.847	119.75
428.069	102.75
428.292	81.75
428.514	86.75
428.736	86.75
428.958	70.75
429.181	76.75
429.403	95.75
429.625	97.75
429.847	73.75
430.069	92.75
430.292	91.75
430.514	93.75
430.736	75.75
430.958	88.75
431.18	79.75
431.402	96.75
431.624	82.75
431.846	80.75
432.068	91.75
432.29	79.75
432.512	93.75
432.734	96.75
432.956	83.75
433.178	89.75
433.4	99.75
433.622	93.75
433.844	88.75
434.066	88.75
434.287	96.75
434.509	94.75
434.731	84.75
434.953	80.75
435.175	91.75
435.397	92.75
435.618	79.75
435.84	107.75
436.062	115.75
436.284	122.75
436.505	93.75
436.727	99.75
436.949	89.75
437.17	92.75
437.392	81.75
437.614	105.75
437.835	96.75
438.057	98.75
438.278	99.75
438.5	108.75
438.721	117.75
438.943	108.75
439.165	103.75
439.386	85.75
439.608	92.75
439.829	100.75
440.05	118.75
440.272	134.75
440.493	95.75
440.715	87.75
440.936	84.75
441.158	93.75
441.379	111.75
441.6	92.75
441.822	87.75
442.043	85.75
442.264	91.75
442.486	91.75
442.707	95.75
442.928	95.75
443.149	108.75
443.371	112.75
443.592	114.75
443.813	117.75
444.034	103.75
444.255	86.75
444.476	81.75
444.698	80.75
444.919	78.75
445.14	130.75
445.361	115.75
445.582	109.75
445.803	119.75
446.024	110.75
446.245	127.75
446.466	101.75
446.687	94.75
446.908	79.75
447.129	80.75
447.35	101.75
447.571	94.75
447.792	98.75
448.013	90.75
448.234	106.75
448.455	96.75
448.675	106.75
448.896	115.75
449.117	96.75
449.338	109.75
449.559	125.75
449.779	135.75
450	107.75
450.221	90.75
450.442	81.75
450.662	100.75
450.883	103.75
451.104	107.75
451.324	102.75
451.545	91.75
451.766	86.75
451.986	82.75
452.207	80.75
452.428	90.75
452.648	90.75
452.869	97.75
453.089	112.75
453.31	95.75
453.53	80.75
453.751	89.75
453.971	102.75
454.192	96.75
454.412	93.75
454.633	84.75
454.853	84.75
455.073	97.75
455.294	64.75
455.514	69.75
455.734	85.75
455.955	83.75
456.175	86.75
456.395	92.75
456.616	86.75
456.836	78.75
457.056	93.75
457.276	87.75
457.497	83.75
457.717	93.75
457.937	98.75
458.157	83.75
458.377	84.75
458.598	96.75
458.818	140.75
459.038	142.75
459.258	106.75
459.478	88.75
459.698	78.75
459.918	82.75
460.138	86.75
460.358	95.75
460.578	92.75
460.798	80.75
461.018	98.75
461.238	82.75
461.458	90.75
461.678	92.75
461.898	78.75
462.118	81.75
462.338	74.75
462.558	96.75
462.777	88.75
462.997	68.75
463.217	91.75
463.437	87.75
463.657	106.75
463.876	97.75
464.096	91.75
464.316	92.75
464.536	98.75
464.755	89.75
464.975	85.75
465.195	144.75
465.414	130.75
465.634	92.75
465.854	87.75
466.073	90.75
466.293	78.75
466.512	102.75
466.732	86.75
466.951	93.75
467.171	94.75
467.391	80.75
467.61	116.75
467.829	93.75
468.049	87.75
468.268	95.75
468.488	82.75
468.707	88.75
468.927	81.75
469.146	100.75
469.365	88.75
469.585	87.75
469.804	91.75
470.023	90.75
470.243	86.75
470.462	105.75
470.681	110.75
470.901	90.75
471.12	88.75
471.339	87.75
471.558	89.75
471.777	74.75
471.997	82.75
472.216	79.75
472.435	92.75
472.654	77.75
472.873	73.75
473.092	88.75
473.311	98.75
473.53	75.75
473.749	91.75
473.968	109.75
474.187	103.75
474.406	94.75
474.625	80.75
474.844	82.75
475.063	84.75
475.282	79.75
475.501	84.75
475.72	81.75
475.939	85.75
476.158	94.75
476.377	97.75
476.596	78.75
476.814	90.75
477.033	80.75
477.252	92.75
477.471	92.75
477.69	86.75
477.908	98.75
478.127	100.75
478.346	78.75
478.564	100.75
478.783	96.75
479.002	89.75
479.22	88.75
479.439	100.75
479.658	115.75
479.876	92.75
480.095	85.75
480.313	85.75
480.532	89.75
480.751	94.75
480.969	106.75
481.188	100.75
481.406	96.75
481.624	84.75
481.843	91.75
482.061	90.75
482.28	83.75
482.498	78.75
482.717	82.75
482.935	97.75
483.153	80.75
483.372	94.75
483.59	99.75
483.808	82.75
484.027	89.75
484.245	86.75
484.463	86.75
484.681	107.75
484.9	93.75
485.118	90.75
485.336	105.75
485.554	89.75
485.772	90.75
485.99	95.75
486.209	100.75
486.427	99.75
486.645	107.75
486.863	111.75
487.081	94.75
487.299	96.75
487.517	101.75
487.735	80.75
487.953	86.75
488.171	78.75
488.389	99.75
488.607	88.75
488.825	80.75
489.043	83.75
489.261	94.75
489.479	95.75
489.696	82.75
489.914	83.75
490.132	91.75
490.35	97.75
490.568	83.75
490.786	85.75
491.003	88.75
491.221	92.75
491.439	89.75
491.657	100.75
491.874	93.75
492.092	78.75
492.31	100.75
492.527	93.75
492.745	108.75
492.963	81.75
493.18	95.75
493.398	95.75
493.615	86.75
493.833	95.75
494.05	98.75
494.268	87.75
494.485	94.75
494.703	102.75
494.92	80.75
495.138	82.75
495.355	85.75
495.573	99.75
495.79	95.75
496.008	96.75
496.225	91.75
496.442	100.75
496.66	94.75
496.877	86.75
497.094	98.75
497.312	78.75
497.529	89.75
497.746	93.75
497.963	88.75
498.181	85.75
498.398	76.75
498.615	98.75
498.832	97.75
499.049	95.75
499.267	95.75
499.484	105.75
499.701	74.75
499.918	92.75
500.135	98.75
500.352	92.75
500.569	100.75
500.786	81.75
501.003	74.75
501.22	86.75
501.437	91.75
501.654	89.75
501.871	100.75
502.088	106.75
502.305	76.75
502.522	98.75
502.739	94.75
502.956	77.75
503.172	89.75
503.389	88.75
503.606	104.75
503.823	81.75
504.04	96.75
504.256	98.75
504.473	92.75
504.69	86.75
504.907	94.75
505.123	83.75
505.34	79.75
505.557	90.75
505.773	95.75
505.99	101.75
506.207	88.75
506.423	78.75
506.64	85.75
506.856	90.75
507.073	102.75
507.289	79.75
507.506	92.75
507.722	102.75
507.939	98.75
508.155	89.75
508.372	91.75
508.588	94.75
508.805	92.75
509.021	103.75
509.238	95.75
509.454	98.75
509.67	96.75
509.887	103.75
510.103	131.75
510.319	181.75
510.536	685.75
510.752	2040.75
510.968	570.75
511.184	147.75
511.401	102.75
511.617	82.75
511.833	99.75
512.049	85.75
512.265	96.75
512.481	91.75
512.698	102.75
512.914	100.75
513.13	97.75
513.346	95.75
513.562	98.75
513.778	97.75
513.994	87.75
514.21	102.75
514.426	105.75
514.642	136.75
514.858	115.75
515.074	157.75
515.29	402.75
515.506	1240.75
515.721	475.75
515.937	151.75
