Data from Uncirc_2005_H10_HRD10591_00061.txt Node
Date: Wed Jan 03 10:28:37 EST 2024
User: Yrep
Spectrometer: HR+D1059
Trigger mode: 1
Integration Time (sec): 1.000000E-1
Scans to average: 1
Electric dark correction enabled: true
Nonlinearity correction enabled: false
Boxcar width: 0
XAxis mode: Wavelengths
Number of Pixels in Spectrum: 2048
>>>>>Begin Spectral Data<<<<<
223.165	-28.88
223.4	-28.88
223.635	-28.88
223.869	-8.88
224.104	-17.88
224.338	-21.88
224.573	-26.88
224.808	-9.88
225.042	-6.88
225.277	2.12
225.511	-0.88
225.746	6.12
225.98	2.12
226.215	24.12
226.449	17.12
226.683	16.12
226.918	21.12
227.152	33.12
227.387	35.12
227.621	35.12
227.856	46.12
228.09	47.12
228.324	51.12
228.559	55.12
228.793	62.12
229.027	74.12
229.262	62.12
229.496	83.12
229.73	75.12
229.964	60.12
230.199	70.12
230.433	79.12
230.667	73.12
230.901	82.12
231.136	75.12
231.37	75.12
231.604	78.12
231.838	67.12
232.072	83.12
232.306	76.12
232.541	86.12
232.775	84.12
233.009	70.12
233.243	85.12
233.477	86.12
233.711	75.12
233.945	76.12
234.179	82.12
234.413	82.12
234.647	82.12
234.881	82.12
235.115	76.12
235.349	68.12
235.583	80.12
235.817	71.12
236.051	82.12
236.285	78.12
236.519	75.12
236.753	81.12
236.987	78.12
237.221	83.12
237.455	68.12
237.689	81.12
237.922	76.12
238.156	66.12
238.39	66.12
238.624	83.12
238.858	74.12
239.091	74.12
239.325	68.12
239.559	86.12
239.793	74.12
240.027	85.12
240.26	74.12
240.494	75.12
240.728	86.12
240.961	79.12
241.195	79.12
241.429	91.12
241.662	75.12
241.896	75.12
242.13	64.12
242.363	75.12
242.597	76.12
242.83	90.12
243.064	76.12
243.298	68.12
243.531	72.12
243.765	81.12
243.998	72.12
244.232	85.12
244.465	91.12
244.699	88.12
244.932	80.12
245.166	94.12
245.399	68.12
245.633	78.12
245.866	73.12
246.099	75.12
246.333	76.12
246.566	78.12
246.8	84.12
247.033	77.12
247.266	86.12
247.5	88.12
247.733	82.12
247.966	80.12
248.2	76.12
248.433	75.12
248.666	83.12
248.899	77.12
249.133	75.12
249.366	94.12
249.599	92.12
249.832	93.12
250.066	85.12
250.299	64.12
250.532	88.12
250.765	70.12
250.998	81.12
251.231	87.12
251.465	84.12
251.698	78.12
251.931	86.12
252.164	68.12
252.397	68.12
252.63	94.12
252.863	70.12
253.096	70.12
253.329	91.12
253.562	87.12
253.795	98.12
254.028	79.12
254.261	78.12
254.494	80.12
254.727	95.12
254.96	58.12
255.193	82.12
255.426	85.12
255.659	89.12
255.892	83.12
256.124	83.12
256.357	73.12
256.59	85.12
256.823	79.12
257.056	92.12
257.289	54.12
257.521	96.12
257.754	85.12
257.987	85.12
258.22	75.12
258.452	79.12
258.685	85.12
258.918	94.12
259.151	77.12
259.383	95.12
259.616	76.12
259.849	84.12
260.081	84.12
260.314	83.12
260.547	88.12
260.779	69.12
261.012	99.12
261.244	84.12
261.477	91.12
261.71	83.12
261.942	109.12
262.175	93.12
262.407	88.12
262.64	86.12
262.872	84.12
263.105	83.12
263.337	87.12
263.57	84.12
263.802	87.12
264.035	84.12
264.267	82.12
264.499	90.12
264.732	87.12
264.964	68.12
265.197	90.12
265.429	85.12
265.661	82.12
265.894	80.12
266.126	98.12
266.358	69.12
266.591	86.12
266.823	70.12
267.055	83.12
267.287	81.12
267.52	77.12
267.752	73.12
267.984	82.12
268.216	88.12
268.448	93.12
268.681	93.12
268.913	80.12
269.145	80.12
269.377	81.12
269.609	92.12
269.841	81.12
270.073	76.12
270.306	89.12
270.538	62.12
270.77	72.12
271.002	85.12
271.234	81.12
271.466	80.12
271.698	90.12
271.93	82.12
272.162	97.12
272.394	95.12
272.626	85.12
272.858	75.12
273.09	83.12
273.322	85.12
273.553	82.12
273.785	103.12
274.017	70.12
274.249	88.12
274.481	100.12
274.713	77.12
274.945	81.12
275.176	98.12
275.408	78.12
275.64	77.12
275.872	78.12
276.104	96.12
276.335	81.12
276.567	95.12
276.799	99.12
277.031	100.12
277.262	88.12
277.494	75.12
277.726	77.12
277.957	84.12
278.189	87.12
278.421	78.12
278.652	82.12
278.884	110.12
279.115	93.12
279.347	83.12
279.579	102.12
279.81	78.12
280.042	86.12
280.273	87.12
280.505	86.12
280.736	92.12
280.968	73.12
281.199	86.12
281.431	86.12
281.662	96.12
281.894	93.12
282.125	96.12
282.356	110.12
282.588	121.12
282.819	114.12
283.051	103.12
283.282	89.12
283.513	77.12
283.745	87.12
283.976	91.12
284.207	85.12
284.439	88.12
284.67	95.12
284.901	83.12
285.132	90.12
285.364	90.12
285.595	87.12
285.826	84.12
286.057	92.12
286.288	71.12
286.52	100.12
286.751	79.12
286.982	87.12
287.213	92.12
287.444	98.12
287.675	79.12
287.906	99.12
288.138	87.12
288.369	82.12
288.6	83.12
288.831	82.12
289.062	82.12
289.293	92.12
289.524	80.12
289.755	83.12
289.986	86.12
290.217	93.12
290.448	87.12
290.679	94.12
290.91	86.12
291.141	87.12
291.371	100.12
291.602	88.12
291.833	93.12
292.064	84.12
292.295	97.12
292.526	79.12
292.757	80.12
292.987	75.12
293.218	83.12
293.449	94.12
293.68	90.12
293.91	85.12
294.141	68.12
294.372	73.12
294.603	84.12
294.833	88.12
295.064	100.12
295.295	93.12
295.525	97.12
295.756	105.12
295.987	98.12
296.217	104.12
296.448	105.12
296.679	88.12
296.909	80.12
297.14	94.12
297.37	88.12
297.601	77.12
297.831	92.12
298.062	78.12
298.292	74.12
298.523	75.12
298.753	86.12
298.984	84.12
299.214	102.12
299.445	99.12
299.675	92.12
299.905	77.12
300.136	86.12
300.366	81.12
300.597	91.12
300.827	90.12
301.057	95.12
301.288	94.12
301.518	96.12
301.748	74.12
301.979	79.12
302.209	94.12
302.439	93.12
302.669	89.12
302.9	94.12
303.13	103.12
303.36	89.12
303.59	90.12
303.82	96.12
304.051	93.12
304.281	96.12
304.511	86.12
304.741	86.12
304.971	88.12
305.201	91.12
305.431	83.12
305.661	80.12
305.891	76.12
306.121	99.12
306.352	88.12
306.582	91.12
306.812	100.12
307.042	95.12
307.272	86.12
307.502	102.12
307.731	109.12
307.961	91.12
308.191	80.12
308.421	96.12
308.651	91.12
308.881	104.12
309.111	98.12
309.341	88.12
309.571	93.12
309.8	96.12
310.03	99.12
310.26	82.12
310.49	83.12
310.72	94.12
310.949	93.12
311.179	98.12
311.409	79.12
311.639	97.12
311.868	94.12
312.098	97.12
312.328	87.12
312.557	103.12
312.787	110.12
313.017	99.12
313.246	105.12
313.476	96.12
313.706	87.12
313.935	102.12
314.165	102.12
314.394	94.12
314.624	88.12
314.853	93.12
315.083	98.12
315.312	99.12
315.542	89.12
315.771	91.12
316.001	92.12
316.23	94.12
316.46	87.12
316.689	76.12
316.919	93.12
317.148	82.12
317.377	87.12
317.607	99.12
317.836	98.12
318.065	87.12
318.295	95.12
318.524	101.12
318.753	98.12
318.983	92.12
319.212	110.12
319.441	96.12
319.67	102.12
319.9	93.12
320.129	84.12
320.358	94.12
320.587	110.12
320.816	93.12
321.046	120.12
321.275	107.12
321.504	90.12
321.733	82.12
321.962	103.12
322.191	107.12
322.42	102.12
322.649	105.12
322.878	96.12
323.108	102.12
323.337	113.12
323.566	128.12
323.795	128.12
324.024	186.12
324.253	340.12
324.482	755.12
324.71	1533.12
324.939	1984.12
325.168	744.12
325.397	222.12
325.626	143.12
325.855	132.12
326.084	126.12
326.313	131.12
326.542	147.12
326.77	215.12
326.999	454.12
327.228	866.12
327.457	1566.12
327.686	1251.12
327.914	343.12
328.143	172.12
328.372	134.12
328.6	117.12
328.829	123.12
329.058	119.12
329.287	124.12
329.515	105.12
329.744	119.12
329.972	95.12
330.201	96.12
330.43	105.12
330.658	123.12
330.887	126.12
331.115	105.12
331.344	87.12
331.572	101.12
331.801	100.12
332.03	94.12
332.258	99.12
332.486	107.12
332.715	110.12
332.943	98.12
333.172	103.12
333.4	88.12
333.629	100.12
333.857	106.12
334.085	103.12
334.314	94.12
334.542	94.12
334.771	105.12
334.999	111.12
335.227	89.12
335.455	79.12
335.684	102.12
335.912	88.12
336.14	103.12
336.369	111.12
336.597	97.12
336.825	79.12
337.053	96.12
337.281	95.12
337.51	84.12
337.738	87.12
337.966	82.12
338.194	84.12
338.422	78.12
338.65	85.12
338.878	93.12
339.106	83.12
339.334	97.12
339.562	97.12
339.79	83.12
340.018	74.12
340.246	84.12
340.474	106.12
340.702	89.12
340.93	98.12
341.158	91.12
341.386	87.12
341.614	89.12
341.842	77.12
342.07	97.12
342.298	89.12
342.526	72.12
342.754	97.12
342.981	96.12
343.209	95.12
343.437	82.12
343.665	81.12
343.893	79.12
344.12	83.12
344.348	90.12
344.576	106.12
344.804	100.12
345.031	104.12
345.259	96.12
345.487	104.12
345.714	88.12
345.942	91.12
346.17	84.12
346.397	93.12
346.625	96.12
346.853	96.12
347.08	92.12
347.308	85.12
347.535	84.12
347.763	98.12
347.99	104.12
348.218	87.12
348.445	105.12
348.673	103.12
348.9	97.12
349.128	95.12
349.355	95.12
349.583	75.12
349.81	102.12
350.037	90.12
350.265	96.12
350.492	82.12
350.72	92.12
350.947	90.12
351.174	104.12
351.402	90.12
351.629	93.12
351.856	99.12
352.083	99.12
352.311	98.12
352.538	114.12
352.765	113.12
352.992	102.12
353.22	108.12
353.447	122.12
353.674	78.12
353.901	104.12
354.128	94.12
354.355	98.12
354.583	98.12
354.81	98.12
355.037	100.12
355.264	94.12
355.491	95.12
355.718	83.12
355.945	93.12
356.172	99.12
356.399	98.12
356.626	90.12
356.853	88.12
357.08	84.12
357.307	106.12
357.534	91.12
357.761	90.12
357.988	92.12
358.215	99.12
358.441	96.12
358.668	92.12
358.895	83.12
359.122	77.12
359.349	86.12
359.576	88.12
359.802	88.12
360.029	96.12
360.256	110.12
360.483	108.12
360.709	90.12
360.936	96.12
361.163	84.12
361.39	95.12
361.616	92.12
361.843	93.12
362.07	98.12
362.296	95.12
362.523	83.12
362.749	87.12
362.976	94.12
363.203	100.12
363.429	89.12
363.656	97.12
363.882	95.12
364.109	99.12
364.335	108.12
364.562	84.12
364.788	88.12
365.015	89.12
365.241	93.12
365.468	112.12
365.694	98.12
365.92	78.12
366.147	93.12
366.373	92.12
366.599	86.12
366.826	87.12
367.052	86.12
367.278	84.12
367.505	98.12
367.731	94.12
367.957	98.12
368.184	106.12
368.41	111.12
368.636	115.12
368.862	105.12
369.089	94.12
369.315	89.12
369.541	95.12
369.767	82.12
369.993	101.12
370.219	95.12
370.445	86.12
370.672	87.12
370.898	84.12
371.124	94.12
371.35	94.12
371.576	81.12
371.802	91.12
372.028	88.12
372.254	91.12
372.48	79.12
372.706	82.12
372.932	89.12
373.158	85.12
373.384	92.12
373.61	91.12
373.835	80.12
374.061	88.12
374.287	82.12
374.513	94.12
374.739	96.12
374.965	101.12
375.191	81.12
375.416	103.12
375.642	91.12
375.868	86.12
376.094	72.12
376.319	87.12
376.545	86.12
376.771	91.12
376.997	102.12
377.222	86.12
377.448	111.12
377.674	90.12
377.899	90.12
378.125	103.12
378.35	109.12
378.576	101.12
378.802	82.12
379.027	96.12
379.253	95.12
379.478	103.12
379.704	105.12
379.929	87.12
380.155	87.12
380.38	90.12
380.606	93.12
380.831	111.12
381.057	95.12
381.282	92.12
381.507	86.12
381.733	98.12
381.958	107.12
382.184	80.12
382.409	100.12
382.634	78.12
382.86	91.12
383.085	98.12
383.31	92.12
383.535	111.12
383.761	91.12
383.986	110.12
384.211	103.12
384.436	99.12
384.662	100.12
384.887	97.12
385.112	106.12
385.337	76.12
385.562	103.12
385.787	99.12
386.013	92.12
386.238	110.12
386.463	101.12
386.688	92.12
386.913	87.12
387.138	101.12
387.363	118.12
387.588	94.12
387.813	106.12
388.038	99.12
388.263	107.12
388.488	87.12
388.713	94.12
388.938	92.12
389.163	85.12
389.387	100.12
389.612	93.12
389.837	106.12
390.062	78.12
390.287	92.12
390.512	86.12
390.736	90.12
390.961	97.12
391.186	84.12
391.411	91.12
391.636	107.12
391.86	89.12
392.085	88.12
392.31	77.12
392.534	88.12
392.759	91.12
392.984	88.12
393.208	79.12
393.433	84.12
393.658	96.12
393.882	84.12
394.107	91.12
394.331	68.12
394.556	85.12
394.78	87.12
395.005	97.12
395.229	95.12
395.454	97.12
395.678	100.12
395.903	91.12
396.127	90.12
396.352	89.12
396.576	89.12
396.801	88.12
397.025	104.12
397.249	83.12
397.474	77.12
397.698	97.12
397.922	95.12
398.147	82.12
398.371	76.12
398.595	99.12
398.82	88.12
399.044	92.12
399.268	90.12
399.492	92.12
399.717	103.12
399.941	76.12
400.165	87.12
400.389	84.12
400.613	81.12
400.837	88.12
401.062	101.12
401.286	82.12
401.51	77.12
401.734	85.12
401.958	97.12
402.182	122.12
402.406	141.12
402.63	103.12
402.854	99.12
403.078	91.12
403.302	77.12
403.526	95.12
403.75	93.12
403.974	78.12
404.198	81.12
404.422	83.12
404.645	98.12
404.869	92.12
405.093	96.12
405.317	84.12
405.541	86.12
405.765	98.12
405.988	127.12
406.212	145.12
406.436	192.12
406.66	125.12
406.883	84.12
407.107	100.12
407.331	99.12
407.555	90.12
407.778	98.12
408.002	100.12
408.226	85.12
408.449	102.12
408.673	93.12
408.896	96.12
409.12	97.12
409.344	91.12
409.567	81.12
409.791	98.12
410.014	103.12
410.238	82.12
410.461	102.12
410.685	93.12
410.908	94.12
411.132	92.12
411.355	93.12
411.578	75.12
411.802	92.12
412.025	89.12
412.249	87.12
412.472	75.12
412.695	90.12
412.919	97.12
413.142	80.12
413.365	84.12
413.589	89.12
413.812	71.12
414.035	94.12
414.258	85.12
414.482	95.12
414.705	81.12
414.928	96.12
415.151	97.12
415.374	103.12
415.597	83.12
415.821	97.12
416.044	89.12
416.267	86.12
416.49	94.12
416.713	90.12
416.936	80.12
417.159	89.12
417.382	80.12
417.605	82.12
417.828	102.12
418.051	83.12
418.274	86.12
418.497	95.12
418.72	88.12
418.943	91.12
419.166	89.12
419.389	85.12
419.611	89.12
419.834	80.12
420.057	78.12
420.28	95.12
420.503	84.12
420.726	85.12
420.948	94.12
421.171	94.12
421.394	82.12
421.617	95.12
421.839	78.12
422.062	98.12
422.285	99.12
422.507	103.12
422.73	98.12
422.953	84.12
423.175	80.12
423.398	95.12
423.621	95.12
423.843	92.12
424.066	82.12
424.288	70.12
424.511	93.12
424.733	106.12
424.956	111.12
425.178	92.12
425.401	83.12
425.623	91.12
425.846	84.12
426.068	96.12
426.291	88.12
426.513	87.12
426.735	80.12
426.958	72.12
427.18	106.12
427.402	121.12
427.625	144.12
427.847	106.12
428.069	79.12
428.292	81.12
428.514	100.12
428.736	87.12
428.958	77.12
429.181	86.12
429.403	78.12
429.625	87.12
429.847	104.12
430.069	96.12
430.292	100.12
430.514	89.12
430.736	75.12
430.958	97.12
431.18	84.12
431.402	93.12
431.624	86.12
431.846	88.12
432.068	94.12
432.29	87.12
432.512	84.12
432.734	93.12
432.956	83.12
433.178	91.12
433.4	92.12
433.622	94.12
433.844	81.12
434.066	79.12
434.287	84.12
434.509	82.12
434.731	88.12
434.953	80.12
435.175	86.12
435.397	83.12
435.618	89.12
435.84	103.12
436.062	107.12
436.284	106.12
436.505	97.12
436.727	95.12
436.949	98.12
437.17	85.12
437.392	100.12
437.614	84.12
437.835	90.12
438.057	98.12
438.278	109.12
438.5	103.12
438.721	103.12
438.943	84.12
439.165	90.12
439.386	96.12
439.608	98.12
439.829	99.12
440.05	114.12
440.272	127.12
440.493	102.12
440.715	81.12
440.936	73.12
441.158	77.12
441.379	88.12
441.6	97.12
441.822	93.12
442.043	86.12
442.264	95.12
442.486	103.12
442.707	94.12
442.928	88.12
443.149	113.12
443.371	111.12
443.592	119.12
443.813	104.12
444.034	105.12
444.255	93.12
444.476	87.12
444.698	82.12
444.919	83.12
445.14	125.12
445.361	115.12
445.582	116.12
445.803	121.12
446.024	136.12
446.245	109.12
446.466	88.12
446.687	94.12
446.908	95.12
447.129	86.12
447.35	91.12
447.571	95.12
447.792	88.12
448.013	104.12
448.234	92.12
448.455	84.12
448.675	106.12
448.896	102.12
449.117	97.12
449.338	92.12
449.559	122.12
449.779	118.12
450	90.12
450.221	87.12
450.442	83.12
450.662	91.12
450.883	89.12
451.104	99.12
451.324	99.12
451.545	87.12
451.766	82.12
451.986	88.12
452.207	89.12
452.428	77.12
452.648	104.12
452.869	107.12
453.089	106.12
453.31	117.12
453.53	87.12
453.751	91.12
453.971	91.12
454.192	94.12
454.412	103.12
454.633	88.12
454.853	93.12
455.073	84.12
455.294	92.12
455.514	98.12
455.734	90.12
455.955	75.12
456.175	91.12
456.395	70.12
456.616	70.12
456.836	88.12
457.056	87.12
457.276	79.12
457.497	79.12
457.717	87.12
457.937	91.12
458.157	75.12
458.377	95.12
458.598	100.12
458.818	126.12
459.038	124.12
459.258	101.12
459.478	94.12
459.698	76.12
459.918	104.12
460.138	80.12
460.358	91.12
460.578	85.12
460.798	84.12
461.018	95.12
461.238	95.12
461.458	85.12
461.678	94.12
461.898	85.12
462.118	74.12
462.338	72.12
462.558	98.12
462.777	96.12
462.997	83.12
463.217	83.12
463.437	93.12
463.657	90.12
463.876	84.12
464.096	90.12
464.316	101.12
464.536	91.12
464.755	88.12
464.975	107.12
465.195	135.12
465.414	152.12
465.634	103.12
465.854	79.12
466.073	77.12
466.293	97.12
466.512	99.12
466.732	74.12
466.951	93.12
467.171	85.12
467.391	102.12
467.61	96.12
467.829	92.12
468.049	91.12
468.268	83.12
468.488	76.12
468.707	81.12
468.927	82.12
469.146	102.12
469.365	80.12
469.585	84.12
469.804	98.12
470.023	89.12
470.243	91.12
470.462	95.12
470.681	107.12
470.901	94.12
471.12	56.12
471.339	83.12
471.558	92.12
471.777	87.12
471.997	86.12
472.216	78.12
472.435	88.12
472.654	83.12
472.873	94.12
473.092	81.12
473.311	78.12
473.53	93.12
473.749	89.12
473.968	97.12
474.187	87.12
474.406	97.12
474.625	81.12
474.844	85.12
475.063	77.12
475.282	81.12
475.501	90.12
475.72	94.12
475.939	88.12
476.158	78.12
476.377	83.12
476.596	84.12
476.814	92.12
477.033	87.12
477.252	80.12
477.471	85.12
477.69	85.12
477.908	91.12
478.127	109.12
478.346	99.12
478.564	82.12
478.783	92.12
479.002	87.12
479.22	99.12
479.439	88.12
479.658	92.12
479.876	86.12
480.095	95.12
480.313	91.12
480.532	89.12
480.751	96.12
480.969	82.12
481.188	92.12
481.406	105.12
481.624	94.12
481.843	95.12
482.061	88.12
482.28	82.12
482.498	92.12
482.717	86.12
482.935	79.12
483.153	94.12
483.372	102.12
483.59	87.12
483.808	87.12
484.027	100.12
484.245	85.12
484.463	92.12
484.681	90.12
484.9	94.12
485.118	91.12
485.336	95.12
485.554	102.12
485.772	95.12
485.99	84.12
486.209	101.12
486.427	92.12
486.645	95.12
486.863	95.12
487.081	99.12
487.299	100.12
487.517	101.12
487.735	101.12
487.953	85.12
488.171	81.12
488.389	92.12
488.607	93.12
488.825	89.12
489.043	81.12
489.261	85.12
489.479	88.12
489.696	88.12
489.914	96.12
490.132	86.12
490.35	89.12
490.568	93.12
490.786	89.12
491.003	70.12
491.221	74.12
491.439	96.12
491.657	97.12
491.874	94.12
492.092	93.12
492.31	76.12
492.527	94.12
492.745	87.12
492.963	92.12
493.18	88.12
493.398	81.12
493.615	107.12
493.833	95.12
494.05	81.12
494.268	86.12
494.485	78.12
494.703	85.12
494.92	96.12
495.138	96.12
495.355	75.12
495.573	102.12
495.79	94.12
496.008	86.12
496.225	95.12
496.442	91.12
496.66	98.12
496.877	82.12
497.094	107.12
497.312	83.12
497.529	95.12
497.746	110.12
497.963	84.12
498.181	96.12
498.398	103.12
498.615	102.12
498.832	98.12
499.049	93.12
499.267	87.12
499.484	100.12
499.701	84.12
499.918	92.12
500.135	89.12
500.352	85.12
500.569	98.12
500.786	113.12
501.003	109.12
501.22	83.12
501.437	75.12
501.654	88.12
501.871	87.12
502.088	85.12
502.305	109.12
502.522	100.12
502.739	87.12
502.956	89.12
503.172	79.12
503.389	95.12
503.606	116.12
503.823	84.12
504.04	82.12
504.256	96.12
504.473	78.12
504.69	101.12
504.907	86.12
505.123	90.12
505.34	85.12
505.557	95.12
505.773	96.12
505.99	88.12
506.207	84.12
506.423	96.12
506.64	91.12
506.856	90.12
507.073	86.12
507.289	91.12
507.506	88.12
507.722	105.12
507.939	118.12
508.155	100.12
508.372	86.12
508.588	91.12
508.805	93.12
509.021	91.12
509.238	101.12
509.454	101.12
509.67	89.12
509.887	100.12
510.103	125.12
510.319	182.12
510.536	644.12
510.752	1954.12
510.968	556.12
511.184	138.12
511.401	107.12
511.617	89.12
511.833	97.12
512.049	91.12
512.265	98.12
512.481	101.12
512.698	91.12
512.914	92.12
513.13	90.12
513.346	80.12
513.562	83.12
513.778	93.12
513.994	93.12
514.21	95.12
514.426	116.12
514.642	131.12
514.858	107.12
515.074	142.12
515.29	365.12
515.506	1190.12
515.721	447.12
515.937	152.12
516.153	110.12
516.369	90.12
