Data from Uncirc_2005_H10_HRD10591_00071.txt Node
Date: Wed Jan 03 10:28:39 EST 2024
User: Yrep
Spectrometer: HR+D1059
Trigger mode: 1
Integration Time (sec): 1.000000E-1
Scans to average: 1
Electric dark correction enabled: true
Nonlinearity correction enabled: false
Boxcar width: 0
XAxis mode: Wavelengths
Number of Pixels in Spectrum: 2048
>>>>>Begin Spectral Data<<<<<
223.165	-24.69
223.4	-24.69
223.635	-24.69
223.869	-19.69
224.104	-19.69
224.338	-23.69
224.573	-13.69
224.808	-6.69
225.042	-11.69
225.277	2.31
225.511	3.31
225.746	-1.69
225.98	-4.69
226.215	2.31
226.449	24.31
226.683	24.31
226.918	22.31
227.152	47.31
227.387	45.31
227.621	45.31
227.856	39.31
228.09	46.31
228.324	38.31
228.559	47.31
228.793	166.31
229.027	478.31
229.262	565.31
229.496	636.31
229.73	864.31
229.964	914.31
230.199	570.31
230.433	494.31
230.667	489.31
230.901	499.31
231.136	449.31
231.37	464.31
231.604	462.31
231.838	474.31
232.072	465.31
232.306	466.31
232.541	461.31
232.775	489.31
233.009	480.31
233.243	468.31
233.477	496.31
233.711	478.31
233.945	514.31
234.179	516.31
234.413	518.31
234.647	516.31
234.881	511.31
235.115	554.31
235.349	563.31
235.583	569.31
235.817	615.31
236.051	659.31
236.285	656.31
236.519	660.31
236.753	739.31
236.987	960.31
237.221	1542.31
237.455	1682.31
237.689	949.31
237.922	792.31
238.156	760.31
238.39	687.31
238.624	676.31
238.858	666.31
239.091	690.31
239.325	670.31
239.559	720.31
239.793	706.31
240.027	800.31
240.26	987.31
240.494	1054.31
240.728	1029.31
240.961	964.31
241.195	851.31
241.429	813.31
241.662	772.31
241.896	801.31
242.13	798.31
242.363	779.31
242.597	803.31
242.83	867.31
243.064	836.31
243.298	824.31
243.531	848.31
243.765	859.31
243.998	859.31
244.232	869.31
244.465	900.31
244.699	928.31
244.932	923.31
245.166	926.31
245.399	914.31
245.633	914.31
245.866	943.31
246.099	935.31
246.333	962.31
246.566	996.31
246.8	984.31
247.033	1056.31
247.266	1083.31
247.5	1138.31
247.733	1215.31
247.966	1216.31
248.2	1169.31
248.433	1221.31
248.666	1278.31
248.899	1422.31
249.133	1547.31
249.366	1492.31
249.599	1384.31
249.832	1285.31
250.066	1264.31
250.299	1262.31
250.532	1384.31
250.765	1592.31
250.998	1824.31
251.231	1770.31
251.465	1554.31
251.698	1483.31
251.931	1451.31
252.164	1471.31
252.397	1466.31
252.63	1515.31
252.863	1657.31
253.096	1760.31
253.329	1858.31
253.562	1710.31
253.795	1622.31
254.028	1635.31
254.261	1682.31
254.494	1971.31
254.727	2358.31
254.96	2467.31
255.193	2060.31
255.426	1834.31
255.659	1699.31
255.892	1671.31
256.124	1593.31
256.357	1600.31
256.59	1558.31
256.823	1557.31
257.056	1556.31
257.289	1537.31
257.521	1566.31
257.754	1602.31
257.987	1542.31
258.22	1559.31
258.452	1606.31
258.685	1583.31
258.918	1630.31
259.151	1685.31
259.383	1749.31
259.616	1799.31
259.849	1878.31
260.081	2052.31
260.314	2224.31
260.547	2104.31
260.779	1926.31
261.012	1835.31
261.244	1775.31
261.477	1730.31
261.71	1738.31
261.942	1837.31
262.175	1874.31
262.407	1765.31
262.64	1752.31
262.872	1724.31
263.105	1700.31
263.337	1691.31
263.57	1694.31
263.802	1689.31
264.035	1717.31
264.267	1685.31
264.499	1708.31
264.732	1736.31
264.964	1735.31
265.197	1772.31
265.429	1738.31
265.661	1752.31
265.894	1722.31
266.126	1781.31
266.358	1864.31
266.591	1880.31
266.823	1905.31
267.055	1958.31
267.287	1961.31
267.52	1951.31
267.752	1896.31
267.984	1908.31
268.216	1939.31
268.448	1994.31
268.681	2067.31
268.913	2242.31
269.145	2481.31
269.377	2557.31
269.609	2444.31
269.841	2408.31
270.073	2548.31
270.306	2873.31
270.538	3084.31
270.77	2803.31
271.002	2693.31
271.234	2616.31
271.466	2804.31
271.698	2973.31
271.93	2996.31
272.162	2909.31
272.394	2812.31
272.626	2641.31
272.858	2485.31
273.09	2418.31
273.322	2374.31
273.553	2324.31
273.785	2341.31
274.017	2320.31
274.249	2307.31
274.481	2361.31
274.713	2369.31
274.945	2384.31
275.176	2353.31
275.408	2331.31
275.64	2316.31
275.872	2376.31
276.104	2388.31
276.335	2381.31
276.567	2515.31
276.799	2719.31
277.031	2982.31
277.262	3127.31
277.494	2928.31
277.726	2724.31
277.957	2634.31
278.189	2549.31
278.421	2476.31
278.652	2452.31
278.884	2496.31
279.115	2422.31
279.347	2442.31
279.579	2433.31
279.81	2408.31
280.042	2506.31
280.273	2448.31
280.505	2464.31
280.736	2493.31
280.968	2436.31
281.199	2503.31
281.431	2508.31
281.662	2516.31
281.894	2530.31
282.125	2626.31
282.356	2798.31
282.588	2908.31
282.819	2768.31
283.051	2631.31
283.282	2601.31
283.513	2669.31
283.745	2681.31
283.976	2747.31
284.207	2726.31
284.439	2717.31
284.67	2696.31
284.901	2631.31
285.132	2725.31
285.364	2728.31
285.595	2765.31
285.826	2690.31
286.057	2715.31
286.288	2729.31
286.52	2808.31
286.751	2809.31
286.982	2769.31
287.213	2798.31
287.444	2811.31
287.675	2917.31
287.906	2992.31
288.138	3071.31
288.369	3096.31
288.6	3000.31
288.831	2957.31
289.062	2879.31
289.293	2889.31
289.524	2907.31
289.755	2901.31
289.986	2860.31
290.217	2864.31
290.448	2916.31
290.679	2880.31
290.91	2904.31
291.141	2887.31
291.371	2859.31
291.602	2908.31
291.833	2885.31
292.064	2897.31
292.295	2894.31
292.526	2901.31
292.757	2870.31
292.987	2909.31
293.218	2886.31
293.449	2981.31
293.68	2943.31
293.91	2911.31
294.141	2866.31
294.372	2897.31
294.603	2876.31
294.833	2930.31
295.064	2992.31
295.295	2961.31
295.525	2967.31
295.756	3031.31
295.987	3152.31
296.217	3286.31
296.448	3221.31
296.679	3026.31
296.909	3000.31
297.14	3028.31
297.37	3101.31
297.601	3181.31
297.831	3126.31
298.062	3132.31
298.292	3153.31
298.523	3178.31
298.753	3206.31
298.984	3184.31
299.214	3197.31
299.445	3181.31
299.675	3220.31
299.905	3278.31
300.136	3217.31
300.366	3214.31
300.597	3301.31
300.827	3368.31
301.057	3421.31
301.288	3524.31
301.518	3473.31
301.748	3464.31
301.979	3491.31
302.209	3483.31
302.439	3484.31
302.669	3401.31
302.9	3362.31
303.13	3372.31
303.36	3464.31
303.59	3498.31
303.82	3532.31
304.051	3513.31
304.281	3415.31
304.511	3369.31
304.741	3336.31
304.971	3318.31
305.201	3346.31
305.431	3342.31
305.661	3339.31
305.891	3384.31
306.121	3354.31
306.352	3396.31
306.582	3369.31
306.812	3358.31
307.042	3352.31
307.272	3398.31
307.502	3404.31
307.731	3354.31
307.961	3317.31
308.191	3311.31
308.421	3427.31
308.651	3406.31
308.881	3392.31
309.111	3424.31
309.341	3475.31
309.571	3577.31
309.8	3615.31
310.03	3696.31
310.26	3729.31
310.49	3662.31
310.72	3868.31
310.949	3997.31
311.179	3898.31
311.409	3765.31
311.639	3829.31
311.868	3791.31
312.098	3843.31
312.328	3946.31
312.557	4062.31
312.787	4182.31
313.017	4035.31
313.246	3962.31
313.476	3878.31
313.706	3923.31
313.935	4012.31
314.165	4147.31
314.394	4132.31
314.624	4031.31
314.853	4031.31
315.083	3918.31
315.312	3877.31
315.542	3837.31
315.771	3793.31
316.001	3826.31
316.23	3788.31
316.46	3824.31
316.689	3867.31
316.919	3932.31
317.148	3915.31
317.377	3927.31
317.607	3906.31
317.836	3878.31
318.065	3795.31
318.295	3790.31
318.524	3770.31
318.753	3726.31
318.983	3796.31
319.212	3784.31
319.441	3821.31
319.67	3877.31
319.9	3777.31
320.129	3838.31
320.358	3824.31
320.587	3833.31
320.816	3968.31
321.046	3990.31
321.275	4008.31
321.504	4001.31
321.733	4017.31
321.962	4038.31
322.191	4236.31
322.42	4323.31
322.649	4330.31
322.878	4452.31
323.108	4590.31
323.337	4816.31
323.566	4940.31
323.795	5257.31
324.024	5946.31
324.253	7884.31
324.482	12097.31
324.71	15606.31
324.939	15606.31
325.168	14104.31
325.397	7057.31
325.626	5560.31
325.855	5120.31
326.084	4887.31
326.313	4935.31
326.542	5179.31
326.77	5972.31
326.999	7612.31
327.228	11314.31
327.457	15265.31
327.686	14790.31
327.914	7894.31
328.143	6176.31
328.372	5766.31
328.6	5581.31
328.829	5473.31
329.058	5749.31
329.287	5709.31
329.515	5256.31
329.744	4991.31
329.972	5061.31
330.201	5065.31
330.43	5355.31
330.658	5830.31
330.887	6259.31
331.115	5729.31
331.344	5178.31
331.572	5155.31
331.801	5247.31
332.03	5233.31
332.258	5065.31
332.486	5146.31
332.715	5166.31
332.943	5362.31
333.172	5527.31
333.4	5577.31
333.629	5700.31
333.857	5766.31
334.085	5666.31
334.314	5614.31
334.542	5492.31
334.771	5555.31
334.999	5472.31
335.227	5416.31
335.455	5283.31
335.684	5204.31
335.912	5169.31
336.14	5108.31
336.369	5096.31
336.597	5131.31
336.825	5143.31
337.053	5006.31
337.281	4945.31
337.51	4901.31
337.738	4864.31
337.966	4886.31
338.194	4854.31
338.422	4845.31
338.65	4721.31
338.878	4714.31
339.106	4680.31
339.334	4627.31
339.562	4569.31
339.79	4557.31
340.018	4562.31
340.246	4587.31
340.474	4574.31
340.702	4595.31
340.93	4580.31
341.158	4574.31
341.386	4506.31
341.614	4592.31
341.842	4567.31
342.07	4427.31
342.298	4438.31
342.526	4418.31
342.754	4456.31
342.981	4457.31
343.209	4573.31
343.437	4720.31
343.665	5054.31
343.893	5295.31
344.12	5290.31
344.348	5125.31
344.576	4892.31
344.804	4870.31
345.031	4858.31
345.259	4792.31
345.487	4598.31
345.714	4550.31
345.942	4506.31
346.17	4377.31
346.397	4402.31
346.625	4307.31
346.853	4302.31
347.08	4311.31
347.308	4373.31
347.535	4477.31
347.763	4528.31
347.99	4440.31
348.218	4455.31
348.445	4513.31
348.673	4425.31
348.9	4399.31
349.128	4269.31
349.355	4193.31
349.583	4259.31
349.81	4206.31
350.037	4202.31
350.265	4214.31
350.492	4174.31
350.72	4272.31
350.947	4249.31
351.174	4374.31
351.402	4429.31
351.629	4294.31
351.856	4319.31
352.083	4418.31
352.311	4453.31
352.538	4501.31
352.765	4373.31
352.992	4315.31
353.22	4291.31
353.447	4225.31
353.674	4173.31
353.901	4132.31
354.128	4105.31
354.355	4081.31
354.583	4114.31
354.81	4068.31
355.037	4095.31
355.264	4061.31
355.491	3999.31
355.718	4036.31
355.945	4000.31
356.172	4081.31
356.399	4073.31
356.626	4161.31
356.853	4104.31
357.08	4046.31
357.307	4050.31
357.534	4048.31
357.761	4099.31
357.988	4088.31
358.215	4098.31
358.441	4131.31
358.668	4176.31
358.895	4178.31
359.122	4232.31
359.349	4362.31
359.576	4438.31
359.802	4682.31
360.029	4840.31
360.256	4908.31
360.483	4674.31
360.709	4459.31
360.936	4383.31
361.163	4398.31
361.39	4414.31
361.616	4436.31
361.843	4305.31
362.07	4366.31
362.296	4448.31
362.523	4301.31
362.749	4420.31
362.976	4327.31
363.203	4196.31
363.429	4156.31
363.656	4232.31
363.882	4192.31
364.109	4176.31
364.335	4147.31
364.562	4199.31
364.788	4175.31
365.015	4143.31
365.241	4236.31
365.468	4205.31
365.694	4249.31
365.92	4262.31
366.147	4180.31
366.373	4209.31
366.599	4222.31
366.826	4155.31
367.052	4116.31
367.278	4245.31
367.505	4198.31
367.731	4234.31
367.957	4243.31
368.184	4255.31
368.41	4374.31
368.636	4420.31
368.862	4423.31
369.089	4344.31
369.315	4251.31
369.541	4240.31
369.767	4263.31
369.993	4328.31
370.219	4330.31
370.445	4389.31
370.672	4419.31
370.898	4336.31
371.124	4433.31
371.35	4466.31
371.576	4420.31
371.802	4451.31
372.028	4397.31
372.254	4416.31
372.48	4442.31
372.706	4530.31
372.932	4624.31
373.158	4536.31
373.384	4506.31
373.61	4449.31
373.835	4500.31
374.061	4540.31
374.287	4629.31
374.513	4667.31
374.739	4782.31
374.965	4871.31
375.191	4924.31
375.416	4744.31
375.642	4607.31
375.868	4613.31
376.094	4560.31
376.319	4512.31
376.545	4520.31
376.771	4463.31
376.997	4500.31
377.222	4474.31
377.448	4463.31
377.674	4396.31
377.899	4414.31
378.125	4457.31
378.35	4420.31
378.576	4400.31
378.802	4422.31
379.027	4435.31
379.253	4462.31
379.478	4341.31
379.704	4451.31
379.929	4448.31
380.155	4424.31
380.38	4489.31
380.606	4497.31
380.831	4397.31
381.057	4465.31
381.282	4458.31
381.507	4446.31
381.733	4512.31
381.958	4594.31
382.184	4544.31
382.409	4674.31
382.634	4645.31
382.86	4744.31
383.085	4796.31
383.31	4906.31
383.535	4908.31
383.761	4962.31
383.986	4999.31
384.211	5068.31
384.436	5161.31
384.662	5232.31
384.887	5346.31
385.112	5274.31
385.337	5353.31
385.562	5354.31
385.787	5444.31
386.013	5500.31
386.238	5527.31
386.463	5428.31
386.688	5422.31
386.913	5287.31
387.138	5315.31
387.363	5289.31
387.588	5266.31
387.813	5259.31
388.038	5245.31
388.263	5340.31
388.488	5358.31
388.713	5330.31
388.938	5269.31
389.163	5222.31
389.387	5323.31
389.612	5158.31
389.837	5316.31
390.062	5190.31
390.287	5255.31
390.512	5278.31
390.736	5269.31
390.961	5348.31
391.186	5478.31
391.411	5602.31
391.636	5841.31
391.86	5903.31
392.085	6027.31
392.31	5824.31
392.534	5721.31
392.759	5656.31
392.984	5607.31
393.208	5491.31
393.433	5515.31
393.658	5485.31
393.882	5489.31
394.107	5575.31
394.331	5564.31
394.556	5588.31
394.78	5659.31
395.005	5692.31
395.229	5672.31
395.454	5899.31
395.678	5978.31
395.903	5950.31
396.127	6054.31
396.352	5868.31
396.576	5649.31
396.801	5679.31
397.025	5742.31
397.249	5884.31
397.474	5940.31
397.698	5989.31
397.922	6221.31
398.147	6253.31
398.371	6344.31
398.595	6466.31
398.82	6760.31
399.044	7379.31
399.268	8177.31
399.492	9298.31
399.717	9907.31
399.941	9618.31
400.165	9054.31
400.389	8386.31
400.613	7467.31
400.837	7006.31
401.062	6816.31
401.286	6749.31
401.51	6723.31
401.734	6691.31
401.958	6898.31
402.182	6974.31
402.406	7094.31
402.63	7131.31
402.854	7236.31
403.078	7370.31
403.302	7502.31
403.526	7570.31
403.75	7620.31
403.974	7617.31
404.198	7557.31
404.422	7724.31
404.645	7580.31
404.869	7533.31
405.093	7696.31
405.317	7789.31
405.541	7868.31
405.765	7416.31
405.988	7429.31
406.212	7721.31
406.436	7762.31
406.66	7980.31
406.883	7989.31
407.107	8609.31
407.331	9281.31
407.555	9740.31
407.778	9374.31
408.002	8536.31
408.226	8163.31
408.449	8013.31
408.673	7877.31
408.896	8041.31
409.12	8254.31
409.344	7689.31
409.567	7469.31
409.791	7397.31
410.014	7189.31
410.238	7098.31
410.461	7281.31
410.685	7264.31
410.908	7378.31
411.132	7698.31
411.355	7712.31
411.578	7195.31
411.802	6928.31
412.025	6923.31
412.249	7088.31
412.472	6990.31
412.695	6995.31
412.919	6732.31
413.142	6695.31
413.365	6653.31
413.589	6679.31
413.812	6590.31
414.035	6466.31
414.258	6534.31
414.482	6646.31
414.705	6638.31
414.928	6594.31
415.151	6636.31
415.374	6575.31
415.597	6486.31
415.821	6525.31
416.044	6446.31
416.267	6507.31
416.49	6439.31
416.713	6344.31
416.936	6461.31
417.159	6447.31
417.382	6575.31
417.605	6582.31
417.828	6739.31
418.051	6911.31
418.274	6718.31
418.497	6654.31
418.72	6754.31
418.943	6683.31
419.166	7129.31
419.389	7495.31
419.611	7395.31
419.834	7152.31
420.057	7026.31
420.28	6825.31
420.503	6602.31
420.726	6623.31
420.948	6867.31
421.171	7384.31
421.394	7315.31
421.617	6768.31
421.839	6764.31
422.062	6921.31
422.285	7026.31
422.507	7736.31
422.73	8330.31
422.953	7589.31
423.175	7243.31
423.398	7298.31
423.621	7308.31
423.843	7520.31
424.066	7519.31
424.288	7401.31
424.511	7676.31
424.733	8113.31
424.956	8602.31
425.178	8092.31
425.401	8397.31
425.623	8190.31
425.846	7072.31
426.068	7003.31
426.291	6825.31
426.513	6871.31
426.735	6933.31
426.958	7496.31
427.18	8335.31
427.402	9580.31
427.625	9681.31
427.847	8146.31
428.069	7120.31
428.292	6706.31
428.514	6342.31
428.736	6201.31
428.958	6297.31
429.181	6056.31
429.403	6065.31
429.625	6281.31
429.847	6559.31
430.069	7200.31
430.292	6755.31
430.514	6084.31
430.736	6147.31
430.958	5978.31
431.18	5866.31
431.402	5844.31
431.624	5862.31
431.846	5998.31
432.068	5922.31
432.29	6053.31
432.512	5914.31
432.734	6086.31
432.956	5937.31
433.178	6016.31
433.4	6094.31
433.622	5966.31
433.844	5928.31
434.066	5922.31
434.287	6073.31
434.509	6330.31
434.731	6579.31
434.953	6713.31
435.175	6830.31
435.397	7117.31
435.618	6867.31
435.84	7424.31
436.062	8336.31
436.284	8347.31
436.505	6934.31
436.727	6536.31
436.949	6214.31
437.17	6095.31
437.392	6105.31
437.614	6248.31
437.835	6709.31
438.057	7849.31
438.278	8576.31
438.5	8467.31
438.721	9333.31
438.943	8075.31
439.165	6750.31
439.386	6606.31
439.608	6567.31
439.829	6710.31
440.05	7178.31
440.272	7548.31
440.493	6842.31
440.715	6391.31
440.936	6400.31
441.158	6329.31
441.379	6554.31
441.6	6843.31
441.822	7134.31
442.043	7681.31
442.264	8608.31
442.486	8232.31
442.707	7237.31
442.928	7056.31
443.149	7370.31
443.371	7513.31
443.592	8161.31
443.813	9310.31
444.034	9201.31
444.255	7860.31
444.476	7677.31
444.698	7856.31
444.919	7918.31
445.14	7681.31
445.361	7650.31
445.582	7896.31
445.803	8641.31
446.024	9349.31
446.245	8935.31
446.466	7962.31
446.687	6767.31
446.908	6441.31
447.129	6099.31
447.35	5877.31
447.571	5930.31
447.792	5753.31
448.013	5867.31
448.234	6169.31
448.455	6837.31
448.675	8288.31
448.896	8800.31
449.117	7093.31
449.338	7389.31
449.559	8938.31
449.779	9174.31
450	6904.31
450.221	6080.31
450.442	5754.31
450.662	5773.31
450.883	5876.31
451.104	5950.31
451.324	5779.31
451.545	5609.31
451.766	5440.31
451.986	5342.31
452.207	5224.31
452.428	5243.31
452.648	5208.31
452.869	5320.31
453.089	5429.31
453.31	5482.31
453.53	5315.31
453.751	5269.31
453.971	5346.31
454.192	5468.31
454.412	5212.31
454.633	5170.31
454.853	5118.31
455.073	5166.31
455.294	5627.31
455.514	6268.31
455.734	5693.31
455.955	5026.31
456.175	4944.31
456.395	4809.31
456.616	4792.31
456.836	4814.31
457.056	4817.31
457.276	4775.31
457.497	4908.31
457.717	4862.31
457.937	4980.31
458.157	5094.31
458.377	5260.31
458.598	5581.31
458.818	6339.31
459.038	7325.31
459.258	7130.31
459.478	6291.31
459.698	6072.31
459.918	6160.31
460.138	6306.31
460.358	6479.31
460.578	6536.31
460.798	6598.31
461.018	6510.31
461.238	6420.31
461.458	6321.31
461.678	6399.31
461.898	6536.31
462.118	6593.31
462.338	6931.31
462.558	7097.31
462.777	7356.31
462.997	7897.31
463.217	8360.31
463.437	8171.31
463.657	7528.31
463.876	7269.31
464.096	7373.31
464.316	7476.31
464.536	7509.31
464.755	7256.31
464.975	7140.31
465.195	7346.31
465.414	7538.31
465.634	6526.31
465.854	6154.31
466.073	5839.31
466.293	5672.31
466.512	5565.31
466.732	5432.31
466.951	5426.31
467.171	5413.31
467.391	5453.31
467.61	5570.31
467.829	5517.31
468.049	5424.31
468.268	5156.31
468.488	5138.31
468.707	5089.31
468.927	5171.31
469.146	5203.31
469.365	5172.31
469.585	5184.31
469.804	5482.31
470.023	5716.31
470.243	5590.31
470.462	5706.31
470.681	5849.31
470.901	5699.31
471.12	5621.31
471.339	5521.31
471.558	5550.31
471.777	5388.31
471.997	5285.31
472.216	5188.31
472.435	5167.31
472.654	5144.31
472.873	4997.31
473.092	5171.31
473.311	5153.31
473.53	5199.31
473.749	5280.31
473.968	5847.31
474.187	7155.31
474.406	6593.31
474.625	5506.31
474.844	5235.31
475.063	5166.31
475.282	5269.31
475.501	5289.31
475.72	5286.31
475.939	5315.31
476.158	5324.31
476.377	5408.31
476.596	5449.31
476.814	5594.31
477.033	5611.31
477.252	5644.31
477.471	5755.31
477.69	5802.31
477.908	6024.31
478.127	6110.31
478.346	6111.31
478.564	6316.31
478.783	6438.31
479.002	6599.31
479.22	6554.31
479.439	6630.31
479.658	6735.31
479.876	6815.31
480.095	7136.31
480.313	7565.31
480.532	7323.31
480.751	7215.31
480.969	7125.31
481.188	7003.31
481.406	6827.31
481.624	6549.31
481.843	6334.31
482.061	6257.31
482.28	6192.31
482.498	6157.31
482.717	6082.31
482.935	6079.31
483.153	6138.31
483.372	6124.31
483.59	6075.31
483.808	6092.31
484.027	6112.31
484.245	6111.31
484.463	6246.31
484.681	6288.31
484.9	6286.31
485.118	6313.31
485.336	6497.31
485.554	6485.31
485.772	6501.31
485.99	6536.31
486.209	6588.31
486.427	6533.31
486.645	6631.31
486.863	6812.31
487.081	6734.31
487.299	6643.31
487.517	6616.31
487.735	6572.31
