Data from Uncirc_2005_H10_HRD10591_00032.txt Node
Date: Wed Jan 03 10:28:31 EST 2024
User: Yrep
Spectrometer: HR+D1059
Trigger mode: 1
Integration Time (sec): 1.000000E-1
Scans to average: 1
Electric dark correction enabled: true
Nonlinearity correction enabled: false
Boxcar width: 0
XAxis mode: Wavelengths
Number of Pixels in Spectrum: 2048
>>>>>Begin Spectral Data<<<<<
223.165	-8.12
223.4	-8.12
223.635	-8.12
223.869	-15.12
224.104	-12.12
224.338	-16.12
224.573	-12.12
224.808	-14.12
225.042	-11.12
225.277	-3.12
225.511	-4.12
225.746	2.88
225.98	-3.12
226.215	10.88
226.449	24.88
226.683	17.88
226.918	7.88
227.152	34.88
227.387	35.88
227.621	36.88
227.856	61.88
228.09	47.88
228.324	59.88
228.559	54.88
228.793	49.88
229.027	47.88
229.262	69.88
229.496	67.88
229.73	61.88
229.964	69.88
230.199	69.88
230.433	72.88
230.667	63.88
230.901	75.88
231.136	68.88
231.37	73.88
231.604	74.88
231.838	86.88
232.072	92.88
232.306	71.88
232.541	81.88
232.775	86.88
233.009	76.88
233.243	85.88
233.477	76.88
233.711	76.88
233.945	76.88
234.179	92.88
234.413	72.88
234.647	63.88
234.881	80.88
235.115	84.88
235.349	83.88
235.583	76.88
235.817	73.88
236.051	87.88
236.285	70.88
236.519	69.88
236.753	88.88
236.987	79.88
237.221	91.88
237.455	85.88
237.689	78.88
237.922	67.88
238.156	80.88
238.39	63.88
238.624	77.88
238.858	65.88
239.091	63.88
239.325	67.88
239.559	89.88
239.793	69.88
240.027	73.88
240.26	86.88
240.494	75.88
240.728	79.88
240.961	80.88
241.195	86.88
241.429	88.88
241.662	77.88
241.896	63.88
242.13	80.88
242.363	86.88
242.597	79.88
242.83	83.88
243.064	84.88
243.298	91.88
243.531	81.88
243.765	77.88
243.998	81.88
244.232	81.88
244.465	77.88
244.699	74.88
244.932	83.88
245.166	71.88
245.399	66.88
245.633	65.88
245.866	64.88
246.099	71.88
246.333	99.88
246.566	80.88
246.8	71.88
247.033	80.88
247.266	81.88
247.5	78.88
247.733	83.88
247.966	92.88
248.2	78.88
248.433	84.88
248.666	85.88
248.899	87.88
249.133	87.88
249.366	78.88
249.599	81.88
249.832	80.88
250.066	72.88
250.299	71.88
250.532	80.88
250.765	77.88
250.998	84.88
251.231	83.88
251.465	102.88
251.698	89.88
251.931	81.88
252.164	70.88
252.397	80.88
252.63	72.88
252.863	78.88
253.096	88.88
253.329	74.88
253.562	75.88
253.795	78.88
254.028	77.88
254.261	81.88
254.494	87.88
254.727	78.88
254.96	75.88
255.193	73.88
255.426	83.88
255.659	80.88
255.892	87.88
256.124	83.88
256.357	86.88
256.59	82.88
256.823	75.88
257.056	78.88
257.289	87.88
257.521	79.88
257.754	82.88
257.987	97.88
258.22	76.88
258.452	73.88
258.685	80.88
258.918	72.88
259.151	88.88
259.383	96.88
259.616	82.88
259.849	87.88
260.081	85.88
260.314	70.88
260.547	91.88
260.779	86.88
261.012	74.88
261.244	95.88
261.477	101.88
261.71	93.88
261.942	99.88
262.175	98.88
262.407	81.88
262.64	93.88
262.872	88.88
263.105	71.88
263.337	82.88
263.57	99.88
263.802	87.88
264.035	98.88
264.267	80.88
264.499	77.88
264.732	77.88
264.964	78.88
265.197	80.88
265.429	87.88
265.661	77.88
265.894	79.88
266.126	97.88
266.358	83.88
266.591	68.88
266.823	80.88
267.055	77.88
267.287	86.88
267.52	69.88
267.752	84.88
267.984	75.88
268.216	75.88
268.448	87.88
268.681	85.88
268.913	89.88
269.145	77.88
269.377	87.88
269.609	80.88
269.841	88.88
270.073	89.88
270.306	79.88
270.538	84.88
270.77	85.88
271.002	88.88
271.234	87.88
271.466	85.88
271.698	93.88
271.93	88.88
272.162	84.88
272.394	82.88
272.626	85.88
272.858	108.88
273.09	74.88
273.322	87.88
273.553	87.88
273.785	94.88
274.017	76.88
274.249	89.88
274.481	85.88
274.713	91.88
274.945	84.88
275.176	78.88
275.408	91.88
275.64	82.88
275.872	80.88
276.104	85.88
276.335	88.88
276.567	84.88
276.799	95.88
277.031	89.88
277.262	91.88
277.494	100.88
277.726	94.88
277.957	99.88
278.189	80.88
278.421	93.88
278.652	84.88
278.884	88.88
279.115	85.88
279.347	100.88
279.579	95.88
279.81	95.88
280.042	104.88
280.273	91.88
280.505	93.88
280.736	86.88
280.968	91.88
281.199	90.88
281.431	77.88
281.662	87.88
281.894	87.88
282.125	96.88
282.356	104.88
282.588	130.88
282.819	109.88
283.051	90.88
283.282	93.88
283.513	87.88
283.745	97.88
283.976	91.88
284.207	95.88
284.439	59.88
284.67	83.88
284.901	90.88
285.132	85.88
285.364	107.88
285.595	92.88
285.826	85.88
286.057	81.88
286.288	84.88
286.52	93.88
286.751	96.88
286.982	92.88
287.213	100.88
287.444	80.88
287.675	89.88
287.906	100.88
288.138	93.88
288.369	94.88
288.6	91.88
288.831	79.88
289.062	100.88
289.293	94.88
289.524	77.88
289.755	83.88
289.986	71.88
290.217	88.88
290.448	80.88
290.679	77.88
290.91	98.88
291.141	79.88
291.371	100.88
291.602	98.88
291.833	98.88
292.064	75.88
292.295	93.88
292.526	95.88
292.757	81.88
292.987	95.88
293.218	93.88
293.449	95.88
293.68	99.88
293.91	83.88
294.141	89.88
294.372	85.88
294.603	87.88
294.833	100.88
295.064	97.88
295.295	87.88
295.525	84.88
295.756	88.88
295.987	110.88
296.217	113.88
296.448	103.88
296.679	110.88
296.909	84.88
297.14	96.88
297.37	100.88
297.601	87.88
297.831	81.88
298.062	101.88
298.292	92.88
298.523	85.88
298.753	79.88
298.984	89.88
299.214	97.88
299.445	92.88
299.675	89.88
299.905	95.88
300.136	86.88
300.366	85.88
300.597	85.88
300.827	91.88
301.057	101.88
301.288	101.88
301.518	91.88
301.748	84.88
301.979	103.88
302.209	91.88
302.439	89.88
302.669	91.88
302.9	84.88
303.13	102.88
303.36	92.88
303.59	102.88
303.82	107.88
304.051	93.88
304.281	99.88
304.511	98.88
304.741	87.88
304.971	91.88
305.201	92.88
305.431	84.88
305.661	96.88
305.891	86.88
306.121	86.88
306.352	97.88
306.582	89.88
306.812	91.88
307.042	86.88
307.272	86.88
307.502	92.88
307.731	101.88
307.961	92.88
308.191	76.88
308.421	99.88
308.651	100.88
308.881	84.88
309.111	97.88
309.341	106.88
309.571	111.88
309.8	92.88
310.03	91.88
310.26	100.88
310.49	104.88
310.72	94.88
310.949	109.88
311.179	88.88
311.409	91.88
311.639	93.88
311.868	87.88
312.098	93.88
312.328	85.88
312.557	108.88
312.787	107.88
313.017	98.88
313.246	96.88
313.476	92.88
313.706	97.88
313.935	78.88
314.165	103.88
314.394	105.88
314.624	87.88
314.853	84.88
315.083	91.88
315.312	94.88
315.542	98.88
315.771	109.88
316.001	90.88
316.23	99.88
316.46	88.88
316.689	80.88
316.919	94.88
317.148	88.88
317.377	100.88
317.607	109.88
317.836	91.88
318.065	73.88
318.295	77.88
318.524	94.88
318.753	98.88
318.983	92.88
319.212	103.88
319.441	110.88
319.67	94.88
319.9	92.88
320.129	92.88
320.358	90.88
320.587	108.88
320.816	105.88
321.046	110.88
321.275	90.88
321.504	95.88
321.733	104.88
321.962	107.88
322.191	115.88
322.42	96.88
322.649	107.88
322.878	96.88
323.108	117.88
323.337	113.88
323.566	123.88
323.795	143.88
324.024	200.88
324.253	395.88
324.482	825.88
324.71	1659.88
324.939	2253.88
325.168	809.88
325.397	253.88
325.626	155.88
325.855	124.88
326.084	135.88
326.313	123.88
326.542	144.88
326.77	238.88
326.999	467.88
327.228	955.88
327.457	1748.88
327.686	1384.88
327.914	360.88
328.143	171.88
328.372	141.88
328.6	111.88
328.829	110.88
329.058	120.88
329.287	121.88
329.515	119.88
329.744	84.88
329.972	101.88
330.201	99.88
330.43	108.88
330.658	113.88
330.887	127.88
331.115	100.88
331.344	95.88
331.572	96.88
331.801	93.88
332.03	105.88
332.258	112.88
332.486	91.88
332.715	100.88
332.943	91.88
333.172	91.88
333.4	101.88
333.629	105.88
333.857	114.88
334.085	99.88
334.314	98.88
334.542	89.88
334.771	96.88
334.999	108.88
335.227	112.88
335.455	107.88
335.684	93.88
335.912	81.88
336.14	96.88
336.369	90.88
336.597	83.88
336.825	91.88
337.053	82.88
337.281	95.88
337.51	91.88
337.738	112.88
337.966	97.88
338.194	109.88
338.422	100.88
338.65	104.88
338.878	95.88
339.106	90.88
339.334	101.88
339.562	92.88
339.79	93.88
340.018	92.88
340.246	89.88
340.474	100.88
340.702	86.88
340.93	103.88
341.158	97.88
341.386	93.88
341.614	107.88
341.842	84.88
342.07	83.88
342.298	79.88
342.526	92.88
342.754	92.88
342.981	97.88
343.209	81.88
343.437	102.88
343.665	97.88
343.893	93.88
344.12	90.88
344.348	81.88
344.576	83.88
344.804	87.88
345.031	101.88
345.259	98.88
345.487	89.88
345.714	92.88
345.942	82.88
346.17	71.88
346.397	100.88
346.625	86.88
346.853	84.88
347.08	92.88
347.308	86.88
347.535	101.88
347.763	110.88
347.99	99.88
348.218	98.88
348.445	93.88
348.673	91.88
348.9	98.88
349.128	101.88
349.355	94.88
349.583	100.88
349.81	107.88
350.037	102.88
350.265	94.88
350.492	88.88
350.72	110.88
350.947	106.88
351.174	110.88
351.402	107.88
351.629	98.88
351.856	85.88
352.083	100.88
352.311	104.88
352.538	101.88
352.765	91.88
352.992	116.88
353.22	125.88
353.447	106.88
353.674	99.88
353.901	105.88
354.128	98.88
354.355	101.88
354.583	90.88
354.81	109.88
355.037	106.88
355.264	92.88
355.491	106.88
355.718	101.88
355.945	94.88
356.172	101.88
356.399	106.88
356.626	85.88
356.853	88.88
357.08	99.88
357.307	87.88
357.534	97.88
357.761	97.88
357.988	95.88
358.215	102.88
358.441	96.88
358.668	104.88
358.895	97.88
359.122	102.88
359.349	98.88
359.576	88.88
359.802	97.88
360.029	105.88
360.256	98.88
360.483	101.88
360.709	94.88
360.936	92.88
361.163	110.88
361.39	92.88
361.616	105.88
361.843	94.88
362.07	89.88
362.296	92.88
362.523	93.88
362.749	98.88
362.976	91.88
363.203	104.88
363.429	82.88
363.656	93.88
363.882	81.88
364.109	94.88
364.335	77.88
364.562	104.88
364.788	103.88
365.015	97.88
365.241	94.88
365.468	100.88
365.694	102.88
365.92	81.88
366.147	95.88
366.373	101.88
366.599	95.88
366.826	106.88
367.052	94.88
367.278	79.88
367.505	92.88
367.731	98.88
367.957	85.88
368.184	89.88
368.41	90.88
368.636	97.88
368.862	126.88
369.089	112.88
369.315	94.88
369.541	104.88
369.767	91.88
369.993	85.88
370.219	87.88
370.445	94.88
370.672	96.88
370.898	81.88
371.124	95.88
371.35	87.88
371.576	84.88
371.802	71.88
372.028	78.88
372.254	92.88
372.48	89.88
372.706	92.88
372.932	97.88
373.158	88.88
373.384	89.88
373.61	85.88
373.835	108.88
374.061	87.88
374.287	89.88
374.513	89.88
374.739	92.88
374.965	89.88
375.191	99.88
375.416	77.88
375.642	84.88
375.868	93.88
376.094	89.88
376.319	107.88
376.545	94.88
376.771	101.88
376.997	93.88
377.222	80.88
377.448	87.88
377.674	80.88
377.899	101.88
378.125	80.88
378.35	85.88
378.576	85.88
378.802	103.88
379.027	90.88
379.253	96.88
379.478	98.88
379.704	95.88
379.929	87.88
380.155	108.88
380.38	97.88
380.606	102.88
380.831	116.88
381.057	98.88
381.282	88.88
381.507	95.88
381.733	105.88
381.958	99.88
382.184	99.88
382.409	109.88
382.634	114.88
382.86	107.88
383.085	110.88
383.31	104.88
383.535	103.88
383.761	90.88
383.986	111.88
384.211	107.88
384.436	116.88
384.662	101.88
384.887	95.88
385.112	96.88
385.337	115.88
385.562	126.88
385.787	115.88
386.013	118.88
386.238	131.88
386.463	114.88
386.688	110.88
386.913	113.88
387.138	103.88
387.363	125.88
387.588	98.88
387.813	99.88
388.038	112.88
388.263	115.88
388.488	122.88
388.713	84.88
388.938	97.88
389.163	96.88
389.387	96.88
389.612	99.88
389.837	94.88
390.062	75.88
390.287	105.88
390.512	91.88
390.736	85.88
390.961	81.88
391.186	86.88
391.411	88.88
391.636	87.88
391.86	83.88
392.085	83.88
392.31	100.88
392.534	91.88
392.759	88.88
392.984	93.88
393.208	85.88
393.433	89.88
393.658	102.88
393.882	86.88
394.107	86.88
394.331	90.88
394.556	80.88
394.78	84.88
395.005	92.88
395.229	105.88
395.454	78.88
395.678	91.88
395.903	86.88
396.127	85.88
396.352	89.88
396.576	76.88
396.801	97.88
397.025	83.88
397.249	87.88
397.474	78.88
397.698	91.88
397.922	98.88
398.147	80.88
398.371	77.88
398.595	76.88
398.82	85.88
399.044	88.88
399.268	90.88
399.492	87.88
399.717	108.88
399.941	99.88
400.165	94.88
400.389	88.88
400.613	95.88
400.837	76.88
401.062	79.88
401.286	85.88
401.51	99.88
401.734	89.88
401.958	90.88
402.182	125.88
402.406	153.88
402.63	122.88
402.854	89.88
403.078	92.88
403.302	90.88
403.526	91.88
403.75	84.88
403.974	87.88
404.198	96.88
404.422	86.88
404.645	85.88
404.869	88.88
405.093	93.88
405.317	106.88
405.541	104.88
405.765	88.88
405.988	113.88
406.212	147.88
406.436	195.88
406.66	138.88
406.883	96.88
407.107	89.88
407.331	101.88
407.555	107.88
407.778	96.88
408.002	93.88
408.226	88.88
408.449	79.88
408.673	95.88
408.896	81.88
409.12	91.88
409.344	79.88
409.567	103.88
409.791	94.88
410.014	96.88
410.238	98.88
410.461	94.88
410.685	93.88
410.908	96.88
411.132	99.88
411.355	103.88
411.578	113.88
411.802	86.88
412.025	97.88
412.249	87.88
412.472	82.88
412.695	81.88
412.919	72.88
413.142	88.88
413.365	91.88
413.589	91.88
413.812	83.88
414.035	83.88
414.258	94.88
414.482	100.88
414.705	103.88
414.928	109.88
415.151	84.88
415.374	87.88
415.597	96.88
415.821	88.88
416.044	88.88
416.267	88.88
416.49	95.88
416.713	95.88
416.936	101.88
417.159	80.88
417.382	79.88
417.605	87.88
417.828	92.88
418.051	78.88
418.274	95.88
418.497	82.88
418.72	86.88
418.943	88.88
419.166	79.88
419.389	77.88
419.611	88.88
419.834	95.88
420.057	95.88
420.28	85.88
420.503	84.88
420.726	78.88
420.948	84.88
421.171	90.88
421.394	104.88
421.617	81.88
421.839	105.88
422.062	105.88
422.285	102.88
422.507	101.88
422.73	98.88
422.953	98.88
423.175	82.88
423.398	90.88
423.621	83.88
423.843	87.88
424.066	84.88
424.288	79.88
424.511	101.88
424.733	94.88
424.956	109.88
425.178	93.88
425.401	103.88
425.623	106.88
425.846	92.88
426.068	93.88
426.291	85.88
426.513	83.88
426.735	97.88
426.958	109.88
427.18	100.88
427.402	136.88
427.625	147.88
427.847	121.88
428.069	106.88
428.292	79.88
428.514	83.88
428.736	99.88
428.958	79.88
429.181	77.88
429.403	95.88
429.625	88.88
429.847	99.88
430.069	92.88
430.292	79.88
430.514	97.88
430.736	98.88
430.958	97.88
431.18	82.88
431.402	91.88
431.624	70.88
431.846	79.88
432.068	95.88
432.29	87.88
432.512	86.88
432.734	75.88
432.956	88.88
433.178	101.88
433.4	90.88
433.622	92.88
433.844	97.88
434.066	89.88
434.287	90.88
434.509	99.88
434.731	93.88
434.953	87.88
435.175	87.88
435.397	83.88
435.618	85.88
435.84	102.88
436.062	107.88
436.284	117.88
436.505	89.88
436.727	111.88
436.949	95.88
437.17	86.88
437.392	94.88
437.614	101.88
437.835	100.88
438.057	113.88
438.278	104.88
438.5	103.88
438.721	128.88
438.943	104.88
439.165	93.88
439.386	95.88
439.608	91.88
439.829	105.88
440.05	114.88
440.272	126.88
440.493	93.88
440.715	81.88
440.936	97.88
441.158	82.88
441.379	80.88
441.6	94.88
441.822	75.88
442.043	83.88
442.264	100.88
442.486	108.88
442.707	86.88
442.928	105.88
443.149	140.88
443.371	131.88
443.592	102.88
443.813	107.88
444.034	122.88
444.255	104.88
444.476	86.88
444.698	83.88
444.919	79.88
445.14	129.88
445.361	138.88
445.582	112.88
445.803	133.88
446.024	139.88
446.245	139.88
446.466	110.88
446.687	94.88
446.908	89.88
447.129	82.88
447.35	102.88
447.571	88.88
447.792	102.88
448.013	78.88
448.234	103.88
448.455	110.88
448.675	115.88
448.896	128.88
449.117	93.88
449.338	96.88
449.559	128.88
449.779	128.88
450	91.88
450.221	88.88
450.442	87.88
450.662	96.88
450.883	118.88
451.104	92.88
451.324	100.88
451.545	103.88
451.766	100.88
451.986	68.88
452.207	73.88
452.428	100.88
452.648	105.88
452.869	112.88
453.089	99.88
453.31	108.88
453.53	86.88
453.751	92.88
453.971	102.88
454.192	114.88
454.412	88.88
454.633	85.88
454.853	82.88
455.073	86.88
455.294	99.88
455.514	94.88
455.734	91.88
455.955	92.88
456.175	98.88
456.395	95.88
456.616	97.88
456.836	96.88
457.056	86.88
457.276	80.88
457.497	78.88
457.717	98.88
457.937	92.88
458.157	84.88
458.377	86.88
458.598	96.88
458.818	147.88
459.038	168.88
459.258	117.88
459.478	98.88
459.698	82.88
459.918	77.88
460.138	84.88
460.358	78.88
460.578	74.88
460.798	90.88
461.018	81.88
461.238	85.88
461.458	91.88
461.678	95.88
461.898	85.88
462.118	82.88
462.338	83.88
462.558	80.88
462.777	62.88
462.997	92.88
463.217	83.88
463.437	83.88
463.657	67.88
463.876	90.88
464.096	72.88
464.316	90.88
464.536	89.88
464.755	114.88
464.975	109.88
465.195	156.88
465.414	147.88
465.634	95.88
465.854	85.88
466.073	100.88
466.293	92.88
466.512	80.88
466.732	83.88
466.951	76.88
467.171	102.88
467.391	97.88
467.61	96.88
467.829	103.88
468.049	81.88
468.268	78.88
468.488	89.88
468.707	83.88
468.927	86.88
469.146	86.88
469.365	85.88
469.585	88.88
469.804	105.88
470.023	88.88
470.243	90.88
470.462	89.88
470.681	112.88
470.901	88.88
471.12	92.88
471.339	89.88
471.558	75.88
471.777	79.88
471.997	81.88
472.216	88.88
472.435	92.88
472.654	91.88
472.873	100.88
473.092	80.88
473.311	86.88
473.53	92.88
473.749	93.88
473.968	93.88
474.187	86.88
474.406	103.88
474.625	101.88
474.844	89.88
475.063	83.88
475.282	76.88
475.501	77.88
475.72	92.88
475.939	81.88
476.158	85.88
476.377	99.88
476.596	96.88
476.814	100.88
477.033	91.88
477.252	83.88
477.471	93.88
477.69	77.88
477.908	96.88
478.127	81.88
478.346	103.88
478.564	93.88
478.783	86.88
479.002	82.88
479.22	95.88
479.439	101.88
479.658	104.88
479.876	89.88
480.095	89.88
480.313	86.88
480.532	82.88
480.751	86.88
480.969	93.88
481.188	106.88
481.406	99.88
481.624	85.88
481.843	86.88
482.061	91.88
482.28	92.88
482.498	96.88
482.717	92.88
482.935	97.88
483.153	90.88
483.372	86.88
483.59	91.88
483.808	81.88
484.027	84.88
484.245	85.88
484.463	92.88
484.681	108.88
484.9	99.88
485.118	94.88
485.336	109.88
485.554	100.88
485.772	77.88
485.99	117.88
486.209	98.88
486.427	108.88
486.645	118.88
486.863	87.88
487.081	75.88
487.299	94.88
487.517	94.88
487.735	96.88
487.953	88.88
488.171	92.88
488.389	104.88
488.607	96.88
488.825	94.88
489.043	94.88
489.261	96.88
489.479	93.88
489.696	105.88
489.914	83.88
490.132	76.88
490.35	96.88
490.568	95.88
490.786	83.88
491.003	85.88
491.221	94.88
491.439	93.88
491.657	104.88
491.874	100.88
492.092	87.88
492.31	87.88
492.527	90.88
492.745	88.88
492.963	101.88
493.18	92.88
493.398	100.88
493.615	92.88
493.833	84.88
494.05	92.88
494.268	84.88
494.485	95.88
494.703	90.88
494.92	89.88
495.138	98.88
495.355	102.88
495.573	96.88
495.79	84.88
496.008	99.88
496.225	67.88
496.442	86.88
496.66	84.88
496.877	100.88
497.094	100.88
497.312	102.88
497.529	93.88
497.746	81.88
497.963	99.88
498.181	94.88
498.398	104.88
498.615	112.88
498.832	102.88
499.049	94.88
499.267	89.88
499.484	100.88
499.701	104.88
499.918	84.88
500.135	92.88
500.352	82.88
500.569	91.88
500.786	91.88
501.003	94.88
501.22	97.88
501.437	86.88
501.654	83.88
501.871	107.88
502.088	85.88
502.305	95.88
502.522	103.88
502.739	93.88
502.956	80.88
503.172	103.88
503.389	102.88
503.606	100.88
503.823	105.88
504.04	73.88
504.256	94.88
504.473	93.88
504.69	85.88
504.907	112.88
505.123	91.88
505.34	78.88
505.557	95.88
505.773	97.88
505.99	85.88
506.207	91.88
506.423	93.88
506.64	93.88
506.856	98.88
507.073	85.88
507.289	91.88
507.506	100.88
507.722	103.88
507.939	87.88
508.155	91.88
508.372	94.88
508.588	97.88
508.805	92.88
509.021	90.88
509.238	96.88
509.454	88.88
509.67	99.88
509.887	91.88
510.103	132.88
510.319	202.88
510.536	693.88
510.752	2052.88
510.968	580.88
511.184	159.88
511.401	104.88
511.617	93.88
511.833	91.88
512.049	92.88
512.265	92.88
512.481	89.88
512.698	106.88
512.914	87.88
513.13	99.88
513.346	94.88
513.562	104.88
513.778	97.88
513.994	96.88
514.21	102.88
514.426	117.88
514.642	117.88
514.858	120.88
515.074	147.88
515.29	420.88
