Data from Uncirc_2005_H10_HRD10591_00044.txt Node
Date: Wed Jan 03 10:28:33 EST 2024
User: Yrep
Spectrometer: HR+D1059
Trigger mode: 1
Integration Time (sec): 1.000000E-1
Scans to average: 1
Electric dark correction enabled: true
Nonlinearity correction enabled: false
Boxcar width: 0
XAxis mode: Wavelengths
Number of Pixels in Spectrum: 2048
>>>>>Begin Spectral Data<<<<<
223.165	-17.62
223.4	-17.62
223.635	-17.62
223.869	-14.62
224.104	-21.62
224.338	-14.62
224.573	-29.62
224.808	-21.62
225.042	-15.62
225.277	-15.62
225.511	0.38
225.746	21.38
225.98	3.38
226.215	9.38
226.449	20.38
226.683	27.38
226.918	30.38
227.152	38.38
227.387	40.38
227.621	33.38
227.856	45.38
228.09	48.38
228.324	42.38
228.559	51.38
228.793	61.38
229.027	44.38
229.262	59.38
229.496	69.38
229.73	81.38
229.964	88.38
230.199	52.38
230.433	74.38
230.667	85.38
230.901	79.38
231.136	93.38
231.37	81.38
231.604	91.38
231.838	86.38
232.072	69.38
232.306	76.38
232.541	90.38
232.775	92.38
233.009	82.38
233.243	75.38
233.477	92.38
233.711	69.38
233.945	75.38
234.179	69.38
234.413	76.38
234.647	83.38
234.881	81.38
235.115	83.38
235.349	76.38
235.583	78.38
235.817	72.38
236.051	64.38
236.285	70.38
236.519	83.38
236.753	65.38
236.987	74.38
237.221	81.38
237.455	94.38
237.689	79.38
237.922	92.38
238.156	73.38
238.39	74.38
238.624	85.38
238.858	84.38
239.091	66.38
239.325	86.38
239.559	85.38
239.793	70.38
240.027	70.38
240.26	62.38
240.494	85.38
240.728	79.38
240.961	79.38
241.195	68.38
241.429	84.38
241.662	74.38
241.896	50.38
242.13	65.38
242.363	68.38
242.597	75.38
242.83	71.38
243.064	80.38
243.298	73.38
243.531	75.38
243.765	75.38
243.998	74.38
244.232	69.38
244.465	77.38
244.699	81.38
244.932	62.38
245.166	73.38
245.399	80.38
245.633	70.38
245.866	71.38
246.099	50.38
246.333	82.38
246.566	77.38
246.8	68.38
247.033	83.38
247.266	77.38
247.5	77.38
247.733	76.38
247.966	81.38
248.2	82.38
248.433	69.38
248.666	59.38
248.899	77.38
249.133	79.38
249.366	98.38
249.599	86.38
249.832	78.38
250.066	76.38
250.299	71.38
250.532	86.38
250.765	70.38
250.998	71.38
251.231	89.38
251.465	93.38
251.698	88.38
251.931	83.38
252.164	83.38
252.397	83.38
252.63	78.38
252.863	71.38
253.096	97.38
253.329	80.38
253.562	82.38
253.795	80.38
254.028	80.38
254.261	89.38
254.494	72.38
254.727	78.38
254.96	80.38
255.193	82.38
255.426	76.38
255.659	82.38
255.892	88.38
256.124	64.38
256.357	79.38
256.59	96.38
256.823	73.38
257.056	74.38
257.289	79.38
257.521	78.38
257.754	79.38
257.987	84.38
258.22	85.38
258.452	67.38
258.685	76.38
258.918	75.38
259.151	84.38
259.383	92.38
259.616	76.38
259.849	74.38
260.081	85.38
260.314	86.38
260.547	90.38
260.779	73.38
261.012	75.38
261.244	72.38
261.477	90.38
261.71	98.38
261.942	122.38
262.175	105.38
262.407	85.38
262.64	81.38
262.872	98.38
263.105	87.38
263.337	75.38
263.57	70.38
263.802	69.38
264.035	82.38
264.267	73.38
264.499	81.38
264.732	70.38
264.964	90.38
265.197	66.38
265.429	81.38
265.661	89.38
265.894	74.38
266.126	81.38
266.358	77.38
266.591	84.38
266.823	84.38
267.055	80.38
267.287	75.38
267.52	84.38
267.752	77.38
267.984	81.38
268.216	77.38
268.448	88.38
268.681	86.38
268.913	98.38
269.145	75.38
269.377	77.38
269.609	73.38
269.841	77.38
270.073	78.38
270.306	99.38
270.538	83.38
270.77	89.38
271.002	101.38
271.234	78.38
271.466	80.38
271.698	77.38
271.93	71.38
272.162	105.38
272.394	81.38
272.626	86.38
272.858	78.38
273.09	84.38
273.322	76.38
273.553	84.38
273.785	89.38
274.017	92.38
274.249	85.38
274.481	77.38
274.713	75.38
274.945	85.38
275.176	78.38
275.408	99.38
275.64	84.38
275.872	71.38
276.104	86.38
276.335	86.38
276.567	94.38
276.799	98.38
277.031	101.38
277.262	89.38
277.494	81.38
277.726	95.38
277.957	93.38
278.189	82.38
278.421	87.38
278.652	79.38
278.884	90.38
279.115	78.38
279.347	91.38
279.579	91.38
279.81	73.38
280.042	92.38
280.273	88.38
280.505	85.38
280.736	75.38
280.968	88.38
281.199	95.38
281.431	86.38
281.662	80.38
281.894	90.38
282.125	91.38
282.356	134.38
282.588	128.38
282.819	106.38
283.051	80.38
283.282	91.38
283.513	90.38
283.745	84.38
283.976	84.38
284.207	87.38
284.439	92.38
284.67	82.38
284.901	87.38
285.132	74.38
285.364	85.38
285.595	95.38
285.826	79.38
286.057	85.38
286.288	90.38
286.52	83.38
286.751	79.38
286.982	90.38
287.213	76.38
287.444	98.38
287.675	86.38
287.906	87.38
288.138	92.38
288.369	102.38
288.6	92.38
288.831	93.38
289.062	82.38
289.293	85.38
289.524	79.38
289.755	86.38
289.986	103.38
290.217	69.38
290.448	85.38
290.679	100.38
290.91	89.38
291.141	92.38
291.371	99.38
291.602	82.38
291.833	86.38
292.064	76.38
292.295	77.38
292.526	89.38
292.757	89.38
292.987	86.38
293.218	81.38
293.449	96.38
293.68	81.38
293.91	79.38
294.141	91.38
294.372	93.38
294.603	91.38
294.833	73.38
295.064	82.38
295.295	76.38
295.525	90.38
295.756	87.38
295.987	134.38
296.217	139.38
296.448	113.38
296.679	101.38
296.909	92.38
297.14	91.38
297.37	77.38
297.601	94.38
297.831	93.38
298.062	88.38
298.292	86.38
298.523	85.38
298.753	86.38
298.984	80.38
299.214	78.38
299.445	102.38
299.675	94.38
299.905	111.38
300.136	98.38
300.366	82.38
300.597	87.38
300.827	88.38
301.057	86.38
301.288	91.38
301.518	93.38
301.748	74.38
301.979	95.38
302.209	79.38
302.439	93.38
302.669	98.38
302.9	88.38
303.13	83.38
303.36	96.38
303.59	91.38
303.82	106.38
304.051	92.38
304.281	80.38
304.511	93.38
304.741	101.38
304.971	82.38
305.201	79.38
305.431	98.38
305.661	89.38
305.891	98.38
306.121	89.38
306.352	98.38
306.582	94.38
306.812	86.38
307.042	93.38
307.272	95.38
307.502	101.38
307.731	107.38
307.961	91.38
308.191	92.38
308.421	87.38
308.651	79.38
308.881	100.38
309.111	95.38
309.341	68.38
309.571	102.38
309.8	91.38
310.03	87.38
310.26	96.38
310.49	87.38
310.72	95.38
310.949	99.38
311.179	97.38
311.409	86.38
311.639	100.38
311.868	97.38
312.098	92.38
312.328	98.38
312.557	104.38
312.787	97.38
313.017	100.38
313.246	109.38
313.476	95.38
313.706	105.38
313.935	85.38
314.165	90.38
314.394	96.38
314.624	89.38
314.853	92.38
315.083	99.38
315.312	83.38
315.542	104.38
315.771	89.38
316.001	88.38
316.23	95.38
316.46	75.38
316.689	88.38
316.919	100.38
317.148	98.38
317.377	90.38
317.607	96.38
317.836	92.38
318.065	77.38
318.295	69.38
318.524	83.38
318.753	97.38
318.983	104.38
319.212	106.38
319.441	107.38
319.67	97.38
319.9	89.38
320.129	87.38
320.358	87.38
320.587	86.38
320.816	107.38
321.046	107.38
321.275	92.38
321.504	103.38
321.733	94.38
321.962	103.38
322.191	113.38
322.42	104.38
322.649	105.38
322.878	109.38
323.108	103.38
323.337	116.38
323.566	139.38
323.795	141.38
324.024	201.38
324.253	436.38
324.482	896.38
324.71	1853.38
324.939	2437.38
325.168	878.38
325.397	245.38
325.626	149.38
325.855	123.38
326.084	125.38
326.313	141.38
326.542	161.38
326.77	222.38
326.999	498.38
327.228	1030.38
327.457	1921.38
327.686	1470.38
327.914	400.38
328.143	177.38
328.372	148.38
328.6	107.38
328.829	116.38
329.058	116.38
329.287	129.38
329.515	99.38
329.744	107.38
329.972	99.38
330.201	80.38
330.43	95.38
330.658	128.38
330.887	134.38
331.115	112.38
331.344	109.38
331.572	104.38
331.801	103.38
332.03	99.38
332.258	89.38
332.486	88.38
332.715	99.38
332.943	93.38
333.172	83.38
333.4	110.38
333.629	100.38
333.857	118.38
334.085	106.38
334.314	106.38
334.542	117.38
334.771	103.38
334.999	91.38
335.227	94.38
335.455	112.38
335.684	90.38
335.912	82.38
336.14	109.38
336.369	82.38
336.597	99.38
336.825	90.38
337.053	95.38
337.281	87.38
337.51	84.38
337.738	103.38
337.966	94.38
338.194	86.38
338.422	85.38
338.65	91.38
338.878	94.38
339.106	83.38
339.334	84.38
339.562	87.38
339.79	84.38
340.018	82.38
340.246	97.38
340.474	93.38
340.702	93.38
340.93	73.38
341.158	93.38
341.386	97.38
341.614	97.38
341.842	90.38
342.07	93.38
342.298	99.38
342.526	101.38
342.754	82.38
342.981	97.38
343.209	98.38
343.437	108.38
343.665	98.38
343.893	80.38
344.12	88.38
344.348	77.38
344.576	91.38
344.804	85.38
345.031	95.38
345.259	92.38
345.487	95.38
345.714	87.38
345.942	92.38
346.17	96.38
346.397	90.38
346.625	90.38
346.853	87.38
347.08	83.38
347.308	92.38
347.535	98.38
347.763	86.38
347.99	102.38
348.218	97.38
348.445	87.38
348.673	94.38
348.9	90.38
349.128	86.38
349.355	102.38
349.583	94.38
349.81	78.38
350.037	96.38
350.265	100.38
350.492	98.38
350.72	89.38
350.947	110.38
351.174	116.38
351.402	94.38
351.629	102.38
351.856	84.38
352.083	84.38
352.311	101.38
352.538	99.38
352.765	121.38
352.992	105.38
353.22	115.38
353.447	93.38
353.674	110.38
353.901	110.38
354.128	84.38
354.355	84.38
354.583	94.38
354.81	101.38
355.037	90.38
355.264	97.38
355.491	89.38
355.718	73.38
355.945	88.38
356.172	100.38
356.399	91.38
356.626	106.38
356.853	87.38
357.08	101.38
357.307	98.38
357.534	75.38
357.761	88.38
357.988	91.38
358.215	96.38
358.441	106.38
358.668	112.38
358.895	87.38
359.122	103.38
359.349	100.38
359.576	85.38
359.802	106.38
360.029	117.38
360.256	118.38
360.483	87.38
360.709	82.38
360.936	86.38
361.163	100.38
361.39	92.38
361.616	85.38
361.843	79.38
362.07	99.38
362.296	99.38
362.523	99.38
362.749	92.38
362.976	99.38
363.203	92.38
363.429	78.38
363.656	79.38
363.882	83.38
364.109	95.38
364.335	69.38
364.562	92.38
364.788	106.38
365.015	101.38
365.241	90.38
365.468	108.38
365.694	109.38
365.92	84.38
366.147	90.38
366.373	81.38
366.599	79.38
366.826	92.38
367.052	82.38
367.278	95.38
367.505	92.38
367.731	82.38
367.957	82.38
368.184	78.38
368.41	102.38
368.636	111.38
368.862	103.38
369.089	111.38
369.315	98.38
369.541	93.38
369.767	87.38
369.993	77.38
370.219	93.38
370.445	96.38
370.672	79.38
370.898	87.38
371.124	83.38
371.35	79.38
371.576	92.38
371.802	89.38
372.028	90.38
372.254	78.38
372.48	96.38
372.706	82.38
372.932	89.38
373.158	91.38
373.384	75.38
373.61	86.38
373.835	80.38
374.061	89.38
374.287	85.38
374.513	91.38
374.739	86.38
374.965	73.38
375.191	95.38
375.416	92.38
375.642	84.38
375.868	96.38
376.094	82.38
376.319	87.38
376.545	76.38
376.771	97.38
376.997	65.38
377.222	71.38
377.448	84.38
377.674	94.38
377.899	94.38
378.125	93.38
378.35	94.38
378.576	102.38
378.802	82.38
379.027	98.38
379.253	89.38
379.478	97.38
379.704	91.38
379.929	82.38
380.155	80.38
380.38	105.38
380.606	90.38
380.831	92.38
381.057	95.38
381.282	98.38
381.507	86.38
381.733	107.38
381.958	108.38
382.184	101.38
382.409	95.38
382.634	98.38
382.86	98.38
383.085	99.38
383.31	115.38
383.535	97.38
383.761	99.38
383.986	107.38
384.211	96.38
384.436	101.38
384.662	96.38
384.887	107.38
385.112	110.38
385.337	102.38
385.562	112.38
385.787	106.38
386.013	121.38
386.238	111.38
386.463	95.38
386.688	90.38
386.913	108.38
387.138	118.38
387.363	102.38
387.588	104.38
387.813	117.38
388.038	105.38
388.263	111.38
388.488	112.38
388.713	93.38
388.938	98.38
389.163	111.38
389.387	84.38
389.612	91.38
389.837	99.38
390.062	85.38
390.287	97.38
390.512	88.38
390.736	80.38
390.961	95.38
391.186	99.38
391.411	105.38
391.636	86.38
391.86	85.38
392.085	77.38
392.31	90.38
392.534	84.38
392.759	77.38
392.984	71.38
393.208	80.38
393.433	75.38
393.658	84.38
393.882	75.38
394.107	97.38
394.331	69.38
394.556	82.38
394.78	93.38
395.005	98.38
395.229	86.38
395.454	77.38
395.678	90.38
395.903	83.38
396.127	105.38
396.352	82.38
396.576	95.38
396.801	99.38
397.025	86.38
397.249	77.38
397.474	95.38
397.698	81.38
397.922	82.38
398.147	87.38
398.371	90.38
398.595	88.38
398.82	84.38
399.044	85.38
399.268	75.38
399.492	90.38
399.717	85.38
399.941	84.38
400.165	83.38
400.389	95.38
400.613	92.38
400.837	82.38
401.062	91.38
401.286	83.38
401.51	83.38
401.734	76.38
401.958	87.38
402.182	114.38
402.406	145.38
402.63	123.38
402.854	92.38
403.078	86.38
403.302	98.38
403.526	99.38
403.75	90.38
403.974	84.38
404.198	96.38
404.422	79.38
404.645	81.38
404.869	100.38
405.093	93.38
405.317	86.38
405.541	73.38
405.765	101.38
405.988	115.38
406.212	169.38
406.436	213.38
406.66	128.38
406.883	93.38
407.107	91.38
407.331	110.38
407.555	91.38
407.778	94.38
408.002	79.38
408.226	86.38
408.449	87.38
408.673	73.38
408.896	104.38
409.12	104.38
409.344	81.38
409.567	89.38
409.791	89.38
410.014	81.38
410.238	104.38
410.461	85.38
410.685	85.38
410.908	99.38
411.132	105.38
411.355	103.38
411.578	100.38
411.802	83.38
412.025	84.38
412.249	87.38
412.472	98.38
412.695	74.38
412.919	90.38
413.142	101.38
413.365	95.38
413.589	71.38
413.812	85.38
414.035	94.38
414.258	83.38
414.482	101.38
414.705	84.38
414.928	86.38
415.151	87.38
415.374	75.38
415.597	88.38
415.821	81.38
416.044	83.38
416.267	82.38
416.49	85.38
416.713	88.38
416.936	96.38
417.159	92.38
417.382	81.38
417.605	98.38
417.828	89.38
418.051	85.38
418.274	89.38
418.497	106.38
418.72	90.38
418.943	86.38
419.166	90.38
419.389	110.38
419.611	83.38
419.834	93.38
420.057	75.38
420.28	77.38
420.503	93.38
420.726	94.38
420.948	79.38
421.171	82.38
421.394	81.38
421.617	82.38
421.839	80.38
422.062	90.38
422.285	101.38
422.507	104.38
422.73	103.38
422.953	95.38
423.175	98.38
423.398	93.38
423.621	89.38
423.843	77.38
424.066	90.38
424.288	80.38
424.511	84.38
424.733	101.38
424.956	89.38
425.178	101.38
425.401	101.38
425.623	92.38
425.846	92.38
426.068	101.38
426.291	82.38
426.513	84.38
426.735	87.38
426.958	86.38
427.18	95.38
427.402	133.38
427.625	161.38
427.847	117.38
428.069	115.38
428.292	102.38
428.514	88.38
428.736	83.38
428.958	84.38
429.181	83.38
429.403	89.38
429.625	94.38
429.847	94.38
430.069	91.38
430.292	96.38
430.514	95.38
430.736	82.38
430.958	85.38
431.18	80.38
431.402	84.38
431.624	83.38
431.846	81.38
432.068	89.38
432.29	94.38
432.512	87.38
432.734	94.38
432.956	76.38
433.178	85.38
433.4	97.38
433.622	83.38
433.844	85.38
434.066	87.38
434.287	67.38
434.509	77.38
434.731	102.38
434.953	87.38
435.175	82.38
435.397	95.38
435.618	97.38
435.84	103.38
436.062	121.38
436.284	118.38
436.505	102.38
436.727	107.38
436.949	90.38
437.17	90.38
437.392	85.38
437.614	83.38
437.835	101.38
438.057	100.38
438.278	105.38
438.5	114.38
438.721	118.38
438.943	96.38
439.165	92.38
439.386	88.38
439.608	87.38
439.829	113.38
440.05	118.38
440.272	124.38
440.493	101.38
440.715	86.38
440.936	84.38
441.158	77.38
441.379	82.38
441.6	95.38
441.822	88.38
442.043	91.38
442.264	86.38
442.486	102.38
442.707	78.38
442.928	105.38
443.149	121.38
443.371	115.38
443.592	98.38
443.813	116.38
444.034	95.38
444.255	84.38
444.476	80.38
444.698	80.38
444.919	97.38
445.14	116.38
445.361	120.38
445.582	105.38
445.803	128.38
446.024	133.38
446.245	116.38
446.466	107.38
446.687	91.38
446.908	98.38
447.129	79.38
447.35	77.38
447.571	95.38
447.792	94.38
448.013	88.38
448.234	94.38
448.455	91.38
448.675	107.38
448.896	108.38
449.117	98.38
449.338	105.38
449.559	114.38
449.779	126.38
450	102.38
450.221	100.38
450.442	93.38
450.662	90.38
450.883	94.38
451.104	112.38
451.324	93.38
451.545	78.38
451.766	95.38
451.986	89.38
452.207	86.38
452.428	82.38
452.648	95.38
452.869	100.38
453.089	113.38
453.31	127.38
453.53	86.38
453.751	91.38
453.971	90.38
454.192	103.38
454.412	94.38
454.633	71.38
454.853	102.38
455.073	75.38
455.294	78.38
455.514	97.38
455.734	91.38
455.955	87.38
456.175	73.38
456.395	72.38
456.616	73.38
456.836	84.38
457.056	81.38
457.276	106.38
457.497	84.38
457.717	84.38
457.937	92.38
458.157	76.38
458.377	87.38
458.598	94.38
458.818	157.38
459.038	157.38
459.258	107.38
459.478	87.38
459.698	82.38
459.918	84.38
460.138	81.38
460.358	84.38
460.578	98.38
460.798	98.38
461.018	85.38
461.238	83.38
461.458	78.38
461.678	82.38
461.898	82.38
462.118	83.38
462.338	86.38
462.558	95.38
462.777	87.38
462.997	86.38
463.217	87.38
463.437	89.38
463.657	78.38
463.876	91.38
464.096	90.38
464.316	90.38
464.536	94.38
464.755	100.38
464.975	106.38
465.195	158.38
465.414	152.38
465.634	85.38
465.854	81.38
466.073	77.38
466.293	76.38
466.512	91.38
466.732	86.38
466.951	86.38
467.171	97.38
467.391	87.38
467.61	92.38
467.829	95.38
468.049	84.38
468.268	83.38
468.488	75.38
468.707	92.38
468.927	81.38
469.146	85.38
469.365	85.38
469.585	71.38
469.804	93.38
470.023	94.38
470.243	89.38
470.462	101.38
470.681	124.38
470.901	86.38
471.12	77.38
471.339	85.38
471.558	79.38
471.777	98.38
471.997	92.38
472.216	92.38
472.435	100.38
472.654	80.38
472.873	86.38
473.092	85.38
473.311	86.38
473.53	90.38
473.749	89.38
473.968	92.38
474.187	91.38
474.406	86.38
474.625	86.38
474.844	89.38
475.063	80.38
475.282	91.38
475.501	82.38
475.72	66.38
475.939	94.38
476.158	83.38
476.377	85.38
476.596	89.38
476.814	88.38
477.033	89.38
477.252	92.38
477.471	76.38
477.69	90.38
477.908	85.38
478.127	98.38
478.346	93.38
478.564	97.38
478.783	84.38
479.002	86.38
479.22	86.38
479.439	96.38
479.658	97.38
479.876	100.38
480.095	92.38
480.313	87.38
480.532	77.38
480.751	85.38
480.969	93.38
481.188	118.38
481.406	108.38
481.624	74.38
481.843	84.38
482.061	77.38
482.28	93.38
482.498	89.38
482.717	93.38
482.935	86.38
483.153	78.38
483.372	94.38
483.59	94.38
483.808	101.38
484.027	85.38
484.245	82.38
484.463	87.38
484.681	99.38
484.9	100.38
485.118	99.38
485.336	75.38
485.554	93.38
485.772	105.38
485.99	109.38
486.209	97.38
486.427	115.38
486.645	90.38
486.863	111.38
487.081	107.38
487.299	115.38
487.517	82.38
487.735	94.38
487.953	90.38
488.171	95.38
488.389	78.38
488.607	94.38
488.825	99.38
489.043	82.38
489.261	91.38
489.479	84.38
489.696	85.38
489.914	93.38
490.132	96.38
490.35	84.38
490.568	79.38
490.786	110.38
491.003	91.38
491.221	84.38
491.439	85.38
491.657	93.38
491.874	83.38
492.092	99.38
492.31	88.38
492.527	79.38
492.745	85.38
492.963	99.38
493.18	87.38
493.398	101.38
493.615	97.38
493.833	88.38
494.05	97.38
494.268	89.38
494.485	91.38
494.703	90.38
494.92	95.38
495.138	86.38
495.355	87.38
495.573	92.38
495.79	86.38
496.008	104.38
496.225	91.38
496.442	85.38
496.66	89.38
496.877	93.38
497.094	80.38
497.312	92.38
497.529	83.38
497.746	79.38
497.963	97.38
498.181	93.38
498.398	91.38
498.615	112.38
498.832	106.38
499.049	96.38
499.267	85.38
499.484	82.38
499.701	96.38
499.918	89.38
500.135	80.38
500.352	75.38
500.569	77.38
500.786	95.38
501.003	78.38
501.22	92.38
501.437	87.38
501.654	100.38
501.871	110.38
502.088	73.38
502.305	94.38
502.522	94.38
502.739	88.38
502.956	84.38
503.172	95.38
503.389	101.38
503.606	103.38
503.823	90.38
504.04	89.38
504.256	91.38
504.473	90.38
504.69	95.38
504.907	93.38
505.123	91.38
505.34	106.38
505.557	99.38
505.773	76.38
505.99	91.38
506.207	82.38
506.423	95.38
506.64	91.38
506.856	73.38
507.073	86.38
507.289	81.38
507.506	87.38
507.722	116.38
507.939	112.38
508.155	90.38
508.372	91.38
508.588	95.38
508.805	91.38
509.021	105.38
509.238	105.38
509.454	90.38
509.67	114.38
509.887	107.38
510.103	129.38
510.319	213.38
510.536	775.38
510.752	2398.38
510.968	665.38
511.184	163.38
511.401	99.38
511.617	104.38
511.833	85.38
512.049	99.38
512.265	85.38
512.481	101.38
512.698	112.38
512.914	94.38
513.13	101.38
513.346	87.38
513.562	98.38
513.778	92.38
513.994	109.38
514.21	99.38
514.426	117.38
514.642	131.38
514.858	108.38
515.074	164.38
515.29	464.38
515.506	1491.38
515.721	548.38
515.937	151.38
516.153	113.38
