Data from Uncirc_2005_H10_HRD10591_00002.txt Node
Date: Wed Jan 03 10:28:25 EST 2024
User: Yrep
Spectrometer: HR+D1059
Trigger mode: 1
Integration Time (sec): 1.000000E-1
Scans to average: 1
Electric dark correction enabled: true
Nonlinearity correction enabled: false
Boxcar width: 0
XAxis mode: Wavelengths
Number of Pixels in Spectrum: 2048
>>>>>Begin Spectral Data<<<<<
223.165	-14.44
223.4	-14.44
223.635	-14.44
223.869	-14.44
224.104	-22.44
224.338	-26.44
224.573	-18.44
224.808	7.56
225.042	-13.44
225.277	-5.44
225.511	0.56
225.746	2.56
225.98	6.56
226.215	20.56
226.449	12.56
226.683	15.56
226.918	18.56
227.152	30.56
227.387	42.56
227.621	32.56
227.856	42.56
228.09	39.56
228.324	57.56
228.559	57.56
228.793	58.56
229.027	66.56
229.262	65.56
229.496	71.56
229.73	81.56
229.964	72.56
230.199	79.56
230.433	73.56
230.667	82.56
230.901	84.56
231.136	64.56
231.37	81.56
231.604	87.56
231.838	79.56
232.072	89.56
232.306	87.56
232.541	85.56
232.775	84.56
233.009	86.56
233.243	81.56
233.477	65.56
233.711	79.56
233.945	78.56
234.179	77.56
234.413	68.56
234.647	77.56
234.881	81.56
235.115	82.56
235.349	82.56
235.583	81.56
235.817	80.56
236.051	82.56
236.285	72.56
236.519	84.56
236.753	79.56
236.987	86.56
237.221	99.56
237.455	88.56
237.689	84.56
237.922	86.56
238.156	84.56
238.39	88.56
238.624	66.56
238.858	82.56
239.091	83.56
239.325	84.56
239.559	94.56
239.793	76.56
240.027	85.56
240.26	93.56
240.494	69.56
240.728	77.56
240.961	70.56
241.195	79.56
241.429	89.56
241.662	76.56
241.896	73.56
242.13	85.56
242.363	78.56
242.597	80.56
242.83	92.56
243.064	84.56
243.298	82.56
243.531	77.56
243.765	70.56
243.998	81.56
244.232	73.56
244.465	80.56
244.699	83.56
244.932	80.56
245.166	82.56
245.399	79.56
245.633	83.56
245.866	81.56
246.099	79.56
246.333	84.56
246.566	78.56
246.8	88.56
247.033	80.56
247.266	72.56
247.5	82.56
247.733	78.56
247.966	87.56
248.2	88.56
248.433	89.56
248.666	72.56
248.899	79.56
249.133	90.56
249.366	94.56
249.599	102.56
249.832	67.56
250.066	90.56
250.299	82.56
250.532	76.56
250.765	74.56
250.998	64.56
251.231	71.56
251.465	93.56
251.698	89.56
251.931	90.56
252.164	80.56
252.397	85.56
252.63	88.56
252.863	78.56
253.096	83.56
253.329	74.56
253.562	101.56
253.795	86.56
254.028	89.56
254.261	78.56
254.494	81.56
254.727	73.56
254.96	74.56
255.193	81.56
255.426	78.56
255.659	61.56
255.892	85.56
256.124	80.56
256.357	84.56
256.59	89.56
256.823	77.56
257.056	71.56
257.289	85.56
257.521	92.56
257.754	76.56
257.987	79.56
258.22	88.56
258.452	89.56
258.685	87.56
258.918	86.56
259.151	72.56
259.383	73.56
259.616	80.56
259.849	82.56
260.081	90.56
260.314	79.56
260.547	61.56
260.779	88.56
261.012	79.56
261.244	76.56
261.477	87.56
261.71	91.56
261.942	107.56
262.175	105.56
262.407	88.56
262.64	79.56
262.872	101.56
263.105	79.56
263.337	73.56
263.57	90.56
263.802	86.56
264.035	88.56
264.267	88.56
264.499	83.56
264.732	74.56
264.964	76.56
265.197	86.56
265.429	81.56
265.661	71.56
265.894	93.56
266.126	87.56
266.358	90.56
266.591	97.56
266.823	79.56
267.055	84.56
267.287	93.56
267.52	89.56
267.752	81.56
267.984	84.56
268.216	89.56
268.448	86.56
268.681	74.56
268.913	76.56
269.145	79.56
269.377	90.56
269.609	98.56
269.841	85.56
270.073	86.56
270.306	94.56
270.538	88.56
270.77	93.56
271.002	88.56
271.234	74.56
271.466	94.56
271.698	92.56
271.93	79.56
272.162	88.56
272.394	100.56
272.626	94.56
272.858	85.56
273.09	85.56
273.322	89.56
273.553	85.56
273.785	91.56
274.017	82.56
274.249	84.56
274.481	75.56
274.713	74.56
274.945	87.56
275.176	84.56
275.408	83.56
275.64	77.56
275.872	82.56
276.104	94.56
276.335	83.56
276.567	84.56
276.799	95.56
277.031	97.56
277.262	80.56
277.494	86.56
277.726	85.56
277.957	96.56
278.189	85.56
278.421	100.56
278.652	85.56
278.884	71.56
279.115	78.56
279.347	81.56
279.579	93.56
279.81	79.56
280.042	90.56
280.273	90.56
280.505	76.56
280.736	85.56
280.968	92.56
281.199	85.56
281.431	89.56
281.662	101.56
281.894	98.56
282.125	100.56
282.356	105.56
282.588	122.56
282.819	104.56
283.051	81.56
283.282	89.56
283.513	87.56
283.745	76.56
283.976	88.56
284.207	81.56
284.439	84.56
284.67	92.56
284.901	88.56
285.132	86.56
285.364	85.56
285.595	85.56
285.826	87.56
286.057	86.56
286.288	90.56
286.52	87.56
286.751	83.56
286.982	84.56
287.213	70.56
287.444	80.56
287.675	104.56
287.906	98.56
288.138	100.56
288.369	110.56
288.6	92.56
288.831	88.56
289.062	83.56
289.293	84.56
289.524	85.56
289.755	93.56
289.986	100.56
290.217	96.56
290.448	81.56
290.679	90.56
290.91	99.56
291.141	78.56
291.371	96.56
291.602	96.56
291.833	90.56
292.064	89.56
292.295	104.56
292.526	80.56
292.757	93.56
292.987	79.56
293.218	80.56
293.449	100.56
293.68	87.56
293.91	98.56
294.141	80.56
294.372	96.56
294.603	88.56
294.833	84.56
295.064	90.56
295.295	88.56
295.525	99.56
295.756	109.56
295.987	95.56
296.217	118.56
296.448	124.56
296.679	88.56
296.909	88.56
297.14	97.56
297.37	93.56
297.601	91.56
297.831	103.56
298.062	107.56
298.292	93.56
298.523	95.56
298.753	98.56
298.984	83.56
299.214	83.56
299.445	92.56
299.675	84.56
299.905	93.56
300.136	91.56
300.366	97.56
300.597	84.56
300.827	100.56
301.057	100.56
301.288	89.56
301.518	89.56
301.748	97.56
301.979	107.56
302.209	89.56
302.439	88.56
302.669	90.56
302.9	93.56
303.13	96.56
303.36	98.56
303.59	93.56
303.82	114.56
304.051	96.56
304.281	103.56
304.511	92.56
304.741	89.56
304.971	90.56
305.201	89.56
305.431	86.56
305.661	94.56
305.891	81.56
306.121	100.56
306.352	95.56
306.582	115.56
306.812	80.56
307.042	74.56
307.272	87.56
307.502	100.56
307.731	90.56
307.961	99.56
308.191	101.56
308.421	89.56
308.651	97.56
308.881	100.56
309.111	93.56
309.341	89.56
309.571	106.56
309.8	98.56
310.03	84.56
310.26	103.56
310.49	102.56
310.72	82.56
310.949	103.56
311.179	101.56
311.409	98.56
311.639	82.56
311.868	80.56
312.098	80.56
312.328	85.56
312.557	93.56
312.787	90.56
313.017	100.56
313.246	97.56
313.476	85.56
313.706	95.56
313.935	109.56
314.165	92.56
314.394	108.56
314.624	104.56
314.853	104.56
315.083	76.56
315.312	84.56
315.542	88.56
315.771	85.56
316.001	94.56
316.23	94.56
316.46	85.56
316.689	91.56
316.919	96.56
317.148	99.56
317.377	91.56
317.607	105.56
317.836	101.56
318.065	87.56
318.295	94.56
318.524	87.56
318.753	106.56
318.983	89.56
319.212	100.56
319.441	98.56
319.67	92.56
319.9	87.56
320.129	86.56
320.358	81.56
320.587	88.56
320.816	102.56
321.046	102.56
321.275	96.56
321.504	111.56
321.733	103.56
321.962	98.56
322.191	100.56
322.42	94.56
322.649	100.56
322.878	111.56
323.108	108.56
323.337	116.56
323.566	132.56
323.795	155.56
324.024	209.56
324.253	377.56
324.482	782.56
324.71	1624.56
324.939	2156.56
325.168	789.56
325.397	229.56
325.626	152.56
325.855	131.56
326.084	127.56
326.313	111.56
326.542	164.56
326.77	218.56
326.999	434.56
327.228	930.56
327.457	1674.56
327.686	1340.56
327.914	348.56
328.143	168.56
328.372	129.56
328.6	115.56
328.829	94.56
329.058	103.56
329.287	107.56
329.515	112.56
329.744	110.56
329.972	107.56
330.201	105.56
330.43	109.56
330.658	110.56
330.887	133.56
331.115	124.56
331.344	98.56
331.572	96.56
331.801	99.56
332.03	92.56
332.258	113.56
332.486	91.56
332.715	85.56
332.943	89.56
333.172	101.56
333.4	104.56
333.629	114.56
333.857	96.56
334.085	95.56
334.314	109.56
334.542	94.56
334.771	101.56
334.999	95.56
335.227	79.56
335.455	108.56
335.684	86.56
335.912	100.56
336.14	91.56
336.369	96.56
336.597	86.56
336.825	91.56
337.053	79.56
337.281	99.56
337.51	87.56
337.738	91.56
337.966	88.56
338.194	84.56
338.422	100.56
338.65	89.56
338.878	89.56
339.106	103.56
339.334	92.56
339.562	82.56
339.79	89.56
340.018	87.56
340.246	92.56
340.474	85.56
340.702	82.56
340.93	96.56
341.158	82.56
341.386	111.56
341.614	97.56
341.842	92.56
342.07	84.56
342.298	95.56
342.526	89.56
342.754	94.56
342.981	92.56
343.209	94.56
343.437	106.56
343.665	79.56
343.893	90.56
344.12	91.56
344.348	85.56
344.576	93.56
344.804	93.56
345.031	93.56
345.259	101.56
345.487	104.56
345.714	95.56
345.942	96.56
346.17	84.56
346.397	86.56
346.625	88.56
346.853	105.56
347.08	95.56
347.308	92.56
347.535	92.56
347.763	100.56
347.99	102.56
348.218	112.56
348.445	99.56
348.673	87.56
348.9	97.56
349.128	103.56
349.355	84.56
349.583	103.56
349.81	101.56
350.037	95.56
350.265	97.56
350.492	84.56
350.72	95.56
350.947	85.56
351.174	113.56
351.402	113.56
351.629	92.56
351.856	97.56
352.083	102.56
352.311	102.56
352.538	103.56
352.765	117.56
352.992	118.56
353.22	106.56
353.447	88.56
353.674	103.56
353.901	96.56
354.128	92.56
354.355	116.56
354.583	98.56
354.81	86.56
355.037	94.56
355.264	95.56
355.491	89.56
355.718	113.56
355.945	107.56
356.172	84.56
356.399	92.56
356.626	95.56
356.853	102.56
357.08	98.56
357.307	106.56
357.534	91.56
357.761	113.56
357.988	100.56
358.215	101.56
358.441	108.56
358.668	103.56
358.895	97.56
359.122	93.56
359.349	88.56
359.576	113.56
359.802	104.56
360.029	102.56
360.256	96.56
360.483	105.56
360.709	86.56
360.936	92.56
361.163	94.56
361.39	91.56
361.616	84.56
361.843	96.56
362.07	90.56
362.296	90.56
362.523	93.56
362.749	86.56
362.976	84.56
363.203	88.56
363.429	87.56
363.656	86.56
363.882	94.56
364.109	76.56
364.335	88.56
364.562	99.56
364.788	101.56
365.015	109.56
365.241	92.56
365.468	108.56
365.694	101.56
365.92	95.56
366.147	100.56
366.373	84.56
366.599	89.56
366.826	76.56
367.052	79.56
367.278	99.56
367.505	100.56
367.731	100.56
367.957	96.56
368.184	83.56
368.41	87.56
368.636	104.56
368.862	126.56
369.089	102.56
369.315	83.56
369.541	98.56
369.767	100.56
369.993	85.56
370.219	82.56
370.445	86.56
370.672	87.56
370.898	89.56
371.124	94.56
371.35	96.56
371.576	90.56
371.802	88.56
372.028	99.56
372.254	89.56
372.48	107.56
372.706	88.56
372.932	90.56
373.158	95.56
373.384	99.56
373.61	96.56
373.835	93.56
374.061	83.56
374.287	85.56
374.513	100.56
374.739	104.56
374.965	87.56
375.191	99.56
375.416	88.56
375.642	80.56
375.868	89.56
376.094	88.56
376.319	100.56
376.545	103.56
376.771	96.56
376.997	92.56
377.222	92.56
377.448	88.56
377.674	107.56
377.899	82.56
378.125	91.56
378.35	80.56
378.576	92.56
378.802	85.56
379.027	91.56
379.253	103.56
379.478	103.56
379.704	97.56
379.929	96.56
380.155	105.56
380.38	98.56
380.606	85.56
380.831	104.56
381.057	100.56
381.282	106.56
381.507	108.56
381.733	104.56
381.958	113.56
382.184	114.56
382.409	88.56
382.634	115.56
382.86	101.56
383.085	101.56
383.31	108.56
383.535	91.56
383.761	103.56
383.986	105.56
384.211	110.56
384.436	110.56
384.662	137.56
384.887	119.56
385.112	128.56
385.337	142.56
385.562	123.56
385.787	115.56
386.013	118.56
386.238	143.56
386.463	121.56
386.688	124.56
386.913	113.56
387.138	138.56
387.363	132.56
387.588	107.56
387.813	108.56
388.038	125.56
388.263	146.56
388.488	133.56
388.713	94.56
388.938	93.56
389.163	94.56
389.387	91.56
389.612	83.56
389.837	81.56
390.062	102.56
390.287	87.56
390.512	100.56
390.736	81.56
390.961	76.56
391.186	88.56
391.411	93.56
391.636	96.56
391.86	104.56
392.085	89.56
392.31	82.56
392.534	89.56
392.759	86.56
392.984	85.56
393.208	99.56
393.433	108.56
393.658	103.56
393.882	85.56
394.107	98.56
394.331	100.56
394.556	88.56
394.78	92.56
395.005	89.56
395.229	100.56
395.454	92.56
395.678	86.56
395.903	90.56
396.127	99.56
396.352	72.56
396.576	76.56
396.801	84.56
397.025	90.56
397.249	83.56
397.474	97.56
397.698	75.56
397.922	94.56
398.147	83.56
398.371	95.56
398.595	87.56
398.82	73.56
399.044	88.56
399.268	86.56
399.492	81.56
399.717	78.56
399.941	83.56
400.165	99.56
400.389	96.56
400.613	103.56
400.837	94.56
401.062	84.56
401.286	90.56
401.51	84.56
401.734	94.56
401.958	85.56
402.182	115.56
402.406	128.56
402.63	102.56
402.854	96.56
403.078	89.56
403.302	77.56
403.526	89.56
403.75	95.56
403.974	93.56
404.198	92.56
404.422	80.56
404.645	89.56
404.869	80.56
405.093	97.56
405.317	85.56
405.541	95.56
405.765	99.56
405.988	118.56
406.212	157.56
406.436	193.56
406.66	134.56
406.883	97.56
407.107	102.56
407.331	91.56
407.555	98.56
407.778	100.56
408.002	97.56
408.226	98.56
408.449	85.56
408.673	91.56
408.896	92.56
409.12	90.56
409.344	97.56
409.567	87.56
409.791	95.56
410.014	89.56
410.238	94.56
410.461	96.56
410.685	96.56
410.908	94.56
411.132	93.56
411.355	102.56
411.578	90.56
411.802	101.56
412.025	97.56
412.249	92.56
412.472	94.56
412.695	85.56
412.919	81.56
413.142	93.56
413.365	98.56
413.589	85.56
413.812	76.56
414.035	107.56
414.258	111.56
414.482	81.56
414.705	93.56
414.928	92.56
415.151	98.56
415.374	102.56
415.597	87.56
415.821	85.56
416.044	93.56
416.267	100.56
416.49	90.56
416.713	89.56
416.936	83.56
417.159	76.56
417.382	106.56
417.605	87.56
417.828	96.56
418.051	98.56
418.274	91.56
418.497	100.56
418.72	99.56
418.943	91.56
419.166	75.56
419.389	103.56
419.611	83.56
419.834	97.56
420.057	103.56
420.28	100.56
420.503	79.56
420.726	81.56
420.948	90.56
421.171	97.56
421.394	91.56
421.617	88.56
421.839	82.56
422.062	84.56
422.285	85.56
422.507	97.56
422.73	100.56
422.953	104.56
423.175	93.56
423.398	87.56
423.621	79.56
423.843	95.56
424.066	93.56
424.288	102.56
424.511	91.56
424.733	103.56
424.956	100.56
425.178	92.56
425.401	97.56
425.623	96.56
425.846	94.56
426.068	93.56
426.291	91.56
426.513	85.56
426.735	95.56
426.958	96.56
427.18	99.56
427.402	136.56
427.625	151.56
427.847	121.56
428.069	104.56
428.292	85.56
428.514	89.56
428.736	80.56
428.958	78.56
429.181	82.56
429.403	81.56
429.625	101.56
429.847	100.56
430.069	113.56
430.292	109.56
430.514	80.56
430.736	92.56
430.958	94.56
431.18	81.56
431.402	95.56
431.624	78.56
431.846	87.56
432.068	85.56
432.29	69.56
432.512	98.56
432.734	93.56
432.956	94.56
433.178	110.56
433.4	95.56
433.622	105.56
433.844	92.56
434.066	108.56
434.287	95.56
434.509	99.56
434.731	97.56
434.953	96.56
435.175	94.56
435.397	94.56
435.618	93.56
435.84	100.56
436.062	118.56
436.284	116.56
436.505	93.56
436.727	105.56
436.949	97.56
437.17	84.56
437.392	83.56
437.614	86.56
437.835	101.56
438.057	109.56
438.278	109.56
438.5	102.56
438.721	116.56
438.943	110.56
439.165	87.56
439.386	86.56
439.608	86.56
439.829	94.56
440.05	124.56
440.272	145.56
440.493	105.56
440.715	104.56
440.936	87.56
441.158	89.56
441.379	82.56
441.6	92.56
441.822	100.56
442.043	89.56
442.264	102.56
442.486	92.56
442.707	84.56
442.928	109.56
443.149	126.56
443.371	128.56
443.592	108.56
443.813	101.56
444.034	101.56
444.255	96.56
444.476	89.56
444.698	95.56
444.919	81.56
445.14	120.56
445.361	121.56
445.582	100.56
445.803	124.56
446.024	131.56
446.245	120.56
446.466	96.56
446.687	86.56
446.908	87.56
447.129	89.56
447.35	77.56
447.571	99.56
447.792	83.56
448.013	88.56
448.234	99.56
448.455	93.56
448.675	110.56
448.896	116.56
449.117	85.56
449.338	96.56
449.559	129.56
449.779	138.56
450	97.56
450.221	86.56
450.442	89.56
450.662	90.56
450.883	99.56
451.104	120.56
451.324	100.56
451.545	93.56
451.766	89.56
451.986	88.56
452.207	85.56
452.428	92.56
452.648	82.56
452.869	116.56
453.089	106.56
453.31	102.56
453.53	98.56
453.751	108.56
453.971	104.56
454.192	120.56
454.412	99.56
454.633	73.56
454.853	92.56
455.073	86.56
455.294	92.56
455.514	87.56
455.734	86.56
455.955	95.56
456.175	87.56
456.395	89.56
456.616	87.56
456.836	75.56
457.056	85.56
457.276	73.56
457.497	87.56
457.717	89.56
457.937	81.56
458.157	84.56
458.377	84.56
458.598	102.56
458.818	130.56
459.038	131.56
459.258	110.56
459.478	90.56
459.698	87.56
459.918	85.56
460.138	77.56
460.358	87.56
460.578	94.56
460.798	81.56
461.018	87.56
461.238	87.56
461.458	100.56
461.678	81.56
461.898	94.56
462.118	83.56
462.338	82.56
462.558	93.56
462.777	90.56
462.997	95.56
463.217	77.56
463.437	93.56
463.657	90.56
463.876	78.56
464.096	100.56
464.316	82.56
464.536	93.56
464.755	90.56
464.975	101.56
465.195	153.56
465.414	144.56
465.634	94.56
465.854	87.56
466.073	85.56
466.293	88.56
466.512	88.56
466.732	88.56
466.951	86.56
467.171	90.56
467.391	81.56
467.61	110.56
467.829	105.56
468.049	93.56
468.268	86.56
468.488	79.56
468.707	90.56
468.927	89.56
469.146	66.56
469.365	104.56
469.585	79.56
469.804	96.56
470.023	95.56
470.243	90.56
470.462	110.56
470.681	92.56
470.901	85.56
471.12	66.56
471.339	75.56
471.558	87.56
471.777	84.56
471.997	87.56
472.216	75.56
472.435	91.56
472.654	93.56
472.873	85.56
473.092	92.56
473.311	99.56
473.53	81.56
473.749	70.56
473.968	88.56
474.187	93.56
474.406	95.56
474.625	88.56
474.844	83.56
475.063	89.56
475.282	98.56
475.501	86.56
475.72	87.56
475.939	85.56
476.158	93.56
476.377	89.56
476.596	79.56
476.814	103.56
477.033	96.56
477.252	93.56
477.471	82.56
477.69	73.56
477.908	95.56
478.127	98.56
478.346	93.56
478.564	106.56
478.783	90.56
479.002	84.56
479.22	111.56
479.439	106.56
479.658	113.56
479.876	94.56
480.095	90.56
480.313	98.56
480.532	88.56
480.751	96.56
480.969	90.56
481.188	95.56
481.406	114.56
481.624	93.56
481.843	92.56
482.061	97.56
482.28	97.56
482.498	90.56
482.717	99.56
482.935	86.56
483.153	100.56
483.372	92.56
483.59	87.56
483.808	84.56
484.027	74.56
484.245	83.56
484.463	97.56
484.681	102.56
484.9	103.56
485.118	91.56
485.336	87.56
485.554	94.56
485.772	108.56
485.99	109.56
486.209	114.56
486.427	101.56
486.645	110.56
486.863	105.56
487.081	93.56
487.299	101.56
487.517	101.56
487.735	93.56
487.953	93.56
488.171	100.56
488.389	100.56
488.607	81.56
488.825	88.56
489.043	90.56
489.261	91.56
489.479	90.56
489.696	91.56
489.914	91.56
490.132	96.56
490.35	73.56
490.568	78.56
490.786	88.56
491.003	87.56
491.221	92.56
491.439	86.56
491.657	97.56
491.874	102.56
492.092	93.56
492.31	86.56
492.527	83.56
492.745	99.56
492.963	95.56
493.18	91.56
493.398	96.56
493.615	100.56
493.833	101.56
494.05	101.56
494.268	87.56
494.485	100.56
494.703	95.56
494.92	89.56
495.138	89.56
495.355	93.56
495.573	101.56
495.79	90.56
496.008	98.56
496.225	101.56
496.442	92.56
496.66	98.56
496.877	85.56
497.094	94.56
497.312	94.56
497.529	89.56
497.746	88.56
497.963	110.56
498.181	104.56
498.398	91.56
498.615	99.56
498.832	97.56
499.049	90.56
499.267	93.56
499.484	99.56
499.701	90.56
499.918	89.56
500.135	95.56
500.352	80.56
500.569	95.56
500.786	97.56
501.003	88.56
501.22	105.56
501.437	101.56
501.654	87.56
501.871	81.56
502.088	110.56
502.305	94.56
502.522	90.56
502.739	80.56
502.956	86.56
503.172	82.56
503.389	90.56
503.606	110.56
503.823	101.56
504.04	106.56
504.256	101.56
504.473	107.56
504.69	85.56
504.907	85.56
505.123	99.56
505.34	96.56
505.557	88.56
505.773	101.56
505.99	99.56
506.207	80.56
506.423	92.56
506.64	108.56
506.856	89.56
507.073	105.56
507.289	85.56
507.506	89.56
507.722	97.56
507.939	108.56
508.155	88.56
508.372	94.56
508.588	99.56
508.805	97.56
509.021	101.56
509.238	105.56
509.454	100.56
509.67	86.56
509.887	111.56
510.103	108.56
510.319	191.56
510.536	636.56
510.752	1784.56
510.968	524.56
511.184	134.56
511.401	118.56
511.617	108.56
511.833	92.56
512.049	101.56
512.265	97.56
512.481	95.56
512.698	101.56
512.914	97.56
513.13	95.56
513.346	89.56
513.562	97.56
513.778	94.56
513.994	74.56
514.21	90.56
514.426	110.56
514.642	127.56
514.858	98.56
515.074	161.56
515.29	370.56
