Data from Uncirc_2005_H10_HRD10591_00025.txt Node
Date: Wed Jan 03 10:28:29 EST 2024
User: Yrep
Spectrometer: HR+D1059
Trigger mode: 1
Integration Time (sec): 1.000000E-1
Scans to average: 1
Electric dark correction enabled: true
Nonlinearity correction enabled: false
Boxcar width: 0
XAxis mode: Wavelengths
Number of Pixels in Spectrum: 2048
>>>>>Begin Spectral Data<<<<<
223.165	-20.88
223.4	-20.88
223.635	-20.88
223.869	-27.88
224.104	-20.88
224.338	-24.88
224.573	-17.88
224.808	-13.88
225.042	-4.88
225.277	-1.88
225.511	11.12
225.746	7.12
225.98	14.12
226.215	3.12
226.449	19.12
226.683	21.12
226.918	24.12
227.152	33.12
227.387	34.12
227.621	31.12
227.856	44.12
228.09	40.12
228.324	56.12
228.559	56.12
228.793	50.12
229.027	56.12
229.262	78.12
229.496	81.12
229.73	71.12
229.964	94.12
230.199	76.12
230.433	75.12
230.667	79.12
230.901	76.12
231.136	90.12
231.37	80.12
231.604	84.12
231.838	86.12
232.072	69.12
232.306	87.12
232.541	83.12
232.775	87.12
233.009	86.12
233.243	73.12
233.477	83.12
233.711	73.12
233.945	72.12
234.179	80.12
234.413	59.12
234.647	85.12
234.881	74.12
235.115	80.12
235.349	88.12
235.583	93.12
235.817	92.12
236.051	84.12
236.285	81.12
236.519	67.12
236.753	86.12
236.987	78.12
237.221	84.12
237.455	85.12
237.689	86.12
237.922	87.12
238.156	85.12
238.39	77.12
238.624	78.12
238.858	84.12
239.091	79.12
239.325	82.12
239.559	78.12
239.793	81.12
240.027	77.12
240.26	76.12
240.494	75.12
240.728	87.12
240.961	80.12
241.195	81.12
241.429	81.12
241.662	71.12
241.896	67.12
242.13	78.12
242.363	78.12
242.597	80.12
242.83	82.12
243.064	71.12
243.298	78.12
243.531	66.12
243.765	76.12
243.998	81.12
244.232	83.12
244.465	94.12
244.699	79.12
244.932	86.12
245.166	71.12
245.399	77.12
245.633	85.12
245.866	78.12
246.099	79.12
246.333	82.12
246.566	87.12
246.8	79.12
247.033	81.12
247.266	71.12
247.5	82.12
247.733	72.12
247.966	87.12
248.2	70.12
248.433	79.12
248.666	72.12
248.899	72.12
249.133	73.12
249.366	101.12
249.599	96.12
249.832	81.12
250.066	85.12
250.299	75.12
250.532	84.12
250.765	99.12
250.998	91.12
251.231	71.12
251.465	88.12
251.698	82.12
251.931	87.12
252.164	81.12
252.397	79.12
252.63	88.12
252.863	75.12
253.096	84.12
253.329	80.12
253.562	74.12
253.795	83.12
254.028	92.12
254.261	81.12
254.494	78.12
254.727	79.12
254.96	84.12
255.193	74.12
255.426	88.12
255.659	93.12
255.892	84.12
256.124	77.12
256.357	87.12
256.59	86.12
256.823	75.12
257.056	93.12
257.289	83.12
257.521	75.12
257.754	82.12
257.987	89.12
258.22	92.12
258.452	76.12
258.685	83.12
258.918	80.12
259.151	83.12
259.383	83.12
259.616	86.12
259.849	81.12
260.081	75.12
260.314	81.12
260.547	84.12
260.779	89.12
261.012	77.12
261.244	93.12
261.477	99.12
261.71	80.12
261.942	103.12
262.175	98.12
262.407	94.12
262.64	92.12
262.872	75.12
263.105	70.12
263.337	84.12
263.57	93.12
263.802	77.12
264.035	79.12
264.267	80.12
264.499	82.12
264.732	70.12
264.964	84.12
265.197	86.12
265.429	82.12
265.661	77.12
265.894	72.12
266.126	92.12
266.358	88.12
266.591	93.12
266.823	79.12
267.055	85.12
267.287	77.12
267.52	76.12
267.752	89.12
267.984	91.12
268.216	84.12
268.448	72.12
268.681	88.12
268.913	92.12
269.145	95.12
269.377	90.12
269.609	99.12
269.841	89.12
270.073	80.12
270.306	100.12
270.538	71.12
270.77	95.12
271.002	88.12
271.234	86.12
271.466	72.12
271.698	82.12
271.93	87.12
272.162	89.12
272.394	86.12
272.626	89.12
272.858	80.12
273.09	81.12
273.322	81.12
273.553	81.12
273.785	86.12
274.017	96.12
274.249	79.12
274.481	93.12
274.713	94.12
274.945	83.12
275.176	87.12
275.408	80.12
275.64	86.12
275.872	95.12
276.104	92.12
276.335	87.12
276.567	96.12
276.799	109.12
277.031	107.12
277.262	93.12
277.494	83.12
277.726	78.12
277.957	91.12
278.189	94.12
278.421	92.12
278.652	76.12
278.884	92.12
279.115	85.12
279.347	91.12
279.579	97.12
279.81	89.12
280.042	100.12
280.273	86.12
280.505	93.12
280.736	88.12
280.968	98.12
281.199	91.12
281.431	73.12
281.662	73.12
281.894	83.12
282.125	111.12
282.356	105.12
282.588	134.12
282.819	122.12
283.051	87.12
283.282	91.12
283.513	83.12
283.745	81.12
283.976	61.12
284.207	92.12
284.439	88.12
284.67	95.12
284.901	87.12
285.132	98.12
285.364	92.12
285.595	77.12
285.826	79.12
286.057	86.12
286.288	85.12
286.52	88.12
286.751	88.12
286.982	80.12
287.213	86.12
287.444	86.12
287.675	81.12
287.906	73.12
288.138	97.12
288.369	101.12
288.6	76.12
288.831	78.12
289.062	88.12
289.293	91.12
289.524	88.12
289.755	94.12
289.986	84.12
290.217	95.12
290.448	86.12
290.679	90.12
290.91	95.12
291.141	79.12
291.371	88.12
291.602	83.12
291.833	85.12
292.064	72.12
292.295	82.12
292.526	103.12
292.757	99.12
292.987	92.12
293.218	83.12
293.449	93.12
293.68	93.12
293.91	92.12
294.141	99.12
294.372	91.12
294.603	97.12
294.833	100.12
295.064	89.12
295.295	93.12
295.525	68.12
295.756	95.12
295.987	106.12
296.217	130.12
296.448	118.12
296.679	95.12
296.909	89.12
297.14	96.12
297.37	97.12
297.601	96.12
297.831	84.12
298.062	81.12
298.292	99.12
298.523	95.12
298.753	103.12
298.984	96.12
299.214	86.12
299.445	96.12
299.675	93.12
299.905	103.12
300.136	81.12
300.366	91.12
300.597	94.12
300.827	103.12
301.057	95.12
301.288	92.12
301.518	99.12
301.748	93.12
301.979	107.12
302.209	84.12
302.439	92.12
302.669	85.12
302.9	88.12
303.13	94.12
303.36	95.12
303.59	97.12
303.82	110.12
304.051	93.12
304.281	107.12
304.511	84.12
304.741	91.12
304.971	90.12
305.201	92.12
305.431	85.12
305.661	99.12
305.891	89.12
306.121	88.12
306.352	107.12
306.582	111.12
306.812	94.12
307.042	94.12
307.272	86.12
307.502	105.12
307.731	92.12
307.961	91.12
308.191	101.12
308.421	96.12
308.651	99.12
308.881	113.12
309.111	95.12
309.341	98.12
309.571	107.12
309.8	99.12
310.03	110.12
310.26	83.12
310.49	106.12
310.72	96.12
310.949	105.12
311.179	102.12
311.409	76.12
311.639	90.12
311.868	96.12
312.098	103.12
312.328	97.12
312.557	102.12
312.787	113.12
313.017	104.12
313.246	89.12
313.476	97.12
313.706	83.12
313.935	95.12
314.165	105.12
314.394	97.12
314.624	103.12
314.853	94.12
315.083	90.12
315.312	83.12
315.542	90.12
315.771	86.12
316.001	86.12
316.23	100.12
316.46	100.12
316.689	88.12
316.919	93.12
317.148	93.12
317.377	78.12
317.607	95.12
317.836	102.12
318.065	107.12
318.295	98.12
318.524	78.12
318.753	93.12
318.983	84.12
319.212	96.12
319.441	93.12
319.67	102.12
319.9	94.12
320.129	102.12
320.358	97.12
320.587	105.12
320.816	112.12
321.046	114.12
321.275	100.12
321.504	99.12
321.733	100.12
321.962	112.12
322.191	104.12
322.42	107.12
322.649	106.12
322.878	116.12
323.108	113.12
323.337	114.12
323.566	132.12
323.795	153.12
324.024	215.12
324.253	393.12
324.482	837.12
324.71	1761.12
324.939	2339.12
325.168	847.12
325.397	243.12
325.626	157.12
325.855	133.12
326.084	128.12
326.313	134.12
326.542	153.12
326.77	239.12
326.999	487.12
327.228	996.12
327.457	1802.12
327.686	1427.12
327.914	384.12
328.143	187.12
328.372	151.12
328.6	136.12
328.829	114.12
329.058	127.12
329.287	126.12
329.515	106.12
329.744	100.12
329.972	94.12
330.201	109.12
330.43	105.12
330.658	104.12
330.887	143.12
331.115	123.12
331.344	120.12
331.572	104.12
331.801	112.12
332.03	101.12
332.258	87.12
332.486	96.12
332.715	109.12
332.943	97.12
333.172	100.12
333.4	91.12
333.629	98.12
333.857	104.12
334.085	115.12
334.314	100.12
334.542	99.12
334.771	109.12
334.999	99.12
335.227	95.12
335.455	111.12
335.684	107.12
335.912	108.12
336.14	85.12
336.369	103.12
336.597	105.12
336.825	84.12
337.053	96.12
337.281	99.12
337.51	89.12
337.738	92.12
337.966	96.12
338.194	99.12
338.422	87.12
338.65	98.12
338.878	89.12
339.106	104.12
339.334	86.12
339.562	93.12
339.79	79.12
340.018	84.12
340.246	101.12
340.474	97.12
340.702	91.12
340.93	99.12
341.158	95.12
341.386	99.12
341.614	95.12
341.842	106.12
342.07	100.12
342.298	104.12
342.526	101.12
342.754	101.12
342.981	94.12
343.209	75.12
343.437	88.12
343.665	101.12
343.893	95.12
344.12	93.12
344.348	109.12
344.576	91.12
344.804	95.12
345.031	94.12
345.259	88.12
345.487	102.12
345.714	110.12
345.942	93.12
346.17	87.12
346.397	97.12
346.625	103.12
346.853	96.12
347.08	78.12
347.308	81.12
347.535	98.12
347.763	86.12
347.99	111.12
348.218	120.12
348.445	108.12
348.673	95.12
348.9	102.12
349.128	88.12
349.355	93.12
349.583	92.12
349.81	92.12
350.037	88.12
350.265	97.12
350.492	93.12
350.72	116.12
350.947	97.12
351.174	92.12
351.402	120.12
351.629	94.12
351.856	99.12
352.083	93.12
352.311	117.12
352.538	97.12
352.765	109.12
352.992	93.12
353.22	100.12
353.447	108.12
353.674	111.12
353.901	115.12
354.128	100.12
354.355	87.12
354.583	116.12
354.81	100.12
355.037	107.12
355.264	100.12
355.491	92.12
355.718	97.12
355.945	88.12
356.172	73.12
356.399	85.12
356.626	99.12
356.853	90.12
357.08	102.12
357.307	97.12
357.534	87.12
357.761	106.12
357.988	100.12
358.215	96.12
358.441	101.12
358.668	79.12
358.895	98.12
359.122	80.12
359.349	104.12
359.576	94.12
359.802	107.12
360.029	115.12
360.256	100.12
360.483	112.12
360.709	85.12
360.936	87.12
361.163	98.12
361.39	103.12
361.616	94.12
361.843	88.12
362.07	96.12
362.296	98.12
362.523	91.12
362.749	84.12
362.976	95.12
363.203	86.12
363.429	91.12
363.656	87.12
363.882	88.12
364.109	91.12
364.335	88.12
364.562	83.12
364.788	81.12
365.015	100.12
365.241	91.12
365.468	93.12
365.694	99.12
365.92	88.12
366.147	92.12
366.373	93.12
366.599	100.12
366.826	94.12
367.052	95.12
367.278	79.12
367.505	81.12
367.731	93.12
367.957	99.12
368.184	99.12
368.41	87.12
368.636	105.12
368.862	117.12
369.089	111.12
369.315	99.12
369.541	95.12
369.767	77.12
369.993	96.12
370.219	95.12
370.445	85.12
370.672	93.12
370.898	84.12
371.124	95.12
371.35	83.12
371.576	85.12
371.802	97.12
372.028	94.12
372.254	90.12
372.48	79.12
372.706	94.12
372.932	77.12
373.158	79.12
373.384	93.12
373.61	101.12
373.835	88.12
374.061	98.12
374.287	90.12
374.513	85.12
374.739	93.12
374.965	90.12
375.191	97.12
375.416	84.12
375.642	100.12
375.868	96.12
376.094	80.12
376.319	88.12
376.545	86.12
376.771	87.12
376.997	88.12
377.222	107.12
377.448	101.12
377.674	118.12
377.899	89.12
378.125	95.12
378.35	101.12
378.576	92.12
378.802	105.12
379.027	107.12
379.253	103.12
379.478	92.12
379.704	95.12
379.929	97.12
380.155	96.12
380.38	108.12
380.606	95.12
380.831	96.12
381.057	99.12
381.282	114.12
381.507	97.12
381.733	98.12
381.958	91.12
382.184	83.12
382.409	92.12
382.634	102.12
382.86	102.12
383.085	109.12
383.31	98.12
383.535	108.12
383.761	89.12
383.986	106.12
384.211	89.12
384.436	113.12
384.662	105.12
384.887	118.12
385.112	115.12
385.337	106.12
385.562	102.12
385.787	127.12
386.013	112.12
386.238	112.12
386.463	115.12
386.688	120.12
386.913	119.12
387.138	118.12
387.363	123.12
387.588	99.12
387.813	103.12
388.038	126.12
388.263	96.12
388.488	107.12
388.713	108.12
388.938	99.12
389.163	84.12
389.387	101.12
389.612	92.12
389.837	113.12
390.062	93.12
390.287	77.12
390.512	84.12
390.736	78.12
390.961	100.12
391.186	94.12
391.411	91.12
391.636	78.12
391.86	81.12
392.085	83.12
392.31	75.12
392.534	81.12
392.759	103.12
392.984	107.12
393.208	86.12
393.433	98.12
393.658	95.12
393.882	92.12
394.107	94.12
394.331	87.12
394.556	78.12
394.78	83.12
395.005	92.12
395.229	86.12
395.454	84.12
395.678	81.12
395.903	76.12
396.127	87.12
396.352	95.12
396.576	79.12
396.801	80.12
397.025	97.12
397.249	89.12
397.474	84.12
397.698	73.12
397.922	84.12
398.147	95.12
398.371	85.12
398.595	82.12
398.82	90.12
399.044	93.12
399.268	93.12
399.492	96.12
399.717	95.12
399.941	84.12
400.165	95.12
400.389	102.12
400.613	84.12
400.837	79.12
401.062	89.12
401.286	89.12
401.51	89.12
401.734	95.12
401.958	95.12
402.182	124.12
402.406	151.12
402.63	111.12
402.854	100.12
403.078	86.12
403.302	79.12
403.526	102.12
403.75	90.12
403.974	81.12
404.198	87.12
404.422	87.12
404.645	94.12
404.869	79.12
405.093	100.12
405.317	84.12
405.541	91.12
405.765	93.12
405.988	92.12
406.212	140.12
406.436	211.12
406.66	150.12
406.883	100.12
407.107	97.12
407.331	95.12
407.555	94.12
407.778	92.12
408.002	82.12
408.226	87.12
408.449	99.12
408.673	89.12
408.896	91.12
409.12	93.12
409.344	95.12
409.567	92.12
409.791	93.12
410.014	90.12
410.238	88.12
410.461	98.12
410.685	91.12
410.908	104.12
411.132	112.12
411.355	102.12
411.578	102.12
411.802	78.12
412.025	93.12
412.249	91.12
412.472	80.12
412.695	93.12
412.919	84.12
413.142	85.12
413.365	93.12
413.589	80.12
413.812	93.12
414.035	95.12
414.258	87.12
414.482	73.12
414.705	82.12
414.928	104.12
415.151	106.12
415.374	95.12
415.597	92.12
415.821	74.12
416.044	86.12
416.267	89.12
416.49	101.12
416.713	93.12
416.936	97.12
417.159	83.12
417.382	88.12
417.605	87.12
417.828	105.12
418.051	104.12
418.274	110.12
418.497	97.12
418.72	89.12
418.943	93.12
419.166	82.12
419.389	96.12
419.611	89.12
419.834	91.12
420.057	97.12
420.28	75.12
420.503	71.12
420.726	80.12
420.948	76.12
421.171	91.12
421.394	83.12
421.617	95.12
421.839	102.12
422.062	77.12
422.285	86.12
422.507	100.12
422.73	113.12
422.953	99.12
423.175	82.12
423.398	96.12
423.621	87.12
423.843	83.12
424.066	77.12
424.288	94.12
424.511	88.12
424.733	96.12
424.956	107.12
425.178	102.12
425.401	96.12
425.623	95.12
425.846	102.12
426.068	87.12
426.291	85.12
426.513	99.12
426.735	82.12
426.958	93.12
427.18	97.12
427.402	146.12
427.625	154.12
427.847	129.12
428.069	120.12
428.292	93.12
428.514	85.12
428.736	83.12
428.958	79.12
429.181	95.12
429.403	76.12
429.625	103.12
429.847	95.12
430.069	85.12
430.292	102.12
430.514	85.12
430.736	75.12
430.958	95.12
431.18	94.12
431.402	89.12
431.624	87.12
431.846	79.12
432.068	88.12
432.29	83.12
432.512	91.12
432.734	85.12
432.956	97.12
433.178	105.12
433.4	88.12
433.622	103.12
433.844	92.12
434.066	75.12
434.287	93.12
434.509	91.12
434.731	95.12
434.953	99.12
435.175	89.12
435.397	99.12
435.618	88.12
435.84	109.12
436.062	119.12
436.284	115.12
436.505	96.12
436.727	110.12
436.949	91.12
437.17	93.12
437.392	96.12
437.614	102.12
437.835	108.12
438.057	113.12
438.278	110.12
438.5	104.12
438.721	110.12
438.943	100.12
439.165	83.12
439.386	77.12
439.608	89.12
439.829	98.12
440.05	124.12
440.272	128.12
440.493	88.12
440.715	93.12
440.936	96.12
441.158	93.12
441.379	91.12
441.6	90.12
441.822	87.12
442.043	94.12
442.264	109.12
442.486	101.12
442.707	95.12
442.928	109.12
443.149	150.12
443.371	143.12
443.592	90.12
443.813	112.12
444.034	97.12
444.255	86.12
444.476	98.12
444.698	93.12
444.919	89.12
445.14	133.12
445.361	131.12
445.582	117.12
445.803	134.12
446.024	133.12
446.245	119.12
446.466	116.12
446.687	99.12
446.908	77.12
447.129	100.12
447.35	93.12
447.571	97.12
447.792	84.12
448.013	100.12
448.234	104.12
448.455	119.12
448.675	114.12
448.896	116.12
449.117	89.12
449.338	107.12
449.559	118.12
449.779	142.12
450	101.12
450.221	85.12
450.442	93.12
450.662	94.12
450.883	105.12
451.104	109.12
451.324	88.12
451.545	95.12
451.766	73.12
451.986	86.12
452.207	96.12
452.428	92.12
452.648	109.12
452.869	121.12
453.089	112.12
453.31	119.12
453.53	96.12
453.751	73.12
453.971	91.12
454.192	104.12
454.412	92.12
454.633	92.12
454.853	75.12
455.073	89.12
455.294	95.12
455.514	106.12
455.734	85.12
455.955	92.12
456.175	88.12
456.395	85.12
456.616	82.12
456.836	86.12
457.056	84.12
457.276	76.12
457.497	79.12
457.717	94.12
457.937	81.12
458.157	87.12
458.377	89.12
458.598	103.12
458.818	152.12
459.038	165.12
459.258	111.12
459.478	96.12
459.698	81.12
459.918	86.12
460.138	99.12
460.358	76.12
460.578	94.12
460.798	88.12
461.018	88.12
461.238	89.12
461.458	91.12
461.678	73.12
461.898	94.12
462.118	90.12
462.338	79.12
462.558	87.12
462.777	81.12
462.997	87.12
463.217	76.12
463.437	87.12
463.657	88.12
463.876	93.12
464.096	94.12
464.316	93.12
464.536	104.12
464.755	86.12
464.975	109.12
465.195	150.12
465.414	159.12
465.634	102.12
465.854	92.12
466.073	87.12
466.293	88.12
466.512	76.12
466.732	82.12
466.951	83.12
467.171	101.12
467.391	105.12
467.61	119.12
467.829	93.12
468.049	91.12
468.268	87.12
468.488	94.12
468.707	89.12
468.927	93.12
469.146	88.12
469.365	84.12
469.585	81.12
469.804	117.12
470.023	100.12
470.243	89.12
470.462	99.12
470.681	98.12
470.901	93.12
471.12	90.12
471.339	94.12
471.558	95.12
471.777	87.12
471.997	80.12
472.216	90.12
472.435	68.12
472.654	108.12
472.873	88.12
473.092	95.12
473.311	82.12
473.53	94.12
473.749	93.12
473.968	97.12
474.187	105.12
474.406	99.12
474.625	80.12
474.844	90.12
475.063	88.12
475.282	83.12
475.501	95.12
475.72	111.12
475.939	85.12
476.158	94.12
476.377	70.12
476.596	88.12
476.814	90.12
477.033	103.12
477.252	100.12
477.471	79.12
477.69	95.12
477.908	97.12
478.127	80.12
478.346	94.12
478.564	101.12
478.783	98.12
479.002	101.12
479.22	96.12
479.439	99.12
479.658	103.12
479.876	95.12
480.095	86.12
480.313	86.12
480.532	105.12
480.751	84.12
480.969	98.12
481.188	110.12
481.406	107.12
481.624	89.12
481.843	88.12
482.061	85.12
482.28	89.12
482.498	74.12
482.717	94.12
482.935	103.12
483.153	80.12
483.372	96.12
483.59	104.12
483.808	89.12
484.027	89.12
484.245	87.12
484.463	92.12
484.681	95.12
484.9	95.12
485.118	78.12
485.336	83.12
485.554	109.12
485.772	95.12
485.99	100.12
486.209	106.12
486.427	105.12
486.645	108.12
486.863	124.12
487.081	105.12
487.299	94.12
487.517	94.12
487.735	100.12
487.953	86.12
488.171	94.12
488.389	82.12
488.607	98.12
488.825	96.12
489.043	98.12
489.261	96.12
489.479	85.12
489.696	86.12
489.914	85.12
490.132	94.12
490.35	89.12
490.568	86.12
490.786	89.12
491.003	93.12
491.221	86.12
491.439	84.12
491.657	108.12
491.874	93.12
492.092	92.12
492.31	106.12
492.527	85.12
492.745	96.12
492.963	91.12
493.18	100.12
493.398	79.12
493.615	93.12
493.833	96.12
494.05	95.12
494.268	103.12
494.485	87.12
494.703	85.12
494.92	86.12
495.138	89.12
495.355	95.12
495.573	98.12
495.79	85.12
496.008	83.12
496.225	92.12
496.442	103.12
496.66	96.12
496.877	92.12
497.094	99.12
497.312	77.12
497.529	87.12
497.746	87.12
497.963	93.12
498.181	92.12
498.398	89.12
498.615	104.12
498.832	109.12
499.049	85.12
499.267	94.12
499.484	92.12
499.701	97.12
499.918	104.12
500.135	96.12
500.352	107.12
500.569	82.12
500.786	89.12
501.003	90.12
501.22	74.12
501.437	106.12
501.654	94.12
501.871	96.12
502.088	95.12
502.305	94.12
502.522	85.12
502.739	83.12
502.956	89.12
503.172	80.12
503.389	87.12
503.606	94.12
503.823	108.12
504.04	87.12
504.256	85.12
504.473	95.12
504.69	96.12
504.907	90.12
505.123	70.12
505.34	94.12
505.557	95.12
505.773	92.12
505.99	100.12
506.207	86.12
506.423	85.12
506.64	80.12
506.856	77.12
507.073	95.12
507.289	97.12
507.506	101.12
507.722	111.12
507.939	105.12
508.155	99.12
508.372	91.12
508.588	95.12
508.805	93.12
509.021	83.12
509.238	99.12
509.454	100.12
509.67	107.12
509.887	107.12
510.103	130.12
510.319	209.12
510.536	748.12
510.752	2337.12
510.968	660.12
511.184	163.12
511.401	114.12
511.617	100.12
511.833	91.12
512.049	100.12
512.265	94.12
512.481	82.12
512.698	89.12
512.914	102.12
513.13	83.12
513.346	85.12
513.562	94.12
513.778	107.12
513.994	89.12
514.21	97.12
514.426	124.12
514.642	134.12
514.858	132.12
515.074	176.12
515.29	463.12
