Data from Uncirc_2005_H10_HRD10591_00005.txt Node
Date: Wed Jan 03 10:28:25 EST 2024
User: Yrep
Spectrometer: HR+D1059
Trigger mode: 1
Integration Time (sec): 1.000000E-1
Scans to average: 1
Electric dark correction enabled: true
Nonlinearity correction enabled: false
Boxcar width: 0
XAxis mode: Wavelengths
Number of Pixels in Spectrum: 2048
>>>>>Begin Spectral Data<<<<<
223.165	4.12
223.4	4.12
223.635	4.12
223.869	-15.88
224.104	-14.88
224.338	-28.88
224.573	-20.88
224.808	0.12
225.042	-5.88
225.277	-1.88
225.511	-0.88
225.746	-10.88
225.98	-4.88
226.215	12.12
226.449	11.12
226.683	19.12
226.918	23.12
227.152	35.12
227.387	40.12
227.621	40.12
227.856	44.12
228.09	50.12
228.324	48.12
228.559	62.12
228.793	70.12
229.027	66.12
229.262	80.12
229.496	77.12
229.73	71.12
229.964	72.12
230.199	76.12
230.433	60.12
230.667	91.12
230.901	75.12
231.136	82.12
231.37	86.12
231.604	78.12
231.838	81.12
232.072	85.12
232.306	80.12
232.541	76.12
232.775	79.12
233.009	83.12
233.243	81.12
233.477	84.12
233.711	92.12
233.945	74.12
234.179	80.12
234.413	78.12
234.647	81.12
234.881	79.12
235.115	69.12
235.349	74.12
235.583	78.12
235.817	69.12
236.051	75.12
236.285	87.12
236.519	81.12
236.753	78.12
236.987	76.12
237.221	77.12
237.455	79.12
237.689	67.12
237.922	81.12
238.156	75.12
238.39	79.12
238.624	94.12
238.858	81.12
239.091	82.12
239.325	78.12
239.559	80.12
239.793	88.12
240.027	84.12
240.26	68.12
240.494	92.12
240.728	78.12
240.961	75.12
241.195	80.12
241.429	71.12
241.662	65.12
241.896	74.12
242.13	80.12
242.363	72.12
242.597	80.12
242.83	75.12
243.064	79.12
243.298	72.12
243.531	77.12
243.765	65.12
243.998	83.12
244.232	92.12
244.465	62.12
244.699	63.12
244.932	66.12
245.166	71.12
245.399	74.12
245.633	66.12
245.866	86.12
246.099	76.12
246.333	72.12
246.566	88.12
246.8	86.12
247.033	82.12
247.266	83.12
247.5	79.12
247.733	86.12
247.966	86.12
248.2	94.12
248.433	83.12
248.666	70.12
248.899	85.12
249.133	88.12
249.366	92.12
249.599	103.12
249.832	85.12
250.066	83.12
250.299	75.12
250.532	95.12
250.765	92.12
250.998	91.12
251.231	82.12
251.465	87.12
251.698	67.12
251.931	73.12
252.164	68.12
252.397	83.12
252.63	72.12
252.863	93.12
253.096	76.12
253.329	83.12
253.562	80.12
253.795	77.12
254.028	67.12
254.261	73.12
254.494	89.12
254.727	92.12
254.96	90.12
255.193	67.12
255.426	75.12
255.659	82.12
255.892	81.12
256.124	81.12
256.357	95.12
256.59	86.12
256.823	81.12
257.056	89.12
257.289	83.12
257.521	82.12
257.754	78.12
257.987	77.12
258.22	79.12
258.452	79.12
258.685	86.12
258.918	88.12
259.151	90.12
259.383	85.12
259.616	83.12
259.849	87.12
260.081	77.12
260.314	74.12
260.547	83.12
260.779	86.12
261.012	87.12
261.244	88.12
261.477	101.12
261.71	98.12
261.942	94.12
262.175	109.12
262.407	82.12
262.64	86.12
262.872	80.12
263.105	95.12
263.337	85.12
263.57	83.12
263.802	75.12
264.035	82.12
264.267	74.12
264.499	71.12
264.732	82.12
264.964	81.12
265.197	94.12
265.429	76.12
265.661	78.12
265.894	81.12
266.126	84.12
266.358	81.12
266.591	84.12
266.823	87.12
267.055	84.12
267.287	70.12
267.52	85.12
267.752	92.12
267.984	87.12
268.216	96.12
268.448	100.12
268.681	82.12
268.913	86.12
269.145	87.12
269.377	74.12
269.609	72.12
269.841	91.12
270.073	93.12
270.306	102.12
270.538	76.12
270.77	78.12
271.002	83.12
271.234	96.12
271.466	78.12
271.698	82.12
271.93	91.12
272.162	92.12
272.394	70.12
272.626	87.12
272.858	85.12
273.09	69.12
273.322	79.12
273.553	70.12
273.785	87.12
274.017	84.12
274.249	92.12
274.481	91.12
274.713	82.12
274.945	84.12
275.176	87.12
275.408	82.12
275.64	77.12
275.872	86.12
276.104	96.12
276.335	76.12
276.567	95.12
276.799	97.12
277.031	103.12
277.262	99.12
277.494	85.12
277.726	83.12
277.957	83.12
278.189	88.12
278.421	75.12
278.652	85.12
278.884	75.12
279.115	82.12
279.347	90.12
279.579	86.12
279.81	84.12
280.042	87.12
280.273	92.12
280.505	91.12
280.736	71.12
280.968	101.12
281.199	92.12
281.431	98.12
281.662	93.12
281.894	103.12
282.125	101.12
282.356	114.12
282.588	134.12
282.819	126.12
283.051	80.12
283.282	85.12
283.513	100.12
283.745	93.12
283.976	80.12
284.207	95.12
284.439	82.12
284.67	94.12
284.901	86.12
285.132	76.12
285.364	82.12
285.595	92.12
285.826	79.12
286.057	95.12
286.288	75.12
286.52	89.12
286.751	87.12
286.982	97.12
287.213	86.12
287.444	88.12
287.675	80.12
287.906	86.12
288.138	79.12
288.369	97.12
288.6	90.12
288.831	80.12
289.062	87.12
289.293	99.12
289.524	86.12
289.755	79.12
289.986	67.12
290.217	80.12
290.448	83.12
290.679	86.12
290.91	98.12
291.141	87.12
291.371	91.12
291.602	82.12
291.833	85.12
292.064	77.12
292.295	98.12
292.526	79.12
292.757	85.12
292.987	75.12
293.218	99.12
293.449	89.12
293.68	80.12
293.91	84.12
294.141	81.12
294.372	80.12
294.603	87.12
294.833	78.12
295.064	82.12
295.295	78.12
295.525	78.12
295.756	98.12
295.987	110.12
296.217	114.12
296.448	105.12
296.679	94.12
296.909	88.12
297.14	84.12
297.37	93.12
297.601	88.12
297.831	82.12
298.062	88.12
298.292	88.12
298.523	83.12
298.753	86.12
298.984	78.12
299.214	92.12
299.445	92.12
299.675	78.12
299.905	80.12
300.136	81.12
300.366	96.12
300.597	88.12
300.827	86.12
301.057	84.12
301.288	103.12
301.518	107.12
301.748	93.12
301.979	96.12
302.209	86.12
302.439	100.12
302.669	85.12
302.9	91.12
303.13	102.12
303.36	82.12
303.59	92.12
303.82	102.12
304.051	92.12
304.281	80.12
304.511	88.12
304.741	85.12
304.971	95.12
305.201	91.12
305.431	83.12
305.661	71.12
305.891	103.12
306.121	100.12
306.352	70.12
306.582	92.12
306.812	96.12
307.042	92.12
307.272	88.12
307.502	90.12
307.731	98.12
307.961	83.12
308.191	85.12
308.421	82.12
308.651	95.12
308.881	82.12
309.111	82.12
309.341	85.12
309.571	99.12
309.8	93.12
310.03	86.12
310.26	105.12
310.49	103.12
310.72	85.12
310.949	89.12
311.179	98.12
311.409	96.12
311.639	92.12
311.868	88.12
312.098	103.12
312.328	112.12
312.557	115.12
312.787	95.12
313.017	106.12
313.246	93.12
313.476	90.12
313.706	79.12
313.935	92.12
314.165	88.12
314.394	89.12
314.624	83.12
314.853	100.12
315.083	100.12
315.312	77.12
315.542	85.12
315.771	90.12
316.001	100.12
316.23	92.12
316.46	86.12
316.689	83.12
316.919	95.12
317.148	98.12
317.377	107.12
317.607	86.12
317.836	109.12
318.065	93.12
318.295	92.12
318.524	95.12
318.753	85.12
318.983	95.12
319.212	106.12
319.441	98.12
319.67	92.12
319.9	99.12
320.129	87.12
320.358	83.12
320.587	103.12
320.816	97.12
321.046	95.12
321.275	96.12
321.504	104.12
321.733	118.12
321.962	104.12
322.191	102.12
322.42	94.12
322.649	99.12
322.878	100.12
323.108	103.12
323.337	113.12
323.566	132.12
323.795	145.12
324.024	200.12
324.253	394.12
324.482	817.12
324.71	1756.12
324.939	2289.12
325.168	813.12
325.397	239.12
325.626	141.12
325.855	133.12
326.084	115.12
326.313	126.12
326.542	145.12
326.77	226.12
326.999	467.12
327.228	970.12
327.457	1801.12
327.686	1429.12
327.914	372.12
328.143	189.12
328.372	140.12
328.6	118.12
328.829	127.12
329.058	123.12
329.287	126.12
329.515	107.12
329.744	116.12
329.972	95.12
330.201	99.12
330.43	107.12
330.658	111.12
330.887	135.12
331.115	115.12
331.344	92.12
331.572	108.12
331.801	103.12
332.03	82.12
332.258	109.12
332.486	95.12
332.715	88.12
332.943	78.12
333.172	98.12
333.4	93.12
333.629	96.12
333.857	102.12
334.085	107.12
334.314	96.12
334.542	106.12
334.771	106.12
334.999	94.12
335.227	88.12
335.455	84.12
335.684	107.12
335.912	95.12
336.14	102.12
336.369	82.12
336.597	99.12
336.825	100.12
337.053	88.12
337.281	111.12
337.51	99.12
337.738	89.12
337.966	79.12
338.194	94.12
338.422	101.12
338.65	95.12
338.878	97.12
339.106	90.12
339.334	81.12
339.562	90.12
339.79	92.12
340.018	81.12
340.246	105.12
340.474	97.12
340.702	95.12
340.93	111.12
341.158	85.12
341.386	93.12
341.614	101.12
341.842	96.12
342.07	87.12
342.298	89.12
342.526	97.12
342.754	74.12
342.981	78.12
343.209	93.12
343.437	92.12
343.665	91.12
343.893	90.12
344.12	95.12
344.348	84.12
344.576	94.12
344.804	93.12
345.031	104.12
345.259	88.12
345.487	93.12
345.714	85.12
345.942	95.12
346.17	92.12
346.397	92.12
346.625	106.12
346.853	78.12
347.08	90.12
347.308	95.12
347.535	93.12
347.763	110.12
347.99	87.12
348.218	97.12
348.445	105.12
348.673	99.12
348.9	109.12
349.128	87.12
349.355	102.12
349.583	88.12
349.81	109.12
350.037	105.12
350.265	88.12
350.492	95.12
350.72	95.12
350.947	98.12
351.174	102.12
351.402	114.12
351.629	102.12
351.856	106.12
352.083	100.12
352.311	105.12
352.538	114.12
352.765	118.12
352.992	120.12
353.22	101.12
353.447	95.12
353.674	99.12
353.901	97.12
354.128	91.12
354.355	99.12
354.583	93.12
354.81	85.12
355.037	99.12
355.264	94.12
355.491	107.12
355.718	100.12
355.945	88.12
356.172	109.12
356.399	94.12
356.626	107.12
356.853	86.12
357.08	99.12
357.307	86.12
357.534	99.12
357.761	78.12
357.988	98.12
358.215	110.12
358.441	102.12
358.668	96.12
358.895	91.12
359.122	94.12
359.349	75.12
359.576	83.12
359.802	102.12
360.029	106.12
360.256	89.12
360.483	106.12
360.709	88.12
360.936	93.12
361.163	87.12
361.39	85.12
361.616	79.12
361.843	96.12
362.07	88.12
362.296	88.12
362.523	82.12
362.749	88.12
362.976	78.12
363.203	96.12
363.429	86.12
363.656	111.12
363.882	78.12
364.109	99.12
364.335	92.12
364.562	88.12
364.788	93.12
365.015	99.12
365.241	101.12
365.468	99.12
365.694	99.12
365.92	78.12
366.147	93.12
366.373	101.12
366.599	72.12
366.826	89.12
367.052	78.12
367.278	104.12
367.505	93.12
367.731	104.12
367.957	100.12
368.184	97.12
368.41	100.12
368.636	105.12
368.862	114.12
369.089	97.12
369.315	92.12
369.541	94.12
369.767	93.12
369.993	76.12
370.219	112.12
370.445	97.12
370.672	82.12
370.898	86.12
371.124	96.12
371.35	87.12
371.576	86.12
371.802	85.12
372.028	82.12
372.254	100.12
372.48	85.12
372.706	80.12
372.932	85.12
373.158	94.12
373.384	85.12
373.61	90.12
373.835	99.12
374.061	93.12
374.287	89.12
374.513	84.12
374.739	89.12
374.965	84.12
375.191	94.12
375.416	79.12
375.642	88.12
375.868	78.12
376.094	79.12
376.319	83.12
376.545	91.12
376.771	75.12
376.997	101.12
377.222	98.12
377.448	101.12
377.674	83.12
377.899	88.12
378.125	95.12
378.35	96.12
378.576	91.12
378.802	98.12
379.027	97.12
379.253	82.12
379.478	108.12
379.704	102.12
379.929	107.12
380.155	108.12
380.38	101.12
380.606	106.12
380.831	95.12
381.057	102.12
381.282	87.12
381.507	102.12
381.733	102.12
381.958	110.12
382.184	101.12
382.409	100.12
382.634	107.12
382.86	114.12
383.085	103.12
383.31	126.12
383.535	113.12
383.761	105.12
383.986	116.12
384.211	105.12
384.436	101.12
384.662	104.12
384.887	117.12
385.112	137.12
385.337	123.12
385.562	129.12
385.787	127.12
386.013	125.12
386.238	129.12
386.463	110.12
386.688	122.12
386.913	120.12
387.138	111.12
387.363	102.12
387.588	97.12
387.813	108.12
388.038	131.12
388.263	137.12
388.488	120.12
388.713	111.12
388.938	98.12
389.163	95.12
389.387	94.12
389.612	95.12
389.837	88.12
390.062	101.12
390.287	93.12
390.512	92.12
390.736	80.12
390.961	92.12
391.186	95.12
391.411	95.12
391.636	99.12
391.86	80.12
392.085	80.12
392.31	92.12
392.534	94.12
392.759	92.12
392.984	96.12
393.208	81.12
393.433	90.12
393.658	96.12
393.882	79.12
394.107	79.12
394.331	91.12
394.556	91.12
394.78	98.12
395.005	91.12
395.229	92.12
395.454	93.12
395.678	97.12
395.903	87.12
396.127	87.12
396.352	104.12
396.576	96.12
396.801	76.12
397.025	99.12
397.249	92.12
397.474	90.12
397.698	93.12
397.922	94.12
398.147	77.12
398.371	93.12
398.595	92.12
398.82	95.12
399.044	73.12
399.268	88.12
399.492	97.12
399.717	93.12
399.941	91.12
400.165	87.12
400.389	94.12
400.613	86.12
400.837	91.12
401.062	96.12
401.286	90.12
401.51	97.12
401.734	81.12
401.958	96.12
402.182	122.12
402.406	138.12
402.63	109.12
402.854	106.12
403.078	82.12
403.302	83.12
403.526	92.12
403.75	90.12
403.974	86.12
404.198	88.12
404.422	89.12
404.645	113.12
404.869	86.12
405.093	81.12
405.317	89.12
405.541	94.12
405.765	110.12
405.988	118.12
406.212	160.12
406.436	214.12
406.66	133.12
406.883	95.12
407.107	106.12
407.331	99.12
407.555	122.12
407.778	115.12
408.002	89.12
408.226	95.12
408.449	101.12
408.673	88.12
408.896	100.12
409.12	102.12
409.344	86.12
409.567	87.12
409.791	98.12
410.014	95.12
410.238	110.12
410.461	99.12
410.685	97.12
410.908	99.12
411.132	114.12
411.355	99.12
411.578	86.12
411.802	84.12
412.025	100.12
412.249	94.12
412.472	87.12
412.695	96.12
412.919	87.12
413.142	78.12
413.365	89.12
413.589	84.12
413.812	81.12
414.035	94.12
414.258	89.12
414.482	97.12
414.705	99.12
414.928	95.12
415.151	83.12
415.374	94.12
415.597	95.12
415.821	95.12
416.044	87.12
416.267	90.12
416.49	92.12
416.713	95.12
416.936	102.12
417.159	93.12
417.382	90.12
417.605	88.12
417.828	99.12
418.051	91.12
418.274	86.12
418.497	78.12
418.72	87.12
418.943	101.12
419.166	101.12
419.389	78.12
419.611	91.12
419.834	84.12
420.057	99.12
420.28	94.12
420.503	86.12
420.726	93.12
420.948	90.12
421.171	87.12
421.394	96.12
421.617	102.12
421.839	84.12
422.062	77.12
422.285	88.12
422.507	88.12
422.73	111.12
422.953	92.12
423.175	72.12
423.398	85.12
423.621	98.12
423.843	91.12
424.066	69.12
424.288	90.12
424.511	99.12
424.733	99.12
424.956	106.12
425.178	101.12
425.401	91.12
425.623	104.12
425.846	95.12
426.068	95.12
426.291	100.12
426.513	90.12
426.735	103.12
426.958	91.12
427.18	108.12
427.402	147.12
427.625	168.12
427.847	116.12
428.069	102.12
428.292	77.12
428.514	93.12
428.736	72.12
428.958	95.12
429.181	85.12
429.403	82.12
429.625	99.12
429.847	96.12
430.069	95.12
430.292	93.12
430.514	83.12
430.736	83.12
430.958	86.12
431.18	73.12
431.402	87.12
431.624	81.12
431.846	88.12
432.068	89.12
432.29	100.12
432.512	90.12
432.734	85.12
432.956	82.12
433.178	85.12
433.4	93.12
433.622	102.12
433.844	96.12
434.066	85.12
434.287	92.12
434.509	86.12
434.731	92.12
434.953	82.12
435.175	93.12
435.397	96.12
435.618	92.12
435.84	102.12
436.062	134.12
436.284	132.12
436.505	97.12
436.727	100.12
436.949	95.12
437.17	81.12
437.392	106.12
437.614	106.12
437.835	109.12
438.057	132.12
438.278	124.12
438.5	95.12
438.721	144.12
438.943	97.12
439.165	97.12
439.386	86.12
439.608	85.12
439.829	95.12
440.05	130.12
440.272	134.12
440.493	102.12
440.715	100.12
440.936	85.12
441.158	83.12
441.379	90.12
441.6	102.12
441.822	89.12
442.043	108.12
442.264	110.12
442.486	96.12
442.707	88.12
442.928	102.12
443.149	144.12
443.371	146.12
443.592	122.12
443.813	118.12
444.034	122.12
444.255	98.12
444.476	76.12
444.698	93.12
444.919	79.12
445.14	128.12
445.361	119.12
445.582	116.12
445.803	151.12
446.024	143.12
446.245	148.12
446.466	129.12
446.687	95.12
446.908	87.12
447.129	89.12
447.35	79.12
447.571	100.12
447.792	82.12
448.013	99.12
448.234	99.12
448.455	90.12
448.675	116.12
448.896	123.12
449.117	105.12
449.338	106.12
449.559	128.12
449.779	152.12
450	89.12
450.221	103.12
450.442	100.12
450.662	96.12
450.883	117.12
451.104	109.12
451.324	94.12
451.545	82.12
451.766	78.12
451.986	90.12
452.207	88.12
452.428	88.12
452.648	97.12
452.869	106.12
453.089	118.12
453.31	114.12
453.53	89.12
453.751	93.12
453.971	96.12
454.192	106.12
454.412	88.12
454.633	84.12
454.853	79.12
455.073	100.12
455.294	94.12
455.514	90.12
455.734	98.12
455.955	82.12
456.175	86.12
456.395	80.12
456.616	79.12
456.836	87.12
457.056	88.12
457.276	79.12
457.497	78.12
457.717	88.12
457.937	78.12
458.157	80.12
458.377	91.12
458.598	116.12
458.818	146.12
459.038	155.12
459.258	128.12
459.478	95.12
459.698	87.12
459.918	74.12
460.138	74.12
460.358	101.12
460.578	95.12
460.798	93.12
461.018	99.12
461.238	82.12
461.458	69.12
461.678	94.12
461.898	84.12
462.118	98.12
462.338	95.12
462.558	93.12
462.777	77.12
462.997	84.12
463.217	83.12
463.437	87.12
463.657	93.12
463.876	97.12
464.096	100.12
464.316	94.12
464.536	90.12
464.755	103.12
464.975	104.12
465.195	151.12
465.414	142.12
465.634	100.12
465.854	91.12
466.073	87.12
466.293	93.12
466.512	82.12
466.732	76.12
466.951	89.12
467.171	84.12
467.391	75.12
467.61	109.12
467.829	104.12
468.049	97.12
468.268	96.12
468.488	94.12
468.707	77.12
468.927	102.12
469.146	96.12
469.365	91.12
469.585	85.12
469.804	82.12
470.023	88.12
470.243	90.12
470.462	102.12
470.681	104.12
470.901	77.12
471.12	90.12
471.339	91.12
471.558	85.12
471.777	78.12
471.997	102.12
472.216	90.12
472.435	107.12
472.654	86.12
472.873	77.12
473.092	87.12
473.311	85.12
473.53	96.12
473.749	94.12
473.968	107.12
474.187	96.12
474.406	96.12
474.625	89.12
474.844	91.12
475.063	97.12
475.282	78.12
475.501	83.12
475.72	77.12
475.939	70.12
476.158	85.12
476.377	101.12
476.596	82.12
476.814	86.12
477.033	83.12
477.252	88.12
477.471	92.12
477.69	84.12
477.908	93.12
478.127	88.12
478.346	90.12
478.564	80.12
478.783	101.12
479.002	97.12
479.22	90.12
479.439	103.12
479.658	108.12
479.876	87.12
480.095	93.12
480.313	82.12
480.532	85.12
480.751	85.12
480.969	88.12
481.188	107.12
481.406	94.12
481.624	86.12
481.843	107.12
482.061	87.12
482.28	76.12
482.498	99.12
482.717	81.12
482.935	87.12
483.153	77.12
483.372	95.12
483.59	86.12
483.808	95.12
484.027	89.12
484.245	96.12
484.463	97.12
484.681	91.12
484.9	106.12
485.118	108.12
485.336	83.12
485.554	91.12
485.772	100.12
485.99	107.12
486.209	104.12
486.427	114.12
486.645	112.12
486.863	100.12
487.081	95.12
487.299	104.12
487.517	80.12
487.735	84.12
487.953	88.12
488.171	88.12
488.389	96.12
488.607	106.12
488.825	101.12
489.043	86.12
489.261	81.12
489.479	92.12
489.696	87.12
489.914	88.12
490.132	86.12
490.35	98.12
490.568	93.12
490.786	96.12
491.003	96.12
491.221	81.12
491.439	92.12
491.657	84.12
491.874	90.12
492.092	93.12
492.31	90.12
492.527	96.12
492.745	75.12
492.963	86.12
493.18	88.12
493.398	86.12
493.615	69.12
493.833	105.12
494.05	92.12
494.268	80.12
494.485	91.12
494.703	89.12
494.92	98.12
495.138	98.12
495.355	91.12
495.573	94.12
495.79	86.12
496.008	88.12
496.225	82.12
496.442	85.12
496.66	104.12
496.877	93.12
497.094	104.12
497.312	101.12
497.529	95.12
497.746	99.12
497.963	100.12
498.181	94.12
498.398	96.12
498.615	108.12
498.832	91.12
499.049	99.12
499.267	96.12
499.484	93.12
499.701	98.12
499.918	91.12
500.135	90.12
500.352	87.12
500.569	105.12
500.786	82.12
501.003	102.12
501.22	80.12
501.437	93.12
501.654	97.12
501.871	102.12
502.088	95.12
502.305	92.12
502.522	88.12
502.739	83.12
502.956	73.12
503.172	94.12
503.389	82.12
503.606	105.12
503.823	99.12
504.04	80.12
504.256	87.12
504.473	81.12
504.69	97.12
504.907	89.12
505.123	85.12
505.34	83.12
505.557	92.12
505.773	92.12
505.99	90.12
506.207	94.12
506.423	98.12
506.64	83.12
506.856	79.12
507.073	85.12
507.289	88.12
507.506	91.12
507.722	106.12
507.939	111.12
508.155	96.12
508.372	85.12
508.588	95.12
508.805	92.12
509.021	94.12
509.238	90.12
509.454	110.12
509.67	88.12
509.887	105.12
510.103	130.12
510.319	199.12
510.536	656.12
510.752	2026.12
510.968	587.12
511.184	144.12
511.401	110.12
511.617	96.12
511.833	98.12
512.049	97.12
512.265	92.12
512.481	88.12
512.698	93.12
512.914	96.12
513.13	98.12
513.346	99.12
513.562	80.12
513.778	99.12
513.994	85.12
514.21	87.12
514.426	111.12
514.642	123.12
514.858	115.12
515.074	170.12
515.29	408.12
515.506	1336.12
