Data from Uncirc_2005_H10_HRD10591_00027.txt Node
Date: Wed Jan 03 10:28:30 EST 2024
User: Yrep
Spectrometer: HR+D1059
Trigger mode: 1
Integration Time (sec): 1.000000E-1
Scans to average: 1
Electric dark correction enabled: true
Nonlinearity correction enabled: false
Boxcar width: 0
XAxis mode: Wavelengths
Number of Pixels in Spectrum: 2048
>>>>>Begin Spectral Data<<<<<
223.165	-14.25
223.4	-14.25
223.635	-14.25
223.869	-36.25
224.104	-9.25
224.338	-18.25
224.573	-14.25
224.808	-15.25
225.042	-4.25
225.277	7.75
225.511	-2.25
225.746	21.75
225.98	-3.25
226.215	0.75
226.449	1.75
226.683	21.75
226.918	26.75
227.152	36.75
227.387	33.75
227.621	34.75
227.856	50.75
228.09	48.75
228.324	55.75
228.559	61.75
228.793	75.75
229.027	57.75
229.262	67.75
229.496	76.75
229.73	71.75
229.964	73.75
230.199	61.75
230.433	65.75
230.667	69.75
230.901	75.75
231.136	84.75
231.37	77.75
231.604	78.75
231.838	78.75
232.072	77.75
232.306	82.75
232.541	73.75
232.775	90.75
233.009	91.75
233.243	86.75
233.477	89.75
233.711	80.75
233.945	86.75
234.179	64.75
234.413	85.75
234.647	86.75
234.881	88.75
235.115	89.75
235.349	68.75
235.583	61.75
235.817	73.75
236.051	66.75
236.285	77.75
236.519	79.75
236.753	84.75
236.987	76.75
237.221	84.75
237.455	71.75
237.689	72.75
237.922	78.75
238.156	59.75
238.39	71.75
238.624	70.75
238.858	66.75
239.091	70.75
239.325	85.75
239.559	86.75
239.793	75.75
240.027	66.75
240.26	64.75
240.494	84.75
240.728	85.75
240.961	74.75
241.195	58.75
241.429	92.75
241.662	71.75
241.896	76.75
242.13	66.75
242.363	76.75
242.597	69.75
242.83	93.75
243.064	78.75
243.298	73.75
243.531	87.75
243.765	73.75
243.998	69.75
244.232	79.75
244.465	78.75
244.699	75.75
244.932	76.75
245.166	87.75
245.399	93.75
245.633	78.75
245.866	86.75
246.099	76.75
246.333	66.75
246.566	71.75
246.8	89.75
247.033	90.75
247.266	79.75
247.5	64.75
247.733	76.75
247.966	90.75
248.2	80.75
248.433	85.75
248.666	75.75
248.899	82.75
249.133	74.75
249.366	91.75
249.599	100.75
249.832	76.75
250.066	75.75
250.299	82.75
250.532	84.75
250.765	82.75
250.998	75.75
251.231	73.75
251.465	91.75
251.698	83.75
251.931	77.75
252.164	87.75
252.397	76.75
252.63	88.75
252.863	76.75
253.096	82.75
253.329	89.75
253.562	82.75
253.795	84.75
254.028	78.75
254.261	79.75
254.494	96.75
254.727	77.75
254.96	83.75
255.193	77.75
255.426	71.75
255.659	62.75
255.892	74.75
256.124	84.75
256.357	77.75
256.59	79.75
256.823	70.75
257.056	83.75
257.289	81.75
257.521	86.75
257.754	86.75
257.987	82.75
258.22	66.75
258.452	81.75
258.685	84.75
258.918	67.75
259.151	86.75
259.383	91.75
259.616	84.75
259.849	82.75
260.081	81.75
260.314	84.75
260.547	73.75
260.779	71.75
261.012	76.75
261.244	78.75
261.477	91.75
261.71	79.75
261.942	82.75
262.175	103.75
262.407	102.75
262.64	93.75
262.872	89.75
263.105	87.75
263.337	60.75
263.57	82.75
263.802	75.75
264.035	86.75
264.267	95.75
264.499	68.75
264.732	82.75
264.964	84.75
265.197	93.75
265.429	92.75
265.661	85.75
265.894	92.75
266.126	87.75
266.358	82.75
266.591	77.75
266.823	83.75
267.055	81.75
267.287	93.75
267.52	73.75
267.752	83.75
267.984	75.75
268.216	86.75
268.448	77.75
268.681	76.75
268.913	87.75
269.145	77.75
269.377	96.75
269.609	80.75
269.841	94.75
270.073	76.75
270.306	78.75
270.538	86.75
270.77	97.75
271.002	87.75
271.234	86.75
271.466	80.75
271.698	86.75
271.93	86.75
272.162	79.75
272.394	96.75
272.626	88.75
272.858	88.75
273.09	82.75
273.322	75.75
273.553	86.75
273.785	82.75
274.017	80.75
274.249	87.75
274.481	71.75
274.713	76.75
274.945	93.75
275.176	86.75
275.408	103.75
275.64	87.75
275.872	75.75
276.104	70.75
276.335	86.75
276.567	102.75
276.799	109.75
277.031	109.75
277.262	83.75
277.494	95.75
277.726	88.75
277.957	88.75
278.189	80.75
278.421	73.75
278.652	91.75
278.884	79.75
279.115	85.75
279.347	78.75
279.579	89.75
279.81	83.75
280.042	84.75
280.273	102.75
280.505	102.75
280.736	93.75
280.968	90.75
281.199	94.75
281.431	84.75
281.662	89.75
281.894	87.75
282.125	104.75
282.356	117.75
282.588	126.75
282.819	113.75
283.051	89.75
283.282	102.75
283.513	94.75
283.745	81.75
283.976	74.75
284.207	81.75
284.439	80.75
284.67	77.75
284.901	90.75
285.132	82.75
285.364	93.75
285.595	81.75
285.826	82.75
286.057	84.75
286.288	83.75
286.52	77.75
286.751	86.75
286.982	87.75
287.213	90.75
287.444	83.75
287.675	82.75
287.906	61.75
288.138	78.75
288.369	85.75
288.6	90.75
288.831	94.75
289.062	94.75
289.293	80.75
289.524	78.75
289.755	84.75
289.986	76.75
290.217	83.75
290.448	78.75
290.679	99.75
290.91	83.75
291.141	81.75
291.371	84.75
291.602	80.75
291.833	82.75
292.064	98.75
292.295	97.75
292.526	86.75
292.757	99.75
292.987	80.75
293.218	99.75
293.449	94.75
293.68	96.75
293.91	102.75
294.141	86.75
294.372	81.75
294.603	81.75
294.833	99.75
295.064	86.75
295.295	84.75
295.525	104.75
295.756	94.75
295.987	108.75
296.217	121.75
296.448	117.75
296.679	80.75
296.909	81.75
297.14	87.75
297.37	98.75
297.601	84.75
297.831	84.75
298.062	92.75
298.292	92.75
298.523	101.75
298.753	76.75
298.984	81.75
299.214	84.75
299.445	89.75
299.675	90.75
299.905	93.75
300.136	88.75
300.366	95.75
300.597	81.75
300.827	86.75
301.057	104.75
301.288	110.75
301.518	94.75
301.748	72.75
301.979	84.75
302.209	84.75
302.439	84.75
302.669	94.75
302.9	84.75
303.13	95.75
303.36	84.75
303.59	100.75
303.82	95.75
304.051	88.75
304.281	69.75
304.511	85.75
304.741	100.75
304.971	82.75
305.201	86.75
305.431	92.75
305.661	76.75
305.891	98.75
306.121	103.75
306.352	93.75
306.582	99.75
306.812	84.75
307.042	91.75
307.272	90.75
307.502	84.75
307.731	86.75
307.961	91.75
308.191	102.75
308.421	93.75
308.651	83.75
308.881	87.75
309.111	77.75
309.341	77.75
309.571	109.75
309.8	78.75
310.03	92.75
310.26	106.75
310.49	86.75
310.72	102.75
310.949	99.75
311.179	100.75
311.409	90.75
311.639	91.75
311.868	90.75
312.098	87.75
312.328	99.75
312.557	88.75
312.787	100.75
313.017	94.75
313.246	98.75
313.476	93.75
313.706	98.75
313.935	98.75
314.165	97.75
314.394	102.75
314.624	81.75
314.853	83.75
315.083	93.75
315.312	89.75
315.542	85.75
315.771	95.75
316.001	83.75
316.23	93.75
316.46	97.75
316.689	105.75
316.919	91.75
317.148	101.75
317.377	92.75
317.607	74.75
317.836	92.75
318.065	65.75
318.295	87.75
318.524	82.75
318.753	97.75
318.983	103.75
319.212	101.75
319.441	106.75
319.67	104.75
319.9	83.75
320.129	90.75
320.358	86.75
320.587	90.75
320.816	101.75
321.046	102.75
321.275	100.75
321.504	81.75
321.733	102.75
321.962	103.75
322.191	89.75
322.42	97.75
322.649	96.75
322.878	102.75
323.108	108.75
323.337	134.75
323.566	145.75
323.795	146.75
324.024	215.75
324.253	399.75
324.482	826.75
324.71	1768.75
324.939	2299.75
325.168	833.75
325.397	254.75
325.626	156.75
325.855	143.75
326.084	119.75
326.313	131.75
326.542	156.75
326.77	235.75
326.999	508.75
327.228	967.75
327.457	1813.75
327.686	1427.75
327.914	377.75
328.143	172.75
328.372	138.75
328.6	113.75
328.829	137.75
329.058	112.75
329.287	118.75
329.515	112.75
329.744	101.75
329.972	97.75
330.201	98.75
330.43	111.75
330.658	105.75
330.887	124.75
331.115	115.75
331.344	100.75
331.572	94.75
331.801	100.75
332.03	96.75
332.258	81.75
332.486	85.75
332.715	88.75
332.943	91.75
333.172	89.75
333.4	106.75
333.629	99.75
333.857	105.75
334.085	96.75
334.314	90.75
334.542	98.75
334.771	109.75
334.999	92.75
335.227	90.75
335.455	90.75
335.684	85.75
335.912	82.75
336.14	91.75
336.369	110.75
336.597	94.75
336.825	93.75
337.053	103.75
337.281	103.75
337.51	95.75
337.738	102.75
337.966	89.75
338.194	96.75
338.422	80.75
338.65	83.75
338.878	94.75
339.106	93.75
339.334	84.75
339.562	94.75
339.79	73.75
340.018	92.75
340.246	85.75
340.474	91.75
340.702	96.75
340.93	88.75
341.158	87.75
341.386	102.75
341.614	99.75
341.842	91.75
342.07	91.75
342.298	87.75
342.526	94.75
342.754	78.75
342.981	90.75
343.209	75.75
343.437	104.75
343.665	85.75
343.893	87.75
344.12	83.75
344.348	93.75
344.576	86.75
344.804	93.75
345.031	94.75
345.259	90.75
345.487	79.75
345.714	80.75
345.942	91.75
346.17	80.75
346.397	80.75
346.625	101.75
346.853	77.75
347.08	84.75
347.308	104.75
347.535	105.75
347.763	99.75
347.99	98.75
348.218	88.75
348.445	95.75
348.673	105.75
348.9	92.75
349.128	100.75
349.355	102.75
349.583	86.75
349.81	88.75
350.037	91.75
350.265	95.75
350.492	95.75
350.72	98.75
350.947	110.75
351.174	112.75
351.402	107.75
351.629	100.75
351.856	87.75
352.083	99.75
352.311	99.75
352.538	109.75
352.765	106.75
352.992	124.75
353.22	109.75
353.447	104.75
353.674	99.75
353.901	96.75
354.128	84.75
354.355	86.75
354.583	95.75
354.81	96.75
355.037	96.75
355.264	98.75
355.491	87.75
355.718	85.75
355.945	80.75
356.172	82.75
356.399	97.75
356.626	108.75
356.853	91.75
357.08	97.75
357.307	80.75
357.534	92.75
357.761	85.75
357.988	90.75
358.215	97.75
358.441	93.75
358.668	92.75
358.895	92.75
359.122	85.75
359.349	97.75
359.576	85.75
359.802	90.75
360.029	107.75
360.256	116.75
360.483	98.75
360.709	86.75
360.936	100.75
361.163	84.75
361.39	99.75
361.616	80.75
361.843	78.75
362.07	97.75
362.296	102.75
362.523	89.75
362.749	86.75
362.976	92.75
363.203	82.75
363.429	84.75
363.656	76.75
363.882	92.75
364.109	93.75
364.335	81.75
364.562	89.75
364.788	88.75
365.015	94.75
365.241	94.75
365.468	113.75
365.694	96.75
365.92	96.75
366.147	86.75
366.373	78.75
366.599	86.75
366.826	84.75
367.052	80.75
367.278	96.75
367.505	76.75
367.731	105.75
367.957	93.75
368.184	81.75
368.41	89.75
368.636	92.75
368.862	104.75
369.089	112.75
369.315	98.75
369.541	94.75
369.767	89.75
369.993	75.75
370.219	83.75
370.445	94.75
370.672	76.75
370.898	90.75
371.124	97.75
371.35	88.75
371.576	78.75
371.802	94.75
372.028	85.75
372.254	86.75
372.48	90.75
372.706	90.75
372.932	94.75
373.158	86.75
373.384	79.75
373.61	95.75
373.835	88.75
374.061	78.75
374.287	85.75
374.513	87.75
374.739	80.75
374.965	86.75
375.191	97.75
375.416	81.75
375.642	84.75
375.868	76.75
376.094	91.75
376.319	89.75
376.545	72.75
376.771	94.75
376.997	92.75
377.222	99.75
377.448	93.75
377.674	83.75
377.899	103.75
378.125	98.75
378.35	97.75
378.576	81.75
378.802	108.75
379.027	99.75
379.253	90.75
379.478	86.75
379.704	99.75
379.929	95.75
380.155	83.75
380.38	101.75
380.606	86.75
380.831	91.75
381.057	98.75
381.282	94.75
381.507	102.75
381.733	94.75
381.958	87.75
382.184	100.75
382.409	102.75
382.634	114.75
382.86	90.75
383.085	96.75
383.31	89.75
383.535	108.75
383.761	99.75
383.986	96.75
384.211	95.75
384.436	93.75
384.662	106.75
384.887	97.75
385.112	101.75
385.337	113.75
385.562	111.75
385.787	102.75
386.013	116.75
386.238	114.75
386.463	111.75
386.688	104.75
386.913	122.75
387.138	124.75
387.363	106.75
387.588	97.75
387.813	99.75
388.038	109.75
388.263	105.75
388.488	101.75
388.713	91.75
388.938	92.75
389.163	101.75
389.387	92.75
389.612	92.75
389.837	99.75
390.062	91.75
390.287	103.75
390.512	88.75
390.736	80.75
390.961	93.75
391.186	94.75
391.411	102.75
391.636	108.75
391.86	87.75
392.085	90.75
392.31	83.75
392.534	87.75
392.759	90.75
392.984	81.75
393.208	84.75
393.433	94.75
393.658	98.75
393.882	76.75
394.107	85.75
394.331	93.75
394.556	88.75
394.78	71.75
395.005	97.75
395.229	90.75
395.454	85.75
395.678	91.75
395.903	101.75
396.127	78.75
396.352	95.75
396.576	85.75
396.801	85.75
397.025	99.75
397.249	90.75
397.474	92.75
397.698	84.75
397.922	75.75
398.147	90.75
398.371	86.75
398.595	92.75
398.82	86.75
399.044	80.75
399.268	90.75
399.492	84.75
399.717	83.75
399.941	98.75
400.165	88.75
400.389	87.75
400.613	83.75
400.837	67.75
401.062	82.75
401.286	81.75
401.51	85.75
401.734	94.75
401.958	106.75
402.182	107.75
402.406	135.75
402.63	98.75
402.854	78.75
403.078	93.75
403.302	87.75
403.526	93.75
403.75	92.75
403.974	80.75
404.198	78.75
404.422	90.75
404.645	99.75
404.869	101.75
405.093	87.75
405.317	94.75
405.541	90.75
405.765	91.75
405.988	120.75
406.212	167.75
406.436	207.75
406.66	146.75
406.883	87.75
407.107	90.75
407.331	102.75
407.555	94.75
407.778	95.75
408.002	97.75
408.226	100.75
408.449	79.75
408.673	62.75
408.896	77.75
409.12	104.75
409.344	90.75
409.567	90.75
409.791	85.75
410.014	95.75
410.238	81.75
410.461	101.75
410.685	89.75
410.908	89.75
411.132	91.75
411.355	91.75
411.578	90.75
411.802	77.75
412.025	83.75
412.249	94.75
412.472	88.75
412.695	98.75
412.919	90.75
413.142	84.75
413.365	76.75
413.589	85.75
413.812	65.75
414.035	102.75
414.258	84.75
414.482	76.75
414.705	82.75
414.928	97.75
415.151	80.75
415.374	87.75
415.597	99.75
415.821	89.75
416.044	72.75
416.267	81.75
416.49	93.75
416.713	84.75
416.936	86.75
417.159	95.75
417.382	82.75
417.605	85.75
417.828	87.75
418.051	74.75
418.274	70.75
418.497	87.75
418.72	82.75
418.943	88.75
419.166	93.75
419.389	76.75
419.611	91.75
419.834	85.75
420.057	81.75
420.28	89.75
420.503	80.75
420.726	87.75
420.948	92.75
421.171	102.75
421.394	78.75
421.617	87.75
421.839	92.75
422.062	87.75
422.285	94.75
422.507	98.75
422.73	97.75
422.953	92.75
423.175	94.75
423.398	94.75
423.621	90.75
423.843	100.75
424.066	71.75
424.288	85.75
424.511	87.75
424.733	94.75
424.956	110.75
425.178	98.75
425.401	99.75
425.623	91.75
425.846	80.75
426.068	89.75
426.291	77.75
426.513	86.75
426.735	99.75
426.958	112.75
427.18	116.75
427.402	126.75
427.625	126.75
427.847	113.75
428.069	84.75
428.292	87.75
428.514	82.75
428.736	84.75
428.958	69.75
429.181	82.75
429.403	89.75
429.625	84.75
429.847	85.75
430.069	101.75
430.292	94.75
430.514	83.75
430.736	80.75
430.958	71.75
431.18	91.75
431.402	86.75
431.624	78.75
431.846	79.75
432.068	92.75
432.29	74.75
432.512	93.75
432.734	94.75
432.956	95.75
433.178	102.75
433.4	95.75
433.622	83.75
433.844	105.75
434.066	87.75
434.287	92.75
434.509	91.75
434.731	91.75
434.953	89.75
435.175	87.75
435.397	79.75
435.618	101.75
435.84	105.75
436.062	124.75
436.284	114.75
436.505	91.75
436.727	115.75
436.949	88.75
437.17	75.75
437.392	92.75
437.614	100.75
437.835	101.75
438.057	114.75
438.278	98.75
438.5	97.75
438.721	127.75
438.943	92.75
439.165	91.75
439.386	106.75
439.608	82.75
439.829	92.75
440.05	111.75
440.272	137.75
440.493	95.75
440.715	85.75
440.936	85.75
441.158	71.75
441.379	90.75
441.6	92.75
441.822	84.75
442.043	110.75
442.264	90.75
442.486	96.75
442.707	89.75
442.928	94.75
443.149	109.75
443.371	143.75
443.592	97.75
443.813	117.75
444.034	106.75
444.255	92.75
444.476	90.75
444.698	81.75
444.919	88.75
445.14	121.75
445.361	112.75
445.582	107.75
445.803	140.75
446.024	131.75
446.245	143.75
446.466	116.75
446.687	99.75
446.908	93.75
447.129	84.75
447.35	86.75
447.571	88.75
447.792	92.75
448.013	99.75
448.234	112.75
448.455	82.75
448.675	117.75
448.896	124.75
449.117	111.75
449.338	107.75
449.559	142.75
449.779	138.75
450	96.75
450.221	81.75
450.442	93.75
450.662	87.75
450.883	88.75
451.104	105.75
451.324	87.75
451.545	86.75
451.766	83.75
451.986	88.75
452.207	93.75
452.428	89.75
452.648	89.75
452.869	109.75
453.089	123.75
453.31	112.75
453.53	91.75
453.751	84.75
453.971	89.75
454.192	99.75
454.412	99.75
454.633	81.75
454.853	103.75
455.073	86.75
455.294	91.75
455.514	110.75
455.734	94.75
455.955	90.75
456.175	78.75
456.395	86.75
456.616	75.75
456.836	68.75
457.056	77.75
457.276	93.75
457.497	75.75
457.717	89.75
457.937	92.75
458.157	85.75
458.377	88.75
458.598	96.75
458.818	130.75
459.038	152.75
459.258	110.75
459.478	98.75
459.698	95.75
459.918	87.75
460.138	75.75
460.358	102.75
460.578	82.75
460.798	102.75
461.018	98.75
461.238	92.75
461.458	79.75
461.678	83.75
461.898	79.75
462.118	92.75
462.338	87.75
462.558	97.75
462.777	83.75
462.997	68.75
463.217	92.75
463.437	85.75
463.657	93.75
463.876	76.75
464.096	66.75
464.316	83.75
464.536	91.75
464.755	105.75
464.975	92.75
465.195	145.75
465.414	151.75
465.634	90.75
465.854	77.75
466.073	69.75
466.293	78.75
466.512	83.75
466.732	79.75
466.951	82.75
467.171	85.75
467.391	96.75
467.61	102.75
467.829	85.75
468.049	92.75
468.268	86.75
468.488	90.75
468.707	101.75
468.927	97.75
469.146	82.75
469.365	89.75
469.585	84.75
469.804	92.75
470.023	89.75
470.243	106.75
470.462	96.75
470.681	100.75
470.901	84.75
471.12	80.75
471.339	85.75
471.558	79.75
471.777	90.75
471.997	84.75
472.216	87.75
472.435	84.75
472.654	79.75
472.873	79.75
473.092	76.75
473.311	89.75
473.53	87.75
473.749	89.75
473.968	92.75
474.187	102.75
474.406	97.75
474.625	77.75
474.844	77.75
475.063	84.75
475.282	75.75
475.501	93.75
475.72	88.75
475.939	86.75
476.158	82.75
476.377	93.75
476.596	100.75
476.814	87.75
477.033	94.75
477.252	88.75
477.471	100.75
477.69	87.75
477.908	77.75
478.127	77.75
478.346	90.75
478.564	77.75
478.783	98.75
479.002	77.75
479.22	65.75
479.439	93.75
479.658	101.75
479.876	89.75
480.095	93.75
480.313	78.75
480.532	91.75
480.751	75.75
480.969	102.75
481.188	94.75
481.406	67.75
481.624	86.75
481.843	104.75
482.061	77.75
482.28	91.75
482.498	102.75
482.717	90.75
482.935	83.75
483.153	100.75
483.372	79.75
483.59	87.75
483.808	91.75
484.027	70.75
484.245	84.75
484.463	85.75
484.681	112.75
484.9	94.75
485.118	102.75
485.336	101.75
485.554	105.75
485.772	103.75
485.99	102.75
486.209	112.75
486.427	101.75
486.645	106.75
486.863	109.75
487.081	96.75
487.299	90.75
487.517	90.75
487.735	99.75
487.953	91.75
488.171	90.75
488.389	86.75
488.607	87.75
488.825	105.75
489.043	93.75
489.261	93.75
489.479	94.75
489.696	80.75
489.914	91.75
490.132	81.75
490.35	78.75
490.568	92.75
490.786	80.75
491.003	85.75
491.221	87.75
491.439	86.75
491.657	95.75
491.874	105.75
492.092	98.75
492.31	85.75
492.527	96.75
492.745	78.75
492.963	81.75
493.18	94.75
493.398	92.75
493.615	100.75
493.833	107.75
494.05	101.75
494.268	89.75
494.485	84.75
494.703	85.75
494.92	73.75
495.138	78.75
495.355	92.75
495.573	95.75
495.79	85.75
496.008	94.75
496.225	82.75
496.442	85.75
496.66	97.75
496.877	85.75
497.094	85.75
497.312	74.75
497.529	79.75
497.746	83.75
497.963	68.75
498.181	79.75
498.398	99.75
498.615	109.75
498.832	91.75
499.049	85.75
499.267	96.75
499.484	84.75
499.701	90.75
499.918	99.75
500.135	78.75
500.352	96.75
500.569	97.75
500.786	105.75
501.003	89.75
501.22	85.75
501.437	81.75
501.654	84.75
501.871	100.75
502.088	72.75
502.305	90.75
502.522	85.75
502.739	77.75
502.956	87.75
503.172	106.75
503.389	92.75
503.606	97.75
503.823	94.75
504.04	84.75
504.256	82.75
504.473	85.75
504.69	70.75
504.907	98.75
505.123	106.75
505.34	79.75
505.557	75.75
505.773	90.75
505.99	90.75
506.207	80.75
506.423	87.75
506.64	89.75
506.856	90.75
507.073	85.75
507.289	89.75
507.506	94.75
507.722	103.75
507.939	96.75
508.155	100.75
508.372	100.75
508.588	87.75
508.805	82.75
509.021	77.75
509.238	102.75
509.454	97.75
509.67	96.75
509.887	107.75
510.103	128.75
510.319	198.75
510.536	669.75
510.752	2069.75
510.968	569.75
511.184	130.75
511.401	106.75
511.617	100.75
511.833	91.75
512.049	86.75
512.265	93.75
512.481	88.75
512.698	90.75
512.914	85.75
513.13	84.75
513.346	94.75
513.562	91.75
513.778	97.75
513.994	103.75
514.21	93.75
514.426	115.75
514.642	124.75
514.858	126.75
515.074	165.75
515.29	398.75
515.506	1316.75
515.721	496.75
515.937	154.75
516.153	108.75
516.369	96.75
