Data from Uncirc_2005_H10_HRD10591_00010.txt Node
Date: Wed Jan 03 10:28:26 EST 2024
User: Yrep
Spectrometer: HR+D1059
Trigger mode: 1
Integration Time (sec): 1.000000E-1
Scans to average: 1
Electric dark correction enabled: true
Nonlinearity correction enabled: false
Boxcar width: 0
XAxis mode: Wavelengths
Number of Pixels in Spectrum: 2048
>>>>>Begin Spectral Data<<<<<
223.165	-3.06
223.4	-3.06
223.635	-3.06
223.869	-13.06
224.104	-16.06
224.338	-27.06
224.573	-11.06
224.808	-1.06
225.042	-12.06
225.277	-16.06
225.511	-0.06
225.746	0.94
225.98	0.94
226.215	13.94
226.449	11.94
226.683	19.94
226.918	28.94
227.152	22.94
227.387	34.94
227.621	49.94
227.856	37.94
228.09	48.94
228.324	50.94
228.559	57.94
228.793	48.94
229.027	60.94
229.262	67.94
229.496	76.94
229.73	85.94
229.964	72.94
230.199	65.94
230.433	81.94
230.667	79.94
230.901	71.94
231.136	67.94
231.37	79.94
231.604	63.94
231.838	68.94
232.072	79.94
232.306	63.94
232.541	68.94
232.775	83.94
233.009	73.94
233.243	85.94
233.477	92.94
233.711	88.94
233.945	87.94
234.179	93.94
234.413	87.94
234.647	78.94
234.881	83.94
235.115	72.94
235.349	76.94
235.583	73.94
235.817	76.94
236.051	79.94
236.285	73.94
236.519	80.94
236.753	80.94
236.987	87.94
237.221	84.94
237.455	88.94
237.689	93.94
237.922	86.94
238.156	71.94
238.39	57.94
238.624	75.94
238.858	87.94
239.091	55.94
239.325	83.94
239.559	80.94
239.793	93.94
240.027	86.94
240.26	76.94
240.494	84.94
240.728	72.94
240.961	68.94
241.195	83.94
241.429	85.94
241.662	75.94
241.896	77.94
242.13	84.94
242.363	76.94
242.597	77.94
242.83	89.94
243.064	67.94
243.298	69.94
243.531	92.94
243.765	82.94
243.998	60.94
244.232	72.94
244.465	70.94
244.699	84.94
244.932	65.94
245.166	68.94
245.399	65.94
245.633	87.94
245.866	79.94
246.099	74.94
246.333	80.94
246.566	83.94
246.8	81.94
247.033	76.94
247.266	75.94
247.5	45.94
247.733	74.94
247.966	72.94
248.2	83.94
248.433	82.94
248.666	77.94
248.899	77.94
249.133	76.94
249.366	85.94
249.599	83.94
249.832	73.94
250.066	89.94
250.299	76.94
250.532	79.94
250.765	77.94
250.998	73.94
251.231	82.94
251.465	81.94
251.698	77.94
251.931	80.94
252.164	72.94
252.397	76.94
252.63	85.94
252.863	82.94
253.096	84.94
253.329	85.94
253.562	67.94
253.795	92.94
254.028	77.94
254.261	80.94
254.494	89.94
254.727	72.94
254.96	81.94
255.193	79.94
255.426	61.94
255.659	82.94
255.892	91.94
256.124	89.94
256.357	75.94
256.59	73.94
256.823	82.94
257.056	75.94
257.289	87.94
257.521	65.94
257.754	84.94
257.987	69.94
258.22	80.94
258.452	88.94
258.685	84.94
258.918	66.94
259.151	73.94
259.383	74.94
259.616	89.94
259.849	81.94
260.081	78.94
260.314	89.94
260.547	91.94
260.779	80.94
261.012	95.94
261.244	80.94
261.477	72.94
261.71	96.94
261.942	96.94
262.175	96.94
262.407	91.94
262.64	87.94
262.872	86.94
263.105	88.94
263.337	72.94
263.57	94.94
263.802	89.94
264.035	73.94
264.267	88.94
264.499	88.94
264.732	95.94
264.964	95.94
265.197	94.94
265.429	67.94
265.661	81.94
265.894	80.94
266.126	87.94
266.358	69.94
266.591	94.94
266.823	71.94
267.055	72.94
267.287	78.94
267.52	83.94
267.752	78.94
267.984	75.94
268.216	88.94
268.448	67.94
268.681	82.94
268.913	82.94
269.145	84.94
269.377	90.94
269.609	88.94
269.841	80.94
270.073	81.94
270.306	87.94
270.538	93.94
270.77	84.94
271.002	86.94
271.234	63.94
271.466	78.94
271.698	84.94
271.93	75.94
272.162	87.94
272.394	86.94
272.626	79.94
272.858	76.94
273.09	71.94
273.322	89.94
273.553	75.94
273.785	80.94
274.017	82.94
274.249	89.94
274.481	78.94
274.713	99.94
274.945	84.94
275.176	79.94
275.408	77.94
275.64	78.94
275.872	69.94
276.104	93.94
276.335	82.94
276.567	84.94
276.799	93.94
277.031	83.94
277.262	85.94
277.494	88.94
277.726	95.94
277.957	69.94
278.189	77.94
278.421	85.94
278.652	88.94
278.884	82.94
279.115	96.94
279.347	89.94
279.579	89.94
279.81	83.94
280.042	84.94
280.273	89.94
280.505	83.94
280.736	99.94
280.968	99.94
281.199	73.94
281.431	93.94
281.662	82.94
281.894	83.94
282.125	85.94
282.356	117.94
282.588	113.94
282.819	111.94
283.051	92.94
283.282	89.94
283.513	82.94
283.745	73.94
283.976	80.94
284.207	93.94
284.439	86.94
284.67	92.94
284.901	102.94
285.132	95.94
285.364	70.94
285.595	101.94
285.826	91.94
286.057	96.94
286.288	69.94
286.52	88.94
286.751	79.94
286.982	89.94
287.213	102.94
287.444	100.94
287.675	91.94
287.906	86.94
288.138	81.94
288.369	89.94
288.6	92.94
288.831	94.94
289.062	85.94
289.293	79.94
289.524	85.94
289.755	96.94
289.986	65.94
290.217	76.94
290.448	87.94
290.679	84.94
290.91	86.94
291.141	97.94
291.371	85.94
291.602	69.94
291.833	96.94
292.064	93.94
292.295	100.94
292.526	103.94
292.757	102.94
292.987	99.94
293.218	94.94
293.449	86.94
293.68	76.94
293.91	78.94
294.141	89.94
294.372	91.94
294.603	84.94
294.833	79.94
295.064	73.94
295.295	84.94
295.525	89.94
295.756	96.94
295.987	123.94
296.217	109.94
296.448	113.94
296.679	106.94
296.909	106.94
297.14	102.94
297.37	93.94
297.601	84.94
297.831	87.94
298.062	97.94
298.292	87.94
298.523	91.94
298.753	88.94
298.984	79.94
299.214	98.94
299.445	80.94
299.675	94.94
299.905	103.94
300.136	90.94
300.366	102.94
300.597	91.94
300.827	81.94
301.057	88.94
301.288	103.94
301.518	93.94
301.748	82.94
301.979	102.94
302.209	96.94
302.439	76.94
302.669	91.94
302.9	91.94
303.13	73.94
303.36	89.94
303.59	109.94
303.82	115.94
304.051	87.94
304.281	92.94
304.511	101.94
304.741	84.94
304.971	90.94
305.201	91.94
305.431	82.94
305.661	96.94
305.891	82.94
306.121	98.94
306.352	108.94
306.582	104.94
306.812	103.94
307.042	88.94
307.272	84.94
307.502	87.94
307.731	86.94
307.961	99.94
308.191	110.94
308.421	79.94
308.651	97.94
308.881	100.94
309.111	83.94
309.341	84.94
309.571	90.94
309.8	91.94
310.03	81.94
310.26	96.94
310.49	86.94
310.72	105.94
310.949	104.94
311.179	94.94
311.409	91.94
311.639	102.94
311.868	107.94
312.098	85.94
312.328	87.94
312.557	99.94
312.787	102.94
313.017	101.94
313.246	104.94
313.476	89.94
313.706	97.94
313.935	96.94
314.165	82.94
314.394	91.94
314.624	91.94
314.853	87.94
315.083	79.94
315.312	85.94
315.542	83.94
315.771	89.94
316.001	105.94
316.23	84.94
316.46	81.94
316.689	80.94
316.919	88.94
317.148	99.94
317.377	86.94
317.607	90.94
317.836	94.94
318.065	93.94
318.295	86.94
318.524	92.94
318.753	98.94
318.983	99.94
319.212	100.94
319.441	100.94
319.67	100.94
319.9	93.94
320.129	93.94
320.358	89.94
320.587	87.94
320.816	92.94
321.046	112.94
321.275	93.94
321.504	80.94
321.733	103.94
321.962	96.94
322.191	99.94
322.42	102.94
322.649	102.94
322.878	111.94
323.108	106.94
323.337	112.94
323.566	118.94
323.795	151.94
324.024	201.94
324.253	399.94
324.482	791.94
324.71	1655.94
324.939	2149.94
325.168	799.94
325.397	235.94
325.626	144.94
325.855	111.94
326.084	120.94
326.313	137.94
326.542	165.94
326.77	236.94
326.999	461.94
327.228	947.94
327.457	1691.94
327.686	1380.94
327.914	355.94
328.143	157.94
328.372	136.94
328.6	117.94
328.829	108.94
329.058	125.94
329.287	116.94
329.515	106.94
329.744	104.94
329.972	102.94
330.201	99.94
330.43	102.94
330.658	126.94
330.887	124.94
331.115	106.94
331.344	97.94
331.572	92.94
331.801	114.94
332.03	100.94
332.258	99.94
332.486	94.94
332.715	98.94
332.943	103.94
333.172	101.94
333.4	92.94
333.629	87.94
333.857	95.94
334.085	100.94
334.314	98.94
334.542	111.94
334.771	97.94
334.999	110.94
335.227	88.94
335.455	97.94
335.684	91.94
335.912	94.94
336.14	99.94
336.369	95.94
336.597	103.94
336.825	103.94
337.053	104.94
337.281	87.94
337.51	84.94
337.738	95.94
337.966	95.94
338.194	102.94
338.422	104.94
338.65	93.94
338.878	93.94
339.106	92.94
339.334	87.94
339.562	85.94
339.79	93.94
340.018	94.94
340.246	93.94
340.474	94.94
340.702	79.94
340.93	98.94
341.158	98.94
341.386	104.94
341.614	81.94
341.842	96.94
342.07	96.94
342.298	89.94
342.526	95.94
342.754	74.94
342.981	84.94
343.209	101.94
343.437	90.94
343.665	98.94
343.893	89.94
344.12	85.94
344.348	98.94
344.576	87.94
344.804	89.94
345.031	104.94
345.259	94.94
345.487	98.94
345.714	115.94
345.942	89.94
346.17	84.94
346.397	100.94
346.625	109.94
346.853	99.94
347.08	92.94
347.308	88.94
347.535	108.94
347.763	92.94
347.99	88.94
348.218	102.94
348.445	103.94
348.673	99.94
348.9	110.94
349.128	101.94
349.355	93.94
349.583	103.94
349.81	79.94
350.037	86.94
350.265	109.94
350.492	108.94
350.72	99.94
350.947	103.94
351.174	98.94
351.402	108.94
351.629	96.94
351.856	99.94
352.083	101.94
352.311	101.94
352.538	105.94
352.765	110.94
352.992	112.94
353.22	110.94
353.447	113.94
353.674	100.94
353.901	90.94
354.128	95.94
354.355	101.94
354.583	92.94
354.81	98.94
355.037	101.94
355.264	96.94
355.491	95.94
355.718	78.94
355.945	112.94
356.172	96.94
356.399	98.94
356.626	102.94
356.853	88.94
357.08	92.94
357.307	95.94
357.534	98.94
357.761	106.94
357.988	98.94
358.215	109.94
358.441	103.94
358.668	103.94
358.895	92.94
359.122	98.94
359.349	85.94
359.576	89.94
359.802	104.94
360.029	108.94
360.256	103.94
360.483	95.94
360.709	80.94
360.936	99.94
361.163	86.94
361.39	107.94
361.616	89.94
361.843	87.94
362.07	106.94
362.296	99.94
362.523	81.94
362.749	85.94
362.976	97.94
363.203	82.94
363.429	88.94
363.656	96.94
363.882	83.94
364.109	93.94
364.335	82.94
364.562	91.94
364.788	90.94
365.015	97.94
365.241	92.94
365.468	119.94
365.694	96.94
365.92	99.94
366.147	80.94
366.373	93.94
366.599	86.94
366.826	92.94
367.052	91.94
367.278	84.94
367.505	92.94
367.731	85.94
367.957	95.94
368.184	93.94
368.41	102.94
368.636	99.94
368.862	113.94
369.089	112.94
369.315	97.94
369.541	102.94
369.767	80.94
369.993	75.94
370.219	86.94
370.445	89.94
370.672	86.94
370.898	86.94
371.124	85.94
371.35	98.94
371.576	97.94
371.802	93.94
372.028	89.94
372.254	101.94
372.48	86.94
372.706	97.94
372.932	95.94
373.158	101.94
373.384	99.94
373.61	95.94
373.835	89.94
374.061	91.94
374.287	89.94
374.513	86.94
374.739	99.94
374.965	86.94
375.191	102.94
375.416	78.94
375.642	84.94
375.868	89.94
376.094	87.94
376.319	82.94
376.545	85.94
376.771	89.94
376.997	92.94
377.222	99.94
377.448	93.94
377.674	103.94
377.899	94.94
378.125	83.94
378.35	96.94
378.576	94.94
378.802	86.94
379.027	102.94
379.253	92.94
379.478	99.94
379.704	98.94
379.929	104.94
380.155	110.94
380.38	86.94
380.606	95.94
380.831	108.94
381.057	113.94
381.282	107.94
381.507	108.94
381.733	108.94
381.958	107.94
382.184	106.94
382.409	114.94
382.634	112.94
382.86	103.94
383.085	93.94
383.31	85.94
383.535	116.94
383.761	103.94
383.986	106.94
384.211	109.94
384.436	104.94
384.662	102.94
384.887	119.94
385.112	123.94
385.337	126.94
385.562	112.94
385.787	131.94
386.013	120.94
386.238	114.94
386.463	117.94
386.688	119.94
386.913	96.94
387.138	123.94
387.363	107.94
387.588	101.94
387.813	112.94
388.038	112.94
388.263	131.94
388.488	135.94
388.713	103.94
388.938	115.94
389.163	103.94
389.387	99.94
389.612	102.94
389.837	98.94
390.062	83.94
390.287	102.94
390.512	109.94
390.736	90.94
390.961	88.94
391.186	101.94
391.411	101.94
391.636	95.94
391.86	95.94
392.085	76.94
392.31	76.94
392.534	83.94
392.759	88.94
392.984	73.94
393.208	101.94
393.433	100.94
393.658	92.94
393.882	82.94
394.107	104.94
394.331	93.94
394.556	78.94
394.78	96.94
395.005	91.94
395.229	100.94
395.454	84.94
395.678	84.94
395.903	84.94
396.127	88.94
396.352	89.94
396.576	89.94
396.801	89.94
397.025	98.94
397.249	85.94
397.474	77.94
397.698	88.94
397.922	93.94
398.147	85.94
398.371	83.94
398.595	95.94
398.82	100.94
399.044	93.94
399.268	83.94
399.492	89.94
399.717	85.94
399.941	81.94
400.165	97.94
400.389	86.94
400.613	99.94
400.837	75.94
401.062	79.94
401.286	84.94
401.51	92.94
401.734	82.94
401.958	113.94
402.182	133.94
402.406	148.94
402.63	111.94
402.854	81.94
403.078	93.94
403.302	92.94
403.526	96.94
403.75	80.94
403.974	108.94
404.198	84.94
404.422	78.94
404.645	100.94
404.869	81.94
405.093	95.94
405.317	88.94
405.541	89.94
405.765	79.94
405.988	120.94
406.212	146.94
406.436	185.94
406.66	131.94
406.883	98.94
407.107	114.94
407.331	96.94
407.555	93.94
407.778	105.94
408.002	96.94
408.226	85.94
408.449	102.94
408.673	104.94
408.896	94.94
409.12	84.94
409.344	101.94
409.567	70.94
409.791	97.94
410.014	89.94
410.238	107.94
410.461	102.94
410.685	95.94
410.908	102.94
411.132	109.94
411.355	93.94
411.578	91.94
411.802	103.94
412.025	99.94
412.249	98.94
412.472	89.94
412.695	105.94
412.919	86.94
413.142	90.94
413.365	84.94
413.589	86.94
413.812	79.94
414.035	107.94
414.258	93.94
414.482	71.94
414.705	88.94
414.928	90.94
415.151	93.94
415.374	89.94
415.597	92.94
415.821	81.94
416.044	85.94
416.267	86.94
416.49	92.94
416.713	96.94
416.936	88.94
417.159	85.94
417.382	68.94
417.605	101.94
417.828	93.94
418.051	103.94
418.274	89.94
418.497	86.94
418.72	93.94
418.943	88.94
419.166	94.94
419.389	94.94
419.611	89.94
419.834	102.94
420.057	84.94
420.28	93.94
420.503	87.94
420.726	88.94
420.948	94.94
421.171	102.94
421.394	92.94
421.617	84.94
421.839	88.94
422.062	104.94
422.285	92.94
422.507	93.94
422.73	106.94
422.953	85.94
423.175	86.94
423.398	89.94
423.621	94.94
423.843	83.94
424.066	93.94
424.288	91.94
424.511	96.94
424.733	91.94
424.956	111.94
425.178	115.94
425.401	98.94
425.623	103.94
425.846	95.94
426.068	89.94
426.291	101.94
426.513	89.94
426.735	92.94
426.958	85.94
427.18	102.94
427.402	149.94
427.625	146.94
427.847	101.94
428.069	86.94
428.292	85.94
428.514	89.94
428.736	88.94
428.958	86.94
429.181	92.94
429.403	86.94
429.625	100.94
429.847	99.94
430.069	104.94
430.292	107.94
430.514	94.94
430.736	72.94
430.958	99.94
431.18	91.94
431.402	87.94
431.624	88.94
431.846	95.94
432.068	77.94
432.29	79.94
432.512	85.94
432.734	77.94
432.956	85.94
433.178	100.94
433.4	88.94
433.622	92.94
433.844	78.94
434.066	95.94
434.287	87.94
434.509	92.94
434.731	81.94
434.953	84.94
435.175	95.94
435.397	82.94
435.618	86.94
435.84	106.94
436.062	112.94
436.284	119.94
436.505	100.94
436.727	103.94
436.949	91.94
437.17	80.94
437.392	79.94
437.614	99.94
437.835	78.94
438.057	92.94
438.278	102.94
438.5	108.94
438.721	109.94
438.943	98.94
439.165	97.94
439.386	80.94
439.608	88.94
439.829	104.94
440.05	128.94
440.272	132.94
440.493	88.94
440.715	76.94
440.936	84.94
441.158	95.94
441.379	93.94
441.6	95.94
441.822	94.94
442.043	72.94
442.264	84.94
442.486	89.94
442.707	89.94
442.928	99.94
443.149	124.94
443.371	106.94
443.592	95.94
443.813	102.94
444.034	93.94
444.255	104.94
444.476	96.94
444.698	99.94
444.919	88.94
445.14	141.94
445.361	117.94
445.582	109.94
445.803	132.94
446.024	127.94
446.245	127.94
446.466	113.94
446.687	101.94
446.908	80.94
447.129	88.94
447.35	85.94
447.571	97.94
447.792	89.94
448.013	97.94
448.234	109.94
448.455	86.94
448.675	101.94
448.896	114.94
449.117	92.94
449.338	116.94
449.559	113.94
449.779	119.94
450	84.94
450.221	73.94
450.442	66.94
450.662	85.94
450.883	100.94
451.104	106.94
451.324	89.94
451.545	84.94
451.766	87.94
451.986	81.94
452.207	93.94
452.428	83.94
452.648	104.94
452.869	95.94
453.089	109.94
453.31	97.94
453.53	83.94
453.751	97.94
453.971	97.94
454.192	115.94
454.412	95.94
454.633	90.94
454.853	93.94
455.073	89.94
455.294	73.94
455.514	88.94
455.734	87.94
455.955	86.94
456.175	78.94
456.395	79.94
456.616	83.94
456.836	82.94
457.056	89.94
457.276	89.94
457.497	83.94
457.717	73.94
457.937	79.94
458.157	86.94
458.377	88.94
458.598	105.94
458.818	136.94
459.038	135.94
459.258	115.94
459.478	98.94
459.698	104.94
459.918	94.94
460.138	84.94
460.358	80.94
460.578	95.94
460.798	89.94
461.018	86.94
461.238	78.94
461.458	85.94
461.678	81.94
461.898	97.94
462.118	76.94
462.338	73.94
462.558	95.94
462.777	93.94
462.997	85.94
463.217	71.94
463.437	97.94
463.657	87.94
463.876	84.94
464.096	93.94
464.316	89.94
464.536	97.94
464.755	80.94
464.975	94.94
465.195	150.94
465.414	145.94
465.634	93.94
465.854	87.94
466.073	100.94
466.293	82.94
466.512	91.94
466.732	89.94
466.951	101.94
467.171	95.94
467.391	102.94
467.61	88.94
467.829	86.94
468.049	87.94
468.268	78.94
468.488	89.94
468.707	97.94
468.927	84.94
469.146	91.94
469.365	79.94
469.585	88.94
469.804	99.94
470.023	92.94
470.243	84.94
470.462	85.94
470.681	110.94
470.901	80.94
471.12	76.94
471.339	84.94
471.558	80.94
471.777	74.94
471.997	89.94
472.216	85.94
472.435	90.94
472.654	83.94
472.873	82.94
473.092	86.94
473.311	93.94
473.53	104.94
473.749	88.94
473.968	101.94
474.187	104.94
474.406	95.94
474.625	95.94
474.844	94.94
475.063	79.94
475.282	90.94
475.501	103.94
475.72	85.94
475.939	93.94
476.158	88.94
476.377	79.94
476.596	81.94
476.814	99.94
477.033	80.94
477.252	97.94
477.471	80.94
477.69	67.94
477.908	92.94
478.127	93.94
478.346	74.94
478.564	75.94
478.783	103.94
479.002	93.94
479.22	89.94
479.439	93.94
479.658	93.94
479.876	89.94
480.095	93.94
480.313	93.94
480.532	84.94
480.751	94.94
480.969	93.94
481.188	97.94
481.406	106.94
481.624	80.94
481.843	88.94
482.061	87.94
482.28	86.94
482.498	91.94
482.717	93.94
482.935	89.94
483.153	89.94
483.372	92.94
483.59	85.94
483.808	88.94
484.027	87.94
484.245	101.94
484.463	94.94
484.681	111.94
484.9	102.94
485.118	116.94
485.336	96.94
485.554	104.94
485.772	103.94
485.99	103.94
486.209	107.94
486.427	98.94
486.645	128.94
486.863	124.94
487.081	107.94
487.299	93.94
487.517	110.94
487.735	90.94
487.953	100.94
488.171	105.94
488.389	98.94
488.607	85.94
488.825	95.94
489.043	103.94
489.261	105.94
489.479	87.94
489.696	88.94
489.914	93.94
490.132	86.94
490.35	110.94
490.568	71.94
490.786	92.94
491.003	88.94
491.221	88.94
491.439	93.94
491.657	101.94
491.874	89.94
492.092	92.94
492.31	96.94
492.527	78.94
492.745	94.94
492.963	77.94
493.18	87.94
493.398	86.94
493.615	80.94
493.833	92.94
494.05	92.94
494.268	96.94
494.485	90.94
494.703	85.94
494.92	75.94
495.138	89.94
495.355	94.94
495.573	88.94
495.79	85.94
496.008	99.94
496.225	96.94
496.442	85.94
496.66	93.94
496.877	99.94
497.094	91.94
497.312	82.94
497.529	94.94
497.746	99.94
497.963	70.94
498.181	86.94
498.398	93.94
498.615	104.94
498.832	94.94
499.049	96.94
499.267	85.94
499.484	95.94
499.701	96.94
499.918	101.94
500.135	111.94
500.352	104.94
500.569	87.94
500.786	99.94
501.003	91.94
501.22	84.94
501.437	99.94
501.654	99.94
501.871	101.94
502.088	101.94
502.305	92.94
502.522	76.94
502.739	108.94
502.956	100.94
503.172	84.94
503.389	72.94
503.606	81.94
503.823	92.94
504.04	97.94
504.256	93.94
504.473	82.94
504.69	93.94
504.907	89.94
505.123	96.94
505.34	92.94
505.557	70.94
505.773	95.94
505.99	92.94
506.207	89.94
506.423	99.94
506.64	96.94
506.856	99.94
507.073	98.94
507.289	103.94
507.506	97.94
507.722	96.94
507.939	107.94
508.155	100.94
508.372	93.94
508.588	83.94
508.805	99.94
509.021	89.94
509.238	109.94
509.454	99.94
509.67	94.94
509.887	115.94
510.103	116.94
510.319	180.94
510.536	651.94
510.752	1961.94
510.968	558.94
511.184	147.94
511.401	105.94
511.617	85.94
511.833	94.94
512.049	87.94
512.265	87.94
512.481	98.94
512.698	86.94
512.914	80.94
513.13	77.94
513.346	95.94
513.562	76.94
513.778	84.94
513.994	83.94
514.21	86.94
514.426	117.94
514.642	127.94
514.858	115.94
515.074	145.94
515.29	407.94
515.506	1240.94
