Data from Uncirc_2005_H10_HRD10591_00015.txt Node
Date: Wed Jan 03 10:28:27 EST 2024
User: Yrep
Spectrometer: HR+D1059
Trigger mode: 1
Integration Time (sec): 1.000000E-1
Scans to average: 1
Electric dark correction enabled: true
Nonlinearity correction enabled: false
Boxcar width: 0
XAxis mode: Wavelengths
Number of Pixels in Spectrum: 2048
>>>>>Begin Spectral Data<<<<<
223.165	-16.44
223.4	-16.44
223.635	-16.44
223.869	-28.44
224.104	-26.44
224.338	-22.44
224.573	-7.44
224.808	-21.44
225.042	-0.44
225.277	-0.44
225.511	-6.44
225.746	0.56
225.98	4.56
226.215	23.56
226.449	17.56
226.683	28.56
226.918	29.56
227.152	25.56
227.387	23.56
227.621	42.56
227.856	44.56
228.09	54.56
228.324	41.56
228.559	48.56
228.793	62.56
229.027	67.56
229.262	54.56
229.496	71.56
229.73	72.56
229.964	86.56
230.199	75.56
230.433	72.56
230.667	68.56
230.901	69.56
231.136	71.56
231.37	78.56
231.604	81.56
231.838	83.56
232.072	72.56
232.306	64.56
232.541	92.56
232.775	95.56
233.009	76.56
233.243	89.56
233.477	94.56
233.711	78.56
233.945	65.56
234.179	90.56
234.413	76.56
234.647	81.56
234.881	88.56
235.115	87.56
235.349	71.56
235.583	79.56
235.817	70.56
236.051	73.56
236.285	86.56
236.519	76.56
236.753	73.56
236.987	79.56
237.221	96.56
237.455	81.56
237.689	92.56
237.922	70.56
238.156	71.56
238.39	74.56
238.624	73.56
238.858	80.56
239.091	68.56
239.325	84.56
239.559	76.56
239.793	74.56
240.027	81.56
240.26	67.56
240.494	83.56
240.728	72.56
240.961	82.56
241.195	67.56
241.429	67.56
241.662	71.56
241.896	69.56
242.13	83.56
242.363	64.56
242.597	80.56
242.83	95.56
243.064	75.56
243.298	72.56
243.531	81.56
243.765	83.56
243.998	94.56
244.232	83.56
244.465	91.56
244.699	82.56
244.932	75.56
245.166	77.56
245.399	84.56
245.633	86.56
245.866	87.56
246.099	69.56
246.333	78.56
246.566	79.56
246.8	94.56
247.033	84.56
247.266	75.56
247.5	84.56
247.733	86.56
247.966	76.56
248.2	77.56
248.433	89.56
248.666	77.56
248.899	80.56
249.133	83.56
249.366	84.56
249.599	76.56
249.832	83.56
250.066	93.56
250.299	77.56
250.532	80.56
250.765	74.56
250.998	82.56
251.231	88.56
251.465	76.56
251.698	77.56
251.931	74.56
252.164	89.56
252.397	75.56
252.63	79.56
252.863	71.56
253.096	93.56
253.329	79.56
253.562	89.56
253.795	82.56
254.028	79.56
254.261	83.56
254.494	80.56
254.727	78.56
254.96	84.56
255.193	83.56
255.426	73.56
255.659	90.56
255.892	79.56
256.124	76.56
256.357	92.56
256.59	79.56
256.823	81.56
257.056	89.56
257.289	88.56
257.521	85.56
257.754	93.56
257.987	77.56
258.22	72.56
258.452	70.56
258.685	81.56
258.918	79.56
259.151	80.56
259.383	79.56
259.616	86.56
259.849	74.56
260.081	88.56
260.314	88.56
260.547	84.56
260.779	77.56
261.012	72.56
261.244	83.56
261.477	93.56
261.71	91.56
261.942	112.56
262.175	109.56
262.407	78.56
262.64	87.56
262.872	98.56
263.105	80.56
263.337	103.56
263.57	83.56
263.802	80.56
264.035	101.56
264.267	84.56
264.499	84.56
264.732	74.56
264.964	80.56
265.197	95.56
265.429	87.56
265.661	85.56
265.894	93.56
266.126	92.56
266.358	97.56
266.591	71.56
266.823	77.56
267.055	83.56
267.287	96.56
267.52	97.56
267.752	84.56
267.984	89.56
268.216	77.56
268.448	82.56
268.681	88.56
268.913	80.56
269.145	91.56
269.377	80.56
269.609	81.56
269.841	95.56
270.073	103.56
270.306	89.56
270.538	92.56
270.77	86.56
271.002	84.56
271.234	91.56
271.466	85.56
271.698	92.56
271.93	88.56
272.162	80.56
272.394	78.56
272.626	93.56
272.858	89.56
273.09	87.56
273.322	92.56
273.553	78.56
273.785	93.56
274.017	81.56
274.249	84.56
274.481	82.56
274.713	93.56
274.945	89.56
275.176	85.56
275.408	85.56
275.64	93.56
275.872	79.56
276.104	84.56
276.335	79.56
276.567	82.56
276.799	103.56
277.031	104.56
277.262	92.56
277.494	84.56
277.726	103.56
277.957	73.56
278.189	87.56
278.421	80.56
278.652	83.56
278.884	81.56
279.115	88.56
279.347	79.56
279.579	80.56
279.81	86.56
280.042	92.56
280.273	91.56
280.505	88.56
280.736	89.56
280.968	97.56
281.199	100.56
281.431	80.56
281.662	89.56
281.894	89.56
282.125	88.56
282.356	128.56
282.588	109.56
282.819	104.56
283.051	87.56
283.282	85.56
283.513	100.56
283.745	80.56
283.976	84.56
284.207	93.56
284.439	87.56
284.67	76.56
284.901	80.56
285.132	83.56
285.364	84.56
285.595	76.56
285.826	79.56
286.057	87.56
286.288	82.56
286.52	78.56
286.751	93.56
286.982	81.56
287.213	89.56
287.444	94.56
287.675	93.56
287.906	86.56
288.138	83.56
288.369	90.56
288.6	91.56
288.831	85.56
289.062	89.56
289.293	92.56
289.524	99.56
289.755	71.56
289.986	77.56
290.217	77.56
290.448	84.56
290.679	78.56
290.91	96.56
291.141	86.56
291.371	92.56
291.602	97.56
291.833	77.56
292.064	87.56
292.295	92.56
292.526	104.56
292.757	84.56
292.987	84.56
293.218	87.56
293.449	78.56
293.68	86.56
293.91	96.56
294.141	94.56
294.372	98.56
294.603	87.56
294.833	79.56
295.064	75.56
295.295	89.56
295.525	96.56
295.756	103.56
295.987	100.56
296.217	141.56
296.448	110.56
296.679	86.56
296.909	81.56
297.14	91.56
297.37	95.56
297.601	80.56
297.831	85.56
298.062	93.56
298.292	89.56
298.523	99.56
298.753	87.56
298.984	83.56
299.214	77.56
299.445	74.56
299.675	91.56
299.905	89.56
300.136	107.56
300.366	101.56
300.597	74.56
300.827	88.56
301.057	93.56
301.288	93.56
301.518	86.56
301.748	84.56
301.979	96.56
302.209	94.56
302.439	97.56
302.669	89.56
302.9	96.56
303.13	78.56
303.36	91.56
303.59	106.56
303.82	98.56
304.051	96.56
304.281	75.56
304.511	95.56
304.741	81.56
304.971	79.56
305.201	73.56
305.431	90.56
305.661	101.56
305.891	84.56
306.121	87.56
306.352	92.56
306.582	117.56
306.812	93.56
307.042	114.56
307.272	99.56
307.502	85.56
307.731	90.56
307.961	89.56
308.191	91.56
308.421	95.56
308.651	87.56
308.881	87.56
309.111	95.56
309.341	89.56
309.571	93.56
309.8	89.56
310.03	89.56
310.26	92.56
310.49	75.56
310.72	98.56
310.949	87.56
311.179	110.56
311.409	95.56
311.639	90.56
311.868	92.56
312.098	97.56
312.328	103.56
312.557	115.56
312.787	95.56
313.017	105.56
313.246	103.56
313.476	95.56
313.706	92.56
313.935	91.56
314.165	103.56
314.394	102.56
314.624	109.56
314.853	97.56
315.083	87.56
315.312	102.56
315.542	81.56
315.771	89.56
316.001	91.56
316.23	89.56
316.46	88.56
316.689	95.56
316.919	96.56
317.148	81.56
317.377	104.56
317.607	103.56
317.836	104.56
318.065	91.56
318.295	100.56
318.524	89.56
318.753	91.56
318.983	93.56
319.212	95.56
319.441	96.56
319.67	100.56
319.9	93.56
320.129	100.56
320.358	92.56
320.587	90.56
320.816	92.56
321.046	104.56
321.275	102.56
321.504	89.56
321.733	104.56
321.962	84.56
322.191	98.56
322.42	103.56
322.649	119.56
322.878	117.56
323.108	115.56
323.337	131.56
323.566	141.56
323.795	169.56
324.024	199.56
324.253	390.56
324.482	862.56
324.71	1728.56
324.939	2313.56
325.168	848.56
325.397	238.56
325.626	143.56
325.855	128.56
326.084	128.56
326.313	147.56
326.542	145.56
326.77	233.56
326.999	475.56
327.228	975.56
327.457	1806.56
327.686	1469.56
327.914	378.56
328.143	185.56
328.372	141.56
328.6	116.56
328.829	106.56
329.058	136.56
329.287	120.56
329.515	106.56
329.744	97.56
329.972	101.56
330.201	89.56
330.43	99.56
330.658	112.56
330.887	131.56
331.115	125.56
331.344	99.56
331.572	100.56
331.801	96.56
332.03	113.56
332.258	93.56
332.486	107.56
332.715	86.56
332.943	88.56
333.172	96.56
333.4	97.56
333.629	105.56
333.857	117.56
334.085	113.56
334.314	96.56
334.542	93.56
334.771	100.56
334.999	108.56
335.227	100.56
335.455	91.56
335.684	84.56
335.912	96.56
336.14	106.56
336.369	92.56
336.597	94.56
336.825	89.56
337.053	94.56
337.281	84.56
337.51	103.56
337.738	92.56
337.966	91.56
338.194	98.56
338.422	93.56
338.65	93.56
338.878	72.56
339.106	89.56
339.334	94.56
339.562	96.56
339.79	71.56
340.018	82.56
340.246	81.56
340.474	90.56
340.702	84.56
340.93	87.56
341.158	104.56
341.386	91.56
341.614	93.56
341.842	96.56
342.07	75.56
342.298	102.56
342.526	91.56
342.754	102.56
342.981	91.56
343.209	90.56
343.437	108.56
343.665	93.56
343.893	86.56
344.12	73.56
344.348	86.56
344.576	107.56
344.804	95.56
345.031	87.56
345.259	106.56
345.487	92.56
345.714	86.56
345.942	88.56
346.17	86.56
346.397	99.56
346.625	93.56
346.853	91.56
347.08	84.56
347.308	95.56
347.535	95.56
347.763	95.56
347.99	97.56
348.218	97.56
348.445	102.56
348.673	109.56
348.9	104.56
349.128	97.56
349.355	94.56
349.583	94.56
349.81	72.56
350.037	93.56
350.265	93.56
350.492	89.56
350.72	104.56
350.947	99.56
351.174	97.56
351.402	128.56
351.629	108.56
351.856	107.56
352.083	99.56
352.311	111.56
352.538	119.56
352.765	114.56
352.992	104.56
353.22	97.56
353.447	112.56
353.674	104.56
353.901	81.56
354.128	99.56
354.355	101.56
354.583	99.56
354.81	83.56
355.037	93.56
355.264	96.56
355.491	92.56
355.718	94.56
355.945	96.56
356.172	95.56
356.399	102.56
356.626	98.56
356.853	84.56
357.08	93.56
357.307	95.56
357.534	87.56
357.761	100.56
357.988	92.56
358.215	100.56
358.441	98.56
358.668	98.56
358.895	96.56
359.122	87.56
359.349	87.56
359.576	98.56
359.802	100.56
360.029	106.56
360.256	103.56
360.483	107.56
360.709	96.56
360.936	90.56
361.163	77.56
361.39	87.56
361.616	88.56
361.843	91.56
362.07	99.56
362.296	74.56
362.523	98.56
362.749	89.56
362.976	89.56
363.203	94.56
363.429	84.56
363.656	88.56
363.882	92.56
364.109	93.56
364.335	85.56
364.562	100.56
364.788	97.56
365.015	99.56
365.241	101.56
365.468	116.56
365.694	107.56
365.92	89.56
366.147	102.56
366.373	79.56
366.599	92.56
366.826	81.56
367.052	91.56
367.278	84.56
367.505	91.56
367.731	89.56
367.957	77.56
368.184	105.56
368.41	102.56
368.636	101.56
368.862	109.56
369.089	111.56
369.315	97.56
369.541	86.56
369.767	82.56
369.993	94.56
370.219	89.56
370.445	100.56
370.672	107.56
370.898	89.56
371.124	72.56
371.35	91.56
371.576	99.56
371.802	95.56
372.028	95.56
372.254	85.56
372.48	84.56
372.706	96.56
372.932	87.56
373.158	91.56
373.384	91.56
373.61	91.56
373.835	89.56
374.061	98.56
374.287	87.56
374.513	91.56
374.739	89.56
374.965	74.56
375.191	91.56
375.416	84.56
375.642	95.56
375.868	88.56
376.094	99.56
376.319	94.56
376.545	93.56
376.771	83.56
376.997	89.56
377.222	86.56
377.448	82.56
377.674	82.56
377.899	89.56
378.125	105.56
378.35	102.56
378.576	91.56
378.802	82.56
379.027	88.56
379.253	107.56
379.478	87.56
379.704	101.56
379.929	86.56
380.155	89.56
380.38	89.56
380.606	118.56
380.831	109.56
381.057	103.56
381.282	95.56
381.507	92.56
381.733	80.56
381.958	88.56
382.184	89.56
382.409	102.56
382.634	92.56
382.86	100.56
383.085	102.56
383.31	108.56
383.535	105.56
383.761	97.56
383.986	108.56
384.211	85.56
384.436	102.56
384.662	113.56
384.887	107.56
385.112	123.56
385.337	116.56
385.562	127.56
385.787	115.56
386.013	118.56
386.238	111.56
386.463	115.56
386.688	116.56
386.913	105.56
387.138	99.56
387.363	99.56
387.588	106.56
387.813	108.56
388.038	131.56
388.263	137.56
388.488	124.56
388.713	101.56
388.938	116.56
389.163	104.56
389.387	89.56
389.612	88.56
389.837	99.56
390.062	88.56
390.287	87.56
390.512	88.56
390.736	105.56
390.961	86.56
391.186	91.56
391.411	87.56
391.636	96.56
391.86	93.56
392.085	85.56
392.31	86.56
392.534	81.56
392.759	70.56
392.984	66.56
393.208	78.56
393.433	102.56
393.658	99.56
393.882	89.56
394.107	89.56
394.331	80.56
394.556	89.56
394.78	84.56
395.005	89.56
395.229	89.56
395.454	92.56
395.678	77.56
395.903	104.56
396.127	89.56
396.352	83.56
396.576	86.56
396.801	85.56
397.025	78.56
397.249	91.56
397.474	98.56
397.698	92.56
397.922	82.56
398.147	95.56
398.371	91.56
398.595	81.56
398.82	93.56
399.044	86.56
399.268	83.56
399.492	101.56
399.717	99.56
399.941	89.56
400.165	100.56
400.389	85.56
400.613	81.56
400.837	81.56
401.062	71.56
401.286	98.56
401.51	96.56
401.734	91.56
401.958	103.56
402.182	124.56
402.406	154.56
402.63	113.56
402.854	93.56
403.078	95.56
403.302	86.56
403.526	93.56
403.75	93.56
403.974	82.56
404.198	99.56
404.422	83.56
404.645	100.56
404.869	89.56
405.093	88.56
405.317	94.56
405.541	86.56
405.765	105.56
405.988	114.56
406.212	157.56
406.436	186.56
406.66	137.56
406.883	81.56
407.107	100.56
407.331	105.56
407.555	113.56
407.778	93.56
408.002	79.56
408.226	102.56
408.449	94.56
408.673	101.56
408.896	92.56
409.12	88.56
409.344	94.56
409.567	98.56
409.791	101.56
410.014	94.56
410.238	96.56
410.461	87.56
410.685	103.56
410.908	101.56
411.132	121.56
411.355	130.56
411.578	107.56
411.802	81.56
412.025	91.56
412.249	99.56
412.472	88.56
412.695	95.56
412.919	95.56
413.142	95.56
413.365	89.56
413.589	81.56
413.812	87.56
414.035	93.56
414.258	91.56
414.482	89.56
414.705	99.56
414.928	93.56
415.151	89.56
415.374	104.56
415.597	78.56
415.821	104.56
416.044	84.56
416.267	85.56
416.49	81.56
416.713	79.56
416.936	89.56
417.159	93.56
417.382	85.56
417.605	96.56
417.828	88.56
418.051	87.56
418.274	105.56
418.497	81.56
418.72	86.56
418.943	101.56
419.166	79.56
419.389	86.56
419.611	82.56
419.834	93.56
420.057	94.56
420.28	91.56
420.503	76.56
420.726	93.56
420.948	76.56
421.171	86.56
421.394	107.56
421.617	79.56
421.839	83.56
422.062	95.56
422.285	97.56
422.507	87.56
422.73	117.56
422.953	90.56
423.175	105.56
423.398	91.56
423.621	80.56
423.843	88.56
424.066	87.56
424.288	85.56
424.511	86.56
424.733	104.56
424.956	110.56
425.178	95.56
425.401	110.56
425.623	110.56
425.846	100.56
426.068	86.56
426.291	88.56
426.513	89.56
426.735	92.56
426.958	88.56
427.18	105.56
427.402	153.56
427.625	163.56
427.847	117.56
428.069	110.56
428.292	84.56
428.514	85.56
428.736	93.56
428.958	77.56
429.181	93.56
429.403	108.56
429.625	82.56
429.847	101.56
430.069	93.56
430.292	91.56
430.514	92.56
430.736	85.56
430.958	80.56
431.18	91.56
431.402	96.56
431.624	84.56
431.846	100.56
432.068	97.56
432.29	84.56
432.512	89.56
432.734	78.56
432.956	99.56
433.178	108.56
433.4	111.56
433.622	103.56
433.844	101.56
434.066	88.56
434.287	91.56
434.509	84.56
434.731	85.56
434.953	86.56
435.175	85.56
435.397	82.56
435.618	89.56
435.84	104.56
436.062	142.56
436.284	121.56
436.505	107.56
436.727	98.56
436.949	99.56
437.17	100.56
437.392	101.56
437.614	95.56
437.835	112.56
438.057	114.56
438.278	119.56
438.5	97.56
438.721	143.56
438.943	120.56
439.165	84.56
439.386	84.56
439.608	84.56
439.829	94.56
440.05	111.56
440.272	148.56
440.493	87.56
440.715	86.56
440.936	109.56
441.158	95.56
441.379	87.56
441.6	85.56
441.822	96.56
442.043	102.56
442.264	95.56
442.486	114.56
442.707	95.56
442.928	112.56
443.149	126.56
443.371	139.56
443.592	107.56
443.813	115.56
444.034	114.56
444.255	88.56
444.476	95.56
444.698	85.56
444.919	88.56
445.14	131.56
445.361	120.56
445.582	117.56
445.803	152.56
446.024	147.56
446.245	141.56
446.466	119.56
446.687	108.56
446.908	88.56
447.129	103.56
447.35	101.56
447.571	87.56
447.792	88.56
448.013	98.56
448.234	109.56
448.455	100.56
448.675	94.56
448.896	125.56
449.117	88.56
449.338	94.56
449.559	121.56
449.779	145.56
450	99.56
450.221	91.56
450.442	93.56
450.662	93.56
450.883	83.56
451.104	123.56
451.324	94.56
451.545	94.56
451.766	97.56
451.986	83.56
452.207	90.56
452.428	94.56
452.648	94.56
452.869	100.56
453.089	108.56
453.31	125.56
453.53	103.56
453.751	87.56
453.971	104.56
454.192	104.56
454.412	99.56
454.633	95.56
454.853	108.56
455.073	79.56
455.294	94.56
455.514	93.56
455.734	99.56
455.955	91.56
456.175	78.56
456.395	87.56
456.616	83.56
456.836	83.56
457.056	95.56
457.276	89.56
457.497	97.56
457.717	94.56
457.937	84.56
458.157	98.56
458.377	100.56
458.598	113.56
458.818	153.56
459.038	162.56
459.258	119.56
459.478	93.56
459.698	82.56
459.918	100.56
460.138	100.56
460.358	83.56
460.578	89.56
460.798	88.56
461.018	93.56
461.238	94.56
461.458	93.56
461.678	80.56
461.898	82.56
462.118	74.56
462.338	87.56
462.558	77.56
462.777	86.56
462.997	86.56
463.217	90.56
463.437	83.56
463.657	80.56
463.876	102.56
464.096	87.56
464.316	91.56
464.536	80.56
464.755	88.56
464.975	96.56
465.195	151.56
465.414	157.56
465.634	124.56
465.854	91.56
466.073	97.56
466.293	92.56
466.512	93.56
466.732	77.56
466.951	99.56
467.171	102.56
467.391	92.56
467.61	98.56
467.829	91.56
468.049	91.56
468.268	86.56
468.488	93.56
468.707	88.56
468.927	91.56
469.146	91.56
469.365	91.56
469.585	78.56
469.804	73.56
470.023	88.56
470.243	105.56
470.462	92.56
470.681	107.56
470.901	94.56
471.12	95.56
471.339	84.56
471.558	85.56
471.777	87.56
471.997	101.56
472.216	85.56
472.435	96.56
472.654	93.56
472.873	88.56
473.092	88.56
473.311	99.56
473.53	90.56
473.749	79.56
473.968	100.56
474.187	102.56
474.406	104.56
474.625	84.56
474.844	86.56
475.063	86.56
475.282	99.56
475.501	80.56
475.72	88.56
475.939	82.56
476.158	79.56
476.377	85.56
476.596	98.56
476.814	89.56
477.033	79.56
477.252	86.56
477.471	91.56
477.69	91.56
477.908	92.56
478.127	104.56
478.346	86.56
478.564	89.56
478.783	96.56
479.002	105.56
479.22	84.56
479.439	92.56
479.658	119.56
479.876	80.56
480.095	86.56
480.313	95.56
480.532	98.56
480.751	84.56
480.969	82.56
481.188	100.56
481.406	98.56
481.624	87.56
481.843	107.56
482.061	100.56
482.28	83.56
482.498	88.56
482.717	75.56
482.935	80.56
483.153	97.56
483.372	86.56
483.59	84.56
483.808	97.56
484.027	89.56
484.245	100.56
484.463	92.56
484.681	89.56
484.9	73.56
485.118	92.56
485.336	88.56
485.554	98.56
485.772	97.56
485.99	107.56
486.209	93.56
486.427	100.56
486.645	97.56
486.863	102.56
487.081	89.56
487.299	108.56
487.517	94.56
487.735	93.56
487.953	96.56
488.171	105.56
488.389	93.56
488.607	92.56
488.825	92.56
489.043	101.56
489.261	102.56
489.479	79.56
489.696	97.56
489.914	95.56
490.132	97.56
490.35	83.56
490.568	98.56
490.786	96.56
491.003	83.56
491.221	86.56
491.439	88.56
491.657	85.56
491.874	86.56
492.092	93.56
492.31	82.56
492.527	88.56
492.745	96.56
492.963	105.56
493.18	100.56
493.398	82.56
493.615	102.56
493.833	96.56
494.05	99.56
494.268	77.56
494.485	97.56
494.703	88.56
494.92	95.56
495.138	86.56
495.355	93.56
495.573	97.56
495.79	104.56
496.008	95.56
496.225	82.56
496.442	74.56
496.66	92.56
496.877	80.56
497.094	88.56
497.312	92.56
497.529	98.56
497.746	102.56
497.963	90.56
498.181	85.56
498.398	85.56
498.615	111.56
498.832	99.56
499.049	85.56
499.267	82.56
499.484	80.56
499.701	85.56
499.918	85.56
500.135	95.56
500.352	102.56
500.569	79.56
500.786	94.56
501.003	92.56
501.22	99.56
501.437	94.56
501.654	96.56
501.871	114.56
502.088	89.56
502.305	84.56
502.522	99.56
502.739	101.56
502.956	103.56
503.172	90.56
503.389	101.56
503.606	105.56
503.823	101.56
504.04	86.56
504.256	86.56
504.473	96.56
504.69	92.56
504.907	86.56
505.123	85.56
505.34	74.56
505.557	91.56
505.773	99.56
505.99	101.56
506.207	79.56
506.423	86.56
506.64	98.56
506.856	89.56
507.073	94.56
507.289	105.56
507.506	93.56
507.722	105.56
507.939	118.56
508.155	88.56
508.372	100.56
508.588	93.56
508.805	100.56
509.021	112.56
509.238	106.56
509.454	99.56
509.67	97.56
509.887	111.56
510.103	119.56
510.319	203.56
510.536	686.56
510.752	2018.56
510.968	582.56
511.184	147.56
511.401	107.56
511.617	93.56
511.833	84.56
512.049	91.56
512.265	75.56
512.481	104.56
512.698	86.56
512.914	82.56
513.13	104.56
513.346	91.56
513.562	83.56
513.778	98.56
513.994	101.56
514.21	100.56
514.426	109.56
514.642	127.56
514.858	129.56
515.074	161.56
515.29	419.56
515.506	1297.56
