Data from Uncirc_2005_H10_HRD10591_00086.txt Node
Date: Wed Jan 03 10:28:42 EST 2024
User: Yrep
Spectrometer: HR+D1059
Trigger mode: 1
Integration Time (sec): 1.000000E-1
Scans to average: 1
Electric dark correction enabled: true
Nonlinearity correction enabled: false
Boxcar width: 0
XAxis mode: Wavelengths
Number of Pixels in Spectrum: 2048
>>>>>Begin Spectral Data<<<<<
223.165	-24.56
223.4	-24.56
223.635	-24.56
223.869	-19.56
224.104	-4.56
224.338	0.44
224.573	-26.56
224.808	-15.56
225.042	-13.56
225.277	4.44
225.511	-2.56
225.746	-3.56
225.98	8.44
226.215	19.44
226.449	14.44
226.683	21.44
226.918	19.44
227.152	22.44
227.387	23.44
227.621	42.44
227.856	35.44
228.09	49.44
228.324	70.44
228.559	62.44
228.793	72.44
229.027	56.44
229.262	66.44
229.496	68.44
229.73	85.44
229.964	78.44
230.199	71.44
230.433	67.44
230.667	70.44
230.901	82.44
231.136	69.44
231.37	71.44
231.604	68.44
231.838	88.44
232.072	78.44
232.306	85.44
232.541	83.44
232.775	76.44
233.009	94.44
233.243	83.44
233.477	84.44
233.711	82.44
233.945	74.44
234.179	83.44
234.413	86.44
234.647	73.44
234.881	81.44
235.115	86.44
235.349	98.44
235.583	87.44
235.817	96.44
236.051	71.44
236.285	83.44
236.519	69.44
236.753	63.44
236.987	79.44
237.221	95.44
237.455	78.44
237.689	84.44
237.922	93.44
238.156	85.44
238.39	84.44
238.624	83.44
238.858	72.44
239.091	61.44
239.325	69.44
239.559	71.44
239.793	86.44
240.027	80.44
240.26	68.44
240.494	76.44
240.728	85.44
240.961	76.44
241.195	84.44
241.429	86.44
241.662	79.44
241.896	67.44
242.13	90.44
242.363	89.44
242.597	76.44
242.83	73.44
243.064	85.44
243.298	84.44
243.531	74.44
243.765	78.44
243.998	67.44
244.232	78.44
244.465	88.44
244.699	75.44
244.932	85.44
245.166	77.44
245.399	75.44
245.633	85.44
245.866	71.44
246.099	76.44
246.333	75.44
246.566	60.44
246.8	69.44
247.033	65.44
247.266	71.44
247.5	80.44
247.733	72.44
247.966	79.44
248.2	70.44
248.433	69.44
248.666	83.44
248.899	83.44
249.133	78.44
249.366	93.44
249.599	101.44
249.832	87.44
250.066	84.44
250.299	66.44
250.532	75.44
250.765	85.44
250.998	83.44
251.231	78.44
251.465	88.44
251.698	81.44
251.931	85.44
252.164	85.44
252.397	91.44
252.63	83.44
252.863	76.44
253.096	76.44
253.329	64.44
253.562	77.44
253.795	88.44
254.028	79.44
254.261	92.44
254.494	88.44
254.727	89.44
254.96	90.44
255.193	71.44
255.426	76.44
255.659	70.44
255.892	76.44
256.124	76.44
256.357	81.44
256.59	72.44
256.823	82.44
257.056	85.44
257.289	98.44
257.521	76.44
257.754	82.44
257.987	72.44
258.22	85.44
258.452	94.44
258.685	81.44
258.918	86.44
259.151	80.44
259.383	74.44
259.616	79.44
259.849	79.44
260.081	88.44
260.314	73.44
260.547	85.44
260.779	84.44
261.012	73.44
261.244	70.44
261.477	84.44
261.71	85.44
261.942	106.44
262.175	109.44
262.407	99.44
262.64	76.44
262.872	89.44
263.105	89.44
263.337	65.44
263.57	86.44
263.802	87.44
264.035	88.44
264.267	71.44
264.499	83.44
264.732	89.44
264.964	88.44
265.197	94.44
265.429	74.44
265.661	82.44
265.894	82.44
266.126	79.44
266.358	64.44
266.591	81.44
266.823	76.44
267.055	93.44
267.287	94.44
267.52	97.44
267.752	79.44
267.984	91.44
268.216	86.44
268.448	98.44
268.681	82.44
268.913	84.44
269.145	67.44
269.377	87.44
269.609	87.44
269.841	88.44
270.073	91.44
270.306	79.44
270.538	80.44
270.77	70.44
271.002	80.44
271.234	96.44
271.466	86.44
271.698	87.44
271.93	91.44
272.162	93.44
272.394	89.44
272.626	77.44
272.858	86.44
273.09	84.44
273.322	67.44
273.553	71.44
273.785	86.44
274.017	81.44
274.249	85.44
274.481	72.44
274.713	87.44
274.945	86.44
275.176	88.44
275.408	81.44
275.64	73.44
275.872	79.44
276.104	88.44
276.335	100.44
276.567	87.44
276.799	101.44
277.031	93.44
277.262	82.44
277.494	79.44
277.726	75.44
277.957	96.44
278.189	87.44
278.421	79.44
278.652	99.44
278.884	84.44
279.115	104.44
279.347	85.44
279.579	80.44
279.81	68.44
280.042	90.44
280.273	77.44
280.505	95.44
280.736	95.44
280.968	79.44
281.199	97.44
281.431	92.44
281.662	85.44
281.894	93.44
282.125	98.44
282.356	107.44
282.588	123.44
282.819	119.44
283.051	95.44
283.282	88.44
283.513	92.44
283.745	92.44
283.976	88.44
284.207	74.44
284.439	82.44
284.67	82.44
284.901	86.44
285.132	90.44
285.364	96.44
285.595	95.44
285.826	79.44
286.057	87.44
286.288	104.44
286.52	93.44
286.751	92.44
286.982	85.44
287.213	92.44
287.444	94.44
287.675	86.44
287.906	76.44
288.138	96.44
288.369	84.44
288.6	92.44
288.831	73.44
289.062	85.44
289.293	79.44
289.524	95.44
289.755	88.44
289.986	99.44
290.217	74.44
290.448	81.44
290.679	88.44
290.91	86.44
291.141	78.44
291.371	93.44
291.602	88.44
291.833	86.44
292.064	76.44
292.295	99.44
292.526	97.44
292.757	99.44
292.987	85.44
293.218	92.44
293.449	88.44
293.68	87.44
293.91	87.44
294.141	109.44
294.372	96.44
294.603	92.44
294.833	99.44
295.064	94.44
295.295	96.44
295.525	84.44
295.756	102.44
295.987	112.44
296.217	128.44
296.448	124.44
296.679	90.44
296.909	83.44
297.14	90.44
297.37	79.44
297.601	103.44
297.831	99.44
298.062	98.44
298.292	100.44
298.523	85.44
298.753	90.44
298.984	96.44
299.214	95.44
299.445	94.44
299.675	100.44
299.905	96.44
300.136	99.44
300.366	102.44
300.597	87.44
300.827	84.44
301.057	95.44
301.288	94.44
301.518	90.44
301.748	79.44
301.979	89.44
302.209	100.44
302.439	93.44
302.669	93.44
302.9	98.44
303.13	88.44
303.36	92.44
303.59	94.44
303.82	107.44
304.051	99.44
304.281	83.44
304.511	84.44
304.741	91.44
304.971	71.44
305.201	89.44
305.431	87.44
305.661	78.44
305.891	79.44
306.121	109.44
306.352	112.44
306.582	97.44
306.812	82.44
307.042	81.44
307.272	99.44
307.502	80.44
307.731	99.44
307.961	90.44
308.191	104.44
308.421	87.44
308.651	101.44
308.881	89.44
309.111	92.44
309.341	96.44
309.571	95.44
309.8	92.44
310.03	102.44
310.26	111.44
310.49	85.44
310.72	102.44
310.949	99.44
311.179	85.44
311.409	71.44
311.639	100.44
311.868	98.44
312.098	97.44
312.328	106.44
312.557	99.44
312.787	106.44
313.017	100.44
313.246	91.44
313.476	86.44
313.706	90.44
313.935	92.44
314.165	99.44
314.394	87.44
314.624	91.44
314.853	86.44
315.083	96.44
315.312	87.44
315.542	86.44
315.771	86.44
316.001	93.44
316.23	80.44
316.46	82.44
316.689	90.44
316.919	86.44
317.148	82.44
317.377	91.44
317.607	83.44
317.836	80.44
318.065	87.44
318.295	87.44
318.524	85.44
318.753	86.44
318.983	102.44
319.212	97.44
319.441	106.44
319.67	99.44
319.9	102.44
320.129	116.44
320.358	93.44
320.587	96.44
320.816	94.44
321.046	106.44
321.275	101.44
321.504	90.44
321.733	87.44
321.962	102.44
322.191	102.44
322.42	100.44
322.649	112.44
322.878	106.44
323.108	124.44
323.337	122.44
323.566	124.44
323.795	159.44
324.024	211.44
324.253	405.44
324.482	886.44
324.71	1820.44
324.939	2358.44
325.168	847.44
325.397	251.44
325.626	136.44
325.855	133.44
326.084	133.44
326.313	131.44
326.542	162.44
326.77	231.44
326.999	463.44
327.228	1038.44
327.457	1827.44
327.686	1426.44
327.914	359.44
328.143	178.44
328.372	136.44
328.6	125.44
328.829	108.44
329.058	116.44
329.287	129.44
329.515	104.44
329.744	99.44
329.972	100.44
330.201	99.44
330.43	96.44
330.658	115.44
330.887	134.44
331.115	142.44
331.344	111.44
331.572	111.44
331.801	91.44
332.03	111.44
332.258	92.44
332.486	92.44
332.715	95.44
332.943	106.44
333.172	90.44
333.4	89.44
333.629	107.44
333.857	106.44
334.085	103.44
334.314	101.44
334.542	107.44
334.771	93.44
334.999	95.44
335.227	81.44
335.455	88.44
335.684	98.44
335.912	88.44
336.14	83.44
336.369	99.44
336.597	101.44
336.825	103.44
337.053	91.44
337.281	88.44
337.51	95.44
337.738	97.44
337.966	103.44
338.194	94.44
338.422	96.44
338.65	89.44
338.878	102.44
339.106	96.44
339.334	96.44
339.562	84.44
339.79	92.44
340.018	87.44
340.246	90.44
340.474	88.44
340.702	94.44
340.93	98.44
341.158	96.44
341.386	94.44
341.614	94.44
341.842	95.44
342.07	93.44
342.298	82.44
342.526	103.44
342.754	95.44
342.981	79.44
343.209	88.44
343.437	97.44
343.665	89.44
343.893	94.44
344.12	97.44
344.348	90.44
344.576	101.44
344.804	97.44
345.031	77.44
345.259	95.44
345.487	94.44
345.714	95.44
345.942	91.44
346.17	84.44
346.397	86.44
346.625	96.44
346.853	96.44
347.08	93.44
347.308	86.44
347.535	93.44
347.763	92.44
347.99	98.44
348.218	100.44
348.445	106.44
348.673	87.44
348.9	94.44
349.128	93.44
349.355	92.44
349.583	82.44
349.81	94.44
350.037	95.44
350.265	106.44
350.492	98.44
350.72	94.44
350.947	93.44
351.174	88.44
351.402	101.44
351.629	100.44
351.856	100.44
352.083	112.44
352.311	109.44
352.538	108.44
352.765	118.44
352.992	113.44
353.22	112.44
353.447	88.44
353.674	97.44
353.901	112.44
354.128	92.44
354.355	79.44
354.583	104.44
354.81	89.44
355.037	107.44
355.264	97.44
355.491	91.44
355.718	89.44
355.945	100.44
356.172	107.44
356.399	98.44
356.626	95.44
356.853	76.44
357.08	84.44
357.307	99.44
357.534	99.44
357.761	94.44
357.988	87.44
358.215	94.44
358.441	97.44
358.668	94.44
358.895	83.44
359.122	87.44
359.349	94.44
359.576	91.44
359.802	98.44
360.029	113.44
360.256	102.44
360.483	98.44
360.709	87.44
360.936	91.44
361.163	103.44
361.39	92.44
361.616	96.44
361.843	98.44
362.07	94.44
362.296	88.44
362.523	95.44
362.749	78.44
362.976	103.44
363.203	104.44
363.429	85.44
363.656	78.44
363.882	94.44
364.109	94.44
364.335	93.44
364.562	78.44
364.788	107.44
365.015	102.44
365.241	101.44
365.468	112.44
365.694	122.44
365.92	86.44
366.147	94.44
366.373	86.44
366.599	83.44
366.826	86.44
367.052	78.44
367.278	82.44
367.505	96.44
367.731	101.44
367.957	88.44
368.184	103.44
368.41	101.44
368.636	104.44
368.862	106.44
369.089	108.44
369.315	88.44
369.541	90.44
369.767	91.44
369.993	88.44
370.219	92.44
370.445	93.44
370.672	68.44
370.898	90.44
371.124	90.44
371.35	84.44
371.576	77.44
371.802	82.44
372.028	95.44
372.254	88.44
372.48	95.44
372.706	84.44
372.932	96.44
373.158	80.44
373.384	85.44
373.61	87.44
373.835	89.44
374.061	85.44
374.287	92.44
374.513	84.44
374.739	95.44
374.965	102.44
375.191	85.44
375.416	93.44
375.642	95.44
375.868	85.44
376.094	82.44
376.319	92.44
376.545	78.44
376.771	92.44
376.997	79.44
377.222	90.44
377.448	93.44
377.674	83.44
377.899	92.44
378.125	95.44
378.35	82.44
378.576	98.44
378.802	96.44
379.027	92.44
379.253	89.44
379.478	74.44
379.704	82.44
379.929	92.44
380.155	85.44
380.38	86.44
380.606	115.44
380.831	95.44
381.057	122.44
381.282	102.44
381.507	99.44
381.733	102.44
381.958	101.44
382.184	112.44
382.409	96.44
382.634	92.44
382.86	104.44
383.085	108.44
383.31	112.44
383.535	109.44
383.761	99.44
383.986	96.44
384.211	103.44
384.436	82.44
384.662	101.44
384.887	116.44
385.112	99.44
385.337	103.44
385.562	116.44
385.787	104.44
386.013	110.44
386.238	115.44
386.463	102.44
386.688	103.44
386.913	102.44
387.138	98.44
387.363	103.44
387.588	89.44
387.813	110.44
388.038	106.44
388.263	101.44
388.488	111.44
388.713	97.44
388.938	96.44
389.163	93.44
389.387	90.44
389.612	84.44
389.837	99.44
390.062	81.44
390.287	97.44
390.512	96.44
390.736	90.44
390.961	96.44
391.186	99.44
391.411	86.44
391.636	88.44
391.86	83.44
392.085	71.44
392.31	86.44
392.534	92.44
392.759	79.44
392.984	87.44
393.208	93.44
393.433	80.44
393.658	71.44
393.882	86.44
394.107	82.44
394.331	81.44
394.556	82.44
394.78	90.44
395.005	85.44
395.229	106.44
395.454	92.44
395.678	79.44
395.903	95.44
396.127	95.44
396.352	87.44
396.576	86.44
396.801	84.44
397.025	87.44
397.249	96.44
397.474	88.44
397.698	86.44
397.922	69.44
398.147	92.44
398.371	84.44
398.595	82.44
398.82	97.44
399.044	89.44
399.268	97.44
399.492	85.44
399.717	79.44
399.941	86.44
400.165	100.44
400.389	81.44
400.613	88.44
400.837	99.44
401.062	90.44
401.286	97.44
401.51	84.44
401.734	72.44
401.958	95.44
402.182	120.44
402.406	158.44
402.63	101.44
402.854	100.44
403.078	85.44
403.302	94.44
403.526	92.44
403.75	92.44
403.974	86.44
404.198	100.44
404.422	81.44
404.645	81.44
404.869	79.44
405.093	88.44
405.317	108.44
405.541	97.44
405.765	95.44
405.988	110.44
406.212	161.44
406.436	226.44
406.66	135.44
406.883	105.44
407.107	106.44
407.331	101.44
407.555	112.44
407.778	99.44
408.002	76.44
408.226	86.44
408.449	69.44
408.673	77.44
408.896	99.44
409.12	93.44
409.344	88.44
409.567	82.44
409.791	99.44
410.014	93.44
410.238	101.44
410.461	98.44
410.685	101.44
410.908	105.44
411.132	100.44
411.355	96.44
411.578	109.44
411.802	91.44
412.025	98.44
412.249	107.44
412.472	92.44
412.695	85.44
412.919	76.44
413.142	83.44
413.365	85.44
413.589	92.44
413.812	87.44
414.035	84.44
414.258	81.44
414.482	90.44
414.705	96.44
414.928	99.44
415.151	90.44
415.374	87.44
415.597	82.44
415.821	91.44
416.044	77.44
416.267	84.44
416.49	85.44
416.713	94.44
416.936	82.44
417.159	85.44
417.382	83.44
417.605	86.44
417.828	90.44
418.051	91.44
418.274	88.44
418.497	83.44
418.72	76.44
418.943	84.44
419.166	90.44
419.389	85.44
419.611	79.44
419.834	104.44
420.057	91.44
420.28	92.44
420.503	89.44
420.726	93.44
420.948	83.44
421.171	99.44
421.394	80.44
421.617	95.44
421.839	86.44
422.062	97.44
422.285	80.44
422.507	89.44
422.73	112.44
422.953	89.44
423.175	103.44
423.398	100.44
423.621	84.44
423.843	99.44
424.066	95.44
424.288	93.44
424.511	98.44
424.733	102.44
424.956	108.44
425.178	100.44
425.401	103.44
425.623	103.44
425.846	80.44
426.068	90.44
426.291	95.44
426.513	101.44
426.735	93.44
426.958	96.44
427.18	108.44
427.402	130.44
427.625	164.44
427.847	120.44
428.069	96.44
428.292	87.44
428.514	70.44
428.736	87.44
428.958	93.44
429.181	75.44
429.403	78.44
429.625	97.44
429.847	79.44
430.069	96.44
430.292	85.44
430.514	86.44
430.736	87.44
430.958	86.44
431.18	77.44
431.402	86.44
431.624	76.44
431.846	78.44
432.068	87.44
432.29	78.44
432.512	94.44
432.734	80.44
432.956	93.44
433.178	74.44
433.4	103.44
433.622	98.44
433.844	66.44
434.066	110.44
434.287	92.44
434.509	90.44
434.731	93.44
434.953	96.44
435.175	94.44
435.397	88.44
435.618	117.44
435.84	110.44
436.062	114.44
436.284	98.44
436.505	94.44
436.727	94.44
436.949	95.44
437.17	92.44
437.392	75.44
437.614	90.44
437.835	103.44
438.057	102.44
438.278	106.44
438.5	99.44
438.721	121.44
438.943	103.44
439.165	103.44
439.386	83.44
439.608	109.44
439.829	96.44
440.05	110.44
440.272	119.44
440.493	95.44
440.715	85.44
440.936	87.44
441.158	85.44
441.379	92.44
441.6	97.44
441.822	95.44
442.043	88.44
442.264	113.44
442.486	108.44
442.707	92.44
442.928	102.44
443.149	105.44
443.371	113.44
443.592	108.44
443.813	104.44
444.034	96.44
444.255	96.44
444.476	73.44
444.698	88.44
444.919	88.44
445.14	132.44
445.361	124.44
445.582	118.44
445.803	119.44
446.024	147.44
446.245	129.44
446.466	115.44
446.687	93.44
446.908	78.44
447.129	91.44
447.35	84.44
447.571	87.44
447.792	92.44
448.013	90.44
448.234	101.44
448.455	100.44
448.675	108.44
448.896	117.44
449.117	97.44
449.338	95.44
449.559	117.44
449.779	118.44
450	88.44
450.221	91.44
450.442	87.44
450.662	77.44
450.883	106.44
451.104	103.44
451.324	99.44
451.545	93.44
451.766	98.44
451.986	82.44
452.207	76.44
452.428	83.44
452.648	88.44
452.869	122.44
453.089	107.44
453.31	105.44
453.53	80.44
453.751	90.44
453.971	105.44
454.192	106.44
454.412	107.44
454.633	83.44
454.853	87.44
455.073	84.44
455.294	101.44
455.514	86.44
455.734	80.44
455.955	95.44
456.175	79.44
456.395	80.44
456.616	89.44
456.836	83.44
457.056	88.44
457.276	81.44
457.497	89.44
457.717	76.44
457.937	96.44
458.157	101.44
458.377	98.44
458.598	112.44
458.818	151.44
459.038	162.44
459.258	101.44
459.478	94.44
459.698	76.44
459.918	93.44
460.138	74.44
460.358	101.44
460.578	89.44
460.798	93.44
461.018	95.44
461.238	83.44
461.458	75.44
461.678	86.44
461.898	81.44
462.118	87.44
462.338	86.44
462.558	91.44
462.777	79.44
462.997	101.44
463.217	87.44
463.437	90.44
463.657	83.44
463.876	88.44
464.096	97.44
464.316	77.44
464.536	95.44
464.755	89.44
464.975	101.44
465.195	159.44
465.414	162.44
465.634	93.44
465.854	91.44
466.073	95.44
466.293	107.44
466.512	99.44
466.732	85.44
466.951	91.44
467.171	93.44
467.391	94.44
467.61	100.44
467.829	107.44
468.049	100.44
468.268	87.44
468.488	91.44
468.707	93.44
468.927	92.44
469.146	99.44
469.365	88.44
469.585	79.44
469.804	93.44
470.023	102.44
470.243	102.44
470.462	87.44
470.681	99.44
470.901	88.44
471.12	77.44
471.339	85.44
471.558	87.44
471.777	80.44
471.997	96.44
472.216	82.44
472.435	85.44
472.654	86.44
472.873	89.44
473.092	70.44
473.311	101.44
473.53	87.44
473.749	93.44
473.968	90.44
474.187	104.44
474.406	96.44
474.625	81.44
474.844	82.44
475.063	88.44
475.282	93.44
475.501	98.44
475.72	81.44
475.939	89.44
476.158	79.44
476.377	71.44
476.596	84.44
476.814	78.44
477.033	95.44
477.252	102.44
477.471	92.44
477.69	96.44
477.908	102.44
478.127	88.44
478.346	87.44
478.564	87.44
478.783	88.44
479.002	95.44
479.22	100.44
479.439	105.44
479.658	114.44
479.876	96.44
480.095	94.44
480.313	96.44
480.532	86.44
480.751	92.44
480.969	88.44
481.188	108.44
481.406	104.44
481.624	81.44
481.843	105.44
482.061	81.44
482.28	85.44
482.498	89.44
482.717	99.44
482.935	100.44
483.153	90.44
483.372	88.44
483.59	78.44
483.808	88.44
484.027	95.44
484.245	92.44
484.463	106.44
484.681	99.44
484.9	93.44
485.118	99.44
485.336	99.44
485.554	105.44
485.772	89.44
485.99	112.44
486.209	84.44
486.427	104.44
486.645	110.44
486.863	95.44
487.081	101.44
487.299	92.44
487.517	103.44
487.735	86.44
487.953	85.44
488.171	96.44
488.389	97.44
488.607	106.44
488.825	84.44
489.043	95.44
489.261	83.44
489.479	83.44
489.696	76.44
489.914	76.44
490.132	96.44
490.35	94.44
490.568	100.44
490.786	99.44
491.003	84.44
491.221	96.44
491.439	85.44
491.657	83.44
491.874	98.44
492.092	106.44
492.31	86.44
492.527	101.44
492.745	78.44
492.963	87.44
493.18	90.44
493.398	95.44
493.615	110.44
493.833	85.44
494.05	84.44
494.268	82.44
494.485	91.44
494.703	96.44
494.92	108.44
495.138	79.44
495.355	78.44
495.573	98.44
495.79	97.44
496.008	98.44
496.225	108.44
496.442	82.44
496.66	84.44
496.877	103.44
497.094	86.44
497.312	91.44
497.529	86.44
497.746	87.44
497.963	75.44
498.181	92.44
498.398	83.44
498.615	105.44
498.832	95.44
499.049	88.44
499.267	80.44
499.484	85.44
499.701	91.44
499.918	91.44
500.135	86.44
500.352	92.44
500.569	101.44
500.786	90.44
501.003	82.44
501.22	88.44
501.437	80.44
501.654	109.44
501.871	89.44
502.088	80.44
502.305	87.44
502.522	92.44
502.739	90.44
502.956	81.44
503.172	74.44
503.389	112.44
503.606	110.44
503.823	91.44
504.04	94.44
504.256	82.44
504.473	72.44
504.69	83.44
504.907	101.44
505.123	95.44
505.34	81.44
505.557	82.44
505.773	97.44
505.99	96.44
506.207	88.44
506.423	98.44
506.64	92.44
506.856	100.44
507.073	81.44
507.289	88.44
507.506	90.44
507.722	107.44
507.939	99.44
508.155	98.44
508.372	83.44
508.588	92.44
508.805	94.44
509.021	89.44
509.238	118.44
509.454	107.44
509.67	97.44
509.887	123.44
510.103	119.44
510.319	210.44
510.536	788.44
510.752	2440.44
510.968	700.44
511.184	151.44
511.401	108.44
511.617	114.44
511.833	103.44
512.049	88.44
512.265	79.44
512.481	87.44
512.698	94.44
512.914	80.44
513.13	95.44
513.346	98.44
513.562	91.44
513.778	93.44
513.994	102.44
514.21	104.44
514.426	109.44
514.642	129.44
514.858	127.44
515.074	172.44
515.29	457.44
515.506	1471.44
515.721	546.44
