Data from Uncirc_2005_H10_HRD10591_00011.txt Node
Date: Wed Jan 03 10:28:27 EST 2024
User: Yrep
Spectrometer: HR+D1059
Trigger mode: 1
Integration Time (sec): 1.000000E-1
Scans to average: 1
Electric dark correction enabled: true
Nonlinearity correction enabled: false
Boxcar width: 0
XAxis mode: Wavelengths
Number of Pixels in Spectrum: 2048
>>>>>Begin Spectral Data<<<<<
223.165	-19.44
223.4	-19.44
223.635	-19.44
223.869	-21.44
224.104	-12.44
224.338	-5.44
224.573	-24.44
224.808	-10.44
225.042	-11.44
225.277	5.56
225.511	-1.44
225.746	10.56
225.98	-1.44
226.215	18.56
226.449	30.56
226.683	24.56
226.918	0.56
227.152	17.56
227.387	41.56
227.621	40.56
227.856	47.56
228.09	64.56
228.324	58.56
228.559	52.56
228.793	63.56
229.027	65.56
229.262	49.56
229.496	68.56
229.73	66.56
229.964	87.56
230.199	66.56
230.433	80.56
230.667	87.56
230.901	72.56
231.136	73.56
231.37	82.56
231.604	81.56
231.838	76.56
232.072	80.56
232.306	84.56
232.541	82.56
232.775	75.56
233.009	82.56
233.243	77.56
233.477	89.56
233.711	82.56
233.945	94.56
234.179	83.56
234.413	97.56
234.647	94.56
234.881	87.56
235.115	89.56
235.349	77.56
235.583	74.56
235.817	90.56
236.051	76.56
236.285	74.56
236.519	86.56
236.753	85.56
236.987	76.56
237.221	83.56
237.455	79.56
237.689	69.56
237.922	68.56
238.156	83.56
238.39	82.56
238.624	89.56
238.858	74.56
239.091	82.56
239.325	77.56
239.559	92.56
239.793	78.56
240.027	68.56
240.26	73.56
240.494	82.56
240.728	72.56
240.961	79.56
241.195	72.56
241.429	72.56
241.662	79.56
241.896	76.56
242.13	90.56
242.363	73.56
242.597	78.56
242.83	80.56
243.064	79.56
243.298	75.56
243.531	81.56
243.765	88.56
243.998	77.56
244.232	78.56
244.465	87.56
244.699	85.56
244.932	70.56
245.166	75.56
245.399	82.56
245.633	80.56
245.866	87.56
246.099	72.56
246.333	80.56
246.566	78.56
246.8	91.56
247.033	84.56
247.266	88.56
247.5	67.56
247.733	80.56
247.966	90.56
248.2	90.56
248.433	84.56
248.666	92.56
248.899	80.56
249.133	80.56
249.366	75.56
249.599	84.56
249.832	81.56
250.066	89.56
250.299	80.56
250.532	80.56
250.765	70.56
250.998	89.56
251.231	83.56
251.465	80.56
251.698	73.56
251.931	71.56
252.164	86.56
252.397	86.56
252.63	87.56
252.863	76.56
253.096	94.56
253.329	78.56
253.562	83.56
253.795	89.56
254.028	89.56
254.261	79.56
254.494	98.56
254.727	77.56
254.96	81.56
255.193	78.56
255.426	78.56
255.659	81.56
255.892	82.56
256.124	71.56
256.357	83.56
256.59	88.56
256.823	97.56
257.056	99.56
257.289	79.56
257.521	90.56
257.754	73.56
257.987	96.56
258.22	80.56
258.452	85.56
258.685	66.56
258.918	77.56
259.151	84.56
259.383	87.56
259.616	96.56
259.849	87.56
260.081	66.56
260.314	85.56
260.547	78.56
260.779	83.56
261.012	92.56
261.244	85.56
261.477	82.56
261.71	90.56
261.942	101.56
262.175	95.56
262.407	63.56
262.64	65.56
262.872	84.56
263.105	87.56
263.337	89.56
263.57	87.56
263.802	73.56
264.035	76.56
264.267	79.56
264.499	90.56
264.732	77.56
264.964	82.56
265.197	86.56
265.429	56.56
265.661	81.56
265.894	99.56
266.126	78.56
266.358	82.56
266.591	92.56
266.823	75.56
267.055	87.56
267.287	72.56
267.52	93.56
267.752	82.56
267.984	87.56
268.216	84.56
268.448	86.56
268.681	97.56
268.913	81.56
269.145	82.56
269.377	75.56
269.609	84.56
269.841	74.56
270.073	78.56
270.306	96.56
270.538	92.56
270.77	90.56
271.002	85.56
271.234	87.56
271.466	79.56
271.698	85.56
271.93	79.56
272.162	95.56
272.394	79.56
272.626	75.56
272.858	88.56
273.09	94.56
273.322	92.56
273.553	79.56
273.785	94.56
274.017	87.56
274.249	82.56
274.481	69.56
274.713	92.56
274.945	80.56
275.176	84.56
275.408	83.56
275.64	85.56
275.872	83.56
276.104	85.56
276.335	98.56
276.567	96.56
276.799	94.56
277.031	95.56
277.262	88.56
277.494	90.56
277.726	88.56
277.957	94.56
278.189	92.56
278.421	79.56
278.652	72.56
278.884	87.56
279.115	94.56
279.347	82.56
279.579	88.56
279.81	87.56
280.042	91.56
280.273	99.56
280.505	96.56
280.736	82.56
280.968	91.56
281.199	90.56
281.431	93.56
281.662	86.56
281.894	90.56
282.125	97.56
282.356	110.56
282.588	115.56
282.819	96.56
283.051	95.56
283.282	78.56
283.513	88.56
283.745	85.56
283.976	75.56
284.207	89.56
284.439	95.56
284.67	100.56
284.901	93.56
285.132	90.56
285.364	93.56
285.595	95.56
285.826	85.56
286.057	88.56
286.288	94.56
286.52	79.56
286.751	87.56
286.982	100.56
287.213	87.56
287.444	94.56
287.675	82.56
287.906	82.56
288.138	90.56
288.369	99.56
288.6	87.56
288.831	105.56
289.062	90.56
289.293	78.56
289.524	79.56
289.755	75.56
289.986	88.56
290.217	79.56
290.448	78.56
290.679	96.56
290.91	87.56
291.141	101.56
291.371	86.56
291.602	87.56
291.833	91.56
292.064	86.56
292.295	98.56
292.526	94.56
292.757	85.56
292.987	89.56
293.218	97.56
293.449	79.56
293.68	83.56
293.91	95.56
294.141	85.56
294.372	97.56
294.603	113.56
294.833	86.56
295.064	88.56
295.295	102.56
295.525	81.56
295.756	88.56
295.987	95.56
296.217	118.56
296.448	118.56
296.679	106.56
296.909	95.56
297.14	99.56
297.37	98.56
297.601	66.56
297.831	97.56
298.062	100.56
298.292	89.56
298.523	89.56
298.753	90.56
298.984	93.56
299.214	74.56
299.445	102.56
299.675	94.56
299.905	102.56
300.136	98.56
300.366	87.56
300.597	94.56
300.827	94.56
301.057	90.56
301.288	98.56
301.518	85.56
301.748	92.56
301.979	98.56
302.209	96.56
302.439	83.56
302.669	77.56
302.9	102.56
303.13	96.56
303.36	100.56
303.59	90.56
303.82	95.56
304.051	94.56
304.281	83.56
304.511	88.56
304.741	87.56
304.971	100.56
305.201	101.56
305.431	93.56
305.661	111.56
305.891	78.56
306.121	95.56
306.352	102.56
306.582	97.56
306.812	92.56
307.042	96.56
307.272	86.56
307.502	78.56
307.731	96.56
307.961	93.56
308.191	81.56
308.421	100.56
308.651	92.56
308.881	77.56
309.111	90.56
309.341	77.56
309.571	87.56
309.8	92.56
310.03	102.56
310.26	93.56
310.49	107.56
310.72	99.56
310.949	104.56
311.179	99.56
311.409	94.56
311.639	91.56
311.868	91.56
312.098	86.56
312.328	99.56
312.557	103.56
312.787	102.56
313.017	96.56
313.246	88.56
313.476	102.56
313.706	95.56
313.935	96.56
314.165	94.56
314.394	93.56
314.624	101.56
314.853	112.56
315.083	85.56
315.312	104.56
315.542	85.56
315.771	99.56
316.001	95.56
316.23	90.56
316.46	102.56
316.689	98.56
316.919	100.56
317.148	98.56
317.377	85.56
317.607	95.56
317.836	93.56
318.065	90.56
318.295	97.56
318.524	91.56
318.753	78.56
318.983	93.56
319.212	92.56
319.441	106.56
319.67	120.56
319.9	93.56
320.129	98.56
320.358	93.56
320.587	103.56
320.816	105.56
321.046	94.56
321.275	111.56
321.504	99.56
321.733	104.56
321.962	96.56
322.191	93.56
322.42	107.56
322.649	124.56
322.878	124.56
323.108	126.56
323.337	118.56
323.566	118.56
323.795	152.56
324.024	188.56
324.253	365.56
324.482	742.56
324.71	1520.56
324.939	2006.56
325.168	726.56
325.397	222.56
325.626	142.56
325.855	133.56
326.084	125.56
326.313	142.56
326.542	158.56
326.77	210.56
326.999	422.56
327.228	854.56
327.457	1591.56
327.686	1244.56
327.914	339.56
328.143	180.56
328.372	135.56
328.6	118.56
328.829	117.56
329.058	109.56
329.287	125.56
329.515	107.56
329.744	123.56
329.972	108.56
330.201	104.56
330.43	102.56
330.658	119.56
330.887	126.56
331.115	112.56
331.344	92.56
331.572	98.56
331.801	100.56
332.03	92.56
332.258	101.56
332.486	97.56
332.715	98.56
332.943	97.56
333.172	96.56
333.4	110.56
333.629	118.56
333.857	103.56
334.085	113.56
334.314	93.56
334.542	114.56
334.771	78.56
334.999	104.56
335.227	98.56
335.455	89.56
335.684	91.56
335.912	94.56
336.14	100.56
336.369	93.56
336.597	94.56
336.825	100.56
337.053	94.56
337.281	96.56
337.51	99.56
337.738	87.56
337.966	97.56
338.194	109.56
338.422	86.56
338.65	92.56
338.878	83.56
339.106	104.56
339.334	96.56
339.562	90.56
339.79	77.56
340.018	96.56
340.246	97.56
340.474	113.56
340.702	100.56
340.93	105.56
341.158	98.56
341.386	91.56
341.614	101.56
341.842	98.56
342.07	106.56
342.298	99.56
342.526	88.56
342.754	94.56
342.981	106.56
343.209	73.56
343.437	96.56
343.665	109.56
343.893	97.56
344.12	110.56
344.348	88.56
344.576	95.56
344.804	85.56
345.031	95.56
345.259	100.56
345.487	98.56
345.714	91.56
345.942	89.56
346.17	87.56
346.397	92.56
346.625	81.56
346.853	87.56
347.08	97.56
347.308	90.56
347.535	106.56
347.763	105.56
347.99	118.56
348.218	99.56
348.445	95.56
348.673	101.56
348.9	86.56
349.128	95.56
349.355	100.56
349.583	97.56
349.81	97.56
350.037	97.56
350.265	88.56
350.492	104.56
350.72	96.56
350.947	87.56
351.174	103.56
351.402	121.56
351.629	102.56
351.856	115.56
352.083	113.56
352.311	105.56
352.538	96.56
352.765	117.56
352.992	125.56
353.22	116.56
353.447	118.56
353.674	104.56
353.901	100.56
354.128	112.56
354.355	100.56
354.583	94.56
354.81	106.56
355.037	90.56
355.264	93.56
355.491	112.56
355.718	96.56
355.945	94.56
356.172	100.56
356.399	95.56
356.626	103.56
356.853	99.56
357.08	94.56
357.307	100.56
357.534	90.56
357.761	92.56
357.988	97.56
358.215	96.56
358.441	110.56
358.668	102.56
358.895	87.56
359.122	79.56
359.349	97.56
359.576	97.56
359.802	103.56
360.029	92.56
360.256	101.56
360.483	108.56
360.709	106.56
360.936	85.56
361.163	100.56
361.39	97.56
361.616	100.56
361.843	93.56
362.07	100.56
362.296	97.56
362.523	78.56
362.749	86.56
362.976	103.56
363.203	114.56
363.429	103.56
363.656	102.56
363.882	87.56
364.109	102.56
364.335	93.56
364.562	97.56
364.788	93.56
365.015	98.56
365.241	109.56
365.468	102.56
365.694	114.56
365.92	104.56
366.147	87.56
366.373	86.56
366.599	97.56
366.826	94.56
367.052	89.56
367.278	85.56
367.505	86.56
367.731	86.56
367.957	89.56
368.184	105.56
368.41	98.56
368.636	113.56
368.862	105.56
369.089	108.56
369.315	102.56
369.541	92.56
369.767	84.56
369.993	97.56
370.219	94.56
370.445	81.56
370.672	87.56
370.898	90.56
371.124	93.56
371.35	97.56
371.576	92.56
371.802	86.56
372.028	77.56
372.254	98.56
372.48	85.56
372.706	97.56
372.932	95.56
373.158	93.56
373.384	96.56
373.61	89.56
373.835	89.56
374.061	93.56
374.287	92.56
374.513	88.56
374.739	86.56
374.965	96.56
375.191	102.56
375.416	95.56
375.642	94.56
375.868	92.56
376.094	102.56
376.319	76.56
376.545	82.56
376.771	86.56
376.997	100.56
377.222	83.56
377.448	86.56
377.674	88.56
377.899	92.56
378.125	101.56
378.35	77.56
378.576	98.56
378.802	80.56
379.027	103.56
379.253	96.56
379.478	100.56
379.704	94.56
379.929	108.56
380.155	103.56
380.38	83.56
380.606	102.56
380.831	114.56
381.057	99.56
381.282	113.56
381.507	103.56
381.733	83.56
381.958	92.56
382.184	103.56
382.409	107.56
382.634	116.56
382.86	108.56
383.085	119.56
383.31	110.56
383.535	113.56
383.761	119.56
383.986	112.56
384.211	108.56
384.436	110.56
384.662	112.56
384.887	104.56
385.112	112.56
385.337	131.56
385.562	126.56
385.787	108.56
386.013	116.56
386.238	119.56
386.463	110.56
386.688	130.56
386.913	104.56
387.138	117.56
387.363	117.56
387.588	108.56
387.813	103.56
388.038	111.56
388.263	124.56
388.488	126.56
388.713	97.56
388.938	98.56
389.163	87.56
389.387	106.56
389.612	95.56
389.837	86.56
390.062	97.56
390.287	84.56
390.512	90.56
390.736	86.56
390.961	109.56
391.186	91.56
391.411	108.56
391.636	90.56
391.86	86.56
392.085	101.56
392.31	88.56
392.534	77.56
392.759	99.56
392.984	102.56
393.208	89.56
393.433	100.56
393.658	100.56
393.882	95.56
394.107	87.56
394.331	90.56
394.556	89.56
394.78	92.56
395.005	90.56
395.229	96.56
395.454	89.56
395.678	91.56
395.903	96.56
396.127	99.56
396.352	97.56
396.576	84.56
396.801	113.56
397.025	89.56
397.249	91.56
397.474	93.56
397.698	98.56
397.922	103.56
398.147	80.56
398.371	86.56
398.595	87.56
398.82	96.56
399.044	77.56
399.268	72.56
399.492	73.56
399.717	88.56
399.941	100.56
400.165	76.56
400.389	86.56
400.613	84.56
400.837	92.56
401.062	100.56
401.286	100.56
401.51	85.56
401.734	86.56
401.958	105.56
402.182	123.56
402.406	152.56
402.63	111.56
402.854	87.56
403.078	100.56
403.302	97.56
403.526	92.56
403.75	86.56
403.974	88.56
404.198	98.56
404.422	99.56
404.645	98.56
404.869	96.56
405.093	98.56
405.317	99.56
405.541	94.56
405.765	98.56
405.988	107.56
406.212	145.56
406.436	190.56
406.66	130.56
406.883	97.56
407.107	93.56
407.331	89.56
407.555	105.56
407.778	95.56
408.002	97.56
408.226	89.56
408.449	104.56
408.673	96.56
408.896	113.56
409.12	103.56
409.344	94.56
409.567	97.56
409.791	89.56
410.014	88.56
410.238	102.56
410.461	101.56
410.685	105.56
410.908	106.56
411.132	101.56
411.355	98.56
411.578	88.56
411.802	99.56
412.025	95.56
412.249	90.56
412.472	92.56
412.695	88.56
412.919	104.56
413.142	89.56
413.365	78.56
413.589	88.56
413.812	92.56
414.035	80.56
414.258	97.56
414.482	95.56
414.705	97.56
414.928	91.56
415.151	100.56
415.374	99.56
415.597	97.56
415.821	97.56
416.044	86.56
416.267	95.56
416.49	83.56
416.713	89.56
416.936	96.56
417.159	100.56
417.382	88.56
417.605	95.56
417.828	95.56
418.051	106.56
418.274	84.56
418.497	93.56
418.72	90.56
418.943	92.56
419.166	89.56
419.389	86.56
419.611	98.56
419.834	86.56
420.057	98.56
420.28	103.56
420.503	100.56
420.726	99.56
420.948	76.56
421.171	104.56
421.394	100.56
421.617	94.56
421.839	78.56
422.062	94.56
422.285	91.56
422.507	85.56
422.73	97.56
422.953	94.56
423.175	65.56
423.398	92.56
423.621	87.56
423.843	94.56
424.066	103.56
424.288	87.56
424.511	84.56
424.733	87.56
424.956	96.56
425.178	96.56
425.401	101.56
425.623	105.56
425.846	94.56
426.068	102.56
426.291	88.56
426.513	99.56
426.735	88.56
426.958	100.56
427.18	104.56
427.402	132.56
427.625	132.56
427.847	121.56
428.069	105.56
428.292	99.56
428.514	84.56
428.736	89.56
428.958	90.56
429.181	77.56
429.403	79.56
429.625	89.56
429.847	94.56
430.069	95.56
430.292	84.56
430.514	95.56
430.736	86.56
430.958	88.56
431.18	87.56
431.402	85.56
431.624	77.56
431.846	105.56
432.068	85.56
432.29	108.56
432.512	94.56
432.734	70.56
432.956	83.56
433.178	84.56
433.4	99.56
433.622	106.56
433.844	93.56
434.066	96.56
434.287	96.56
434.509	99.56
434.731	94.56
434.953	86.56
435.175	80.56
435.397	97.56
435.618	93.56
435.84	100.56
436.062	118.56
436.284	116.56
436.505	94.56
436.727	110.56
436.949	98.56
437.17	99.56
437.392	96.56
437.614	98.56
437.835	91.56
438.057	122.56
438.278	111.56
438.5	114.56
438.721	124.56
438.943	89.56
439.165	96.56
439.386	92.56
439.608	100.56
439.829	92.56
440.05	128.56
440.272	125.56
440.493	93.56
440.715	98.56
440.936	80.56
441.158	96.56
441.379	98.56
441.6	85.56
441.822	91.56
442.043	97.56
442.264	90.56
442.486	103.56
442.707	102.56
442.928	105.56
443.149	129.56
443.371	121.56
443.592	107.56
443.813	117.56
444.034	91.56
444.255	98.56
444.476	93.56
444.698	93.56
444.919	102.56
445.14	121.56
445.361	115.56
445.582	110.56
445.803	111.56
446.024	121.56
446.245	122.56
446.466	89.56
446.687	89.56
446.908	95.56
447.129	87.56
447.35	76.56
447.571	94.56
447.792	86.56
448.013	98.56
448.234	98.56
448.455	87.56
448.675	113.56
448.896	113.56
449.117	107.56
449.338	112.56
449.559	110.56
449.779	142.56
450	93.56
450.221	92.56
450.442	81.56
450.662	103.56
450.883	105.56
451.104	109.56
451.324	94.56
451.545	88.56
451.766	78.56
451.986	89.56
452.207	81.56
452.428	98.56
452.648	90.56
452.869	106.56
453.089	102.56
453.31	108.56
453.53	89.56
453.751	90.56
453.971	94.56
454.192	102.56
454.412	84.56
454.633	86.56
454.853	87.56
455.073	97.56
455.294	90.56
455.514	105.56
455.734	93.56
455.955	89.56
456.175	82.56
456.395	90.56
456.616	78.56
456.836	97.56
457.056	79.56
457.276	88.56
457.497	81.56
457.717	77.56
457.937	101.56
458.157	98.56
458.377	96.56
458.598	105.56
458.818	141.56
459.038	145.56
459.258	114.56
459.478	92.56
459.698	93.56
459.918	71.56
460.138	87.56
460.358	88.56
460.578	97.56
460.798	88.56
461.018	96.56
461.238	90.56
461.458	82.56
461.678	87.56
461.898	74.56
462.118	87.56
462.338	80.56
462.558	86.56
462.777	67.56
462.997	91.56
463.217	72.56
463.437	78.56
463.657	88.56
463.876	96.56
464.096	97.56
464.316	88.56
464.536	97.56
464.755	102.56
464.975	96.56
465.195	130.56
465.414	134.56
465.634	93.56
465.854	96.56
466.073	77.56
466.293	94.56
466.512	88.56
466.732	81.56
466.951	96.56
467.171	90.56
467.391	93.56
467.61	82.56
467.829	89.56
468.049	94.56
468.268	104.56
468.488	94.56
468.707	72.56
468.927	98.56
469.146	90.56
469.365	90.56
469.585	94.56
469.804	82.56
470.023	82.56
470.243	98.56
470.462	102.56
470.681	102.56
470.901	93.56
471.12	95.56
471.339	91.56
471.558	90.56
471.777	94.56
471.997	90.56
472.216	91.56
472.435	101.56
472.654	90.56
472.873	91.56
473.092	88.56
473.311	94.56
473.53	79.56
473.749	80.56
473.968	86.56
474.187	87.56
474.406	94.56
474.625	94.56
474.844	74.56
475.063	81.56
475.282	105.56
475.501	84.56
475.72	85.56
475.939	85.56
476.158	99.56
476.377	88.56
476.596	97.56
476.814	78.56
477.033	97.56
477.252	96.56
477.471	87.56
477.69	93.56
477.908	83.56
478.127	83.56
478.346	90.56
478.564	98.56
478.783	104.56
479.002	93.56
479.22	97.56
479.439	97.56
479.658	97.56
479.876	81.56
480.095	76.56
480.313	96.56
480.532	73.56
480.751	87.56
480.969	84.56
481.188	118.56
481.406	91.56
481.624	97.56
481.843	106.56
482.061	88.56
482.28	89.56
482.498	104.56
482.717	108.56
482.935	87.56
483.153	97.56
483.372	84.56
483.59	85.56
483.808	88.56
484.027	93.56
484.245	80.56
484.463	79.56
484.681	104.56
484.9	103.56
485.118	97.56
485.336	86.56
485.554	98.56
485.772	102.56
485.99	117.56
486.209	116.56
486.427	100.56
486.645	100.56
486.863	121.56
487.081	99.56
487.299	103.56
487.517	97.56
487.735	98.56
487.953	96.56
488.171	92.56
488.389	96.56
488.607	108.56
488.825	93.56
489.043	89.56
489.261	89.56
489.479	94.56
489.696	83.56
489.914	77.56
490.132	90.56
490.35	101.56
490.568	98.56
490.786	84.56
491.003	91.56
491.221	100.56
491.439	87.56
491.657	96.56
491.874	103.56
492.092	83.56
492.31	86.56
492.527	99.56
492.745	90.56
492.963	87.56
493.18	88.56
493.398	83.56
493.615	93.56
493.833	92.56
494.05	91.56
494.268	98.56
494.485	91.56
494.703	94.56
494.92	94.56
495.138	97.56
495.355	102.56
495.573	97.56
495.79	77.56
496.008	92.56
496.225	93.56
496.442	84.56
496.66	91.56
496.877	96.56
497.094	101.56
497.312	80.56
497.529	78.56
497.746	104.56
497.963	88.56
498.181	101.56
498.398	89.56
498.615	100.56
498.832	101.56
499.049	95.56
499.267	107.56
499.484	83.56
499.701	90.56
499.918	101.56
500.135	97.56
500.352	87.56
500.569	92.56
500.786	87.56
501.003	80.56
501.22	109.56
501.437	104.56
501.654	103.56
501.871	110.56
502.088	78.56
502.305	93.56
502.522	88.56
502.739	79.56
502.956	89.56
503.172	85.56
503.389	97.56
503.606	103.56
503.823	84.56
504.04	90.56
504.256	88.56
504.473	93.56
504.69	83.56
504.907	98.56
505.123	103.56
505.34	79.56
505.557	94.56
505.773	112.56
505.99	99.56
506.207	98.56
506.423	80.56
506.64	96.56
506.856	100.56
507.073	95.56
507.289	100.56
507.506	100.56
507.722	109.56
507.939	88.56
508.155	102.56
508.372	78.56
508.588	89.56
508.805	82.56
509.021	92.56
509.238	97.56
509.454	83.56
509.67	97.56
509.887	97.56
510.103	136.56
510.319	210.56
510.536	649.56
510.752	1959.56
510.968	572.56
511.184	144.56
511.401	92.56
511.617	88.56
511.833	89.56
512.049	83.56
512.265	93.56
512.481	86.56
512.698	90.56
512.914	89.56
513.13	90.56
513.346	87.56
513.562	96.56
513.778	81.56
513.994	108.56
514.21	119.56
514.426	113.56
514.642	120.56
514.858	126.56
515.074	139.56
515.29	412.56
