Data from Uncirc_2005_H10_HRD10591_00001.txt Node
Date: Wed Jan 03 10:28:25 EST 2024
User: Yrep
Spectrometer: HR+D1059
Trigger mode: 1
Integration Time (sec): 1.000000E-1
Scans to average: 1
Electric dark correction enabled: true
Nonlinearity correction enabled: false
Boxcar width: 0
XAxis mode: Wavelengths
Number of Pixels in Spectrum: 2048
>>>>>Begin Spectral Data<<<<<
223.165	-22.38
223.4	-22.38
223.635	-22.38
223.869	-11.38
224.104	-26.38
224.338	-18.38
224.573	-22.38
224.808	-17.38
225.042	-10.38
225.277	0.62
225.511	-2.38
225.746	-2.38
225.98	13.62
226.215	4.62
226.449	17.62
226.683	27.62
226.918	32.62
227.152	36.62
227.387	37.62
227.621	49.62
227.856	38.62
228.09	45.62
228.324	45.62
228.559	57.62
228.793	56.62
229.027	51.62
229.262	62.62
229.496	72.62
229.73	78.62
229.964	80.62
230.199	74.62
230.433	86.62
230.667	85.62
230.901	86.62
231.136	84.62
231.37	80.62
231.604	81.62
231.838	79.62
232.072	80.62
232.306	69.62
232.541	96.62
232.775	78.62
233.009	81.62
233.243	74.62
233.477	63.62
233.711	84.62
233.945	97.62
234.179	92.62
234.413	85.62
234.647	75.62
234.881	74.62
235.115	80.62
235.349	76.62
235.583	77.62
235.817	86.62
236.051	92.62
236.285	68.62
236.519	80.62
236.753	99.62
236.987	74.62
237.221	77.62
237.455	75.62
237.689	80.62
237.922	69.62
238.156	73.62
238.39	67.62
238.624	69.62
238.858	97.62
239.091	77.62
239.325	82.62
239.559	81.62
239.793	72.62
240.027	67.62
240.26	79.62
240.494	80.62
240.728	99.62
240.961	73.62
241.195	56.62
241.429	79.62
241.662	67.62
241.896	71.62
242.13	88.62
242.363	85.62
242.597	72.62
242.83	57.62
243.064	79.62
243.298	83.62
243.531	81.62
243.765	58.62
243.998	62.62
244.232	93.62
244.465	76.62
244.699	77.62
244.932	86.62
245.166	78.62
245.399	67.62
245.633	66.62
245.866	76.62
246.099	78.62
246.333	80.62
246.566	68.62
246.8	76.62
247.033	80.62
247.266	75.62
247.5	68.62
247.733	74.62
247.966	83.62
248.2	82.62
248.433	70.62
248.666	78.62
248.899	91.62
249.133	91.62
249.366	100.62
249.599	86.62
249.832	80.62
250.066	84.62
250.299	76.62
250.532	79.62
250.765	92.62
250.998	74.62
251.231	69.62
251.465	76.62
251.698	84.62
251.931	75.62
252.164	86.62
252.397	73.62
252.63	82.62
252.863	68.62
253.096	80.62
253.329	79.62
253.562	83.62
253.795	66.62
254.028	92.62
254.261	82.62
254.494	78.62
254.727	80.62
254.96	74.62
255.193	86.62
255.426	86.62
255.659	80.62
255.892	76.62
256.124	82.62
256.357	83.62
256.59	90.62
256.823	76.62
257.056	79.62
257.289	77.62
257.521	84.62
257.754	73.62
257.987	79.62
258.22	73.62
258.452	74.62
258.685	93.62
258.918	83.62
259.151	81.62
259.383	87.62
259.616	82.62
259.849	76.62
260.081	81.62
260.314	75.62
260.547	79.62
260.779	72.62
261.012	86.62
261.244	86.62
261.477	92.62
261.71	82.62
261.942	86.62
262.175	89.62
262.407	72.62
262.64	76.62
262.872	79.62
263.105	91.62
263.337	73.62
263.57	64.62
263.802	76.62
264.035	79.62
264.267	90.62
264.499	73.62
264.732	73.62
264.964	70.62
265.197	73.62
265.429	77.62
265.661	80.62
265.894	80.62
266.126	81.62
266.358	78.62
266.591	82.62
266.823	93.62
267.055	79.62
267.287	76.62
267.52	84.62
267.752	76.62
267.984	82.62
268.216	83.62
268.448	80.62
268.681	85.62
268.913	90.62
269.145	72.62
269.377	111.62
269.609	81.62
269.841	78.62
270.073	84.62
270.306	77.62
270.538	84.62
270.77	88.62
271.002	81.62
271.234	76.62
271.466	80.62
271.698	81.62
271.93	91.62
272.162	81.62
272.394	94.62
272.626	86.62
272.858	93.62
273.09	76.62
273.322	89.62
273.553	92.62
273.785	77.62
274.017	79.62
274.249	96.62
274.481	75.62
274.713	77.62
274.945	98.62
275.176	80.62
275.408	88.62
275.64	78.62
275.872	86.62
276.104	87.62
276.335	94.62
276.567	94.62
276.799	98.62
277.031	83.62
277.262	75.62
277.494	59.62
277.726	77.62
277.957	84.62
278.189	77.62
278.421	77.62
278.652	102.62
278.884	94.62
279.115	89.62
279.347	74.62
279.579	79.62
279.81	84.62
280.042	84.62
280.273	81.62
280.505	67.62
280.736	73.62
280.968	89.62
281.199	72.62
281.431	77.62
281.662	64.62
281.894	91.62
282.125	86.62
282.356	101.62
282.588	125.62
282.819	109.62
283.051	86.62
283.282	98.62
283.513	77.62
283.745	85.62
283.976	86.62
284.207	84.62
284.439	81.62
284.67	74.62
284.901	90.62
285.132	86.62
285.364	85.62
285.595	76.62
285.826	91.62
286.057	85.62
286.288	93.62
286.52	85.62
286.751	91.62
286.982	92.62
287.213	84.62
287.444	80.62
287.675	79.62
287.906	74.62
288.138	85.62
288.369	88.62
288.6	101.62
288.831	92.62
289.062	95.62
289.293	99.62
289.524	88.62
289.755	77.62
289.986	91.62
290.217	72.62
290.448	89.62
290.679	92.62
290.91	76.62
291.141	89.62
291.371	90.62
291.602	77.62
291.833	88.62
292.064	91.62
292.295	81.62
292.526	81.62
292.757	95.62
292.987	101.62
293.218	77.62
293.449	80.62
293.68	88.62
293.91	87.62
294.141	82.62
294.372	83.62
294.603	74.62
294.833	79.62
295.064	76.62
295.295	83.62
295.525	88.62
295.756	92.62
295.987	103.62
296.217	115.62
296.448	110.62
296.679	106.62
296.909	90.62
297.14	80.62
297.37	85.62
297.601	95.62
297.831	86.62
298.062	91.62
298.292	80.62
298.523	82.62
298.753	79.62
298.984	91.62
299.214	77.62
299.445	79.62
299.675	89.62
299.905	93.62
300.136	92.62
300.366	100.62
300.597	89.62
300.827	92.62
301.057	92.62
301.288	101.62
301.518	83.62
301.748	86.62
301.979	102.62
302.209	93.62
302.439	83.62
302.669	83.62
302.9	85.62
303.13	92.62
303.36	80.62
303.59	96.62
303.82	105.62
304.051	91.62
304.281	92.62
304.511	95.62
304.741	87.62
304.971	79.62
305.201	102.62
305.431	85.62
305.661	84.62
305.891	85.62
306.121	82.62
306.352	91.62
306.582	106.62
306.812	94.62
307.042	109.62
307.272	90.62
307.502	93.62
307.731	82.62
307.961	79.62
308.191	84.62
308.421	86.62
308.651	91.62
308.881	96.62
309.111	92.62
309.341	94.62
309.571	91.62
309.8	88.62
310.03	94.62
310.26	80.62
310.49	81.62
310.72	85.62
310.949	106.62
311.179	81.62
311.409	86.62
311.639	96.62
311.868	90.62
312.098	80.62
312.328	82.62
312.557	93.62
312.787	82.62
313.017	91.62
313.246	88.62
313.476	93.62
313.706	77.62
313.935	103.62
314.165	99.62
314.394	85.62
314.624	93.62
314.853	90.62
315.083	87.62
315.312	92.62
315.542	78.62
315.771	100.62
316.001	77.62
316.23	82.62
316.46	87.62
316.689	83.62
316.919	90.62
317.148	91.62
317.377	83.62
317.607	72.62
317.836	82.62
318.065	93.62
318.295	103.62
318.524	80.62
318.753	87.62
318.983	104.62
319.212	94.62
319.441	110.62
319.67	101.62
319.9	83.62
320.129	84.62
320.358	96.62
320.587	76.62
320.816	101.62
321.046	85.62
321.275	89.62
321.504	95.62
321.733	96.62
321.962	88.62
322.191	100.62
322.42	99.62
322.649	97.62
322.878	101.62
323.108	97.62
323.337	120.62
323.566	136.62
323.795	140.62
324.024	182.62
324.253	350.62
324.482	730.62
324.71	1502.62
324.939	1932.62
325.168	715.62
325.397	222.62
325.626	141.62
325.855	116.62
326.084	114.62
326.313	123.62
326.542	129.62
326.77	189.62
326.999	406.62
327.228	855.62
327.457	1539.62
327.686	1222.62
327.914	318.62
328.143	162.62
328.372	129.62
328.6	117.62
328.829	111.62
329.058	114.62
329.287	128.62
329.515	104.62
329.744	101.62
329.972	97.62
330.201	93.62
330.43	100.62
330.658	103.62
330.887	106.62
331.115	104.62
331.344	89.62
331.572	93.62
331.801	97.62
332.03	85.62
332.258	84.62
332.486	91.62
332.715	92.62
332.943	94.62
333.172	85.62
333.4	81.62
333.629	107.62
333.857	90.62
334.085	82.62
334.314	90.62
334.542	106.62
334.771	100.62
334.999	93.62
335.227	85.62
335.455	89.62
335.684	99.62
335.912	79.62
336.14	84.62
336.369	90.62
336.597	85.62
336.825	87.62
337.053	97.62
337.281	85.62
337.51	99.62
337.738	86.62
337.966	73.62
338.194	92.62
338.422	83.62
338.65	79.62
338.878	85.62
339.106	80.62
339.334	101.62
339.562	86.62
339.79	79.62
340.018	79.62
340.246	89.62
340.474	101.62
340.702	93.62
340.93	99.62
341.158	83.62
341.386	89.62
341.614	90.62
341.842	88.62
342.07	80.62
342.298	91.62
342.526	89.62
342.754	89.62
342.981	94.62
343.209	88.62
343.437	108.62
343.665	97.62
343.893	91.62
344.12	90.62
344.348	82.62
344.576	90.62
344.804	88.62
345.031	86.62
345.259	93.62
345.487	102.62
345.714	93.62
345.942	90.62
346.17	89.62
346.397	91.62
346.625	90.62
346.853	76.62
347.08	85.62
347.308	84.62
347.535	88.62
347.763	94.62
347.99	97.62
348.218	97.62
348.445	106.62
348.673	101.62
348.9	90.62
349.128	95.62
349.355	101.62
349.583	95.62
349.81	101.62
350.037	87.62
350.265	89.62
350.492	93.62
350.72	109.62
350.947	90.62
351.174	106.62
351.402	98.62
351.629	110.62
351.856	96.62
352.083	95.62
352.311	103.62
352.538	100.62
352.765	98.62
352.992	101.62
353.22	112.62
353.447	105.62
353.674	108.62
353.901	114.62
354.128	112.62
354.355	99.62
354.583	102.62
354.81	92.62
355.037	100.62
355.264	99.62
355.491	105.62
355.718	84.62
355.945	95.62
356.172	84.62
356.399	99.62
356.626	114.62
356.853	94.62
357.08	87.62
357.307	88.62
357.534	82.62
357.761	73.62
357.988	108.62
358.215	105.62
358.441	104.62
358.668	111.62
358.895	96.62
359.122	91.62
359.349	94.62
359.576	93.62
359.802	97.62
360.029	105.62
360.256	101.62
360.483	94.62
360.709	78.62
360.936	96.62
361.163	86.62
361.39	75.62
361.616	91.62
361.843	91.62
362.07	100.62
362.296	103.62
362.523	89.62
362.749	83.62
362.976	88.62
363.203	85.62
363.429	96.62
363.656	83.62
363.882	92.62
364.109	88.62
364.335	81.62
364.562	86.62
364.788	91.62
365.015	86.62
365.241	94.62
365.468	89.62
365.694	93.62
365.92	81.62
366.147	86.62
366.373	90.62
366.599	79.62
366.826	88.62
367.052	99.62
367.278	108.62
367.505	81.62
367.731	89.62
367.957	79.62
368.184	92.62
368.41	85.62
368.636	91.62
368.862	98.62
369.089	90.62
369.315	85.62
369.541	93.62
369.767	88.62
369.993	92.62
370.219	93.62
370.445	86.62
370.672	78.62
370.898	85.62
371.124	91.62
371.35	85.62
371.576	91.62
371.802	68.62
372.028	88.62
372.254	89.62
372.48	78.62
372.706	80.62
372.932	86.62
373.158	96.62
373.384	93.62
373.61	102.62
373.835	82.62
374.061	81.62
374.287	81.62
374.513	93.62
374.739	68.62
374.965	88.62
375.191	101.62
375.416	91.62
375.642	95.62
375.868	81.62
376.094	93.62
376.319	91.62
376.545	88.62
376.771	107.62
376.997	97.62
377.222	84.62
377.448	89.62
377.674	93.62
377.899	82.62
378.125	87.62
378.35	94.62
378.576	96.62
378.802	91.62
379.027	98.62
379.253	98.62
379.478	77.62
379.704	92.62
379.929	99.62
380.155	84.62
380.38	87.62
380.606	98.62
380.831	101.62
381.057	109.62
381.282	91.62
381.507	105.62
381.733	97.62
381.958	109.62
382.184	104.62
382.409	122.62
382.634	117.62
382.86	114.62
383.085	102.62
383.31	99.62
383.535	116.62
383.761	117.62
383.986	112.62
384.211	114.62
384.436	109.62
384.662	133.62
384.887	123.62
385.112	123.62
385.337	125.62
385.562	118.62
385.787	125.62
386.013	125.62
386.238	130.62
386.463	118.62
386.688	120.62
386.913	128.62
387.138	131.62
387.363	116.62
387.588	106.62
387.813	118.62
388.038	137.62
388.263	144.62
388.488	142.62
388.713	118.62
388.938	92.62
389.163	97.62
389.387	77.62
389.612	85.62
389.837	95.62
390.062	93.62
390.287	96.62
390.512	89.62
390.736	81.62
390.961	96.62
391.186	92.62
391.411	104.62
391.636	92.62
391.86	93.62
392.085	88.62
392.31	83.62
392.534	77.62
392.759	96.62
392.984	89.62
393.208	82.62
393.433	108.62
393.658	88.62
393.882	86.62
394.107	86.62
394.331	86.62
394.556	88.62
394.78	85.62
395.005	80.62
395.229	92.62
395.454	80.62
395.678	92.62
395.903	76.62
396.127	79.62
396.352	85.62
396.576	86.62
396.801	80.62
397.025	81.62
397.249	87.62
397.474	81.62
397.698	79.62
397.922	76.62
398.147	77.62
398.371	93.62
398.595	89.62
398.82	90.62
399.044	87.62
399.268	76.62
399.492	78.62
399.717	71.62
399.941	92.62
400.165	80.62
400.389	82.62
400.613	79.62
400.837	83.62
401.062	83.62
401.286	78.62
401.51	90.62
401.734	77.62
401.958	77.62
402.182	106.62
402.406	103.62
402.63	109.62
402.854	92.62
403.078	78.62
403.302	82.62
403.526	97.62
403.75	74.62
403.974	72.62
404.198	77.62
404.422	70.62
404.645	86.62
404.869	80.62
405.093	89.62
405.317	77.62
405.541	85.62
405.765	90.62
405.988	101.62
406.212	131.62
406.436	158.62
406.66	131.62
406.883	91.62
407.107	93.62
407.331	80.62
407.555	85.62
407.778	88.62
408.002	85.62
408.226	92.62
408.449	101.62
408.673	85.62
408.896	104.62
409.12	83.62
409.344	85.62
409.567	87.62
409.791	94.62
410.014	91.62
410.238	84.62
410.461	92.62
410.685	104.62
410.908	116.62
411.132	103.62
411.355	92.62
411.578	72.62
411.802	86.62
412.025	78.62
412.249	85.62
412.472	94.62
412.695	66.62
412.919	84.62
413.142	98.62
413.365	87.62
413.589	83.62
413.812	100.62
414.035	98.62
414.258	96.62
414.482	95.62
414.705	88.62
414.928	102.62
415.151	81.62
415.374	91.62
415.597	89.62
415.821	89.62
416.044	89.62
416.267	78.62
416.49	97.62
416.713	86.62
416.936	85.62
417.159	85.62
417.382	93.62
417.605	97.62
417.828	94.62
418.051	106.62
418.274	79.62
418.497	81.62
418.72	83.62
418.943	97.62
419.166	84.62
419.389	90.62
419.611	85.62
419.834	102.62
420.057	89.62
420.28	85.62
420.503	79.62
420.726	76.62
420.948	71.62
421.171	104.62
421.394	89.62
421.617	93.62
421.839	84.62
422.062	87.62
422.285	98.62
422.507	81.62
422.73	100.62
422.953	96.62
423.175	76.62
423.398	71.62
423.621	82.62
423.843	93.62
424.066	85.62
424.288	94.62
424.511	86.62
424.733	92.62
424.956	94.62
425.178	92.62
425.401	102.62
425.623	91.62
425.846	94.62
426.068	79.62
426.291	74.62
426.513	84.62
426.735	97.62
426.958	93.62
427.18	89.62
427.402	127.62
427.625	148.62
427.847	111.62
428.069	87.62
428.292	98.62
428.514	77.62
428.736	81.62
428.958	72.62
429.181	86.62
429.403	87.62
429.625	72.62
429.847	94.62
430.069	99.62
430.292	80.62
430.514	80.62
430.736	82.62
430.958	85.62
431.18	79.62
431.402	88.62
431.624	86.62
431.846	79.62
432.068	75.62
432.29	84.62
432.512	85.62
432.734	89.62
432.956	96.62
433.178	87.62
433.4	96.62
433.622	93.62
433.844	90.62
434.066	85.62
434.287	90.62
434.509	89.62
434.731	80.62
434.953	86.62
435.175	86.62
435.397	81.62
435.618	96.62
435.84	85.62
436.062	102.62
436.284	100.62
436.505	81.62
436.727	99.62
436.949	94.62
437.17	93.62
437.392	93.62
437.614	79.62
437.835	110.62
438.057	109.62
438.278	98.62
438.5	100.62
438.721	112.62
438.943	97.62
439.165	85.62
439.386	101.62
439.608	92.62
439.829	104.62
440.05	97.62
440.272	117.62
440.493	108.62
440.715	92.62
440.936	75.62
441.158	71.62
441.379	90.62
441.6	84.62
441.822	85.62
442.043	90.62
442.264	104.62
442.486	86.62
442.707	89.62
442.928	89.62
443.149	117.62
443.371	122.62
443.592	94.62
443.813	106.62
444.034	90.62
444.255	84.62
444.476	85.62
444.698	88.62
444.919	72.62
445.14	117.62
445.361	120.62
445.582	91.62
445.803	132.62
446.024	124.62
446.245	116.62
446.466	108.62
446.687	87.62
446.908	81.62
447.129	82.62
447.35	92.62
447.571	90.62
447.792	93.62
448.013	96.62
448.234	113.62
448.455	90.62
448.675	100.62
448.896	110.62
449.117	105.62
449.338	100.62
449.559	120.62
449.779	122.62
450	100.62
450.221	80.62
450.442	72.62
450.662	85.62
450.883	92.62
451.104	99.62
451.324	93.62
451.545	91.62
451.766	87.62
451.986	75.62
452.207	86.62
452.428	99.62
452.648	98.62
452.869	86.62
453.089	109.62
453.31	103.62
453.53	68.62
453.751	91.62
453.971	92.62
454.192	100.62
454.412	76.62
454.633	78.62
454.853	77.62
455.073	83.62
455.294	90.62
455.514	88.62
455.734	93.62
455.955	99.62
456.175	92.62
456.395	76.62
456.616	84.62
456.836	84.62
457.056	93.62
457.276	84.62
457.497	91.62
457.717	63.62
457.937	85.62
458.157	78.62
458.377	89.62
458.598	93.62
458.818	117.62
459.038	143.62
459.258	101.62
459.478	84.62
459.698	86.62
459.918	93.62
460.138	81.62
460.358	85.62
460.578	107.62
460.798	92.62
461.018	89.62
461.238	83.62
461.458	85.62
461.678	81.62
461.898	81.62
462.118	87.62
462.338	97.62
462.558	79.62
462.777	76.62
462.997	70.62
463.217	82.62
463.437	76.62
463.657	88.62
463.876	65.62
464.096	90.62
464.316	86.62
464.536	89.62
464.755	80.62
464.975	85.62
465.195	139.62
465.414	127.62
465.634	83.62
465.854	87.62
466.073	99.62
466.293	86.62
466.512	99.62
466.732	94.62
466.951	64.62
467.171	89.62
467.391	85.62
467.61	100.62
467.829	81.62
468.049	95.62
468.268	86.62
468.488	86.62
468.707	85.62
468.927	81.62
469.146	78.62
469.365	74.62
469.585	87.62
469.804	103.62
470.023	92.62
470.243	86.62
470.462	98.62
470.681	101.62
470.901	74.62
471.12	92.62
471.339	75.62
471.558	86.62
471.777	65.62
471.997	87.62
472.216	79.62
472.435	94.62
472.654	83.62
472.873	93.62
473.092	73.62
473.311	83.62
473.53	79.62
473.749	85.62
473.968	88.62
474.187	86.62
474.406	85.62
474.625	92.62
474.844	91.62
475.063	92.62
475.282	90.62
475.501	92.62
475.72	70.62
475.939	81.62
476.158	80.62
476.377	92.62
476.596	81.62
476.814	88.62
477.033	86.62
477.252	97.62
477.471	94.62
477.69	82.62
477.908	84.62
478.127	85.62
478.346	78.62
478.564	90.62
478.783	94.62
479.002	98.62
479.22	82.62
479.439	83.62
479.658	90.62
479.876	87.62
480.095	88.62
480.313	94.62
480.532	96.62
480.751	103.62
480.969	88.62
481.188	97.62
481.406	90.62
481.624	89.62
481.843	96.62
482.061	85.62
482.28	78.62
482.498	89.62
482.717	84.62
482.935	82.62
483.153	79.62
483.372	93.62
483.59	88.62
483.808	94.62
484.027	85.62
484.245	97.62
484.463	90.62
484.681	86.62
484.9	97.62
485.118	96.62
485.336	86.62
485.554	103.62
485.772	97.62
485.99	105.62
486.209	104.62
486.427	107.62
486.645	116.62
486.863	101.62
487.081	108.62
487.299	107.62
487.517	83.62
487.735	83.62
487.953	86.62
488.171	96.62
488.389	100.62
488.607	92.62
488.825	101.62
489.043	86.62
489.261	97.62
489.479	90.62
489.696	67.62
489.914	85.62
490.132	94.62
490.35	78.62
490.568	81.62
490.786	79.62
491.003	92.62
491.221	92.62
491.439	78.62
491.657	86.62
491.874	101.62
492.092	98.62
492.31	91.62
492.527	85.62
492.745	81.62
492.963	86.62
493.18	85.62
493.398	87.62
493.615	93.62
493.833	97.62
494.05	87.62
494.268	92.62
494.485	78.62
494.703	86.62
494.92	90.62
495.138	76.62
495.355	83.62
495.573	84.62
495.79	87.62
496.008	94.62
496.225	98.62
496.442	90.62
496.66	78.62
496.877	77.62
497.094	91.62
497.312	85.62
497.529	96.62
497.746	99.62
497.963	97.62
498.181	82.62
498.398	99.62
498.615	94.62
498.832	104.62
499.049	72.62
499.267	96.62
499.484	75.62
499.701	103.62
499.918	98.62
500.135	84.62
500.352	82.62
500.569	87.62
500.786	84.62
501.003	90.62
501.22	79.62
501.437	93.62
501.654	92.62
501.871	90.62
502.088	99.62
502.305	96.62
502.522	87.62
502.739	84.62
502.956	91.62
503.172	84.62
503.389	100.62
503.606	102.62
503.823	82.62
504.04	92.62
504.256	74.62
504.473	98.62
504.69	72.62
504.907	88.62
505.123	94.62
505.34	83.62
505.557	96.62
505.773	99.62
505.99	84.62
506.207	97.62
506.423	85.62
506.64	83.62
506.856	98.62
507.073	92.62
507.289	81.62
507.506	85.62
507.722	105.62
507.939	95.62
508.155	88.62
508.372	83.62
508.588	85.62
508.805	90.62
509.021	94.62
509.238	100.62
509.454	85.62
509.67	94.62
509.887	99.62
510.103	125.62
510.319	189.62
510.536	598.62
510.752	1726.62
510.968	498.62
511.184	129.62
511.401	97.62
511.617	86.62
511.833	105.62
512.049	97.62
512.265	97.62
512.481	93.62
512.698	75.62
512.914	93.62
513.13	92.62
513.346	82.62
513.562	89.62
513.778	106.62
513.994	97.62
514.21	99.62
514.426	107.62
514.642	119.62
514.858	111.62
515.074	142.62
515.29	353.62
515.506	1110.62
515.721	438.62
515.937	139.62
516.153	96.62
516.369	84.62
516.585	82.62
516.801	90.62
