Data from Uncirc_2005_H10_HRD10591_00022.txt Node
Date: Wed Jan 03 10:28:29 EST 2024
User: Yrep
Spectrometer: HR+D1059
Trigger mode: 1
Integration Time (sec): 1.000000E-1
Scans to average: 1
Electric dark correction enabled: true
Nonlinearity correction enabled: false
Boxcar width: 0
XAxis mode: Wavelengths
Number of Pixels in Spectrum: 2048
>>>>>Begin Spectral Data<<<<<
223.165	-13.69
223.4	-13.69
223.635	-13.69
223.869	-20.69
224.104	-20.69
224.338	-18.69
224.573	-20.69
224.808	-28.69
225.042	-10.69
225.277	-4.69
225.511	18.31
225.746	6.31
225.98	0.31
226.215	13.31
226.449	26.31
226.683	15.31
226.918	18.31
227.152	40.31
227.387	15.31
227.621	40.31
227.856	49.31
228.09	40.31
228.324	35.31
228.559	52.31
228.793	58.31
229.027	58.31
229.262	61.31
229.496	69.31
229.73	86.31
229.964	83.31
230.199	70.31
230.433	81.31
230.667	70.31
230.901	59.31
231.136	74.31
231.37	76.31
231.604	82.31
231.838	77.31
232.072	84.31
232.306	89.31
232.541	76.31
232.775	68.31
233.009	79.31
233.243	84.31
233.477	84.31
233.711	73.31
233.945	76.31
234.179	65.31
234.413	69.31
234.647	69.31
234.881	68.31
235.115	68.31
235.349	81.31
235.583	70.31
235.817	86.31
236.051	79.31
236.285	91.31
236.519	65.31
236.753	68.31
236.987	71.31
237.221	75.31
237.455	88.31
237.689	85.31
237.922	76.31
238.156	84.31
238.39	60.31
238.624	62.31
238.858	57.31
239.091	72.31
239.325	78.31
239.559	61.31
239.793	69.31
240.027	76.31
240.26	81.31
240.494	79.31
240.728	85.31
240.961	85.31
241.195	80.31
241.429	73.31
241.662	83.31
241.896	82.31
242.13	64.31
242.363	73.31
242.597	79.31
242.83	69.31
243.064	87.31
243.298	94.31
243.531	81.31
243.765	79.31
243.998	80.31
244.232	80.31
244.465	89.31
244.699	83.31
244.932	81.31
245.166	84.31
245.399	76.31
245.633	64.31
245.866	83.31
246.099	77.31
246.333	78.31
246.566	67.31
246.8	77.31
247.033	78.31
247.266	78.31
247.5	73.31
247.733	78.31
247.966	73.31
248.2	77.31
248.433	87.31
248.666	70.31
248.899	87.31
249.133	78.31
249.366	90.31
249.599	97.31
249.832	85.31
250.066	91.31
250.299	90.31
250.532	83.31
250.765	80.31
250.998	76.31
251.231	71.31
251.465	68.31
251.698	83.31
251.931	76.31
252.164	83.31
252.397	65.31
252.63	82.31
252.863	79.31
253.096	81.31
253.329	72.31
253.562	79.31
253.795	75.31
254.028	74.31
254.261	80.31
254.494	76.31
254.727	75.31
254.96	87.31
255.193	72.31
255.426	73.31
255.659	77.31
255.892	83.31
256.124	77.31
256.357	81.31
256.59	73.31
256.823	85.31
257.056	76.31
257.289	50.31
257.521	75.31
257.754	77.31
257.987	81.31
258.22	81.31
258.452	77.31
258.685	74.31
258.918	74.31
259.151	95.31
259.383	98.31
259.616	81.31
259.849	90.31
260.081	79.31
260.314	90.31
260.547	91.31
260.779	73.31
261.012	96.31
261.244	91.31
261.477	81.31
261.71	94.31
261.942	105.31
262.175	121.31
262.407	86.31
262.64	80.31
262.872	85.31
263.105	70.31
263.337	88.31
263.57	81.31
263.802	75.31
264.035	86.31
264.267	85.31
264.499	67.31
264.732	70.31
264.964	82.31
265.197	74.31
265.429	84.31
265.661	97.31
265.894	62.31
266.126	77.31
266.358	87.31
266.591	91.31
266.823	89.31
267.055	74.31
267.287	70.31
267.52	85.31
267.752	66.31
267.984	90.31
268.216	77.31
268.448	92.31
268.681	75.31
268.913	74.31
269.145	95.31
269.377	89.31
269.609	84.31
269.841	86.31
270.073	86.31
270.306	78.31
270.538	90.31
270.77	84.31
271.002	86.31
271.234	92.31
271.466	94.31
271.698	86.31
271.93	71.31
272.162	83.31
272.394	96.31
272.626	82.31
272.858	85.31
273.09	64.31
273.322	80.31
273.553	75.31
273.785	99.31
274.017	76.31
274.249	88.31
274.481	89.31
274.713	91.31
274.945	100.31
275.176	74.31
275.408	92.31
275.64	74.31
275.872	83.31
276.104	84.31
276.335	88.31
276.567	105.31
276.799	102.31
277.031	106.31
277.262	88.31
277.494	81.31
277.726	93.31
277.957	75.31
278.189	85.31
278.421	85.31
278.652	85.31
278.884	81.31
279.115	78.31
279.347	80.31
279.579	75.31
279.81	92.31
280.042	83.31
280.273	88.31
280.505	83.31
280.736	74.31
280.968	82.31
281.199	84.31
281.431	68.31
281.662	82.31
281.894	95.31
282.125	96.31
282.356	119.31
282.588	145.31
282.819	111.31
283.051	92.31
283.282	86.31
283.513	83.31
283.745	79.31
283.976	85.31
284.207	83.31
284.439	84.31
284.67	94.31
284.901	85.31
285.132	72.31
285.364	94.31
285.595	69.31
285.826	73.31
286.057	84.31
286.288	81.31
286.52	85.31
286.751	80.31
286.982	77.31
287.213	80.31
287.444	78.31
287.675	92.31
287.906	86.31
288.138	82.31
288.369	105.31
288.6	96.31
288.831	83.31
289.062	80.31
289.293	85.31
289.524	75.31
289.755	91.31
289.986	83.31
290.217	84.31
290.448	88.31
290.679	80.31
290.91	86.31
291.141	81.31
291.371	78.31
291.602	77.31
291.833	80.31
292.064	90.31
292.295	87.31
292.526	85.31
292.757	87.31
292.987	84.31
293.218	82.31
293.449	94.31
293.68	72.31
293.91	70.31
294.141	89.31
294.372	75.31
294.603	76.31
294.833	101.31
295.064	90.31
295.295	83.31
295.525	91.31
295.756	97.31
295.987	120.31
296.217	127.31
296.448	115.31
296.679	104.31
296.909	91.31
297.14	85.31
297.37	84.31
297.601	83.31
297.831	86.31
298.062	81.31
298.292	85.31
298.523	85.31
298.753	78.31
298.984	85.31
299.214	93.31
299.445	86.31
299.675	86.31
299.905	99.31
300.136	90.31
300.366	83.31
300.597	76.31
300.827	86.31
301.057	104.31
301.288	96.31
301.518	90.31
301.748	85.31
301.979	108.31
302.209	81.31
302.439	95.31
302.669	89.31
302.9	69.31
303.13	85.31
303.36	87.31
303.59	86.31
303.82	105.31
304.051	97.31
304.281	84.31
304.511	80.31
304.741	91.31
304.971	76.31
305.201	89.31
305.431	84.31
305.661	76.31
305.891	77.31
306.121	99.31
306.352	92.31
306.582	111.31
306.812	100.31
307.042	80.31
307.272	90.31
307.502	89.31
307.731	84.31
307.961	99.31
308.191	86.31
308.421	96.31
308.651	100.31
308.881	86.31
309.111	78.31
309.341	80.31
309.571	96.31
309.8	97.31
310.03	93.31
310.26	93.31
310.49	95.31
310.72	70.31
310.949	112.31
311.179	101.31
311.409	94.31
311.639	94.31
311.868	112.31
312.098	95.31
312.328	90.31
312.557	99.31
312.787	99.31
313.017	97.31
313.246	80.31
313.476	77.31
313.706	107.31
313.935	102.31
314.165	108.31
314.394	110.31
314.624	94.31
314.853	108.31
315.083	99.31
315.312	87.31
315.542	88.31
315.771	113.31
316.001	85.31
316.23	88.31
316.46	83.31
316.689	92.31
316.919	84.31
317.148	81.31
317.377	91.31
317.607	92.31
317.836	93.31
318.065	89.31
318.295	92.31
318.524	83.31
318.753	85.31
318.983	80.31
319.212	86.31
319.441	105.31
319.67	90.31
319.9	93.31
320.129	78.31
320.358	82.31
320.587	110.31
320.816	74.31
321.046	101.31
321.275	95.31
321.504	104.31
321.733	98.31
321.962	101.31
322.191	109.31
322.42	108.31
322.649	114.31
322.878	112.31
323.108	124.31
323.337	133.31
323.566	143.31
323.795	167.31
324.024	218.31
324.253	431.31
324.482	972.31
324.71	2002.31
324.939	2748.31
325.168	955.31
325.397	265.31
325.626	150.31
325.855	138.31
326.084	123.31
326.313	128.31
326.542	157.31
326.77	257.31
326.999	524.31
327.228	1099.31
327.457	2057.31
327.686	1658.31
327.914	419.31
328.143	198.31
328.372	156.31
328.6	124.31
328.829	117.31
329.058	142.31
329.287	141.31
329.515	122.31
329.744	92.31
329.972	99.31
330.201	106.31
330.43	116.31
330.658	124.31
330.887	152.31
331.115	146.31
331.344	95.31
331.572	101.31
331.801	103.31
332.03	95.31
332.258	92.31
332.486	96.31
332.715	89.31
332.943	84.31
333.172	92.31
333.4	94.31
333.629	98.31
333.857	112.31
334.085	99.31
334.314	103.31
334.542	106.31
334.771	85.31
334.999	95.31
335.227	89.31
335.455	85.31
335.684	101.31
335.912	95.31
336.14	99.31
336.369	99.31
336.597	80.31
336.825	99.31
337.053	78.31
337.281	76.31
337.51	88.31
337.738	83.31
337.966	90.31
338.194	83.31
338.422	106.31
338.65	90.31
338.878	80.31
339.106	95.31
339.334	95.31
339.562	88.31
339.79	81.31
340.018	89.31
340.246	105.31
340.474	95.31
340.702	81.31
340.93	96.31
341.158	104.31
341.386	92.31
341.614	109.31
341.842	104.31
342.07	84.31
342.298	96.31
342.526	79.31
342.754	67.31
342.981	80.31
343.209	95.31
343.437	102.31
343.665	86.31
343.893	89.31
344.12	84.31
344.348	92.31
344.576	82.31
344.804	85.31
345.031	94.31
345.259	102.31
345.487	105.31
345.714	97.31
345.942	96.31
346.17	100.31
346.397	102.31
346.625	84.31
346.853	96.31
347.08	108.31
347.308	108.31
347.535	103.31
347.763	95.31
347.99	98.31
348.218	90.31
348.445	89.31
348.673	99.31
348.9	79.31
349.128	100.31
349.355	105.31
349.583	95.31
349.81	93.31
350.037	103.31
350.265	85.31
350.492	85.31
350.72	79.31
350.947	88.31
351.174	123.31
351.402	112.31
351.629	105.31
351.856	104.31
352.083	104.31
352.311	108.31
352.538	93.31
352.765	111.31
352.992	115.31
353.22	99.31
353.447	96.31
353.674	101.31
353.901	104.31
354.128	99.31
354.355	104.31
354.583	80.31
354.81	90.31
355.037	104.31
355.264	92.31
355.491	94.31
355.718	85.31
355.945	84.31
356.172	90.31
356.399	100.31
356.626	89.31
356.853	89.31
357.08	88.31
357.307	86.31
357.534	101.31
357.761	89.31
357.988	85.31
358.215	90.31
358.441	83.31
358.668	72.31
358.895	73.31
359.122	80.31
359.349	93.31
359.576	96.31
359.802	86.31
360.029	105.31
360.256	123.31
360.483	104.31
360.709	90.31
360.936	102.31
361.163	107.31
361.39	98.31
361.616	106.31
361.843	97.31
362.07	83.31
362.296	89.31
362.523	102.31
362.749	107.31
362.976	100.31
363.203	105.31
363.429	84.31
363.656	82.31
363.882	89.31
364.109	83.31
364.335	76.31
364.562	95.31
364.788	104.31
365.015	104.31
365.241	108.31
365.468	109.31
365.694	106.31
365.92	109.31
366.147	97.31
366.373	81.31
366.599	81.31
366.826	88.31
367.052	93.31
367.278	83.31
367.505	96.31
367.731	120.31
367.957	88.31
368.184	98.31
368.41	99.31
368.636	106.31
368.862	114.31
369.089	106.31
369.315	105.31
369.541	93.31
369.767	89.31
369.993	96.31
370.219	87.31
370.445	77.31
370.672	81.31
370.898	80.31
371.124	82.31
371.35	75.31
371.576	76.31
371.802	86.31
372.028	86.31
372.254	72.31
372.48	80.31
372.706	84.31
372.932	86.31
373.158	86.31
373.384	98.31
373.61	94.31
373.835	81.31
374.061	78.31
374.287	98.31
374.513	90.31
374.739	92.31
374.965	92.31
375.191	91.31
375.416	77.31
375.642	86.31
375.868	94.31
376.094	78.31
376.319	82.31
376.545	93.31
376.771	92.31
376.997	93.31
377.222	84.31
377.448	77.31
377.674	84.31
377.899	103.31
378.125	92.31
378.35	99.31
378.576	98.31
378.802	88.31
379.027	97.31
379.253	91.31
379.478	82.31
379.704	93.31
379.929	97.31
380.155	84.31
380.38	90.31
380.606	109.31
380.831	91.31
381.057	112.31
381.282	101.31
381.507	96.31
381.733	95.31
381.958	97.31
382.184	100.31
382.409	95.31
382.634	107.31
382.86	99.31
383.085	113.31
383.31	105.31
383.535	93.31
383.761	92.31
383.986	111.31
384.211	99.31
384.436	98.31
384.662	89.31
384.887	119.31
385.112	98.31
385.337	110.31
385.562	103.31
385.787	115.31
386.013	109.31
386.238	125.31
386.463	105.31
386.688	105.31
386.913	108.31
387.138	106.31
387.363	99.31
387.588	89.31
387.813	100.31
388.038	108.31
388.263	113.31
388.488	107.31
388.713	85.31
388.938	82.31
389.163	74.31
389.387	101.31
389.612	81.31
389.837	85.31
390.062	91.31
390.287	95.31
390.512	80.31
390.736	83.31
390.961	101.31
391.186	80.31
391.411	82.31
391.636	79.31
391.86	82.31
392.085	78.31
392.31	84.31
392.534	84.31
392.759	84.31
392.984	85.31
393.208	83.31
393.433	77.31
393.658	80.31
393.882	77.31
394.107	80.31
394.331	80.31
394.556	90.31
394.78	83.31
395.005	87.31
395.229	108.31
395.454	95.31
395.678	86.31
395.903	84.31
396.127	94.31
396.352	93.31
396.576	92.31
396.801	106.31
397.025	89.31
397.249	86.31
397.474	84.31
397.698	81.31
397.922	91.31
398.147	80.31
398.371	69.31
398.595	93.31
398.82	85.31
399.044	75.31
399.268	83.31
399.492	82.31
399.717	79.31
399.941	83.31
400.165	89.31
400.389	83.31
400.613	86.31
400.837	83.31
401.062	73.31
401.286	92.31
401.51	83.31
401.734	82.31
401.958	97.31
402.182	129.31
402.406	158.31
402.63	121.31
402.854	96.31
403.078	79.31
403.302	90.31
403.526	67.31
403.75	78.31
403.974	84.31
404.198	90.31
404.422	79.31
404.645	73.31
404.869	91.31
405.093	90.31
405.317	92.31
405.541	110.31
405.765	102.31
405.988	138.31
406.212	164.31
406.436	243.31
406.66	170.31
406.883	106.31
407.107	87.31
407.331	99.31
407.555	109.31
407.778	112.31
408.002	96.31
408.226	100.31
408.449	82.31
408.673	83.31
408.896	90.31
409.12	76.31
409.344	75.31
409.567	83.31
409.791	84.31
410.014	90.31
410.238	89.31
410.461	96.31
410.685	94.31
410.908	89.31
411.132	109.31
411.355	99.31
411.578	98.31
411.802	81.31
412.025	81.31
412.249	94.31
412.472	96.31
412.695	83.31
412.919	100.31
413.142	84.31
413.365	83.31
413.589	87.31
413.812	85.31
414.035	76.31
414.258	83.31
414.482	93.31
414.705	79.31
414.928	89.31
415.151	88.31
415.374	82.31
415.597	84.31
415.821	89.31
416.044	95.31
416.267	86.31
416.49	93.31
416.713	73.31
416.936	84.31
417.159	85.31
417.382	90.31
417.605	97.31
417.828	95.31
418.051	102.31
418.274	83.31
418.497	92.31
418.72	94.31
418.943	74.31
419.166	92.31
419.389	88.31
419.611	84.31
419.834	96.31
420.057	91.31
420.28	83.31
420.503	90.31
420.726	77.31
420.948	83.31
421.171	80.31
421.394	86.31
421.617	88.31
421.839	91.31
422.062	82.31
422.285	96.31
422.507	98.31
422.73	106.31
422.953	87.31
423.175	66.31
423.398	80.31
423.621	86.31
423.843	91.31
424.066	87.31
424.288	85.31
424.511	77.31
424.733	101.31
424.956	111.31
425.178	94.31
425.401	100.31
425.623	111.31
425.846	91.31
426.068	95.31
426.291	84.31
426.513	98.31
426.735	76.31
426.958	90.31
427.18	105.31
427.402	173.31
427.625	186.31
427.847	128.31
428.069	105.31
428.292	89.31
428.514	81.31
428.736	77.31
428.958	87.31
429.181	84.31
429.403	78.31
429.625	85.31
429.847	97.31
430.069	104.31
430.292	82.31
430.514	81.31
430.736	77.31
430.958	98.31
431.18	78.31
431.402	87.31
431.624	77.31
431.846	76.31
432.068	87.31
432.29	79.31
432.512	77.31
432.734	82.31
432.956	101.31
433.178	98.31
433.4	105.31
433.622	91.31
433.844	83.31
434.066	76.31
434.287	95.31
434.509	83.31
434.731	82.31
434.953	100.31
435.175	85.31
435.397	101.31
435.618	94.31
435.84	96.31
436.062	144.31
436.284	126.31
436.505	113.31
436.727	90.31
436.949	107.31
437.17	76.31
437.392	95.31
437.614	94.31
437.835	119.31
438.057	129.31
438.278	125.31
438.5	116.31
438.721	126.31
438.943	114.31
439.165	91.31
439.386	90.31
439.608	98.31
439.829	90.31
440.05	141.31
440.272	179.31
440.493	106.31
440.715	92.31
440.936	82.31
441.158	82.31
441.379	81.31
441.6	99.31
441.822	101.31
442.043	114.31
442.264	109.31
442.486	100.31
442.707	92.31
442.928	97.31
443.149	153.31
443.371	149.31
443.592	109.31
443.813	122.31
444.034	108.31
444.255	88.31
444.476	81.31
444.698	86.31
444.919	92.31
445.14	126.31
445.361	128.31
445.582	121.31
445.803	150.31
446.024	161.31
446.245	158.31
446.466	117.31
446.687	73.31
446.908	88.31
447.129	69.31
447.35	74.31
447.571	89.31
447.792	77.31
448.013	101.31
448.234	106.31
448.455	107.31
448.675	137.31
448.896	145.31
449.117	98.31
449.338	114.31
449.559	141.31
449.779	142.31
450	100.31
450.221	79.31
450.442	86.31
450.662	101.31
450.883	96.31
451.104	106.31
451.324	100.31
451.545	90.31
451.766	85.31
451.986	76.31
452.207	83.31
452.428	111.31
452.648	97.31
452.869	111.31
453.089	116.31
453.31	112.31
453.53	94.31
453.751	108.31
453.971	95.31
454.192	111.31
454.412	102.31
454.633	85.31
454.853	91.31
455.073	91.31
455.294	68.31
455.514	101.31
455.734	104.31
455.955	93.31
456.175	85.31
456.395	83.31
456.616	92.31
456.836	82.31
457.056	83.31
457.276	82.31
457.497	80.31
457.717	79.31
457.937	81.31
458.157	78.31
458.377	85.31
458.598	111.31
458.818	149.31
459.038	179.31
459.258	119.31
459.478	96.31
459.698	86.31
459.918	85.31
460.138	76.31
460.358	95.31
460.578	78.31
460.798	91.31
461.018	97.31
461.238	92.31
461.458	73.31
461.678	86.31
461.898	90.31
462.118	93.31
462.338	91.31
462.558	88.31
462.777	66.31
462.997	84.31
463.217	91.31
463.437	82.31
463.657	96.31
463.876	81.31
464.096	89.31
464.316	95.31
464.536	97.31
464.755	100.31
464.975	129.31
465.195	192.31
465.414	185.31
465.634	96.31
465.854	88.31
466.073	102.31
466.293	81.31
466.512	90.31
466.732	81.31
466.951	84.31
467.171	88.31
467.391	84.31
467.61	117.31
467.829	115.31
468.049	86.31
468.268	76.31
468.488	78.31
468.707	74.31
468.927	73.31
469.146	89.31
469.365	82.31
469.585	90.31
469.804	101.31
470.023	98.31
470.243	91.31
470.462	90.31
470.681	112.31
470.901	91.31
471.12	88.31
471.339	77.31
471.558	72.31
471.777	80.31
471.997	76.31
472.216	80.31
472.435	86.31
472.654	81.31
472.873	80.31
473.092	85.31
473.311	79.31
473.53	85.31
473.749	97.31
473.968	109.31
474.187	115.31
474.406	109.31
474.625	69.31
474.844	89.31
475.063	84.31
475.282	84.31
475.501	91.31
475.72	84.31
475.939	93.31
476.158	89.31
476.377	73.31
476.596	88.31
476.814	98.31
477.033	92.31
477.252	92.31
477.471	89.31
477.69	83.31
477.908	90.31
478.127	84.31
478.346	83.31
478.564	86.31
478.783	97.31
479.002	91.31
479.22	96.31
479.439	108.31
479.658	108.31
479.876	102.31
480.095	99.31
480.313	100.31
480.532	85.31
480.751	79.31
480.969	70.31
481.188	97.31
481.406	91.31
481.624	81.31
481.843	77.31
482.061	96.31
482.28	92.31
482.498	93.31
482.717	87.31
482.935	76.31
483.153	85.31
483.372	85.31
483.59	75.31
483.808	89.31
484.027	90.31
484.245	99.31
484.463	100.31
484.681	99.31
484.9	95.31
485.118	96.31
485.336	91.31
485.554	84.31
485.772	100.31
485.99	96.31
486.209	94.31
486.427	103.31
486.645	108.31
486.863	109.31
487.081	104.31
487.299	105.31
487.517	85.31
487.735	90.31
487.953	87.31
488.171	97.31
488.389	92.31
488.607	106.31
488.825	91.31
489.043	88.31
489.261	79.31
489.479	79.31
489.696	85.31
489.914	84.31
490.132	79.31
490.35	97.31
490.568	90.31
490.786	86.31
491.003	82.31
491.221	95.31
491.439	67.31
491.657	108.31
491.874	103.31
492.092	91.31
492.31	82.31
492.527	100.31
492.745	96.31
492.963	94.31
493.18	81.31
493.398	88.31
493.615	98.31
493.833	101.31
494.05	81.31
494.268	83.31
494.485	89.31
494.703	78.31
494.92	78.31
495.138	81.31
495.355	84.31
495.573	95.31
495.79	99.31
496.008	94.31
496.225	84.31
496.442	93.31
496.66	93.31
496.877	76.31
497.094	84.31
497.312	89.31
497.529	99.31
497.746	81.31
497.963	89.31
498.181	97.31
498.398	91.31
498.615	98.31
498.832	103.31
499.049	93.31
499.267	83.31
499.484	91.31
499.701	103.31
499.918	95.31
500.135	83.31
500.352	81.31
500.569	96.31
500.786	81.31
501.003	88.31
501.22	97.31
501.437	86.31
501.654	73.31
501.871	117.31
502.088	97.31
502.305	94.31
502.522	85.31
502.739	88.31
502.956	100.31
503.172	94.31
503.389	111.31
503.606	116.31
503.823	104.31
504.04	89.31
504.256	98.31
504.473	78.31
504.69	68.31
504.907	93.31
505.123	86.31
505.34	96.31
505.557	97.31
505.773	111.31
505.99	86.31
506.207	82.31
506.423	75.31
506.64	83.31
506.856	96.31
507.073	99.31
507.289	83.31
507.506	92.31
507.722	118.31
507.939	110.31
508.155	101.31
508.372	82.31
508.588	94.31
508.805	97.31
509.021	93.31
509.238	93.31
509.454	100.31
509.67	104.31
509.887	102.31
510.103	138.31
510.319	224.31
510.536	757.31
510.752	2557.31
510.968	712.31
511.184	160.31
511.401	120.31
511.617	97.31
511.833	92.31
512.049	84.31
512.265	89.31
512.481	97.31
512.698	93.31
512.914	107.31
513.13	94.31
513.346	98.31
513.562	90.31
513.778	103.31
513.994	104.31
514.21	112.31
514.426	109.31
514.642	145.31
514.858	125.31
515.074	175.31
515.29	539.31
515.506	1795.31
515.721	673.31
