Data from Uncirc_2005_H10_HRD10591_00023.txt Node
Date: Wed Jan 03 10:28:29 EST 2024
User: Yrep
Spectrometer: HR+D1059
Trigger mode: 1
Integration Time (sec): 1.000000E-1
Scans to average: 1
Electric dark correction enabled: true
Nonlinearity correction enabled: false
Boxcar width: 0
XAxis mode: Wavelengths
Number of Pixels in Spectrum: 2048
>>>>>Begin Spectral Data<<<<<
223.165	-7.12
223.4	-7.12
223.635	-7.12
223.869	-6.12
224.104	-19.12
224.338	-13.12
224.573	-7.12
224.808	-26.12
225.042	-1.12
225.277	-15.12
225.511	-11.12
225.746	-10.12
225.98	0.88
226.215	16.88
226.449	20.88
226.683	22.88
226.918	26.88
227.152	27.88
227.387	32.88
227.621	50.88
227.856	49.88
228.09	52.88
228.324	42.88
228.559	52.88
228.793	66.88
229.027	56.88
229.262	67.88
229.496	78.88
229.73	74.88
229.964	80.88
230.199	72.88
230.433	86.88
230.667	89.88
230.901	86.88
231.136	86.88
231.37	81.88
231.604	89.88
231.838	70.88
232.072	84.88
232.306	95.88
232.541	82.88
232.775	87.88
233.009	75.88
233.243	85.88
233.477	85.88
233.711	98.88
233.945	93.88
234.179	72.88
234.413	88.88
234.647	82.88
234.881	82.88
235.115	84.88
235.349	80.88
235.583	75.88
235.817	87.88
236.051	82.88
236.285	77.88
236.519	88.88
236.753	74.88
236.987	84.88
237.221	78.88
237.455	86.88
237.689	90.88
237.922	74.88
238.156	81.88
238.39	82.88
238.624	72.88
238.858	71.88
239.091	72.88
239.325	73.88
239.559	85.88
239.793	79.88
240.027	93.88
240.26	71.88
240.494	68.88
240.728	77.88
240.961	77.88
241.195	81.88
241.429	66.88
241.662	86.88
241.896	71.88
242.13	86.88
242.363	71.88
242.597	66.88
242.83	77.88
243.064	81.88
243.298	65.88
243.531	71.88
243.765	88.88
243.998	79.88
244.232	92.88
244.465	88.88
244.699	84.88
244.932	88.88
245.166	82.88
245.399	80.88
245.633	83.88
245.866	80.88
246.099	71.88
246.333	83.88
246.566	88.88
246.8	81.88
247.033	85.88
247.266	74.88
247.5	72.88
247.733	73.88
247.966	92.88
248.2	83.88
248.433	95.88
248.666	85.88
248.899	87.88
249.133	94.88
249.366	88.88
249.599	85.88
249.832	77.88
250.066	78.88
250.299	76.88
250.532	76.88
250.765	82.88
250.998	83.88
251.231	74.88
251.465	82.88
251.698	89.88
251.931	80.88
252.164	77.88
252.397	75.88
252.63	67.88
252.863	88.88
253.096	70.88
253.329	84.88
253.562	87.88
253.795	89.88
254.028	98.88
254.261	91.88
254.494	86.88
254.727	88.88
254.96	96.88
255.193	74.88
255.426	66.88
255.659	83.88
255.892	71.88
256.124	87.88
256.357	88.88
256.59	87.88
256.823	93.88
257.056	80.88
257.289	81.88
257.521	72.88
257.754	93.88
257.987	72.88
258.22	76.88
258.452	88.88
258.685	92.88
258.918	87.88
259.151	85.88
259.383	79.88
259.616	81.88
259.849	81.88
260.081	79.88
260.314	90.88
260.547	96.88
260.779	86.88
261.012	81.88
261.244	93.88
261.477	90.88
261.71	72.88
261.942	92.88
262.175	108.88
262.407	85.88
262.64	85.88
262.872	105.88
263.105	94.88
263.337	71.88
263.57	88.88
263.802	72.88
264.035	85.88
264.267	81.88
264.499	96.88
264.732	82.88
264.964	90.88
265.197	81.88
265.429	74.88
265.661	77.88
265.894	74.88
266.126	90.88
266.358	65.88
266.591	88.88
266.823	76.88
267.055	81.88
267.287	84.88
267.52	79.88
267.752	85.88
267.984	89.88
268.216	86.88
268.448	77.88
268.681	87.88
268.913	88.88
269.145	90.88
269.377	80.88
269.609	88.88
269.841	90.88
270.073	86.88
270.306	82.88
270.538	102.88
270.77	84.88
271.002	87.88
271.234	91.88
271.466	84.88
271.698	89.88
271.93	73.88
272.162	80.88
272.394	98.88
272.626	89.88
272.858	90.88
273.09	84.88
273.322	85.88
273.553	89.88
273.785	76.88
274.017	82.88
274.249	78.88
274.481	102.88
274.713	90.88
274.945	92.88
275.176	89.88
275.408	81.88
275.64	80.88
275.872	95.88
276.104	87.88
276.335	93.88
276.567	100.88
276.799	109.88
277.031	100.88
277.262	92.88
277.494	87.88
277.726	76.88
277.957	87.88
278.189	87.88
278.421	91.88
278.652	97.88
278.884	87.88
279.115	98.88
279.347	89.88
279.579	69.88
279.81	78.88
280.042	80.88
280.273	92.88
280.505	84.88
280.736	85.88
280.968	79.88
281.199	84.88
281.431	81.88
281.662	91.88
281.894	86.88
282.125	102.88
282.356	109.88
282.588	112.88
282.819	110.88
283.051	96.88
283.282	92.88
283.513	95.88
283.745	96.88
283.976	83.88
284.207	82.88
284.439	93.88
284.67	84.88
284.901	96.88
285.132	81.88
285.364	84.88
285.595	86.88
285.826	87.88
286.057	72.88
286.288	91.88
286.52	88.88
286.751	87.88
286.982	79.88
287.213	88.88
287.444	100.88
287.675	94.88
287.906	103.88
288.138	91.88
288.369	97.88
288.6	83.88
288.831	87.88
289.062	82.88
289.293	93.88
289.524	74.88
289.755	84.88
289.986	87.88
290.217	86.88
290.448	100.88
290.679	78.88
290.91	80.88
291.141	80.88
291.371	98.88
291.602	87.88
291.833	79.88
292.064	78.88
292.295	85.88
292.526	92.88
292.757	87.88
292.987	99.88
293.218	93.88
293.449	69.88
293.68	102.88
293.91	96.88
294.141	96.88
294.372	80.88
294.603	97.88
294.833	105.88
295.064	86.88
295.295	73.88
295.525	83.88
295.756	104.88
295.987	102.88
296.217	134.88
296.448	111.88
296.679	92.88
296.909	87.88
297.14	80.88
297.37	77.88
297.601	87.88
297.831	87.88
298.062	76.88
298.292	100.88
298.523	97.88
298.753	99.88
298.984	103.88
299.214	99.88
299.445	86.88
299.675	92.88
299.905	82.88
300.136	87.88
300.366	86.88
300.597	89.88
300.827	87.88
301.057	91.88
301.288	102.88
301.518	88.88
301.748	96.88
301.979	94.88
302.209	77.88
302.439	93.88
302.669	82.88
302.9	81.88
303.13	108.88
303.36	104.88
303.59	109.88
303.82	93.88
304.051	111.88
304.281	72.88
304.511	93.88
304.741	103.88
304.971	79.88
305.201	88.88
305.431	101.88
305.661	88.88
305.891	98.88
306.121	90.88
306.352	98.88
306.582	102.88
306.812	105.88
307.042	97.88
307.272	86.88
307.502	83.88
307.731	90.88
307.961	89.88
308.191	89.88
308.421	93.88
308.651	92.88
308.881	103.88
309.111	103.88
309.341	84.88
309.571	105.88
309.8	77.88
310.03	105.88
310.26	94.88
310.49	96.88
310.72	95.88
310.949	101.88
311.179	103.88
311.409	108.88
311.639	94.88
311.868	104.88
312.098	91.88
312.328	108.88
312.557	90.88
312.787	93.88
313.017	102.88
313.246	81.88
313.476	86.88
313.706	89.88
313.935	99.88
314.165	93.88
314.394	95.88
314.624	91.88
314.853	96.88
315.083	95.88
315.312	90.88
315.542	86.88
315.771	107.88
316.001	94.88
316.23	79.88
316.46	83.88
316.689	93.88
316.919	98.88
317.148	100.88
317.377	95.88
317.607	104.88
317.836	93.88
318.065	112.88
318.295	89.88
318.524	82.88
318.753	102.88
318.983	86.88
319.212	98.88
319.441	102.88
319.67	87.88
319.9	81.88
320.129	94.88
320.358	91.88
320.587	107.88
320.816	95.88
321.046	101.88
321.275	105.88
321.504	87.88
321.733	111.88
321.962	113.88
322.191	99.88
322.42	101.88
322.649	94.88
322.878	103.88
323.108	112.88
323.337	106.88
323.566	125.88
323.795	149.88
324.024	212.88
324.253	386.88
324.482	817.88
324.71	1706.88
324.939	2199.88
325.168	808.88
325.397	245.88
325.626	155.88
325.855	123.88
326.084	123.88
326.313	126.88
326.542	164.88
326.77	236.88
326.999	440.88
327.228	958.88
327.457	1766.88
327.686	1395.88
327.914	356.88
328.143	178.88
328.372	140.88
328.6	118.88
328.829	119.88
329.058	117.88
329.287	124.88
329.515	108.88
329.744	108.88
329.972	104.88
330.201	101.88
330.43	110.88
330.658	136.88
330.887	147.88
331.115	112.88
331.344	104.88
331.572	104.88
331.801	105.88
332.03	115.88
332.258	99.88
332.486	90.88
332.715	94.88
332.943	96.88
333.172	96.88
333.4	102.88
333.629	108.88
333.857	114.88
334.085	117.88
334.314	89.88
334.542	97.88
334.771	105.88
334.999	102.88
335.227	98.88
335.455	102.88
335.684	105.88
335.912	96.88
336.14	96.88
336.369	99.88
336.597	109.88
336.825	86.88
337.053	105.88
337.281	77.88
337.51	102.88
337.738	105.88
337.966	82.88
338.194	94.88
338.422	95.88
338.65	93.88
338.878	111.88
339.106	93.88
339.334	105.88
339.562	81.88
339.79	73.88
340.018	96.88
340.246	81.88
340.474	110.88
340.702	99.88
340.93	94.88
341.158	84.88
341.386	96.88
341.614	95.88
341.842	86.88
342.07	88.88
342.298	95.88
342.526	96.88
342.754	97.88
342.981	91.88
343.209	99.88
343.437	98.88
343.665	88.88
343.893	90.88
344.12	95.88
344.348	95.88
344.576	100.88
344.804	84.88
345.031	94.88
345.259	85.88
345.487	103.88
345.714	104.88
345.942	84.88
346.17	89.88
346.397	89.88
346.625	109.88
346.853	105.88
347.08	77.88
347.308	100.88
347.535	99.88
347.763	89.88
347.99	102.88
348.218	118.88
348.445	105.88
348.673	105.88
348.9	91.88
349.128	92.88
349.355	93.88
349.583	94.88
349.81	97.88
350.037	82.88
350.265	83.88
350.492	88.88
350.72	90.88
350.947	102.88
351.174	97.88
351.402	121.88
351.629	95.88
351.856	107.88
352.083	117.88
352.311	102.88
352.538	102.88
352.765	108.88
352.992	105.88
353.22	115.88
353.447	93.88
353.674	99.88
353.901	96.88
354.128	92.88
354.355	104.88
354.583	97.88
354.81	103.88
355.037	105.88
355.264	96.88
355.491	97.88
355.718	94.88
355.945	97.88
356.172	97.88
356.399	101.88
356.626	93.88
356.853	72.88
357.08	88.88
357.307	112.88
357.534	94.88
357.761	92.88
357.988	102.88
358.215	101.88
358.441	101.88
358.668	103.88
358.895	90.88
359.122	103.88
359.349	78.88
359.576	94.88
359.802	100.88
360.029	111.88
360.256	99.88
360.483	90.88
360.709	81.88
360.936	96.88
361.163	84.88
361.39	94.88
361.616	97.88
361.843	99.88
362.07	104.88
362.296	81.88
362.523	95.88
362.749	95.88
362.976	91.88
363.203	82.88
363.429	84.88
363.656	100.88
363.882	100.88
364.109	90.88
364.335	94.88
364.562	99.88
364.788	78.88
365.015	90.88
365.241	92.88
365.468	104.88
365.694	83.88
365.92	92.88
366.147	93.88
366.373	93.88
366.599	77.88
366.826	77.88
367.052	93.88
367.278	84.88
367.505	79.88
367.731	88.88
367.957	84.88
368.184	104.88
368.41	90.88
368.636	103.88
368.862	113.88
369.089	109.88
369.315	90.88
369.541	108.88
369.767	102.88
369.993	90.88
370.219	73.88
370.445	75.88
370.672	81.88
370.898	94.88
371.124	94.88
371.35	93.88
371.576	92.88
371.802	91.88
372.028	88.88
372.254	84.88
372.48	82.88
372.706	96.88
372.932	98.88
373.158	95.88
373.384	88.88
373.61	91.88
373.835	82.88
374.061	93.88
374.287	98.88
374.513	85.88
374.739	94.88
374.965	101.88
375.191	101.88
375.416	84.88
375.642	86.88
375.868	103.88
376.094	93.88
376.319	88.88
376.545	97.88
376.771	100.88
376.997	100.88
377.222	98.88
377.448	105.88
377.674	85.88
377.899	85.88
378.125	90.88
378.35	111.88
378.576	114.88
378.802	95.88
379.027	91.88
379.253	90.88
379.478	103.88
379.704	90.88
379.929	109.88
380.155	108.88
380.38	85.88
380.606	88.88
380.831	102.88
381.057	109.88
381.282	100.88
381.507	85.88
381.733	97.88
381.958	103.88
382.184	104.88
382.409	96.88
382.634	101.88
382.86	96.88
383.085	107.88
383.31	103.88
383.535	92.88
383.761	104.88
383.986	105.88
384.211	124.88
384.436	111.88
384.662	101.88
384.887	111.88
385.112	114.88
385.337	115.88
385.562	116.88
385.787	106.88
386.013	104.88
386.238	124.88
386.463	121.88
386.688	111.88
386.913	111.88
387.138	106.88
387.363	113.88
387.588	113.88
387.813	104.88
388.038	106.88
388.263	121.88
388.488	120.88
388.713	106.88
388.938	111.88
389.163	106.88
389.387	108.88
389.612	104.88
389.837	89.88
390.062	90.88
390.287	92.88
390.512	88.88
390.736	86.88
390.961	104.88
391.186	98.88
391.411	97.88
391.636	105.88
391.86	90.88
392.085	101.88
392.31	95.88
392.534	84.88
392.759	93.88
392.984	85.88
393.208	81.88
393.433	84.88
393.658	77.88
393.882	87.88
394.107	82.88
394.331	89.88
394.556	75.88
394.78	100.88
395.005	90.88
395.229	98.88
395.454	95.88
395.678	89.88
395.903	92.88
396.127	93.88
396.352	88.88
396.576	86.88
396.801	98.88
397.025	97.88
397.249	99.88
397.474	97.88
397.698	92.88
397.922	85.88
398.147	84.88
398.371	85.88
398.595	85.88
398.82	78.88
399.044	88.88
399.268	98.88
399.492	74.88
399.717	98.88
399.941	84.88
400.165	93.88
400.389	106.88
400.613	90.88
400.837	78.88
401.062	84.88
401.286	82.88
401.51	82.88
401.734	90.88
401.958	90.88
402.182	121.88
402.406	154.88
402.63	112.88
402.854	92.88
403.078	94.88
403.302	77.88
403.526	86.88
403.75	88.88
403.974	87.88
404.198	99.88
404.422	98.88
404.645	89.88
404.869	109.88
405.093	96.88
405.317	94.88
405.541	101.88
405.765	94.88
405.988	114.88
406.212	157.88
406.436	172.88
406.66	132.88
406.883	105.88
407.107	92.88
407.331	97.88
407.555	98.88
407.778	86.88
408.002	109.88
408.226	89.88
408.449	92.88
408.673	108.88
408.896	96.88
409.12	96.88
409.344	96.88
409.567	97.88
409.791	95.88
410.014	100.88
410.238	87.88
410.461	102.88
410.685	88.88
410.908	109.88
411.132	89.88
411.355	101.88
411.578	85.88
411.802	96.88
412.025	98.88
412.249	89.88
412.472	92.88
412.695	97.88
412.919	108.88
413.142	93.88
413.365	76.88
413.589	103.88
413.812	88.88
414.035	90.88
414.258	91.88
414.482	84.88
414.705	88.88
414.928	89.88
415.151	104.88
415.374	98.88
415.597	99.88
415.821	87.88
416.044	97.88
416.267	97.88
416.49	83.88
416.713	94.88
416.936	105.88
417.159	102.88
417.382	76.88
417.605	82.88
417.828	110.88
418.051	90.88
418.274	85.88
418.497	96.88
418.72	86.88
418.943	82.88
419.166	81.88
419.389	88.88
419.611	94.88
419.834	89.88
420.057	97.88
420.28	84.88
420.503	88.88
420.726	82.88
420.948	92.88
421.171	98.88
421.394	108.88
421.617	93.88
421.839	104.88
422.062	79.88
422.285	97.88
422.507	101.88
422.73	106.88
422.953	96.88
423.175	91.88
423.398	96.88
423.621	100.88
423.843	87.88
424.066	88.88
424.288	91.88
424.511	92.88
424.733	104.88
424.956	98.88
425.178	94.88
425.401	104.88
425.623	91.88
425.846	86.88
426.068	105.88
426.291	80.88
426.513	96.88
426.735	94.88
426.958	94.88
427.18	105.88
427.402	125.88
427.625	153.88
427.847	119.88
428.069	110.88
428.292	85.88
428.514	87.88
428.736	77.88
428.958	82.88
429.181	103.88
429.403	88.88
429.625	85.88
429.847	78.88
430.069	111.88
430.292	105.88
430.514	88.88
430.736	83.88
430.958	78.88
431.18	88.88
431.402	84.88
431.624	90.88
431.846	90.88
432.068	95.88
432.29	85.88
432.512	96.88
432.734	87.88
432.956	101.88
433.178	94.88
433.4	105.88
433.622	94.88
433.844	95.88
434.066	98.88
434.287	101.88
434.509	90.88
434.731	93.88
434.953	100.88
435.175	92.88
435.397	84.88
435.618	88.88
435.84	98.88
436.062	117.88
436.284	113.88
436.505	92.88
436.727	109.88
436.949	93.88
437.17	93.88
437.392	90.88
437.614	88.88
437.835	95.88
438.057	112.88
438.278	119.88
438.5	103.88
438.721	126.88
438.943	110.88
439.165	87.88
439.386	96.88
439.608	83.88
439.829	93.88
440.05	112.88
440.272	140.88
440.493	109.88
440.715	85.88
440.936	88.88
441.158	81.88
441.379	83.88
441.6	96.88
441.822	97.88
442.043	97.88
442.264	114.88
442.486	102.88
442.707	102.88
442.928	89.88
443.149	121.88
443.371	118.88
443.592	117.88
443.813	115.88
444.034	113.88
444.255	82.88
444.476	92.88
444.698	106.88
444.919	85.88
445.14	135.88
445.361	114.88
445.582	113.88
445.803	130.88
446.024	140.88
446.245	137.88
446.466	109.88
446.687	88.88
446.908	92.88
447.129	100.88
447.35	87.88
447.571	93.88
447.792	92.88
448.013	88.88
448.234	101.88
448.455	101.88
448.675	118.88
448.896	115.88
449.117	95.88
449.338	103.88
449.559	129.88
449.779	143.88
450	111.88
450.221	95.88
450.442	98.88
450.662	95.88
450.883	115.88
451.104	115.88
451.324	97.88
451.545	96.88
451.766	96.88
451.986	89.88
452.207	97.88
452.428	90.88
452.648	109.88
452.869	101.88
453.089	104.88
453.31	104.88
453.53	110.88
453.751	91.88
453.971	101.88
454.192	111.88
454.412	89.88
454.633	77.88
454.853	84.88
455.073	89.88
455.294	91.88
455.514	95.88
455.734	72.88
455.955	83.88
456.175	78.88
456.395	88.88
456.616	80.88
456.836	88.88
457.056	85.88
457.276	77.88
457.497	74.88
457.717	80.88
457.937	86.88
458.157	91.88
458.377	86.88
458.598	98.88
458.818	132.88
459.038	137.88
459.258	110.88
459.478	94.88
459.698	105.88
459.918	81.88
460.138	95.88
460.358	97.88
460.578	91.88
460.798	89.88
461.018	92.88
461.238	77.88
461.458	88.88
461.678	80.88
461.898	70.88
462.118	96.88
462.338	78.88
462.558	72.88
462.777	89.88
462.997	92.88
463.217	95.88
463.437	88.88
463.657	95.88
463.876	94.88
464.096	86.88
464.316	95.88
464.536	77.88
464.755	94.88
464.975	73.88
465.195	158.88
465.414	147.88
465.634	96.88
465.854	93.88
466.073	94.88
466.293	90.88
466.512	95.88
466.732	87.88
466.951	82.88
467.171	90.88
467.391	98.88
467.61	98.88
467.829	94.88
468.049	101.88
468.268	90.88
468.488	88.88
468.707	94.88
468.927	81.88
469.146	89.88
469.365	93.88
469.585	87.88
469.804	92.88
470.023	102.88
470.243	98.88
470.462	103.88
470.681	110.88
470.901	94.88
471.12	101.88
471.339	91.88
471.558	73.88
471.777	94.88
471.997	89.88
472.216	92.88
472.435	97.88
472.654	93.88
472.873	89.88
473.092	91.88
473.311	99.88
473.53	100.88
473.749	94.88
473.968	103.88
474.187	100.88
474.406	101.88
474.625	87.88
474.844	93.88
475.063	78.88
475.282	89.88
475.501	87.88
475.72	95.88
475.939	87.88
476.158	68.88
476.377	83.88
476.596	85.88
476.814	101.88
477.033	87.88
477.252	92.88
477.471	79.88
477.69	95.88
477.908	92.88
478.127	98.88
478.346	74.88
478.564	94.88
478.783	107.88
479.002	91.88
479.22	88.88
479.439	111.88
479.658	100.88
479.876	97.88
480.095	100.88
480.313	90.88
480.532	104.88
480.751	78.88
480.969	86.88
481.188	112.88
481.406	97.88
481.624	103.88
481.843	89.88
482.061	68.88
482.28	99.88
482.498	86.88
482.717	112.88
482.935	93.88
483.153	92.88
483.372	89.88
483.59	90.88
483.808	93.88
484.027	88.88
484.245	90.88
484.463	96.88
484.681	93.88
484.9	94.88
485.118	88.88
485.336	105.88
485.554	98.88
485.772	87.88
485.99	97.88
486.209	103.88
486.427	95.88
486.645	113.88
486.863	109.88
487.081	108.88
487.299	97.88
487.517	91.88
487.735	78.88
487.953	88.88
488.171	105.88
488.389	96.88
488.607	106.88
488.825	96.88
489.043	85.88
489.261	88.88
489.479	93.88
489.696	89.88
489.914	90.88
490.132	103.88
490.35	100.88
490.568	99.88
490.786	101.88
491.003	99.88
491.221	86.88
491.439	96.88
491.657	81.88
491.874	100.88
492.092	89.88
492.31	85.88
492.527	111.88
492.745	93.88
492.963	84.88
493.18	77.88
493.398	93.88
493.615	98.88
493.833	88.88
494.05	84.88
494.268	82.88
494.485	86.88
494.703	86.88
494.92	83.88
495.138	109.88
495.355	85.88
495.573	102.88
495.79	83.88
496.008	109.88
496.225	95.88
496.442	93.88
496.66	110.88
496.877	94.88
497.094	93.88
497.312	91.88
497.529	101.88
497.746	88.88
497.963	101.88
498.181	100.88
498.398	86.88
498.615	102.88
498.832	100.88
499.049	88.88
499.267	89.88
499.484	98.88
499.701	106.88
499.918	89.88
500.135	72.88
500.352	82.88
500.569	90.88
500.786	88.88
501.003	77.88
501.22	94.88
501.437	92.88
501.654	92.88
501.871	109.88
502.088	98.88
502.305	85.88
502.522	87.88
502.739	94.88
502.956	96.88
503.172	98.88
503.389	82.88
503.606	95.88
503.823	85.88
504.04	94.88
504.256	97.88
504.473	88.88
504.69	109.88
504.907	101.88
505.123	91.88
505.34	84.88
505.557	92.88
505.773	84.88
505.99	98.88
506.207	82.88
506.423	85.88
506.64	94.88
506.856	84.88
507.073	101.88
507.289	109.88
507.506	102.88
507.722	102.88
507.939	102.88
508.155	105.88
508.372	89.88
508.588	105.88
508.805	112.88
509.021	100.88
509.238	106.88
509.454	98.88
509.67	100.88
509.887	121.88
510.103	135.88
510.319	180.88
510.536	617.88
510.752	1816.88
510.968	526.88
511.184	126.88
511.401	108.88
511.617	85.88
511.833	102.88
512.049	95.88
512.265	98.88
512.481	100.88
512.698	100.88
512.914	85.88
513.13	97.88
513.346	108.88
513.562	99.88
513.778	96.88
513.994	99.88
514.21	98.88
514.426	116.88
514.642	124.88
514.858	114.88
