Data from Uncirc_2005_H10_HRD10591_00084.txt Node
Date: Wed Jan 03 10:28:41 EST 2024
User: Yrep
Spectrometer: HR+D1059
Trigger mode: 1
Integration Time (sec): 1.000000E-1
Scans to average: 1
Electric dark correction enabled: true
Nonlinearity correction enabled: false
Boxcar width: 0
XAxis mode: Wavelengths
Number of Pixels in Spectrum: 2048
>>>>>Begin Spectral Data<<<<<
223.165	-14.75
223.4	-14.75
223.635	-14.75
223.869	-19.75
224.104	-23.75
224.338	-27.75
224.573	-15.75
224.808	-6.75
225.042	-17.75
225.277	-5.75
225.511	0.25
225.746	5.25
225.98	12.25
226.215	22.25
226.449	7.25
226.683	19.25
226.918	31.25
227.152	34.25
227.387	41.25
227.621	41.25
227.856	45.25
228.09	62.25
228.324	65.25
228.559	60.25
228.793	53.25
229.027	61.25
229.262	59.25
229.496	63.25
229.73	88.25
229.964	91.25
230.199	75.25
230.433	83.25
230.667	85.25
230.901	77.25
231.136	81.25
231.37	63.25
231.604	90.25
231.838	85.25
232.072	66.25
232.306	85.25
232.541	85.25
232.775	73.25
233.009	74.25
233.243	89.25
233.477	88.25
233.711	78.25
233.945	78.25
234.179	66.25
234.413	81.25
234.647	88.25
234.881	90.25
235.115	82.25
235.349	78.25
235.583	69.25
235.817	71.25
236.051	80.25
236.285	67.25
236.519	69.25
236.753	74.25
236.987	81.25
237.221	81.25
237.455	83.25
237.689	88.25
237.922	66.25
238.156	79.25
238.39	77.25
238.624	82.25
238.858	82.25
239.091	76.25
239.325	72.25
239.559	91.25
239.793	81.25
240.027	78.25
240.26	73.25
240.494	71.25
240.728	65.25
240.961	58.25
241.195	85.25
241.429	87.25
241.662	74.25
241.896	77.25
242.13	72.25
242.363	72.25
242.597	73.25
242.83	75.25
243.064	71.25
243.298	75.25
243.531	82.25
243.765	65.25
243.998	84.25
244.232	76.25
244.465	87.25
244.699	80.25
244.932	67.25
245.166	71.25
245.399	77.25
245.633	79.25
245.866	60.25
246.099	67.25
246.333	90.25
246.566	77.25
246.8	81.25
247.033	71.25
247.266	79.25
247.5	85.25
247.733	75.25
247.966	80.25
248.2	88.25
248.433	70.25
248.666	77.25
248.899	79.25
249.133	82.25
249.366	90.25
249.599	86.25
249.832	73.25
250.066	80.25
250.299	75.25
250.532	87.25
250.765	82.25
250.998	92.25
251.231	80.25
251.465	78.25
251.698	78.25
251.931	73.25
252.164	78.25
252.397	73.25
252.63	85.25
252.863	80.25
253.096	88.25
253.329	77.25
253.562	74.25
253.795	73.25
254.028	96.25
254.261	76.25
254.494	74.25
254.727	94.25
254.96	76.25
255.193	73.25
255.426	84.25
255.659	94.25
255.892	81.25
256.124	83.25
256.357	65.25
256.59	68.25
256.823	74.25
257.056	79.25
257.289	84.25
257.521	73.25
257.754	87.25
257.987	70.25
258.22	66.25
258.452	77.25
258.685	79.25
258.918	84.25
259.151	74.25
259.383	90.25
259.616	87.25
259.849	98.25
260.081	77.25
260.314	78.25
260.547	92.25
260.779	92.25
261.012	89.25
261.244	85.25
261.477	76.25
261.71	86.25
261.942	99.25
262.175	100.25
262.407	73.25
262.64	87.25
262.872	67.25
263.105	75.25
263.337	72.25
263.57	77.25
263.802	87.25
264.035	72.25
264.267	83.25
264.499	78.25
264.732	82.25
264.964	91.25
265.197	94.25
265.429	81.25
265.661	81.25
265.894	86.25
266.126	86.25
266.358	79.25
266.591	87.25
266.823	76.25
267.055	75.25
267.287	82.25
267.52	78.25
267.752	92.25
267.984	77.25
268.216	80.25
268.448	81.25
268.681	81.25
268.913	93.25
269.145	79.25
269.377	68.25
269.609	89.25
269.841	87.25
270.073	92.25
270.306	95.25
270.538	68.25
270.77	83.25
271.002	78.25
271.234	61.25
271.466	74.25
271.698	69.25
271.93	77.25
272.162	95.25
272.394	85.25
272.626	76.25
272.858	86.25
273.09	76.25
273.322	65.25
273.553	80.25
273.785	90.25
274.017	95.25
274.249	80.25
274.481	85.25
274.713	78.25
274.945	89.25
275.176	91.25
275.408	83.25
275.64	87.25
275.872	93.25
276.104	83.25
276.335	91.25
276.567	99.25
276.799	103.25
277.031	104.25
277.262	91.25
277.494	82.25
277.726	93.25
277.957	92.25
278.189	92.25
278.421	95.25
278.652	89.25
278.884	85.25
279.115	93.25
279.347	79.25
279.579	94.25
279.81	81.25
280.042	76.25
280.273	83.25
280.505	92.25
280.736	81.25
280.968	90.25
281.199	85.25
281.431	93.25
281.662	94.25
281.894	93.25
282.125	99.25
282.356	100.25
282.588	133.25
282.819	116.25
283.051	84.25
283.282	77.25
283.513	71.25
283.745	83.25
283.976	93.25
284.207	94.25
284.439	85.25
284.67	83.25
284.901	93.25
285.132	83.25
285.364	84.25
285.595	86.25
285.826	79.25
286.057	97.25
286.288	94.25
286.52	83.25
286.751	107.25
286.982	96.25
287.213	77.25
287.444	73.25
287.675	94.25
287.906	83.25
288.138	96.25
288.369	91.25
288.6	77.25
288.831	85.25
289.062	77.25
289.293	77.25
289.524	86.25
289.755	80.25
289.986	92.25
290.217	96.25
290.448	83.25
290.679	75.25
290.91	92.25
291.141	96.25
291.371	85.25
291.602	97.25
291.833	95.25
292.064	83.25
292.295	89.25
292.526	86.25
292.757	69.25
292.987	84.25
293.218	90.25
293.449	76.25
293.68	64.25
293.91	96.25
294.141	89.25
294.372	95.25
294.603	89.25
294.833	85.25
295.064	86.25
295.295	85.25
295.525	98.25
295.756	86.25
295.987	114.25
296.217	143.25
296.448	100.25
296.679	92.25
296.909	91.25
297.14	85.25
297.37	92.25
297.601	102.25
297.831	94.25
298.062	102.25
298.292	88.25
298.523	84.25
298.753	77.25
298.984	86.25
299.214	77.25
299.445	92.25
299.675	86.25
299.905	78.25
300.136	77.25
300.366	75.25
300.597	100.25
300.827	91.25
301.057	86.25
301.288	84.25
301.518	80.25
301.748	75.25
301.979	97.25
302.209	98.25
302.439	94.25
302.669	87.25
302.9	81.25
303.13	86.25
303.36	96.25
303.59	109.25
303.82	106.25
304.051	86.25
304.281	92.25
304.511	97.25
304.741	87.25
304.971	87.25
305.201	95.25
305.431	73.25
305.661	84.25
305.891	86.25
306.121	85.25
306.352	88.25
306.582	98.25
306.812	81.25
307.042	86.25
307.272	111.25
307.502	91.25
307.731	101.25
307.961	88.25
308.191	89.25
308.421	91.25
308.651	79.25
308.881	87.25
309.111	93.25
309.341	91.25
309.571	99.25
309.8	100.25
310.03	87.25
310.26	91.25
310.49	94.25
310.72	92.25
310.949	102.25
311.179	92.25
311.409	86.25
311.639	96.25
311.868	97.25
312.098	91.25
312.328	94.25
312.557	93.25
312.787	104.25
313.017	90.25
313.246	95.25
313.476	98.25
313.706	96.25
313.935	98.25
314.165	91.25
314.394	106.25
314.624	97.25
314.853	99.25
315.083	82.25
315.312	95.25
315.542	93.25
315.771	93.25
316.001	85.25
316.23	93.25
316.46	90.25
316.689	91.25
316.919	105.25
317.148	91.25
317.377	98.25
317.607	94.25
317.836	98.25
318.065	87.25
318.295	90.25
318.524	87.25
318.753	91.25
318.983	86.25
319.212	93.25
319.441	95.25
319.67	105.25
319.9	111.25
320.129	86.25
320.358	86.25
320.587	99.25
320.816	83.25
321.046	91.25
321.275	102.25
321.504	105.25
321.733	95.25
321.962	91.25
322.191	97.25
322.42	104.25
322.649	85.25
322.878	115.25
323.108	101.25
323.337	102.25
323.566	124.25
323.795	142.25
324.024	196.25
324.253	371.25
324.482	775.25
324.71	1584.25
324.939	2057.25
325.168	762.25
325.397	228.25
325.626	149.25
325.855	123.25
326.084	125.25
326.313	148.25
326.542	153.25
326.77	207.25
326.999	427.25
327.228	871.25
327.457	1609.25
327.686	1276.25
327.914	334.25
328.143	179.25
328.372	125.25
328.6	119.25
328.829	108.25
329.058	118.25
329.287	106.25
329.515	104.25
329.744	105.25
329.972	91.25
330.201	90.25
330.43	92.25
330.658	119.25
330.887	121.25
331.115	115.25
331.344	98.25
331.572	94.25
331.801	98.25
332.03	96.25
332.258	101.25
332.486	97.25
332.715	96.25
332.943	87.25
333.172	91.25
333.4	97.25
333.629	88.25
333.857	107.25
334.085	99.25
334.314	94.25
334.542	99.25
334.771	98.25
334.999	100.25
335.227	92.25
335.455	83.25
335.684	96.25
335.912	83.25
336.14	93.25
336.369	87.25
336.597	102.25
336.825	98.25
337.053	83.25
337.281	102.25
337.51	85.25
337.738	93.25
337.966	68.25
338.194	94.25
338.422	94.25
338.65	85.25
338.878	94.25
339.106	96.25
339.334	84.25
339.562	78.25
339.79	87.25
340.018	81.25
340.246	93.25
340.474	97.25
340.702	90.25
340.93	81.25
341.158	94.25
341.386	102.25
341.614	99.25
341.842	95.25
342.07	86.25
342.298	92.25
342.526	71.25
342.754	93.25
342.981	94.25
343.209	91.25
343.437	90.25
343.665	94.25
343.893	90.25
344.12	89.25
344.348	93.25
344.576	78.25
344.804	101.25
345.031	96.25
345.259	93.25
345.487	85.25
345.714	92.25
345.942	84.25
346.17	96.25
346.397	94.25
346.625	72.25
346.853	70.25
347.08	81.25
347.308	94.25
347.535	97.25
347.763	99.25
347.99	98.25
348.218	92.25
348.445	106.25
348.673	77.25
348.9	91.25
349.128	83.25
349.355	94.25
349.583	98.25
349.81	93.25
350.037	82.25
350.265	78.25
350.492	85.25
350.72	84.25
350.947	85.25
351.174	86.25
351.402	86.25
351.629	101.25
351.856	106.25
352.083	93.25
352.311	101.25
352.538	112.25
352.765	117.25
352.992	95.25
353.22	102.25
353.447	101.25
353.674	107.25
353.901	98.25
354.128	101.25
354.355	98.25
354.583	98.25
354.81	109.25
355.037	86.25
355.264	94.25
355.491	81.25
355.718	99.25
355.945	86.25
356.172	99.25
356.399	95.25
356.626	96.25
356.853	93.25
357.08	97.25
357.307	92.25
357.534	87.25
357.761	98.25
357.988	102.25
358.215	86.25
358.441	93.25
358.668	98.25
358.895	98.25
359.122	89.25
359.349	83.25
359.576	84.25
359.802	90.25
360.029	100.25
360.256	100.25
360.483	83.25
360.709	82.25
360.936	101.25
361.163	81.25
361.39	94.25
361.616	96.25
361.843	93.25
362.07	94.25
362.296	94.25
362.523	80.25
362.749	91.25
362.976	95.25
363.203	89.25
363.429	87.25
363.656	92.25
363.882	84.25
364.109	89.25
364.335	96.25
364.562	97.25
364.788	88.25
365.015	90.25
365.241	85.25
365.468	104.25
365.694	101.25
365.92	86.25
366.147	82.25
366.373	83.25
366.599	90.25
366.826	85.25
367.052	87.25
367.278	87.25
367.505	86.25
367.731	91.25
367.957	85.25
368.184	88.25
368.41	88.25
368.636	116.25
368.862	118.25
369.089	110.25
369.315	91.25
369.541	82.25
369.767	95.25
369.993	92.25
370.219	79.25
370.445	79.25
370.672	77.25
370.898	69.25
371.124	85.25
371.35	97.25
371.576	94.25
371.802	79.25
372.028	86.25
372.254	92.25
372.48	79.25
372.706	77.25
372.932	78.25
373.158	70.25
373.384	85.25
373.61	79.25
373.835	90.25
374.061	80.25
374.287	96.25
374.513	89.25
374.739	75.25
374.965	93.25
375.191	82.25
375.416	84.25
375.642	89.25
375.868	83.25
376.094	90.25
376.319	82.25
376.545	80.25
376.771	84.25
376.997	88.25
377.222	92.25
377.448	78.25
377.674	89.25
377.899	102.25
378.125	87.25
378.35	88.25
378.576	80.25
378.802	84.25
379.027	82.25
379.253	107.25
379.478	77.25
379.704	91.25
379.929	93.25
380.155	62.25
380.38	92.25
380.606	91.25
380.831	86.25
381.057	92.25
381.282	98.25
381.507	97.25
381.733	104.25
381.958	101.25
382.184	88.25
382.409	103.25
382.634	94.25
382.86	105.25
383.085	116.25
383.31	100.25
383.535	96.25
383.761	81.25
383.986	101.25
384.211	95.25
384.436	75.25
384.662	82.25
384.887	102.25
385.112	95.25
385.337	84.25
385.562	90.25
385.787	112.25
386.013	97.25
386.238	100.25
386.463	99.25
386.688	107.25
386.913	116.25
387.138	113.25
387.363	101.25
387.588	103.25
387.813	90.25
388.038	99.25
388.263	109.25
388.488	104.25
388.713	100.25
388.938	81.25
389.163	86.25
389.387	99.25
389.612	90.25
389.837	78.25
390.062	92.25
390.287	92.25
390.512	86.25
390.736	101.25
390.961	93.25
391.186	90.25
391.411	95.25
391.636	100.25
391.86	82.25
392.085	85.25
392.31	75.25
392.534	65.25
392.759	94.25
392.984	85.25
393.208	82.25
393.433	88.25
393.658	85.25
393.882	91.25
394.107	94.25
394.331	88.25
394.556	75.25
394.78	107.25
395.005	87.25
395.229	84.25
395.454	94.25
395.678	72.25
395.903	89.25
396.127	113.25
396.352	87.25
396.576	85.25
396.801	79.25
397.025	71.25
397.249	92.25
397.474	86.25
397.698	82.25
397.922	75.25
398.147	92.25
398.371	93.25
398.595	87.25
398.82	76.25
399.044	81.25
399.268	79.25
399.492	77.25
399.717	90.25
399.941	98.25
400.165	99.25
400.389	87.25
400.613	82.25
400.837	76.25
401.062	80.25
401.286	75.25
401.51	81.25
401.734	84.25
401.958	88.25
402.182	109.25
402.406	134.25
402.63	108.25
402.854	106.25
403.078	82.25
403.302	91.25
403.526	81.25
403.75	96.25
403.974	90.25
404.198	79.25
404.422	83.25
404.645	86.25
404.869	79.25
405.093	85.25
405.317	90.25
405.541	95.25
405.765	110.25
405.988	106.25
406.212	145.25
406.436	200.25
406.66	139.25
406.883	99.25
407.107	87.25
407.331	95.25
407.555	85.25
407.778	94.25
408.002	86.25
408.226	76.25
408.449	91.25
408.673	92.25
408.896	87.25
409.12	100.25
409.344	83.25
409.567	96.25
409.791	96.25
410.014	83.25
410.238	91.25
410.461	86.25
410.685	86.25
410.908	91.25
411.132	83.25
411.355	91.25
411.578	88.25
411.802	81.25
412.025	85.25
412.249	94.25
412.472	90.25
412.695	91.25
412.919	93.25
413.142	80.25
413.365	83.25
413.589	83.25
413.812	79.25
414.035	92.25
414.258	94.25
414.482	81.25
414.705	94.25
414.928	82.25
415.151	94.25
415.374	97.25
415.597	85.25
415.821	96.25
416.044	79.25
416.267	88.25
416.49	89.25
416.713	83.25
416.936	104.25
417.159	98.25
417.382	86.25
417.605	90.25
417.828	88.25
418.051	88.25
418.274	84.25
418.497	90.25
418.72	89.25
418.943	83.25
419.166	82.25
419.389	82.25
419.611	81.25
419.834	89.25
420.057	80.25
420.28	82.25
420.503	86.25
420.726	74.25
420.948	80.25
421.171	78.25
421.394	90.25
421.617	102.25
421.839	90.25
422.062	95.25
422.285	82.25
422.507	86.25
422.73	84.25
422.953	90.25
423.175	82.25
423.398	86.25
423.621	98.25
423.843	83.25
424.066	67.25
424.288	94.25
424.511	82.25
424.733	98.25
424.956	106.25
425.178	99.25
425.401	102.25
425.623	94.25
425.846	94.25
426.068	93.25
426.291	88.25
426.513	91.25
426.735	63.25
426.958	86.25
427.18	97.25
427.402	123.25
427.625	176.25
427.847	117.25
428.069	85.25
428.292	94.25
428.514	86.25
428.736	71.25
428.958	84.25
429.181	94.25
429.403	81.25
429.625	91.25
429.847	94.25
430.069	79.25
430.292	94.25
430.514	75.25
430.736	89.25
430.958	76.25
431.18	90.25
431.402	76.25
431.624	94.25
431.846	90.25
432.068	86.25
432.29	81.25
432.512	95.25
432.734	89.25
432.956	82.25
433.178	97.25
433.4	104.25
433.622	86.25
433.844	89.25
434.066	81.25
434.287	93.25
434.509	78.25
434.731	83.25
434.953	73.25
435.175	95.25
435.397	91.25
435.618	93.25
435.84	103.25
436.062	111.25
436.284	107.25
436.505	94.25
436.727	107.25
436.949	104.25
437.17	83.25
437.392	69.25
437.614	86.25
437.835	115.25
438.057	113.25
438.278	86.25
438.5	87.25
438.721	116.25
438.943	96.25
439.165	78.25
439.386	82.25
439.608	95.25
439.829	101.25
440.05	104.25
440.272	133.25
440.493	95.25
440.715	85.25
440.936	84.25
441.158	87.25
441.379	90.25
441.6	93.25
441.822	91.25
442.043	98.25
442.264	98.25
442.486	99.25
442.707	82.25
442.928	99.25
443.149	111.25
443.371	137.25
443.592	99.25
443.813	97.25
444.034	96.25
444.255	89.25
444.476	83.25
444.698	91.25
444.919	91.25
445.14	133.25
445.361	119.25
445.582	124.25
445.803	117.25
446.024	118.25
446.245	131.25
446.466	98.25
446.687	87.25
446.908	81.25
447.129	88.25
447.35	83.25
447.571	80.25
447.792	91.25
448.013	107.25
448.234	109.25
448.455	101.25
448.675	98.25
448.896	118.25
449.117	92.25
449.338	86.25
449.559	108.25
449.779	123.25
450	91.25
450.221	81.25
450.442	89.25
450.662	86.25
450.883	102.25
451.104	99.25
451.324	80.25
451.545	81.25
451.766	97.25
451.986	82.25
452.207	91.25
452.428	90.25
452.648	91.25
452.869	105.25
453.089	113.25
453.31	99.25
453.53	84.25
453.751	78.25
453.971	98.25
454.192	87.25
454.412	84.25
454.633	77.25
454.853	88.25
455.073	95.25
455.294	84.25
455.514	86.25
455.734	78.25
455.955	86.25
456.175	76.25
456.395	87.25
456.616	68.25
456.836	86.25
457.056	82.25
457.276	69.25
457.497	81.25
457.717	91.25
457.937	87.25
458.157	76.25
458.377	89.25
458.598	101.25
458.818	133.25
459.038	141.25
459.258	87.25
459.478	66.25
459.698	98.25
459.918	85.25
460.138	86.25
460.358	92.25
460.578	80.25
460.798	101.25
461.018	82.25
461.238	87.25
461.458	89.25
461.678	85.25
461.898	100.25
462.118	90.25
462.338	81.25
462.558	84.25
462.777	80.25
462.997	85.25
463.217	75.25
463.437	82.25
463.657	69.25
463.876	98.25
464.096	73.25
464.316	86.25
464.536	100.25
464.755	79.25
464.975	107.25
465.195	152.25
465.414	157.25
465.634	109.25
465.854	84.25
466.073	96.25
466.293	83.25
466.512	87.25
466.732	81.25
466.951	84.25
467.171	101.25
467.391	100.25
467.61	99.25
467.829	103.25
468.049	84.25
468.268	82.25
468.488	71.25
468.707	81.25
468.927	78.25
469.146	81.25
469.365	91.25
469.585	102.25
469.804	98.25
470.023	86.25
470.243	91.25
470.462	95.25
470.681	96.25
470.901	93.25
471.12	78.25
471.339	91.25
471.558	83.25
471.777	92.25
471.997	94.25
472.216	91.25
472.435	81.25
472.654	91.25
472.873	88.25
473.092	86.25
473.311	75.25
473.53	87.25
473.749	74.25
473.968	100.25
474.187	101.25
474.406	101.25
474.625	93.25
474.844	83.25
475.063	83.25
475.282	78.25
475.501	71.25
475.72	92.25
475.939	80.25
476.158	82.25
476.377	93.25
476.596	94.25
476.814	87.25
477.033	98.25
477.252	91.25
477.471	92.25
477.69	97.25
477.908	93.25
478.127	91.25
478.346	90.25
478.564	90.25
478.783	92.25
479.002	83.25
479.22	93.25
479.439	93.25
479.658	102.25
479.876	94.25
480.095	66.25
480.313	81.25
480.532	87.25
480.751	83.25
480.969	101.25
481.188	99.25
481.406	98.25
481.624	80.25
481.843	98.25
482.061	86.25
482.28	82.25
482.498	74.25
482.717	80.25
482.935	88.25
483.153	95.25
483.372	92.25
483.59	93.25
483.808	93.25
484.027	87.25
484.245	87.25
484.463	108.25
484.681	91.25
484.9	97.25
485.118	85.25
485.336	103.25
485.554	100.25
485.772	91.25
485.99	102.25
486.209	101.25
486.427	108.25
486.645	103.25
486.863	109.25
487.081	101.25
487.299	94.25
487.517	99.25
487.735	106.25
487.953	80.25
488.171	71.25
488.389	91.25
488.607	103.25
488.825	85.25
489.043	78.25
489.261	86.25
489.479	95.25
489.696	83.25
489.914	81.25
490.132	85.25
490.35	86.25
490.568	94.25
490.786	91.25
491.003	96.25
491.221	85.25
491.439	91.25
491.657	86.25
491.874	97.25
492.092	75.25
492.31	70.25
492.527	94.25
492.745	82.25
492.963	84.25
493.18	92.25
493.398	79.25
493.615	96.25
493.833	87.25
494.05	92.25
494.268	98.25
494.485	95.25
494.703	85.25
494.92	91.25
495.138	92.25
495.355	86.25
495.573	85.25
495.79	83.25
496.008	87.25
496.225	105.25
496.442	92.25
496.66	84.25
496.877	90.25
497.094	91.25
497.312	91.25
497.529	94.25
497.746	91.25
497.963	94.25
498.181	97.25
498.398	86.25
498.615	110.25
498.832	89.25
499.049	93.25
499.267	98.25
499.484	85.25
499.701	65.25
499.918	87.25
500.135	87.25
500.352	92.25
500.569	90.25
500.786	97.25
501.003	84.25
501.22	81.25
501.437	83.25
501.654	99.25
501.871	102.25
502.088	84.25
502.305	94.25
502.522	85.25
502.739	86.25
502.956	97.25
503.172	89.25
503.389	90.25
503.606	92.25
503.823	93.25
504.04	91.25
504.256	98.25
504.473	94.25
504.69	94.25
504.907	96.25
505.123	91.25
505.34	89.25
505.557	94.25
505.773	105.25
505.99	86.25
506.207	89.25
506.423	99.25
506.64	78.25
506.856	84.25
507.073	87.25
507.289	93.25
507.506	106.25
507.722	111.25
507.939	117.25
508.155	97.25
508.372	101.25
508.588	104.25
508.805	97.25
509.021	105.25
509.238	98.25
509.454	105.25
509.67	95.25
509.887	101.25
510.103	118.25
510.319	185.25
510.536	700.25
510.752	2201.25
510.968	619.25
511.184	155.25
511.401	112.25
511.617	103.25
511.833	86.25
512.049	85.25
512.265	89.25
512.481	87.25
512.698	72.25
512.914	85.25
513.13	86.25
513.346	98.25
513.562	101.25
513.778	89.25
513.994	102.25
514.21	80.25
514.426	94.25
514.642	123.25
514.858	117.25
515.074	161.25
515.29	417.25
515.506	1341.25
515.721	511.25
515.937	136.25
516.153	103.25
516.369	96.25
516.585	91.25
516.801	92.25
517.016	92.25
