Data from Uncirc_2005_H10_HRD10591_00017.txt Node
Date: Wed Jan 03 10:28:28 EST 2024
User: Yrep
Spectrometer: HR+D1059
Trigger mode: 1
Integration Time (sec): 1.000000E-1
Scans to average: 1
Electric dark correction enabled: true
Nonlinearity correction enabled: false
Boxcar width: 0
XAxis mode: Wavelengths
Number of Pixels in Spectrum: 2048
>>>>>Begin Spectral Data<<<<<
223.165	-14.62
223.4	-14.62
223.635	-14.62
223.869	-17.62
224.104	-17.62
224.338	-12.62
224.573	-21.62
224.808	-3.62
225.042	-13.62
225.277	9.38
225.511	-2.62
225.746	-7.62
225.98	2.38
226.215	11.38
226.449	14.38
226.683	30.38
226.918	19.38
227.152	24.38
227.387	28.38
227.621	41.38
227.856	50.38
228.09	40.38
228.324	53.38
228.559	48.38
228.793	55.38
229.027	63.38
229.262	74.38
229.496	54.38
229.73	80.38
229.964	70.38
230.199	71.38
230.433	84.38
230.667	62.38
230.901	90.38
231.136	75.38
231.37	74.38
231.604	76.38
231.838	73.38
232.072	82.38
232.306	55.38
232.541	67.38
232.775	75.38
233.009	81.38
233.243	85.38
233.477	89.38
233.711	66.38
233.945	72.38
234.179	81.38
234.413	78.38
234.647	75.38
234.881	68.38
235.115	83.38
235.349	77.38
235.583	70.38
235.817	74.38
236.051	78.38
236.285	77.38
236.519	77.38
236.753	72.38
236.987	71.38
237.221	83.38
237.455	82.38
237.689	68.38
237.922	84.38
238.156	68.38
238.39	70.38
238.624	66.38
238.858	76.38
239.091	72.38
239.325	68.38
239.559	60.38
239.793	67.38
240.027	82.38
240.26	99.38
240.494	82.38
240.728	77.38
240.961	67.38
241.195	76.38
241.429	88.38
241.662	63.38
241.896	77.38
242.13	80.38
242.363	86.38
242.597	77.38
242.83	75.38
243.064	76.38
243.298	74.38
243.531	85.38
243.765	67.38
243.998	79.38
244.232	75.38
244.465	94.38
244.699	72.38
244.932	76.38
245.166	79.38
245.399	73.38
245.633	78.38
245.866	78.38
246.099	87.38
246.333	79.38
246.566	80.38
246.8	67.38
247.033	84.38
247.266	85.38
247.5	84.38
247.733	75.38
247.966	91.38
248.2	71.38
248.433	87.38
248.666	83.38
248.899	89.38
249.133	93.38
249.366	88.38
249.599	94.38
249.832	87.38
250.066	82.38
250.299	71.38
250.532	91.38
250.765	72.38
250.998	78.38
251.231	87.38
251.465	97.38
251.698	79.38
251.931	90.38
252.164	83.38
252.397	82.38
252.63	83.38
252.863	84.38
253.096	70.38
253.329	78.38
253.562	79.38
253.795	74.38
254.028	76.38
254.261	77.38
254.494	88.38
254.727	81.38
254.96	76.38
255.193	87.38
255.426	84.38
255.659	77.38
255.892	75.38
256.124	90.38
256.357	79.38
256.59	78.38
256.823	83.38
257.056	81.38
257.289	87.38
257.521	83.38
257.754	72.38
257.987	93.38
258.22	78.38
258.452	76.38
258.685	84.38
258.918	87.38
259.151	94.38
259.383	82.38
259.616	76.38
259.849	85.38
260.081	101.38
260.314	80.38
260.547	74.38
260.779	84.38
261.012	76.38
261.244	85.38
261.477	79.38
261.71	79.38
261.942	119.38
262.175	108.38
262.407	83.38
262.64	92.38
262.872	90.38
263.105	87.38
263.337	81.38
263.57	79.38
263.802	76.38
264.035	92.38
264.267	94.38
264.499	84.38
264.732	87.38
264.964	69.38
265.197	74.38
265.429	87.38
265.661	92.38
265.894	78.38
266.126	67.38
266.358	92.38
266.591	85.38
266.823	84.38
267.055	84.38
267.287	84.38
267.52	78.38
267.752	93.38
267.984	76.38
268.216	72.38
268.448	83.38
268.681	81.38
268.913	91.38
269.145	87.38
269.377	93.38
269.609	87.38
269.841	86.38
270.073	82.38
270.306	80.38
270.538	87.38
270.77	77.38
271.002	74.38
271.234	86.38
271.466	79.38
271.698	75.38
271.93	84.38
272.162	88.38
272.394	72.38
272.626	82.38
272.858	78.38
273.09	87.38
273.322	71.38
273.553	74.38
273.785	82.38
274.017	78.38
274.249	95.38
274.481	82.38
274.713	87.38
274.945	86.38
275.176	72.38
275.408	89.38
275.64	82.38
275.872	91.38
276.104	87.38
276.335	96.38
276.567	86.38
276.799	99.38
277.031	101.38
277.262	76.38
277.494	91.38
277.726	76.38
277.957	70.38
278.189	84.38
278.421	77.38
278.652	82.38
278.884	83.38
279.115	79.38
279.347	70.38
279.579	80.38
279.81	77.38
280.042	63.38
280.273	87.38
280.505	98.38
280.736	81.38
280.968	87.38
281.199	62.38
281.431	91.38
281.662	88.38
281.894	86.38
282.125	84.38
282.356	122.38
282.588	138.38
282.819	110.38
283.051	94.38
283.282	75.38
283.513	80.38
283.745	79.38
283.976	93.38
284.207	97.38
284.439	83.38
284.67	82.38
284.901	83.38
285.132	82.38
285.364	82.38
285.595	85.38
285.826	83.38
286.057	89.38
286.288	103.38
286.52	101.38
286.751	68.38
286.982	90.38
287.213	86.38
287.444	94.38
287.675	82.38
287.906	91.38
288.138	82.38
288.369	85.38
288.6	87.38
288.831	82.38
289.062	91.38
289.293	100.38
289.524	84.38
289.755	82.38
289.986	89.38
290.217	86.38
290.448	88.38
290.679	98.38
290.91	84.38
291.141	90.38
291.371	82.38
291.602	102.38
291.833	104.38
292.064	75.38
292.295	79.38
292.526	71.38
292.757	88.38
292.987	91.38
293.218	97.38
293.449	84.38
293.68	80.38
293.91	85.38
294.141	82.38
294.372	79.38
294.603	76.38
294.833	87.38
295.064	96.38
295.295	78.38
295.525	88.38
295.756	95.38
295.987	112.38
296.217	123.38
296.448	122.38
296.679	95.38
296.909	102.38
297.14	95.38
297.37	102.38
297.601	99.38
297.831	80.38
298.062	95.38
298.292	83.38
298.523	92.38
298.753	67.38
298.984	99.38
299.214	79.38
299.445	78.38
299.675	75.38
299.905	74.38
300.136	86.38
300.366	90.38
300.597	97.38
300.827	99.38
301.057	107.38
301.288	97.38
301.518	91.38
301.748	77.38
301.979	100.38
302.209	99.38
302.439	88.38
302.669	91.38
302.9	93.38
303.13	86.38
303.36	83.38
303.59	90.38
303.82	115.38
304.051	94.38
304.281	93.38
304.511	83.38
304.741	87.38
304.971	85.38
305.201	98.38
305.431	104.38
305.661	92.38
305.891	103.38
306.121	83.38
306.352	94.38
306.582	107.38
306.812	85.38
307.042	87.38
307.272	100.38
307.502	97.38
307.731	77.38
307.961	83.38
308.191	78.38
308.421	73.38
308.651	80.38
308.881	93.38
309.111	88.38
309.341	78.38
309.571	93.38
309.8	99.38
310.03	101.38
310.26	108.38
310.49	92.38
310.72	91.38
310.949	106.38
311.179	101.38
311.409	81.38
311.639	96.38
311.868	89.38
312.098	97.38
312.328	96.38
312.557	106.38
312.787	91.38
313.017	91.38
313.246	82.38
313.476	97.38
313.706	93.38
313.935	92.38
314.165	99.38
314.394	101.38
314.624	103.38
314.853	92.38
315.083	83.38
315.312	91.38
315.542	84.38
315.771	90.38
316.001	86.38
316.23	83.38
316.46	84.38
316.689	85.38
316.919	86.38
317.148	97.38
317.377	84.38
317.607	94.38
317.836	93.38
318.065	80.38
318.295	86.38
318.524	93.38
318.753	95.38
318.983	96.38
319.212	86.38
319.441	99.38
319.67	102.38
319.9	84.38
320.129	88.38
320.358	84.38
320.587	93.38
320.816	106.38
321.046	87.38
321.275	91.38
321.504	90.38
321.733	90.38
321.962	104.38
322.191	102.38
322.42	96.38
322.649	97.38
322.878	97.38
323.108	111.38
323.337	115.38
323.566	137.38
323.795	147.38
324.024	191.38
324.253	389.38
324.482	813.38
324.71	1757.38
324.939	2315.38
325.168	844.38
325.397	246.38
325.626	144.38
325.855	110.38
326.084	117.38
326.313	137.38
326.542	160.38
326.77	246.38
326.999	473.38
327.228	993.38
327.457	1812.38
327.686	1437.38
327.914	368.38
328.143	184.38
328.372	150.38
328.6	122.38
328.829	121.38
329.058	122.38
329.287	110.38
329.515	104.38
329.744	110.38
329.972	95.38
330.201	115.38
330.43	124.38
330.658	110.38
330.887	134.38
331.115	112.38
331.344	109.38
331.572	85.38
331.801	102.38
332.03	94.38
332.258	110.38
332.486	95.38
332.715	97.38
332.943	87.38
333.172	100.38
333.4	106.38
333.629	87.38
333.857	106.38
334.085	90.38
334.314	88.38
334.542	96.38
334.771	105.38
334.999	86.38
335.227	84.38
335.455	90.38
335.684	86.38
335.912	108.38
336.14	96.38
336.369	100.38
336.597	109.38
336.825	107.38
337.053	84.38
337.281	87.38
337.51	83.38
337.738	86.38
337.966	87.38
338.194	96.38
338.422	104.38
338.65	88.38
338.878	87.38
339.106	97.38
339.334	87.38
339.562	86.38
339.79	94.38
340.018	90.38
340.246	96.38
340.474	99.38
340.702	107.38
340.93	98.38
341.158	90.38
341.386	86.38
341.614	92.38
341.842	84.38
342.07	95.38
342.298	93.38
342.526	88.38
342.754	95.38
342.981	78.38
343.209	81.38
343.437	100.38
343.665	93.38
343.893	94.38
344.12	95.38
344.348	85.38
344.576	95.38
344.804	99.38
345.031	107.38
345.259	114.38
345.487	99.38
345.714	106.38
345.942	97.38
346.17	96.38
346.397	85.38
346.625	86.38
346.853	99.38
347.08	82.38
347.308	102.38
347.535	97.38
347.763	92.38
347.99	87.38
348.218	86.38
348.445	93.38
348.673	98.38
348.9	87.38
349.128	94.38
349.355	81.38
349.583	96.38
349.81	95.38
350.037	100.38
350.265	94.38
350.492	100.38
350.72	93.38
350.947	94.38
351.174	99.38
351.402	100.38
351.629	92.38
351.856	95.38
352.083	95.38
352.311	100.38
352.538	115.38
352.765	103.38
352.992	117.38
353.22	87.38
353.447	100.38
353.674	101.38
353.901	80.38
354.128	90.38
354.355	95.38
354.583	98.38
354.81	94.38
355.037	102.38
355.264	94.38
355.491	89.38
355.718	94.38
355.945	90.38
356.172	101.38
356.399	102.38
356.626	99.38
356.853	97.38
357.08	99.38
357.307	86.38
357.534	90.38
357.761	102.38
357.988	99.38
358.215	94.38
358.441	82.38
358.668	97.38
358.895	94.38
359.122	102.38
359.349	92.38
359.576	98.38
359.802	100.38
360.029	96.38
360.256	116.38
360.483	89.38
360.709	82.38
360.936	85.38
361.163	86.38
361.39	88.38
361.616	86.38
361.843	94.38
362.07	91.38
362.296	88.38
362.523	91.38
362.749	87.38
362.976	88.38
363.203	94.38
363.429	101.38
363.656	79.38
363.882	85.38
364.109	95.38
364.335	87.38
364.562	83.38
364.788	76.38
365.015	88.38
365.241	99.38
365.468	95.38
365.694	102.38
365.92	112.38
366.147	85.38
366.373	78.38
366.599	79.38
366.826	100.38
367.052	88.38
367.278	85.38
367.505	84.38
367.731	98.38
367.957	101.38
368.184	106.38
368.41	87.38
368.636	114.38
368.862	101.38
369.089	87.38
369.315	96.38
369.541	93.38
369.767	96.38
369.993	99.38
370.219	96.38
370.445	88.38
370.672	92.38
370.898	84.38
371.124	91.38
371.35	76.38
371.576	83.38
371.802	83.38
372.028	81.38
372.254	103.38
372.48	89.38
372.706	93.38
372.932	85.38
373.158	84.38
373.384	86.38
373.61	91.38
373.835	85.38
374.061	78.38
374.287	102.38
374.513	89.38
374.739	77.38
374.965	83.38
375.191	78.38
375.416	97.38
375.642	109.38
375.868	85.38
376.094	96.38
376.319	87.38
376.545	84.38
376.771	84.38
376.997	84.38
377.222	80.38
377.448	93.38
377.674	83.38
377.899	101.38
378.125	72.38
378.35	96.38
378.576	90.38
378.802	80.38
379.027	105.38
379.253	100.38
379.478	102.38
379.704	93.38
379.929	93.38
380.155	100.38
380.38	95.38
380.606	76.38
380.831	90.38
381.057	114.38
381.282	93.38
381.507	92.38
381.733	85.38
381.958	112.38
382.184	117.38
382.409	109.38
382.634	101.38
382.86	98.38
383.085	106.38
383.31	85.38
383.535	119.38
383.761	105.38
383.986	99.38
384.211	114.38
384.436	109.38
384.662	98.38
384.887	121.38
385.112	116.38
385.337	101.38
385.562	98.38
385.787	113.38
386.013	132.38
386.238	126.38
386.463	110.38
386.688	122.38
386.913	114.38
387.138	112.38
387.363	111.38
387.588	102.38
387.813	123.38
388.038	101.38
388.263	122.38
388.488	123.38
388.713	107.38
388.938	101.38
389.163	90.38
389.387	86.38
389.612	106.38
389.837	75.38
390.062	98.38
390.287	83.38
390.512	89.38
390.736	94.38
390.961	91.38
391.186	100.38
391.411	103.38
391.636	85.38
391.86	102.38
392.085	87.38
392.31	95.38
392.534	93.38
392.759	90.38
392.984	92.38
393.208	92.38
393.433	107.38
393.658	95.38
393.882	81.38
394.107	79.38
394.331	92.38
394.556	78.38
394.78	104.38
395.005	94.38
395.229	91.38
395.454	84.38
395.678	95.38
395.903	89.38
396.127	85.38
396.352	92.38
396.576	71.38
396.801	80.38
397.025	96.38
397.249	87.38
397.474	102.38
397.698	94.38
397.922	85.38
398.147	77.38
398.371	87.38
398.595	87.38
398.82	91.38
399.044	86.38
399.268	77.38
399.492	89.38
399.717	94.38
399.941	84.38
400.165	94.38
400.389	83.38
400.613	102.38
400.837	87.38
401.062	98.38
401.286	101.38
401.51	106.38
401.734	87.38
401.958	86.38
402.182	111.38
402.406	148.38
402.63	127.38
402.854	88.38
403.078	92.38
403.302	80.38
403.526	83.38
403.75	87.38
403.974	97.38
404.198	92.38
404.422	99.38
404.645	95.38
404.869	96.38
405.093	91.38
405.317	99.38
405.541	101.38
405.765	106.38
405.988	116.38
406.212	172.38
406.436	213.38
406.66	128.38
406.883	113.38
407.107	101.38
407.331	108.38
407.555	97.38
407.778	93.38
408.002	85.38
408.226	92.38
408.449	95.38
408.673	89.38
408.896	88.38
409.12	90.38
409.344	76.38
409.567	79.38
409.791	104.38
410.014	96.38
410.238	92.38
410.461	89.38
410.685	98.38
410.908	109.38
411.132	104.38
411.355	102.38
411.578	97.38
411.802	70.38
412.025	91.38
412.249	92.38
412.472	101.38
412.695	85.38
412.919	84.38
413.142	91.38
413.365	91.38
413.589	80.38
413.812	83.38
414.035	95.38
414.258	94.38
414.482	82.38
414.705	104.38
414.928	90.38
415.151	98.38
415.374	97.38
415.597	96.38
415.821	92.38
416.044	79.38
416.267	87.38
416.49	101.38
416.713	83.38
416.936	91.38
417.159	95.38
417.382	96.38
417.605	94.38
417.828	95.38
418.051	99.38
418.274	94.38
418.497	85.38
418.72	87.38
418.943	100.38
419.166	93.38
419.389	98.38
419.611	106.38
419.834	94.38
420.057	88.38
420.28	92.38
420.503	99.38
420.726	85.38
420.948	94.38
421.171	99.38
421.394	76.38
421.617	90.38
421.839	97.38
422.062	91.38
422.285	98.38
422.507	104.38
422.73	108.38
422.953	88.38
423.175	85.38
423.398	90.38
423.621	85.38
423.843	85.38
424.066	80.38
424.288	87.38
424.511	93.38
424.733	89.38
424.956	93.38
425.178	109.38
425.401	98.38
425.623	95.38
425.846	86.38
426.068	89.38
426.291	94.38
426.513	79.38
426.735	97.38
426.958	100.38
427.18	113.38
427.402	135.38
427.625	152.38
427.847	109.38
428.069	107.38
428.292	103.38
428.514	94.38
428.736	80.38
428.958	80.38
429.181	96.38
429.403	94.38
429.625	88.38
429.847	106.38
430.069	106.38
430.292	95.38
430.514	89.38
430.736	81.38
430.958	91.38
431.18	88.38
431.402	83.38
431.624	93.38
431.846	97.38
432.068	96.38
432.29	88.38
432.512	84.38
432.734	79.38
432.956	96.38
433.178	86.38
433.4	96.38
433.622	85.38
433.844	85.38
434.066	93.38
434.287	96.38
434.509	100.38
434.731	95.38
434.953	83.38
435.175	85.38
435.397	92.38
435.618	92.38
435.84	108.38
436.062	120.38
436.284	96.38
436.505	98.38
436.727	99.38
436.949	89.38
437.17	74.38
437.392	94.38
437.614	99.38
437.835	97.38
438.057	104.38
438.278	110.38
438.5	106.38
438.721	112.38
438.943	103.38
439.165	86.38
439.386	85.38
439.608	91.38
439.829	92.38
440.05	116.38
440.272	137.38
440.493	102.38
440.715	75.38
440.936	83.38
441.158	86.38
441.379	90.38
441.6	96.38
441.822	96.38
442.043	93.38
442.264	109.38
442.486	103.38
442.707	94.38
442.928	102.38
443.149	131.38
443.371	125.38
443.592	109.38
443.813	123.38
444.034	115.38
444.255	100.38
444.476	83.38
444.698	99.38
444.919	97.38
445.14	133.38
445.361	119.38
445.582	131.38
445.803	147.38
446.024	115.38
446.245	134.38
446.466	109.38
446.687	87.38
446.908	106.38
447.129	91.38
447.35	94.38
447.571	91.38
447.792	100.38
448.013	109.38
448.234	129.38
448.455	97.38
448.675	119.38
448.896	113.38
449.117	105.38
449.338	109.38
449.559	130.38
449.779	127.38
450	87.38
450.221	86.38
450.442	83.38
450.662	83.38
450.883	97.38
451.104	99.38
451.324	107.38
451.545	89.38
451.766	90.38
451.986	80.38
452.207	85.38
452.428	92.38
452.648	96.38
452.869	109.38
453.089	118.38
453.31	110.38
453.53	98.38
453.751	86.38
453.971	85.38
454.192	102.38
454.412	94.38
454.633	94.38
454.853	79.38
455.073	96.38
455.294	72.38
455.514	98.38
455.734	94.38
455.955	83.38
456.175	91.38
456.395	76.38
456.616	89.38
456.836	90.38
457.056	97.38
457.276	82.38
457.497	84.38
457.717	78.38
457.937	64.38
458.157	95.38
458.377	90.38
458.598	106.38
458.818	148.38
459.038	157.38
459.258	105.38
459.478	84.38
459.698	82.38
459.918	85.38
460.138	92.38
460.358	91.38
460.578	89.38
460.798	87.38
461.018	86.38
461.238	91.38
461.458	92.38
461.678	81.38
461.898	94.38
462.118	84.38
462.338	81.38
462.558	80.38
462.777	87.38
462.997	94.38
463.217	94.38
463.437	86.38
463.657	88.38
463.876	96.38
464.096	81.38
464.316	73.38
464.536	90.38
464.755	87.38
464.975	107.38
465.195	149.38
465.414	150.38
465.634	101.38
465.854	92.38
466.073	92.38
466.293	95.38
466.512	93.38
466.732	80.38
466.951	82.38
467.171	92.38
467.391	87.38
467.61	100.38
467.829	95.38
468.049	92.38
468.268	93.38
468.488	92.38
468.707	77.38
468.927	83.38
469.146	88.38
469.365	102.38
469.585	87.38
469.804	91.38
470.023	101.38
470.243	95.38
470.462	95.38
470.681	93.38
470.901	89.38
471.12	77.38
471.339	74.38
471.558	75.38
471.777	78.38
471.997	72.38
472.216	91.38
472.435	101.38
472.654	91.38
472.873	76.38
473.092	84.38
473.311	97.38
473.53	106.38
473.749	83.38
473.968	103.38
474.187	103.38
474.406	83.38
474.625	96.38
474.844	91.38
475.063	86.38
475.282	80.38
475.501	69.38
475.72	90.38
475.939	95.38
476.158	92.38
476.377	93.38
476.596	87.38
476.814	88.38
477.033	101.38
477.252	88.38
477.471	95.38
477.69	89.38
477.908	91.38
478.127	96.38
478.346	103.38
478.564	115.38
478.783	97.38
479.002	85.38
479.22	96.38
479.439	99.38
479.658	84.38
479.876	99.38
480.095	86.38
480.313	94.38
480.532	87.38
480.751	101.38
480.969	86.38
481.188	95.38
481.406	112.38
481.624	98.38
481.843	105.38
482.061	93.38
482.28	87.38
482.498	83.38
482.717	96.38
482.935	83.38
483.153	88.38
483.372	100.38
483.59	74.38
483.808	94.38
484.027	92.38
484.245	99.38
484.463	78.38
484.681	98.38
484.9	83.38
485.118	97.38
485.336	91.38
485.554	106.38
485.772	99.38
485.99	124.38
486.209	95.38
486.427	101.38
486.645	107.38
486.863	111.38
487.081	92.38
487.299	88.38
487.517	89.38
487.735	77.38
487.953	95.38
488.171	101.38
488.389	91.38
488.607	96.38
488.825	90.38
489.043	94.38
489.261	95.38
489.479	100.38
489.696	88.38
489.914	79.38
490.132	90.38
490.35	93.38
490.568	86.38
490.786	81.38
491.003	90.38
491.221	97.38
491.439	104.38
491.657	102.38
491.874	103.38
492.092	87.38
492.31	91.38
492.527	90.38
492.745	73.38
492.963	95.38
493.18	97.38
493.398	86.38
493.615	106.38
493.833	109.38
494.05	93.38
494.268	75.38
494.485	83.38
494.703	79.38
494.92	98.38
495.138	95.38
495.355	90.38
495.573	75.38
495.79	84.38
496.008	87.38
496.225	97.38
496.442	83.38
496.66	83.38
496.877	94.38
497.094	99.38
497.312	92.38
497.529	84.38
497.746	97.38
497.963	88.38
498.181	87.38
498.398	97.38
498.615	109.38
498.832	99.38
499.049	89.38
499.267	82.38
499.484	70.38
499.701	98.38
499.918	87.38
500.135	67.38
500.352	80.38
500.569	86.38
500.786	76.38
501.003	83.38
501.22	101.38
501.437	92.38
501.654	98.38
501.871	109.38
502.088	89.38
502.305	94.38
502.522	94.38
502.739	89.38
502.956	83.38
503.172	79.38
503.389	84.38
503.606	89.38
503.823	90.38
504.04	87.38
504.256	81.38
504.473	98.38
504.69	99.38
504.907	100.38
505.123	91.38
505.34	93.38
505.557	98.38
505.773	88.38
505.99	88.38
506.207	102.38
506.423	100.38
506.64	84.38
506.856	95.38
507.073	94.38
507.289	97.38
507.506	96.38
507.722	118.38
507.939	112.38
508.155	91.38
508.372	93.38
508.588	85.38
508.805	93.38
509.021	107.38
509.238	106.38
509.454	91.38
509.67	93.38
509.887	101.38
510.103	118.38
510.319	196.38
510.536	710.38
510.752	2134.38
510.968	592.38
511.184	160.38
511.401	98.38
511.617	94.38
511.833	93.38
512.049	93.38
512.265	95.38
512.481	94.38
512.698	84.38
512.914	79.38
513.13	99.38
513.346	91.38
513.562	93.38
513.778	100.38
513.994	94.38
514.21	113.38
514.426	116.38
514.642	142.38
514.858	119.38
515.074	150.38
515.29	422.38
515.506	1398.38
515.721	518.38
515.937	163.38
