Data from Uncirc_2005_H10_HRD10591_00016.txt Node
Date: Wed Jan 03 10:28:28 EST 2024
User: Yrep
Spectrometer: HR+D1059
Trigger mode: 1
Integration Time (sec): 1.000000E-1
Scans to average: 1
Electric dark correction enabled: true
Nonlinearity correction enabled: false
Boxcar width: 0
XAxis mode: Wavelengths
Number of Pixels in Spectrum: 2048
>>>>>Begin Spectral Data<<<<<
223.165	-15.12
223.4	-15.12
223.635	-15.12
223.869	-22.12
224.104	-21.12
224.338	-18.12
224.573	-23.12
224.808	-0.12
225.042	-25.12
225.277	-6.12
225.511	8.88
225.746	11.88
225.98	8.88
226.215	15.88
226.449	18.88
226.683	10.88
226.918	23.88
227.152	31.88
227.387	29.88
227.621	35.88
227.856	48.88
228.09	56.88
228.324	70.88
228.559	58.88
228.793	59.88
229.027	73.88
229.262	58.88
229.496	62.88
229.73	82.88
229.964	81.88
230.199	74.88
230.433	68.88
230.667	73.88
230.901	88.88
231.136	72.88
231.37	84.88
231.604	80.88
231.838	83.88
232.072	77.88
232.306	80.88
232.541	79.88
232.775	76.88
233.009	78.88
233.243	97.88
233.477	87.88
233.711	73.88
233.945	81.88
234.179	95.88
234.413	84.88
234.647	80.88
234.881	71.88
235.115	88.88
235.349	88.88
235.583	76.88
235.817	68.88
236.051	80.88
236.285	70.88
236.519	64.88
236.753	68.88
236.987	80.88
237.221	79.88
237.455	78.88
237.689	88.88
237.922	90.88
238.156	75.88
238.39	78.88
238.624	90.88
238.858	77.88
239.091	75.88
239.325	58.88
239.559	88.88
239.793	83.88
240.027	86.88
240.26	69.88
240.494	91.88
240.728	65.88
240.961	81.88
241.195	87.88
241.429	86.88
241.662	69.88
241.896	78.88
242.13	62.88
242.363	97.88
242.597	83.88
242.83	56.88
243.064	71.88
243.298	81.88
243.531	82.88
243.765	82.88
243.998	85.88
244.232	73.88
244.465	89.88
244.699	82.88
244.932	81.88
245.166	79.88
245.399	77.88
245.633	76.88
245.866	83.88
246.099	71.88
246.333	70.88
246.566	68.88
246.8	80.88
247.033	83.88
247.266	74.88
247.5	73.88
247.733	87.88
247.966	84.88
248.2	83.88
248.433	68.88
248.666	81.88
248.899	89.88
249.133	66.88
249.366	85.88
249.599	88.88
249.832	79.88
250.066	91.88
250.299	87.88
250.532	75.88
250.765	77.88
250.998	82.88
251.231	87.88
251.465	79.88
251.698	88.88
251.931	95.88
252.164	99.88
252.397	70.88
252.63	85.88
252.863	88.88
253.096	88.88
253.329	92.88
253.562	78.88
253.795	82.88
254.028	93.88
254.261	93.88
254.494	91.88
254.727	97.88
254.96	76.88
255.193	67.88
255.426	62.88
255.659	82.88
255.892	95.88
256.124	88.88
256.357	98.88
256.59	86.88
256.823	87.88
257.056	85.88
257.289	72.88
257.521	82.88
257.754	69.88
257.987	88.88
258.22	95.88
258.452	88.88
258.685	96.88
258.918	93.88
259.151	87.88
259.383	81.88
259.616	89.88
259.849	86.88
260.081	88.88
260.314	89.88
260.547	82.88
260.779	92.88
261.012	75.88
261.244	91.88
261.477	76.88
261.71	95.88
261.942	103.88
262.175	120.88
262.407	85.88
262.64	79.88
262.872	92.88
263.105	87.88
263.337	86.88
263.57	79.88
263.802	77.88
264.035	76.88
264.267	84.88
264.499	80.88
264.732	86.88
264.964	83.88
265.197	73.88
265.429	68.88
265.661	84.88
265.894	92.88
266.126	82.88
266.358	78.88
266.591	85.88
266.823	87.88
267.055	75.88
267.287	78.88
267.52	84.88
267.752	88.88
267.984	94.88
268.216	86.88
268.448	82.88
268.681	65.88
268.913	78.88
269.145	99.88
269.377	85.88
269.609	81.88
269.841	77.88
270.073	88.88
270.306	87.88
270.538	79.88
270.77	85.88
271.002	89.88
271.234	95.88
271.466	86.88
271.698	85.88
271.93	85.88
272.162	100.88
272.394	90.88
272.626	87.88
272.858	83.88
273.09	86.88
273.322	78.88
273.553	80.88
273.785	76.88
274.017	78.88
274.249	78.88
274.481	83.88
274.713	102.88
274.945	90.88
275.176	87.88
275.408	86.88
275.64	94.88
275.872	95.88
276.104	102.88
276.335	100.88
276.567	91.88
276.799	92.88
277.031	97.88
277.262	89.88
277.494	79.88
277.726	94.88
277.957	65.88
278.189	89.88
278.421	80.88
278.652	94.88
278.884	91.88
279.115	72.88
279.347	82.88
279.579	67.88
279.81	88.88
280.042	88.88
280.273	80.88
280.505	73.88
280.736	84.88
280.968	95.88
281.199	92.88
281.431	76.88
281.662	91.88
281.894	96.88
282.125	114.88
282.356	124.88
282.588	137.88
282.819	112.88
283.051	78.88
283.282	88.88
283.513	79.88
283.745	95.88
283.976	84.88
284.207	91.88
284.439	87.88
284.67	93.88
284.901	81.88
285.132	86.88
285.364	99.88
285.595	97.88
285.826	95.88
286.057	95.88
286.288	95.88
286.52	73.88
286.751	92.88
286.982	100.88
287.213	99.88
287.444	87.88
287.675	84.88
287.906	99.88
288.138	88.88
288.369	94.88
288.6	103.88
288.831	85.88
289.062	99.88
289.293	100.88
289.524	82.88
289.755	75.88
289.986	85.88
290.217	82.88
290.448	96.88
290.679	76.88
290.91	100.88
291.141	82.88
291.371	94.88
291.602	89.88
291.833	96.88
292.064	80.88
292.295	87.88
292.526	94.88
292.757	84.88
292.987	96.88
293.218	92.88
293.449	84.88
293.68	75.88
293.91	80.88
294.141	80.88
294.372	83.88
294.603	95.88
294.833	86.88
295.064	96.88
295.295	101.88
295.525	89.88
295.756	97.88
295.987	109.88
296.217	136.88
296.448	119.88
296.679	101.88
296.909	93.88
297.14	95.88
297.37	91.88
297.601	81.88
297.831	91.88
298.062	90.88
298.292	81.88
298.523	83.88
298.753	95.88
298.984	82.88
299.214	97.88
299.445	98.88
299.675	79.88
299.905	91.88
300.136	95.88
300.366	92.88
300.597	81.88
300.827	89.88
301.057	85.88
301.288	108.88
301.518	100.88
301.748	92.88
301.979	101.88
302.209	83.88
302.439	92.88
302.669	95.88
302.9	79.88
303.13	88.88
303.36	90.88
303.59	104.88
303.82	114.88
304.051	83.88
304.281	92.88
304.511	91.88
304.741	70.88
304.971	93.88
305.201	95.88
305.431	97.88
305.661	82.88
305.891	99.88
306.121	96.88
306.352	96.88
306.582	94.88
306.812	100.88
307.042	89.88
307.272	96.88
307.502	89.88
307.731	92.88
307.961	101.88
308.191	72.88
308.421	102.88
308.651	92.88
308.881	95.88
309.111	102.88
309.341	102.88
309.571	93.88
309.8	84.88
310.03	98.88
310.26	102.88
310.49	84.88
310.72	89.88
310.949	91.88
311.179	109.88
311.409	104.88
311.639	88.88
311.868	79.88
312.098	92.88
312.328	101.88
312.557	103.88
312.787	108.88
313.017	102.88
313.246	106.88
313.476	104.88
313.706	96.88
313.935	89.88
314.165	112.88
314.394	107.88
314.624	98.88
314.853	101.88
315.083	109.88
315.312	88.88
315.542	92.88
315.771	95.88
316.001	96.88
316.23	87.88
316.46	84.88
316.689	87.88
316.919	92.88
317.148	93.88
317.377	95.88
317.607	85.88
317.836	93.88
318.065	91.88
318.295	103.88
318.524	93.88
318.753	86.88
318.983	88.88
319.212	121.88
319.441	108.88
319.67	112.88
319.9	86.88
320.129	100.88
320.358	91.88
320.587	100.88
320.816	104.88
321.046	109.88
321.275	103.88
321.504	90.88
321.733	96.88
321.962	88.88
322.191	100.88
322.42	108.88
322.649	105.88
322.878	107.88
323.108	113.88
323.337	116.88
323.566	146.88
323.795	129.88
324.024	221.88
324.253	405.88
324.482	895.88
324.71	1840.88
324.939	2500.88
325.168	889.88
325.397	254.88
325.626	172.88
325.855	125.88
326.084	120.88
326.313	125.88
326.542	150.88
326.77	248.88
326.999	483.88
327.228	1001.88
327.457	1932.88
327.686	1578.88
327.914	404.88
328.143	187.88
328.372	153.88
328.6	127.88
328.829	141.88
329.058	128.88
329.287	128.88
329.515	109.88
329.744	104.88
329.972	95.88
330.201	108.88
330.43	112.88
330.658	129.88
330.887	150.88
331.115	131.88
331.344	98.88
331.572	93.88
331.801	100.88
332.03	116.88
332.258	104.88
332.486	94.88
332.715	98.88
332.943	89.88
333.172	100.88
333.4	80.88
333.629	107.88
333.857	120.88
334.085	104.88
334.314	95.88
334.542	103.88
334.771	103.88
334.999	97.88
335.227	110.88
335.455	91.88
335.684	93.88
335.912	102.88
336.14	88.88
336.369	105.88
336.597	91.88
336.825	98.88
337.053	95.88
337.281	92.88
337.51	97.88
337.738	84.88
337.966	95.88
338.194	106.88
338.422	103.88
338.65	100.88
338.878	95.88
339.106	93.88
339.334	87.88
339.562	94.88
339.79	96.88
340.018	99.88
340.246	94.88
340.474	92.88
340.702	100.88
340.93	85.88
341.158	94.88
341.386	95.88
341.614	101.88
341.842	103.88
342.07	101.88
342.298	93.88
342.526	82.88
342.754	89.88
342.981	87.88
343.209	88.88
343.437	108.88
343.665	88.88
343.893	91.88
344.12	80.88
344.348	94.88
344.576	88.88
344.804	84.88
345.031	104.88
345.259	102.88
345.487	83.88
345.714	84.88
345.942	79.88
346.17	95.88
346.397	87.88
346.625	83.88
346.853	85.88
347.08	92.88
347.308	89.88
347.535	84.88
347.763	102.88
347.99	97.88
348.218	93.88
348.445	111.88
348.673	112.88
348.9	91.88
349.128	101.88
349.355	97.88
349.583	105.88
349.81	104.88
350.037	88.88
350.265	84.88
350.492	94.88
350.72	97.88
350.947	90.88
351.174	123.88
351.402	113.88
351.629	109.88
351.856	103.88
352.083	103.88
352.311	101.88
352.538	121.88
352.765	113.88
352.992	102.88
353.22	119.88
353.447	103.88
353.674	100.88
353.901	104.88
354.128	96.88
354.355	103.88
354.583	108.88
354.81	105.88
355.037	92.88
355.264	100.88
355.491	98.88
355.718	99.88
355.945	87.88
356.172	99.88
356.399	92.88
356.626	96.88
356.853	103.88
357.08	85.88
357.307	93.88
357.534	92.88
357.761	92.88
357.988	92.88
358.215	98.88
358.441	89.88
358.668	94.88
358.895	96.88
359.122	89.88
359.349	97.88
359.576	85.88
359.802	97.88
360.029	109.88
360.256	111.88
360.483	110.88
360.709	75.88
360.936	87.88
361.163	103.88
361.39	97.88
361.616	94.88
361.843	74.88
362.07	100.88
362.296	98.88
362.523	90.88
362.749	97.88
362.976	94.88
363.203	98.88
363.429	94.88
363.656	83.88
363.882	90.88
364.109	90.88
364.335	82.88
364.562	91.88
364.788	72.88
365.015	107.88
365.241	97.88
365.468	117.88
365.694	115.88
365.92	100.88
366.147	91.88
366.373	104.88
366.599	87.88
366.826	92.88
367.052	79.88
367.278	97.88
367.505	91.88
367.731	92.88
367.957	100.88
368.184	100.88
368.41	87.88
368.636	104.88
368.862	115.88
369.089	110.88
369.315	100.88
369.541	107.88
369.767	82.88
369.993	103.88
370.219	93.88
370.445	86.88
370.672	90.88
370.898	98.88
371.124	103.88
371.35	92.88
371.576	94.88
371.802	87.88
372.028	95.88
372.254	83.88
372.48	91.88
372.706	88.88
372.932	100.88
373.158	89.88
373.384	99.88
373.61	81.88
373.835	89.88
374.061	85.88
374.287	82.88
374.513	80.88
374.739	96.88
374.965	84.88
375.191	84.88
375.416	100.88
375.642	92.88
375.868	86.88
376.094	100.88
376.319	97.88
376.545	101.88
376.771	89.88
376.997	92.88
377.222	88.88
377.448	87.88
377.674	98.88
377.899	91.88
378.125	87.88
378.35	97.88
378.576	89.88
378.802	84.88
379.027	109.88
379.253	97.88
379.478	89.88
379.704	108.88
379.929	113.88
380.155	88.88
380.38	110.88
380.606	81.88
380.831	100.88
381.057	104.88
381.282	102.88
381.507	105.88
381.733	105.88
381.958	91.88
382.184	102.88
382.409	104.88
382.634	104.88
382.86	108.88
383.085	107.88
383.31	114.88
383.535	103.88
383.761	109.88
383.986	112.88
384.211	103.88
384.436	109.88
384.662	107.88
384.887	126.88
385.112	119.88
385.337	128.88
385.562	105.88
385.787	121.88
386.013	116.88
386.238	114.88
386.463	120.88
386.688	121.88
386.913	110.88
387.138	111.88
387.363	121.88
387.588	97.88
387.813	104.88
388.038	105.88
388.263	130.88
388.488	113.88
388.713	94.88
388.938	100.88
389.163	106.88
389.387	96.88
389.612	78.88
389.837	99.88
390.062	88.88
390.287	81.88
390.512	91.88
390.736	86.88
390.961	89.88
391.186	93.88
391.411	97.88
391.636	107.88
391.86	80.88
392.085	89.88
392.31	81.88
392.534	84.88
392.759	94.88
392.984	96.88
393.208	91.88
393.433	105.88
393.658	95.88
393.882	99.88
394.107	84.88
394.331	90.88
394.556	94.88
394.78	89.88
395.005	101.88
395.229	91.88
395.454	86.88
395.678	71.88
395.903	76.88
396.127	93.88
396.352	89.88
396.576	95.88
396.801	91.88
397.025	82.88
397.249	94.88
397.474	87.88
397.698	86.88
397.922	73.88
398.147	87.88
398.371	79.88
398.595	81.88
398.82	95.88
399.044	91.88
399.268	78.88
399.492	84.88
399.717	96.88
399.941	83.88
400.165	75.88
400.389	96.88
400.613	92.88
400.837	94.88
401.062	101.88
401.286	103.88
401.51	84.88
401.734	91.88
401.958	96.88
402.182	118.88
402.406	161.88
402.63	105.88
402.854	105.88
403.078	95.88
403.302	88.88
403.526	86.88
403.75	95.88
403.974	81.88
404.198	85.88
404.422	80.88
404.645	84.88
404.869	98.88
405.093	89.88
405.317	91.88
405.541	88.88
405.765	86.88
405.988	116.88
406.212	159.88
406.436	207.88
406.66	154.88
406.883	111.88
407.107	85.88
407.331	79.88
407.555	97.88
407.778	81.88
408.002	86.88
408.226	95.88
408.449	92.88
408.673	84.88
408.896	93.88
409.12	90.88
409.344	88.88
409.567	88.88
409.791	90.88
410.014	83.88
410.238	91.88
410.461	83.88
410.685	102.88
410.908	108.88
411.132	116.88
411.355	108.88
411.578	89.88
411.802	90.88
412.025	93.88
412.249	91.88
412.472	72.88
412.695	89.88
412.919	85.88
413.142	86.88
413.365	105.88
413.589	99.88
413.812	88.88
414.035	85.88
414.258	86.88
414.482	100.88
414.705	95.88
414.928	84.88
415.151	86.88
415.374	80.88
415.597	91.88
415.821	94.88
416.044	80.88
416.267	91.88
416.49	79.88
416.713	89.88
416.936	77.88
417.159	94.88
417.382	69.88
417.605	85.88
417.828	104.88
418.051	86.88
418.274	88.88
418.497	97.88
418.72	89.88
418.943	85.88
419.166	89.88
419.389	103.88
419.611	93.88
419.834	86.88
420.057	103.88
420.28	69.88
420.503	84.88
420.726	96.88
420.948	76.88
421.171	89.88
421.394	97.88
421.617	88.88
421.839	89.88
422.062	86.88
422.285	97.88
422.507	91.88
422.73	111.88
422.953	83.88
423.175	98.88
423.398	92.88
423.621	100.88
423.843	90.88
424.066	86.88
424.288	107.88
424.511	89.88
424.733	89.88
424.956	101.88
425.178	86.88
425.401	100.88
425.623	104.88
425.846	87.88
426.068	91.88
426.291	94.88
426.513	84.88
426.735	97.88
426.958	105.88
427.18	118.88
427.402	153.88
427.625	184.88
427.847	147.88
428.069	123.88
428.292	87.88
428.514	80.88
428.736	82.88
428.958	84.88
429.181	85.88
429.403	85.88
429.625	96.88
429.847	95.88
430.069	108.88
430.292	102.88
430.514	79.88
430.736	84.88
430.958	78.88
431.18	90.88
431.402	85.88
431.624	90.88
431.846	90.88
432.068	83.88
432.29	88.88
432.512	94.88
432.734	71.88
432.956	91.88
433.178	124.88
433.4	87.88
433.622	91.88
433.844	101.88
434.066	88.88
434.287	76.88
434.509	85.88
434.731	73.88
434.953	95.88
435.175	95.88
435.397	97.88
435.618	108.88
435.84	99.88
436.062	134.88
436.284	138.88
436.505	110.88
436.727	113.88
436.949	91.88
437.17	83.88
437.392	97.88
437.614	104.88
437.835	115.88
438.057	133.88
438.278	115.88
438.5	125.88
438.721	125.88
438.943	108.88
439.165	82.88
439.386	78.88
439.608	89.88
439.829	99.88
440.05	131.88
440.272	155.88
440.493	105.88
440.715	87.88
440.936	79.88
441.158	101.88
441.379	82.88
441.6	102.88
441.822	87.88
442.043	91.88
442.264	106.88
442.486	117.88
442.707	99.88
442.928	109.88
443.149	140.88
443.371	117.88
443.592	110.88
443.813	115.88
444.034	127.88
444.255	94.88
444.476	94.88
444.698	107.88
444.919	93.88
445.14	127.88
445.361	122.88
445.582	127.88
445.803	156.88
446.024	153.88
446.245	159.88
446.466	111.88
446.687	89.88
446.908	80.88
447.129	90.88
447.35	90.88
447.571	92.88
447.792	100.88
448.013	103.88
448.234	112.88
448.455	95.88
448.675	135.88
448.896	129.88
449.117	86.88
449.338	112.88
449.559	145.88
449.779	158.88
450	97.88
450.221	83.88
450.442	92.88
450.662	99.88
450.883	115.88
451.104	114.88
451.324	92.88
451.545	88.88
451.766	84.88
451.986	80.88
452.207	91.88
452.428	93.88
452.648	97.88
452.869	108.88
453.089	117.88
453.31	112.88
453.53	102.88
453.751	90.88
453.971	105.88
454.192	110.88
454.412	96.88
454.633	96.88
454.853	84.88
455.073	100.88
455.294	103.88
455.514	115.88
455.734	96.88
455.955	79.88
456.175	108.88
456.395	93.88
456.616	86.88
456.836	91.88
457.056	92.88
457.276	83.88
457.497	94.88
457.717	87.88
457.937	86.88
458.157	90.88
458.377	84.88
458.598	114.88
458.818	156.88
459.038	163.88
459.258	128.88
459.478	95.88
459.698	85.88
459.918	89.88
460.138	79.88
460.358	81.88
460.578	90.88
460.798	85.88
461.018	94.88
461.238	90.88
461.458	67.88
461.678	84.88
461.898	77.88
462.118	86.88
462.338	88.88
462.558	93.88
462.777	80.88
462.997	77.88
463.217	81.88
463.437	96.88
463.657	91.88
463.876	80.88
464.096	84.88
464.316	95.88
464.536	91.88
464.755	92.88
464.975	108.88
465.195	167.88
465.414	161.88
465.634	108.88
465.854	98.88
466.073	98.88
466.293	94.88
466.512	89.88
466.732	80.88
466.951	81.88
467.171	79.88
467.391	94.88
467.61	104.88
467.829	76.88
468.049	92.88
468.268	89.88
468.488	81.88
468.707	87.88
468.927	95.88
469.146	77.88
469.365	90.88
469.585	94.88
469.804	96.88
470.023	102.88
470.243	83.88
470.462	95.88
470.681	103.88
470.901	71.88
471.12	82.88
471.339	83.88
471.558	88.88
471.777	80.88
471.997	71.88
472.216	94.88
472.435	96.88
472.654	102.88
472.873	92.88
473.092	86.88
473.311	84.88
473.53	79.88
473.749	88.88
473.968	83.88
474.187	123.88
474.406	107.88
474.625	92.88
474.844	78.88
475.063	88.88
475.282	82.88
475.501	91.88
475.72	86.88
475.939	78.88
476.158	103.88
476.377	98.88
476.596	75.88
476.814	85.88
477.033	99.88
477.252	89.88
477.471	95.88
477.69	89.88
477.908	83.88
478.127	97.88
478.346	101.88
478.564	78.88
478.783	93.88
479.002	76.88
479.22	86.88
479.439	118.88
479.658	92.88
479.876	94.88
480.095	76.88
480.313	96.88
480.532	86.88
480.751	80.88
480.969	88.88
481.188	102.88
481.406	101.88
481.624	92.88
481.843	83.88
482.061	88.88
482.28	87.88
482.498	96.88
482.717	79.88
482.935	92.88
483.153	87.88
483.372	87.88
483.59	81.88
483.808	81.88
484.027	99.88
484.245	87.88
484.463	100.88
484.681	84.88
484.9	101.88
485.118	119.88
485.336	100.88
485.554	102.88
485.772	93.88
485.99	108.88
486.209	97.88
486.427	98.88
486.645	118.88
486.863	126.88
487.081	103.88
487.299	82.88
487.517	83.88
487.735	93.88
487.953	101.88
488.171	85.88
488.389	92.88
488.607	90.88
488.825	92.88
489.043	87.88
489.261	85.88
489.479	93.88
489.696	92.88
489.914	85.88
490.132	77.88
490.35	100.88
490.568	85.88
490.786	92.88
491.003	80.88
491.221	87.88
491.439	94.88
491.657	79.88
491.874	90.88
492.092	104.88
492.31	101.88
492.527	83.88
492.745	77.88
492.963	99.88
493.18	93.88
493.398	100.88
493.615	103.88
493.833	97.88
494.05	86.88
494.268	91.88
494.485	88.88
494.703	90.88
494.92	88.88
495.138	90.88
495.355	93.88
495.573	79.88
495.79	89.88
496.008	112.88
496.225	97.88
496.442	77.88
496.66	94.88
496.877	108.88
497.094	87.88
497.312	93.88
497.529	80.88
497.746	100.88
497.963	95.88
498.181	94.88
498.398	97.88
498.615	110.88
498.832	96.88
499.049	92.88
499.267	94.88
499.484	103.88
499.701	91.88
499.918	87.88
500.135	93.88
500.352	97.88
500.569	89.88
500.786	107.88
501.003	77.88
501.22	92.88
501.437	98.88
501.654	93.88
501.871	113.88
502.088	83.88
502.305	92.88
502.522	86.88
502.739	76.88
502.956	98.88
503.172	86.88
503.389	90.88
503.606	104.88
503.823	101.88
504.04	88.88
504.256	101.88
504.473	100.88
504.69	98.88
504.907	92.88
505.123	96.88
505.34	87.88
505.557	102.88
505.773	96.88
505.99	84.88
506.207	84.88
506.423	92.88
506.64	89.88
506.856	97.88
507.073	85.88
507.289	85.88
507.506	92.88
507.722	120.88
507.939	114.88
508.155	95.88
508.372	80.88
508.588	97.88
508.805	95.88
509.021	91.88
509.238	103.88
509.454	100.88
509.67	89.88
509.887	119.88
510.103	124.88
510.319	219.88
510.536	732.88
510.752	2281.88
510.968	650.88
511.184	147.88
511.401	121.88
511.617	112.88
511.833	103.88
512.049	81.88
512.265	101.88
512.481	87.88
512.698	92.88
512.914	84.88
513.13	93.88
513.346	113.88
513.562	104.88
513.778	100.88
513.994	93.88
514.21	99.88
514.426	125.88
514.642	127.88
514.858	131.88
