Data from Uncirc_2005_H10_HRD10591_00014.txt Node
Date: Wed Jan 03 10:28:27 EST 2024
User: Yrep
Spectrometer: HR+D1059
Trigger mode: 1
Integration Time (sec): 1.000000E-1
Scans to average: 1
Electric dark correction enabled: true
Nonlinearity correction enabled: false
Boxcar width: 0
XAxis mode: Wavelengths
Number of Pixels in Spectrum: 2048
>>>>>Begin Spectral Data<<<<<
223.165	-18.19
223.4	-18.19
223.635	-18.19
223.869	-17.19
224.104	-15.19
224.338	-19.19
224.573	-27.19
224.808	-4.19
225.042	-4.19
225.277	-6.19
225.511	3.81
225.746	-0.19
225.98	7.81
226.215	8.81
226.449	12.81
226.683	14.81
226.918	29.81
227.152	33.81
227.387	30.81
227.621	40.81
227.856	32.81
228.09	48.81
228.324	60.81
228.559	64.81
228.793	45.81
229.027	63.81
229.262	63.81
229.496	69.81
229.73	93.81
229.964	82.81
230.199	66.81
230.433	71.81
230.667	75.81
230.901	88.81
231.136	83.81
231.37	79.81
231.604	73.81
231.838	88.81
232.072	77.81
232.306	74.81
232.541	80.81
232.775	84.81
233.009	78.81
233.243	73.81
233.477	85.81
233.711	82.81
233.945	80.81
234.179	81.81
234.413	75.81
234.647	72.81
234.881	63.81
235.115	89.81
235.349	84.81
235.583	90.81
235.817	78.81
236.051	75.81
236.285	79.81
236.519	76.81
236.753	75.81
236.987	80.81
237.221	95.81
237.455	75.81
237.689	81.81
237.922	68.81
238.156	92.81
238.39	78.81
238.624	73.81
238.858	76.81
239.091	73.81
239.325	75.81
239.559	66.81
239.793	83.81
240.027	84.81
240.26	67.81
240.494	73.81
240.728	83.81
240.961	75.81
241.195	81.81
241.429	77.81
241.662	95.81
241.896	77.81
242.13	91.81
242.363	75.81
242.597	80.81
242.83	69.81
243.064	73.81
243.298	72.81
243.531	83.81
243.765	53.81
243.998	89.81
244.232	94.81
244.465	94.81
244.699	67.81
244.932	69.81
245.166	81.81
245.399	71.81
245.633	88.81
245.866	85.81
246.099	83.81
246.333	87.81
246.566	84.81
246.8	74.81
247.033	73.81
247.266	82.81
247.5	77.81
247.733	76.81
247.966	84.81
248.2	75.81
248.433	82.81
248.666	89.81
248.899	68.81
249.133	87.81
249.366	86.81
249.599	87.81
249.832	89.81
250.066	96.81
250.299	67.81
250.532	67.81
250.765	84.81
250.998	72.81
251.231	76.81
251.465	87.81
251.698	82.81
251.931	90.81
252.164	83.81
252.397	83.81
252.63	68.81
252.863	81.81
253.096	86.81
253.329	75.81
253.562	85.81
253.795	84.81
254.028	75.81
254.261	83.81
254.494	79.81
254.727	84.81
254.96	72.81
255.193	83.81
255.426	84.81
255.659	73.81
255.892	81.81
256.124	87.81
256.357	97.81
256.59	99.81
256.823	77.81
257.056	79.81
257.289	80.81
257.521	96.81
257.754	82.81
257.987	76.81
258.22	72.81
258.452	89.81
258.685	87.81
258.918	81.81
259.151	90.81
259.383	83.81
259.616	77.81
259.849	80.81
260.081	79.81
260.314	89.81
260.547	74.81
260.779	88.81
261.012	76.81
261.244	72.81
261.477	90.81
261.71	97.81
261.942	97.81
262.175	116.81
262.407	87.81
262.64	78.81
262.872	76.81
263.105	91.81
263.337	70.81
263.57	66.81
263.802	75.81
264.035	87.81
264.267	79.81
264.499	83.81
264.732	75.81
264.964	93.81
265.197	80.81
265.429	89.81
265.661	83.81
265.894	89.81
266.126	80.81
266.358	88.81
266.591	79.81
266.823	88.81
267.055	72.81
267.287	85.81
267.52	79.81
267.752	71.81
267.984	80.81
268.216	97.81
268.448	84.81
268.681	81.81
268.913	86.81
269.145	77.81
269.377	86.81
269.609	94.81
269.841	92.81
270.073	96.81
270.306	92.81
270.538	87.81
270.77	78.81
271.002	86.81
271.234	97.81
271.466	84.81
271.698	84.81
271.93	97.81
272.162	81.81
272.394	89.81
272.626	90.81
272.858	80.81
273.09	70.81
273.322	74.81
273.553	94.81
273.785	73.81
274.017	77.81
274.249	98.81
274.481	91.81
274.713	85.81
274.945	93.81
275.176	93.81
275.408	87.81
275.64	87.81
275.872	77.81
276.104	95.81
276.335	89.81
276.567	95.81
276.799	104.81
277.031	95.81
277.262	92.81
277.494	85.81
277.726	92.81
277.957	93.81
278.189	72.81
278.421	87.81
278.652	89.81
278.884	96.81
279.115	87.81
279.347	82.81
279.579	86.81
279.81	88.81
280.042	91.81
280.273	87.81
280.505	94.81
280.736	87.81
280.968	100.81
281.199	71.81
281.431	88.81
281.662	80.81
281.894	84.81
282.125	97.81
282.356	105.81
282.588	99.81
282.819	111.81
283.051	75.81
283.282	78.81
283.513	87.81
283.745	72.81
283.976	98.81
284.207	77.81
284.439	84.81
284.67	85.81
284.901	85.81
285.132	84.81
285.364	94.81
285.595	89.81
285.826	86.81
286.057	95.81
286.288	98.81
286.52	76.81
286.751	81.81
286.982	101.81
287.213	83.81
287.444	91.81
287.675	83.81
287.906	88.81
288.138	97.81
288.369	91.81
288.6	87.81
288.831	102.81
289.062	88.81
289.293	98.81
289.524	92.81
289.755	94.81
289.986	98.81
290.217	89.81
290.448	87.81
290.679	93.81
290.91	88.81
291.141	91.81
291.371	78.81
291.602	75.81
291.833	81.81
292.064	89.81
292.295	80.81
292.526	88.81
292.757	86.81
292.987	86.81
293.218	72.81
293.449	94.81
293.68	89.81
293.91	100.81
294.141	88.81
294.372	71.81
294.603	85.81
294.833	93.81
295.064	86.81
295.295	92.81
295.525	83.81
295.756	111.81
295.987	100.81
296.217	113.81
296.448	108.81
296.679	103.81
296.909	91.81
297.14	88.81
297.37	91.81
297.601	87.81
297.831	92.81
298.062	100.81
298.292	92.81
298.523	98.81
298.753	73.81
298.984	95.81
299.214	97.81
299.445	81.81
299.675	92.81
299.905	87.81
300.136	87.81
300.366	88.81
300.597	87.81
300.827	93.81
301.057	97.81
301.288	108.81
301.518	88.81
301.748	97.81
301.979	90.81
302.209	83.81
302.439	83.81
302.669	85.81
302.9	91.81
303.13	80.81
303.36	93.81
303.59	95.81
303.82	101.81
304.051	92.81
304.281	96.81
304.511	104.81
304.741	99.81
304.971	90.81
305.201	93.81
305.431	88.81
305.661	100.81
305.891	93.81
306.121	79.81
306.352	95.81
306.582	94.81
306.812	84.81
307.042	80.81
307.272	81.81
307.502	103.81
307.731	88.81
307.961	96.81
308.191	83.81
308.421	81.81
308.651	85.81
308.881	100.81
309.111	85.81
309.341	89.81
309.571	90.81
309.8	88.81
310.03	93.81
310.26	92.81
310.49	103.81
310.72	100.81
310.949	99.81
311.179	109.81
311.409	83.81
311.639	91.81
311.868	89.81
312.098	97.81
312.328	97.81
312.557	104.81
312.787	88.81
313.017	105.81
313.246	96.81
313.476	82.81
313.706	102.81
313.935	102.81
314.165	99.81
314.394	82.81
314.624	100.81
314.853	96.81
315.083	96.81
315.312	100.81
315.542	74.81
315.771	91.81
316.001	96.81
316.23	83.81
316.46	85.81
316.689	94.81
316.919	92.81
317.148	88.81
317.377	103.81
317.607	92.81
317.836	98.81
318.065	96.81
318.295	86.81
318.524	89.81
318.753	96.81
318.983	92.81
319.212	85.81
319.441	88.81
319.67	112.81
319.9	103.81
320.129	101.81
320.358	95.81
320.587	96.81
320.816	101.81
321.046	90.81
321.275	77.81
321.504	87.81
321.733	95.81
321.962	106.81
322.191	104.81
322.42	107.81
322.649	107.81
322.878	113.81
323.108	110.81
323.337	129.81
323.566	127.81
323.795	147.81
324.024	193.81
324.253	377.81
324.482	812.81
324.71	1637.81
324.939	2153.81
325.168	788.81
325.397	230.81
325.626	144.81
325.855	118.81
326.084	115.81
326.313	145.81
326.542	153.81
326.77	245.81
326.999	443.81
327.228	929.81
327.457	1689.81
327.686	1319.81
327.914	343.81
328.143	180.81
328.372	126.81
328.6	107.81
328.829	106.81
329.058	116.81
329.287	118.81
329.515	99.81
329.744	102.81
329.972	100.81
330.201	99.81
330.43	114.81
330.658	121.81
330.887	116.81
331.115	119.81
331.344	101.81
331.572	91.81
331.801	94.81
332.03	86.81
332.258	104.81
332.486	98.81
332.715	98.81
332.943	94.81
333.172	106.81
333.4	100.81
333.629	97.81
333.857	94.81
334.085	110.81
334.314	94.81
334.542	98.81
334.771	100.81
334.999	97.81
335.227	88.81
335.455	99.81
335.684	107.81
335.912	96.81
336.14	88.81
336.369	104.81
336.597	84.81
336.825	93.81
337.053	95.81
337.281	85.81
337.51	99.81
337.738	103.81
337.966	96.81
338.194	99.81
338.422	91.81
338.65	83.81
338.878	86.81
339.106	97.81
339.334	84.81
339.562	80.81
339.79	88.81
340.018	85.81
340.246	78.81
340.474	94.81
340.702	92.81
340.93	77.81
341.158	91.81
341.386	82.81
341.614	96.81
341.842	94.81
342.07	86.81
342.298	96.81
342.526	81.81
342.754	77.81
342.981	106.81
343.209	91.81
343.437	93.81
343.665	78.81
343.893	106.81
344.12	85.81
344.348	103.81
344.576	90.81
344.804	89.81
345.031	84.81
345.259	101.81
345.487	102.81
345.714	93.81
345.942	88.81
346.17	90.81
346.397	90.81
346.625	98.81
346.853	98.81
347.08	87.81
347.308	84.81
347.535	93.81
347.763	102.81
347.99	99.81
348.218	108.81
348.445	96.81
348.673	101.81
348.9	93.81
349.128	92.81
349.355	92.81
349.583	86.81
349.81	90.81
350.037	87.81
350.265	77.81
350.492	103.81
350.72	96.81
350.947	93.81
351.174	105.81
351.402	96.81
351.629	116.81
351.856	93.81
352.083	95.81
352.311	111.81
352.538	97.81
352.765	86.81
352.992	112.81
353.22	91.81
353.447	99.81
353.674	118.81
353.901	108.81
354.128	95.81
354.355	79.81
354.583	93.81
354.81	101.81
355.037	104.81
355.264	104.81
355.491	93.81
355.718	72.81
355.945	93.81
356.172	88.81
356.399	103.81
356.626	107.81
356.853	95.81
357.08	88.81
357.307	93.81
357.534	107.81
357.761	104.81
357.988	96.81
358.215	115.81
358.441	96.81
358.668	100.81
358.895	88.81
359.122	89.81
359.349	89.81
359.576	97.81
359.802	105.81
360.029	108.81
360.256	93.81
360.483	96.81
360.709	87.81
360.936	88.81
361.163	104.81
361.39	113.81
361.616	93.81
361.843	89.81
362.07	88.81
362.296	99.81
362.523	87.81
362.749	94.81
362.976	91.81
363.203	89.81
363.429	85.81
363.656	90.81
363.882	94.81
364.109	97.81
364.335	107.81
364.562	97.81
364.788	99.81
365.015	86.81
365.241	90.81
365.468	107.81
365.694	105.81
365.92	93.81
366.147	97.81
366.373	94.81
366.599	92.81
366.826	94.81
367.052	85.81
367.278	97.81
367.505	80.81
367.731	86.81
367.957	86.81
368.184	94.81
368.41	98.81
368.636	100.81
368.862	121.81
369.089	106.81
369.315	99.81
369.541	92.81
369.767	104.81
369.993	97.81
370.219	94.81
370.445	92.81
370.672	81.81
370.898	106.81
371.124	92.81
371.35	90.81
371.576	87.81
371.802	86.81
372.028	87.81
372.254	71.81
372.48	88.81
372.706	88.81
372.932	97.81
373.158	88.81
373.384	90.81
373.61	102.81
373.835	92.81
374.061	94.81
374.287	78.81
374.513	91.81
374.739	80.81
374.965	89.81
375.191	86.81
375.416	96.81
375.642	99.81
375.868	89.81
376.094	93.81
376.319	90.81
376.545	89.81
376.771	91.81
376.997	85.81
377.222	89.81
377.448	102.81
377.674	88.81
377.899	80.81
378.125	96.81
378.35	86.81
378.576	100.81
378.802	88.81
379.027	97.81
379.253	92.81
379.478	97.81
379.704	89.81
379.929	85.81
380.155	100.81
380.38	110.81
380.606	108.81
380.831	93.81
381.057	97.81
381.282	95.81
381.507	102.81
381.733	109.81
381.958	104.81
382.184	95.81
382.409	116.81
382.634	110.81
382.86	103.81
383.085	114.81
383.31	105.81
383.535	107.81
383.761	107.81
383.986	96.81
384.211	99.81
384.436	106.81
384.662	94.81
384.887	117.81
385.112	115.81
385.337	126.81
385.562	107.81
385.787	103.81
386.013	104.81
386.238	122.81
386.463	139.81
386.688	127.81
386.913	115.81
387.138	119.81
387.363	109.81
387.588	108.81
387.813	112.81
388.038	121.81
388.263	121.81
388.488	113.81
388.713	102.81
388.938	97.81
389.163	94.81
389.387	98.81
389.612	94.81
389.837	90.81
390.062	100.81
390.287	97.81
390.512	102.81
390.736	76.81
390.961	76.81
391.186	86.81
391.411	100.81
391.636	104.81
391.86	89.81
392.085	85.81
392.31	87.81
392.534	86.81
392.759	92.81
392.984	91.81
393.208	92.81
393.433	96.81
393.658	83.81
393.882	76.81
394.107	91.81
394.331	80.81
394.556	90.81
394.78	103.81
395.005	83.81
395.229	84.81
395.454	89.81
395.678	80.81
395.903	81.81
396.127	88.81
396.352	76.81
396.576	85.81
396.801	79.81
397.025	104.81
397.249	89.81
397.474	88.81
397.698	89.81
397.922	76.81
398.147	76.81
398.371	83.81
398.595	87.81
398.82	83.81
399.044	82.81
399.268	100.81
399.492	94.81
399.717	87.81
399.941	108.81
400.165	87.81
400.389	91.81
400.613	84.81
400.837	92.81
401.062	85.81
401.286	105.81
401.51	86.81
401.734	84.81
401.958	97.81
402.182	121.81
402.406	139.81
402.63	112.81
402.854	99.81
403.078	98.81
403.302	89.81
403.526	87.81
403.75	87.81
403.974	90.81
404.198	82.81
404.422	89.81
404.645	85.81
404.869	93.81
405.093	100.81
405.317	88.81
405.541	100.81
405.765	97.81
405.988	107.81
406.212	139.81
406.436	175.81
406.66	122.81
406.883	95.81
407.107	100.81
407.331	95.81
407.555	91.81
407.778	87.81
408.002	89.81
408.226	92.81
408.449	94.81
408.673	96.81
408.896	100.81
409.12	103.81
409.344	88.81
409.567	94.81
409.791	95.81
410.014	91.81
410.238	92.81
410.461	94.81
410.685	101.81
410.908	115.81
411.132	112.81
411.355	89.81
411.578	89.81
411.802	80.81
412.025	94.81
412.249	101.81
412.472	88.81
412.695	88.81
412.919	96.81
413.142	88.81
413.365	99.81
413.589	94.81
413.812	91.81
414.035	92.81
414.258	94.81
414.482	98.81
414.705	76.81
414.928	85.81
415.151	95.81
415.374	93.81
415.597	89.81
415.821	87.81
416.044	80.81
416.267	99.81
416.49	90.81
416.713	93.81
416.936	87.81
417.159	84.81
417.382	94.81
417.605	94.81
417.828	107.81
418.051	92.81
418.274	68.81
418.497	85.81
418.72	88.81
418.943	89.81
419.166	93.81
419.389	81.81
419.611	87.81
419.834	94.81
420.057	85.81
420.28	90.81
420.503	87.81
420.726	80.81
420.948	104.81
421.171	99.81
421.394	83.81
421.617	92.81
421.839	83.81
422.062	73.81
422.285	84.81
422.507	99.81
422.73	108.81
422.953	108.81
423.175	82.81
423.398	84.81
423.621	80.81
423.843	86.81
424.066	72.81
424.288	79.81
424.511	88.81
424.733	97.81
424.956	94.81
425.178	80.81
425.401	91.81
425.623	87.81
425.846	99.81
426.068	93.81
426.291	82.81
426.513	89.81
426.735	93.81
426.958	96.81
427.18	89.81
427.402	128.81
427.625	161.81
427.847	119.81
428.069	103.81
428.292	95.81
428.514	82.81
428.736	94.81
428.958	82.81
429.181	91.81
429.403	95.81
429.625	82.81
429.847	83.81
430.069	95.81
430.292	103.81
430.514	72.81
430.736	78.81
430.958	78.81
431.18	92.81
431.402	87.81
431.624	90.81
431.846	83.81
432.068	84.81
432.29	92.81
432.512	89.81
432.734	84.81
432.956	100.81
433.178	94.81
433.4	107.81
433.622	95.81
433.844	79.81
434.066	85.81
434.287	81.81
434.509	68.81
434.731	87.81
434.953	90.81
435.175	78.81
435.397	93.81
435.618	94.81
435.84	106.81
436.062	108.81
436.284	107.81
436.505	101.81
436.727	94.81
436.949	92.81
437.17	88.81
437.392	85.81
437.614	84.81
437.835	96.81
438.057	102.81
438.278	101.81
438.5	107.81
438.721	117.81
438.943	93.81
439.165	77.81
439.386	80.81
439.608	89.81
439.829	106.81
440.05	112.81
440.272	126.81
440.493	99.81
440.715	91.81
440.936	89.81
441.158	100.81
441.379	83.81
441.6	104.81
441.822	105.81
442.043	98.81
442.264	94.81
442.486	102.81
442.707	97.81
442.928	97.81
443.149	128.81
443.371	120.81
443.592	102.81
443.813	111.81
444.034	102.81
444.255	100.81
444.476	76.81
444.698	100.81
444.919	81.81
445.14	134.81
445.361	116.81
445.582	117.81
445.803	138.81
446.024	120.81
446.245	141.81
446.466	102.81
446.687	90.81
446.908	90.81
447.129	95.81
447.35	88.81
447.571	90.81
447.792	95.81
448.013	92.81
448.234	96.81
448.455	85.81
448.675	98.81
448.896	114.81
449.117	100.81
449.338	94.81
449.559	107.81
449.779	135.81
450	108.81
450.221	99.81
450.442	81.81
450.662	109.81
450.883	97.81
451.104	101.81
451.324	97.81
451.545	83.81
451.766	85.81
451.986	85.81
452.207	68.81
452.428	82.81
452.648	85.81
452.869	95.81
453.089	103.81
453.31	107.81
453.53	88.81
453.751	99.81
453.971	79.81
454.192	115.81
454.412	103.81
454.633	94.81
454.853	74.81
455.073	83.81
455.294	94.81
455.514	98.81
455.734	85.81
455.955	87.81
456.175	74.81
456.395	83.81
456.616	81.81
456.836	82.81
457.056	98.81
457.276	84.81
457.497	78.81
457.717	69.81
457.937	86.81
458.157	85.81
458.377	85.81
458.598	93.81
458.818	139.81
459.038	126.81
459.258	95.81
459.478	93.81
459.698	86.81
459.918	89.81
460.138	87.81
460.358	100.81
460.578	80.81
460.798	78.81
461.018	82.81
461.238	90.81
461.458	81.81
461.678	86.81
461.898	90.81
462.118	86.81
462.338	88.81
462.558	90.81
462.777	67.81
462.997	86.81
463.217	81.81
463.437	79.81
463.657	81.81
463.876	87.81
464.096	81.81
464.316	88.81
464.536	102.81
464.755	92.81
464.975	111.81
465.195	137.81
465.414	126.81
465.634	82.81
465.854	91.81
466.073	91.81
466.293	81.81
466.512	84.81
466.732	79.81
466.951	88.81
467.171	102.81
467.391	82.81
467.61	99.81
467.829	100.81
468.049	86.81
468.268	95.81
468.488	79.81
468.707	79.81
468.927	77.81
469.146	77.81
469.365	95.81
469.585	78.81
469.804	90.81
470.023	89.81
470.243	93.81
470.462	87.81
470.681	102.81
470.901	85.81
471.12	81.81
471.339	88.81
471.558	93.81
471.777	98.81
471.997	91.81
472.216	72.81
472.435	88.81
472.654	101.81
472.873	98.81
473.092	90.81
473.311	67.81
473.53	90.81
473.749	91.81
473.968	94.81
474.187	103.81
474.406	93.81
474.625	84.81
474.844	82.81
475.063	94.81
475.282	88.81
475.501	88.81
475.72	81.81
475.939	89.81
476.158	88.81
476.377	76.81
476.596	93.81
476.814	103.81
477.033	84.81
477.252	88.81
477.471	103.81
477.69	104.81
477.908	91.81
478.127	88.81
478.346	82.81
478.564	101.81
478.783	79.81
479.002	103.81
479.22	80.81
479.439	109.81
479.658	110.81
479.876	75.81
480.095	89.81
480.313	104.81
480.532	87.81
480.751	87.81
480.969	84.81
481.188	98.81
481.406	92.81
481.624	90.81
481.843	82.81
482.061	100.81
482.28	67.81
482.498	93.81
482.717	96.81
482.935	89.81
483.153	85.81
483.372	103.81
483.59	86.81
483.808	102.81
484.027	92.81
484.245	85.81
484.463	82.81
484.681	105.81
484.9	100.81
485.118	88.81
485.336	93.81
485.554	91.81
485.772	89.81
485.99	101.81
486.209	102.81
486.427	95.81
486.645	100.81
486.863	111.81
487.081	101.81
487.299	91.81
487.517	91.81
487.735	85.81
487.953	104.81
488.171	95.81
488.389	83.81
488.607	93.81
488.825	90.81
489.043	97.81
489.261	89.81
489.479	96.81
489.696	94.81
489.914	86.81
490.132	85.81
490.35	93.81
490.568	93.81
490.786	93.81
491.003	78.81
491.221	92.81
491.439	94.81
491.657	103.81
491.874	91.81
492.092	104.81
492.31	105.81
492.527	79.81
492.745	95.81
492.963	88.81
493.18	93.81
493.398	78.81
493.615	112.81
493.833	97.81
494.05	87.81
494.268	90.81
494.485	95.81
494.703	79.81
494.92	88.81
495.138	74.81
495.355	92.81
495.573	94.81
495.79	77.81
496.008	85.81
496.225	96.81
496.442	95.81
496.66	99.81
496.877	90.81
497.094	88.81
497.312	89.81
497.529	70.81
497.746	99.81
497.963	108.81
498.181	81.81
498.398	93.81
498.615	85.81
498.832	102.81
499.049	86.81
499.267	92.81
499.484	87.81
499.701	81.81
499.918	83.81
500.135	85.81
500.352	83.81
500.569	87.81
500.786	88.81
501.003	82.81
501.22	99.81
501.437	90.81
501.654	100.81
501.871	93.81
502.088	89.81
502.305	104.81
502.522	94.81
502.739	87.81
502.956	86.81
503.172	92.81
503.389	88.81
503.606	107.81
503.823	99.81
504.04	88.81
504.256	99.81
504.473	99.81
504.69	101.81
504.907	99.81
505.123	100.81
505.34	94.81
505.557	87.81
505.773	83.81
505.99	89.81
506.207	89.81
506.423	92.81
506.64	92.81
506.856	91.81
507.073	94.81
507.289	79.81
507.506	99.81
507.722	123.81
507.939	96.81
508.155	101.81
508.372	85.81
508.588	100.81
508.805	98.81
509.021	100.81
509.238	77.81
509.454	95.81
509.67	94.81
509.887	114.81
510.103	122.81
510.319	197.81
510.536	641.81
510.752	1867.81
510.968	533.81
511.184	130.81
511.401	119.81
511.617	105.81
511.833	87.81
512.049	85.81
512.265	82.81
512.481	85.81
512.698	95.81
512.914	79.81
513.13	80.81
513.346	88.81
513.562	94.81
513.778	92.81
513.994	101.81
514.21	98.81
514.426	104.81
514.642	110.81
514.858	114.81
515.074	146.81
515.29	390.81
515.506	1109.81
515.721	425.81
515.937	153.81
