Data from Uncirc_2005_H10_HRD10591_00092.txt Node
Date: Wed Jan 03 10:28:43 EST 2024
User: Yrep
Spectrometer: HR+D1059
Trigger mode: 1
Integration Time (sec): 1.000000E-1
Scans to average: 1
Electric dark correction enabled: true
Nonlinearity correction enabled: false
Boxcar width: 0
XAxis mode: Wavelengths
Number of Pixels in Spectrum: 2048
>>>>>Begin Spectral Data<<<<<
223.165	-18.94
223.4	-18.94
223.635	-18.94
223.869	-23.94
224.104	-21.94
224.338	-19.94
224.573	-9.94
224.808	-18.94
225.042	0.06
225.277	-0.94
225.511	5.06
225.746	-1.94
225.98	11.06
226.215	13.06
226.449	13.06
226.683	29.06
226.918	18.06
227.152	27.06
227.387	24.06
227.621	38.06
227.856	49.06
228.09	43.06
228.324	65.06
228.559	66.06
228.793	59.06
229.027	63.06
229.262	66.06
229.496	58.06
229.73	70.06
229.964	74.06
230.199	69.06
230.433	68.06
230.667	86.06
230.901	74.06
231.136	73.06
231.37	82.06
231.604	86.06
231.838	84.06
232.072	77.06
232.306	69.06
232.541	86.06
232.775	78.06
233.009	80.06
233.243	79.06
233.477	73.06
233.711	81.06
233.945	69.06
234.179	83.06
234.413	75.06
234.647	69.06
234.881	84.06
235.115	79.06
235.349	88.06
235.583	86.06
235.817	69.06
236.051	76.06
236.285	82.06
236.519	78.06
236.753	73.06
236.987	84.06
237.221	84.06
237.455	89.06
237.689	84.06
237.922	73.06
238.156	74.06
238.39	69.06
238.624	71.06
238.858	74.06
239.091	65.06
239.325	73.06
239.559	84.06
239.793	62.06
240.027	82.06
240.26	78.06
240.494	84.06
240.728	71.06
240.961	75.06
241.195	81.06
241.429	60.06
241.662	68.06
241.896	79.06
242.13	84.06
242.363	73.06
242.597	66.06
242.83	94.06
243.064	72.06
243.298	75.06
243.531	68.06
243.765	65.06
243.998	79.06
244.232	92.06
244.465	85.06
244.699	83.06
244.932	70.06
245.166	75.06
245.399	75.06
245.633	82.06
245.866	81.06
246.099	65.06
246.333	72.06
246.566	82.06
246.8	71.06
247.033	86.06
247.266	66.06
247.5	77.06
247.733	77.06
247.966	79.06
248.2	97.06
248.433	79.06
248.666	86.06
248.899	78.06
249.133	72.06
249.366	101.06
249.599	87.06
249.832	86.06
250.066	81.06
250.299	87.06
250.532	67.06
250.765	64.06
250.998	78.06
251.231	89.06
251.465	81.06
251.698	78.06
251.931	76.06
252.164	78.06
252.397	78.06
252.63	85.06
252.863	76.06
253.096	87.06
253.329	87.06
253.562	72.06
253.795	82.06
254.028	94.06
254.261	76.06
254.494	77.06
254.727	84.06
254.96	81.06
255.193	80.06
255.426	71.06
255.659	75.06
255.892	84.06
256.124	88.06
256.357	82.06
256.59	74.06
256.823	95.06
257.056	76.06
257.289	81.06
257.521	80.06
257.754	70.06
257.987	83.06
258.22	75.06
258.452	90.06
258.685	82.06
258.918	77.06
259.151	74.06
259.383	83.06
259.616	90.06
259.849	79.06
260.081	81.06
260.314	83.06
260.547	86.06
260.779	74.06
261.012	80.06
261.244	63.06
261.477	86.06
261.71	84.06
261.942	124.06
262.175	110.06
262.407	86.06
262.64	64.06
262.872	78.06
263.105	76.06
263.337	76.06
263.57	87.06
263.802	76.06
264.035	90.06
264.267	78.06
264.499	83.06
264.732	76.06
264.964	71.06
265.197	80.06
265.429	87.06
265.661	76.06
265.894	84.06
266.126	84.06
266.358	69.06
266.591	75.06
266.823	76.06
267.055	83.06
267.287	74.06
267.52	89.06
267.752	81.06
267.984	86.06
268.216	83.06
268.448	84.06
268.681	83.06
268.913	81.06
269.145	79.06
269.377	81.06
269.609	81.06
269.841	87.06
270.073	84.06
270.306	79.06
270.538	79.06
270.77	84.06
271.002	85.06
271.234	60.06
271.466	91.06
271.698	89.06
271.93	81.06
272.162	88.06
272.394	75.06
272.626	86.06
272.858	90.06
273.09	91.06
273.322	56.06
273.553	80.06
273.785	80.06
274.017	78.06
274.249	86.06
274.481	67.06
274.713	90.06
274.945	85.06
275.176	81.06
275.408	85.06
275.64	76.06
275.872	93.06
276.104	82.06
276.335	87.06
276.567	92.06
276.799	86.06
277.031	86.06
277.262	81.06
277.494	89.06
277.726	88.06
277.957	78.06
278.189	90.06
278.421	83.06
278.652	87.06
278.884	80.06
279.115	84.06
279.347	89.06
279.579	79.06
279.81	79.06
280.042	87.06
280.273	79.06
280.505	71.06
280.736	72.06
280.968	79.06
281.199	89.06
281.431	87.06
281.662	78.06
281.894	78.06
282.125	92.06
282.356	101.06
282.588	128.06
282.819	92.06
283.051	82.06
283.282	65.06
283.513	80.06
283.745	90.06
283.976	87.06
284.207	91.06
284.439	94.06
284.67	97.06
284.901	84.06
285.132	101.06
285.364	91.06
285.595	72.06
285.826	86.06
286.057	78.06
286.288	73.06
286.52	83.06
286.751	85.06
286.982	75.06
287.213	80.06
287.444	84.06
287.675	86.06
287.906	87.06
288.138	90.06
288.369	95.06
288.6	89.06
288.831	83.06
289.062	90.06
289.293	89.06
289.524	73.06
289.755	77.06
289.986	89.06
290.217	83.06
290.448	77.06
290.679	88.06
290.91	84.06
291.141	81.06
291.371	80.06
291.602	82.06
291.833	90.06
292.064	84.06
292.295	99.06
292.526	91.06
292.757	90.06
292.987	95.06
293.218	82.06
293.449	82.06
293.68	79.06
293.91	80.06
294.141	83.06
294.372	89.06
294.603	89.06
294.833	79.06
295.064	100.06
295.295	91.06
295.525	93.06
295.756	85.06
295.987	105.06
296.217	120.06
296.448	123.06
296.679	84.06
296.909	97.06
297.14	79.06
297.37	76.06
297.601	66.06
297.831	85.06
298.062	85.06
298.292	94.06
298.523	91.06
298.753	90.06
298.984	77.06
299.214	88.06
299.445	87.06
299.675	87.06
299.905	86.06
300.136	84.06
300.366	92.06
300.597	99.06
300.827	85.06
301.057	81.06
301.288	95.06
301.518	86.06
301.748	85.06
301.979	91.06
302.209	96.06
302.439	93.06
302.669	85.06
302.9	79.06
303.13	84.06
303.36	93.06
303.59	102.06
303.82	100.06
304.051	90.06
304.281	102.06
304.511	80.06
304.741	82.06
304.971	89.06
305.201	91.06
305.431	100.06
305.661	97.06
305.891	99.06
306.121	100.06
306.352	94.06
306.582	111.06
306.812	102.06
307.042	98.06
307.272	85.06
307.502	84.06
307.731	83.06
307.961	91.06
308.191	98.06
308.421	106.06
308.651	76.06
308.881	90.06
309.111	84.06
309.341	89.06
309.571	93.06
309.8	78.06
310.03	98.06
310.26	92.06
310.49	90.06
310.72	91.06
310.949	96.06
311.179	92.06
311.409	84.06
311.639	97.06
311.868	91.06
312.098	108.06
312.328	103.06
312.557	99.06
312.787	101.06
313.017	98.06
313.246	98.06
313.476	97.06
313.706	87.06
313.935	94.06
314.165	98.06
314.394	86.06
314.624	83.06
314.853	100.06
315.083	94.06
315.312	70.06
315.542	86.06
315.771	78.06
316.001	94.06
316.23	94.06
316.46	86.06
316.689	86.06
316.919	94.06
317.148	78.06
317.377	99.06
317.607	86.06
317.836	94.06
318.065	84.06
318.295	79.06
318.524	67.06
318.753	95.06
318.983	94.06
319.212	83.06
319.441	92.06
319.67	102.06
319.9	109.06
320.129	99.06
320.358	91.06
320.587	100.06
320.816	96.06
321.046	96.06
321.275	78.06
321.504	93.06
321.733	103.06
321.962	87.06
322.191	92.06
322.42	103.06
322.649	106.06
322.878	120.06
323.108	132.06
323.337	113.06
323.566	123.06
323.795	156.06
324.024	182.06
324.253	383.06
324.482	813.06
324.71	1656.06
324.939	2207.06
325.168	804.06
325.397	229.06
325.626	145.06
325.855	147.06
326.084	121.06
326.313	132.06
326.542	151.06
326.77	215.06
326.999	472.06
327.228	952.06
327.457	1712.06
327.686	1390.06
327.914	372.06
328.143	174.06
328.372	122.06
328.6	114.06
328.829	121.06
329.058	121.06
329.287	107.06
329.515	110.06
329.744	113.06
329.972	79.06
330.201	103.06
330.43	106.06
330.658	114.06
330.887	134.06
331.115	112.06
331.344	89.06
331.572	101.06
331.801	97.06
332.03	90.06
332.258	86.06
332.486	76.06
332.715	89.06
332.943	87.06
333.172	102.06
333.4	85.06
333.629	95.06
333.857	105.06
334.085	96.06
334.314	86.06
334.542	112.06
334.771	98.06
334.999	87.06
335.227	85.06
335.455	100.06
335.684	99.06
335.912	91.06
336.14	87.06
336.369	102.06
336.597	107.06
336.825	98.06
337.053	82.06
337.281	94.06
337.51	87.06
337.738	89.06
337.966	94.06
338.194	91.06
338.422	87.06
338.65	94.06
338.878	81.06
339.106	81.06
339.334	87.06
339.562	82.06
339.79	75.06
340.018	92.06
340.246	91.06
340.474	98.06
340.702	88.06
340.93	71.06
341.158	105.06
341.386	101.06
341.614	71.06
341.842	97.06
342.07	94.06
342.298	81.06
342.526	79.06
342.754	90.06
342.981	95.06
343.209	71.06
343.437	100.06
343.665	81.06
343.893	80.06
344.12	94.06
344.348	98.06
344.576	94.06
344.804	87.06
345.031	81.06
345.259	89.06
345.487	90.06
345.714	106.06
345.942	87.06
346.17	87.06
346.397	93.06
346.625	89.06
346.853	99.06
347.08	97.06
347.308	94.06
347.535	94.06
347.763	86.06
347.99	98.06
348.218	115.06
348.445	99.06
348.673	95.06
348.9	83.06
349.128	109.06
349.355	93.06
349.583	91.06
349.81	107.06
350.037	67.06
350.265	77.06
350.492	103.06
350.72	87.06
350.947	105.06
351.174	118.06
351.402	106.06
351.629	97.06
351.856	89.06
352.083	90.06
352.311	104.06
352.538	98.06
352.765	107.06
352.992	105.06
353.22	112.06
353.447	93.06
353.674	96.06
353.901	99.06
354.128	109.06
354.355	100.06
354.583	106.06
354.81	90.06
355.037	97.06
355.264	97.06
355.491	99.06
355.718	95.06
355.945	95.06
356.172	101.06
356.399	96.06
356.626	83.06
356.853	101.06
357.08	94.06
357.307	88.06
357.534	85.06
357.761	75.06
357.988	112.06
358.215	85.06
358.441	91.06
358.668	91.06
358.895	94.06
359.122	90.06
359.349	85.06
359.576	79.06
359.802	94.06
360.029	101.06
360.256	97.06
360.483	79.06
360.709	91.06
360.936	98.06
361.163	89.06
361.39	92.06
361.616	94.06
361.843	95.06
362.07	76.06
362.296	84.06
362.523	95.06
362.749	97.06
362.976	86.06
363.203	89.06
363.429	82.06
363.656	106.06
363.882	84.06
364.109	84.06
364.335	96.06
364.562	101.06
364.788	82.06
365.015	83.06
365.241	95.06
365.468	100.06
365.694	85.06
365.92	89.06
366.147	77.06
366.373	82.06
366.599	81.06
366.826	62.06
367.052	84.06
367.278	93.06
367.505	81.06
367.731	95.06
367.957	79.06
368.184	87.06
368.41	90.06
368.636	106.06
368.862	115.06
369.089	103.06
369.315	98.06
369.541	93.06
369.767	90.06
369.993	94.06
370.219	74.06
370.445	81.06
370.672	90.06
370.898	90.06
371.124	87.06
371.35	82.06
371.576	85.06
371.802	88.06
372.028	82.06
372.254	86.06
372.48	95.06
372.706	90.06
372.932	79.06
373.158	82.06
373.384	94.06
373.61	103.06
373.835	86.06
374.061	83.06
374.287	75.06
374.513	85.06
374.739	85.06
374.965	71.06
375.191	91.06
375.416	88.06
375.642	101.06
375.868	101.06
376.094	81.06
376.319	87.06
376.545	77.06
376.771	97.06
376.997	86.06
377.222	78.06
377.448	84.06
377.674	102.06
377.899	94.06
378.125	76.06
378.35	80.06
378.576	86.06
378.802	88.06
379.027	100.06
379.253	106.06
379.478	85.06
379.704	89.06
379.929	75.06
380.155	99.06
380.38	88.06
380.606	90.06
380.831	77.06
381.057	93.06
381.282	94.06
381.507	89.06
381.733	100.06
381.958	82.06
382.184	94.06
382.409	101.06
382.634	99.06
382.86	107.06
383.085	104.06
383.31	97.06
383.535	100.06
383.761	82.06
383.986	94.06
384.211	103.06
384.436	107.06
384.662	97.06
384.887	95.06
385.112	102.06
385.337	95.06
385.562	109.06
385.787	109.06
386.013	104.06
386.238	91.06
386.463	100.06
386.688	110.06
386.913	90.06
387.138	110.06
387.363	93.06
387.588	87.06
387.813	96.06
388.038	102.06
388.263	113.06
388.488	105.06
388.713	102.06
388.938	93.06
389.163	89.06
389.387	100.06
389.612	102.06
389.837	97.06
390.062	84.06
390.287	97.06
390.512	84.06
390.736	104.06
390.961	105.06
391.186	94.06
391.411	100.06
391.636	81.06
391.86	90.06
392.085	90.06
392.31	73.06
392.534	86.06
392.759	81.06
392.984	80.06
393.208	85.06
393.433	85.06
393.658	72.06
393.882	89.06
394.107	91.06
394.331	101.06
394.556	84.06
394.78	99.06
395.005	91.06
395.229	90.06
395.454	79.06
395.678	91.06
395.903	86.06
396.127	90.06
396.352	73.06
396.576	78.06
396.801	83.06
397.025	92.06
397.249	82.06
397.474	86.06
397.698	83.06
397.922	83.06
398.147	82.06
398.371	91.06
398.595	91.06
398.82	86.06
399.044	87.06
399.268	81.06
399.492	92.06
399.717	71.06
399.941	84.06
400.165	103.06
400.389	99.06
400.613	91.06
400.837	84.06
401.062	99.06
401.286	81.06
401.51	83.06
401.734	94.06
401.958	93.06
402.182	112.06
402.406	154.06
402.63	113.06
402.854	95.06
403.078	79.06
403.302	85.06
403.526	90.06
403.75	89.06
403.974	85.06
404.198	82.06
404.422	84.06
404.645	99.06
404.869	97.06
405.093	82.06
405.317	93.06
405.541	103.06
405.765	96.06
405.988	100.06
406.212	162.06
406.436	220.06
406.66	139.06
406.883	107.06
407.107	95.06
407.331	98.06
407.555	97.06
407.778	93.06
408.002	90.06
408.226	91.06
408.449	93.06
408.673	76.06
408.896	77.06
409.12	79.06
409.344	78.06
409.567	98.06
409.791	98.06
410.014	91.06
410.238	86.06
410.461	89.06
410.685	93.06
410.908	91.06
411.132	111.06
411.355	95.06
411.578	82.06
411.802	86.06
412.025	92.06
412.249	87.06
412.472	79.06
412.695	85.06
412.919	83.06
413.142	100.06
413.365	90.06
413.589	87.06
413.812	94.06
414.035	89.06
414.258	91.06
414.482	96.06
414.705	87.06
414.928	93.06
415.151	87.06
415.374	94.06
415.597	93.06
415.821	95.06
416.044	72.06
416.267	86.06
416.49	84.06
416.713	90.06
416.936	71.06
417.159	79.06
417.382	83.06
417.605	100.06
417.828	78.06
418.051	94.06
418.274	84.06
418.497	85.06
418.72	97.06
418.943	78.06
419.166	91.06
419.389	93.06
419.611	74.06
419.834	102.06
420.057	97.06
420.28	110.06
420.503	77.06
420.726	81.06
420.948	78.06
421.171	77.06
421.394	91.06
421.617	92.06
421.839	97.06
422.062	87.06
422.285	68.06
422.507	92.06
422.73	102.06
422.953	87.06
423.175	81.06
423.398	85.06
423.621	77.06
423.843	76.06
424.066	82.06
424.288	90.06
424.511	90.06
424.733	97.06
424.956	105.06
425.178	87.06
425.401	104.06
425.623	98.06
425.846	88.06
426.068	93.06
426.291	104.06
426.513	85.06
426.735	91.06
426.958	87.06
427.18	115.06
427.402	131.06
427.625	151.06
427.847	107.06
428.069	113.06
428.292	82.06
428.514	75.06
428.736	90.06
428.958	96.06
429.181	70.06
429.403	94.06
429.625	107.06
429.847	99.06
430.069	99.06
430.292	84.06
430.514	66.06
430.736	87.06
430.958	93.06
431.18	94.06
431.402	85.06
431.624	102.06
431.846	87.06
432.068	87.06
432.29	80.06
432.512	85.06
432.734	93.06
432.956	75.06
433.178	103.06
433.4	81.06
433.622	91.06
433.844	89.06
434.066	83.06
434.287	86.06
434.509	88.06
434.731	86.06
434.953	85.06
435.175	80.06
435.397	84.06
435.618	82.06
435.84	93.06
436.062	105.06
436.284	99.06
436.505	90.06
436.727	90.06
436.949	94.06
437.17	92.06
437.392	61.06
437.614	93.06
437.835	95.06
438.057	111.06
438.278	113.06
438.5	106.06
438.721	122.06
438.943	93.06
439.165	89.06
439.386	87.06
439.608	99.06
439.829	89.06
440.05	103.06
440.272	125.06
440.493	91.06
440.715	88.06
440.936	76.06
441.158	84.06
441.379	72.06
441.6	92.06
441.822	97.06
442.043	84.06
442.264	90.06
442.486	99.06
442.707	101.06
442.928	101.06
443.149	112.06
443.371	110.06
443.592	106.06
443.813	110.06
444.034	103.06
444.255	82.06
444.476	94.06
444.698	88.06
444.919	86.06
445.14	124.06
445.361	111.06
445.582	126.06
445.803	111.06
446.024	117.06
446.245	130.06
446.466	118.06
446.687	92.06
446.908	80.06
447.129	79.06
447.35	94.06
447.571	85.06
447.792	86.06
448.013	96.06
448.234	94.06
448.455	104.06
448.675	122.06
448.896	118.06
449.117	100.06
449.338	97.06
449.559	112.06
449.779	114.06
450	87.06
450.221	96.06
450.442	94.06
450.662	99.06
450.883	105.06
451.104	98.06
451.324	94.06
451.545	82.06
451.766	72.06
451.986	85.06
452.207	90.06
452.428	89.06
452.648	86.06
452.869	109.06
453.089	113.06
453.31	109.06
453.53	83.06
453.751	83.06
453.971	110.06
454.192	101.06
454.412	85.06
454.633	81.06
454.853	79.06
455.073	76.06
455.294	91.06
455.514	100.06
455.734	85.06
455.955	73.06
456.175	87.06
456.395	81.06
456.616	85.06
456.836	76.06
457.056	82.06
457.276	90.06
457.497	89.06
457.717	84.06
457.937	89.06
458.157	86.06
458.377	100.06
458.598	105.06
458.818	121.06
459.038	146.06
459.258	107.06
459.478	75.06
459.698	84.06
459.918	84.06
460.138	92.06
460.358	88.06
460.578	81.06
460.798	99.06
461.018	79.06
461.238	86.06
461.458	84.06
461.678	91.06
461.898	76.06
462.118	98.06
462.338	80.06
462.558	83.06
462.777	94.06
462.997	83.06
463.217	78.06
463.437	84.06
463.657	73.06
463.876	79.06
464.096	86.06
464.316	77.06
464.536	82.06
464.755	90.06
464.975	108.06
465.195	153.06
465.414	141.06
465.634	92.06
465.854	81.06
466.073	81.06
466.293	67.06
466.512	74.06
466.732	76.06
466.951	87.06
467.171	88.06
467.391	91.06
467.61	104.06
467.829	90.06
468.049	96.06
468.268	82.06
468.488	85.06
468.707	74.06
468.927	73.06
469.146	73.06
469.365	91.06
469.585	85.06
469.804	97.06
470.023	83.06
470.243	97.06
470.462	98.06
470.681	101.06
470.901	86.06
471.12	87.06
471.339	84.06
471.558	84.06
471.777	88.06
471.997	87.06
472.216	99.06
472.435	90.06
472.654	98.06
472.873	93.06
473.092	94.06
473.311	90.06
473.53	95.06
473.749	86.06
473.968	96.06
474.187	101.06
474.406	83.06
474.625	99.06
474.844	100.06
475.063	83.06
475.282	87.06
475.501	88.06
475.72	91.06
475.939	79.06
476.158	87.06
476.377	90.06
476.596	95.06
476.814	94.06
477.033	90.06
477.252	89.06
477.471	83.06
477.69	71.06
477.908	81.06
478.127	94.06
478.346	81.06
478.564	87.06
478.783	96.06
479.002	94.06
479.22	87.06
479.439	94.06
479.658	97.06
479.876	96.06
480.095	86.06
480.313	74.06
480.532	93.06
480.751	97.06
480.969	93.06
481.188	112.06
481.406	94.06
481.624	91.06
481.843	82.06
482.061	77.06
482.28	77.06
482.498	79.06
482.717	85.06
482.935	87.06
483.153	95.06
483.372	82.06
483.59	83.06
483.808	86.06
484.027	98.06
484.245	86.06
484.463	86.06
484.681	96.06
484.9	92.06
485.118	105.06
485.336	93.06
485.554	87.06
485.772	88.06
485.99	104.06
486.209	89.06
486.427	76.06
486.645	112.06
486.863	106.06
487.081	97.06
487.299	97.06
487.517	86.06
487.735	74.06
487.953	90.06
488.171	101.06
488.389	87.06
488.607	94.06
488.825	106.06
489.043	87.06
489.261	82.06
489.479	83.06
489.696	90.06
489.914	95.06
490.132	90.06
490.35	76.06
490.568	86.06
490.786	95.06
491.003	91.06
491.221	81.06
491.439	77.06
491.657	92.06
491.874	99.06
492.092	91.06
492.31	80.06
492.527	77.06
492.745	85.06
492.963	105.06
493.18	103.06
493.398	90.06
493.615	94.06
493.833	92.06
494.05	85.06
494.268	80.06
494.485	87.06
494.703	82.06
494.92	90.06
495.138	75.06
495.355	81.06
495.573	82.06
495.79	99.06
496.008	93.06
496.225	104.06
496.442	75.06
496.66	100.06
496.877	84.06
497.094	85.06
497.312	89.06
497.529	76.06
497.746	99.06
497.963	77.06
498.181	87.06
498.398	96.06
498.615	94.06
498.832	117.06
499.049	87.06
499.267	97.06
499.484	85.06
499.701	93.06
499.918	94.06
500.135	83.06
500.352	86.06
500.569	93.06
500.786	86.06
501.003	101.06
501.22	78.06
501.437	91.06
501.654	76.06
501.871	107.06
502.088	91.06
502.305	85.06
502.522	82.06
502.739	80.06
502.956	84.06
503.172	92.06
503.389	94.06
503.606	103.06
503.823	92.06
504.04	95.06
504.256	87.06
504.473	79.06
504.69	89.06
504.907	94.06
505.123	81.06
505.34	91.06
505.557	105.06
505.773	76.06
505.99	86.06
506.207	92.06
506.423	70.06
506.64	98.06
506.856	93.06
507.073	90.06
507.289	83.06
507.506	87.06
507.722	113.06
507.939	91.06
508.155	83.06
508.372	95.06
508.588	89.06
508.805	84.06
509.021	94.06
509.238	104.06
509.454	93.06
509.67	101.06
509.887	106.06
510.103	135.06
510.319	218.06
510.536	733.06
510.752	2215.06
510.968	629.06
511.184	143.06
511.401	107.06
511.617	106.06
511.833	86.06
512.049	95.06
512.265	91.06
512.481	99.06
512.698	93.06
512.914	89.06
513.13	87.06
513.346	79.06
513.562	83.06
513.778	91.06
513.994	108.06
514.21	89.06
514.426	124.06
514.642	132.06
514.858	118.06
515.074	141.06
515.29	430.06
515.506	1324.06
515.721	508.06
515.937	152.06
516.153	130.06
516.369	97.06
516.585	86.06
