Data from Uncirc_2005_H10_HRD10591_00031.txt Node
Date: Wed Jan 03 10:28:31 EST 2024
User: Yrep
Spectrometer: HR+D1059
Trigger mode: 1
Integration Time (sec): 1.000000E-1
Scans to average: 1
Electric dark correction enabled: true
Nonlinearity correction enabled: false
Boxcar width: 0
XAxis mode: Wavelengths
Number of Pixels in Spectrum: 2048
>>>>>Begin Spectral Data<<<<<
223.165	-32.12
223.4	-32.12
223.635	-32.12
223.869	-5.12
224.104	-20.12
224.338	-27.12
224.573	-24.12
224.808	-25.12
225.042	3.88
225.277	-7.12
225.511	7.88
225.746	7.88
225.98	16.88
226.215	11.88
226.449	14.88
226.683	15.88
226.918	22.88
227.152	38.88
227.387	32.88
227.621	27.88
227.856	41.88
228.09	53.88
228.324	54.88
228.559	59.88
228.793	55.88
229.027	67.88
229.262	59.88
229.496	68.88
229.73	81.88
229.964	79.88
230.199	78.88
230.433	70.88
230.667	76.88
230.901	81.88
231.136	75.88
231.37	75.88
231.604	71.88
231.838	74.88
232.072	65.88
232.306	86.88
232.541	84.88
232.775	89.88
233.009	91.88
233.243	79.88
233.477	92.88
233.711	81.88
233.945	70.88
234.179	86.88
234.413	82.88
234.647	92.88
234.881	68.88
235.115	96.88
235.349	67.88
235.583	80.88
235.817	82.88
236.051	73.88
236.285	82.88
236.519	69.88
236.753	63.88
236.987	75.88
237.221	82.88
237.455	85.88
237.689	76.88
237.922	76.88
238.156	93.88
238.39	84.88
238.624	69.88
238.858	85.88
239.091	86.88
239.325	78.88
239.559	79.88
239.793	68.88
240.027	79.88
240.26	72.88
240.494	72.88
240.728	72.88
240.961	78.88
241.195	68.88
241.429	83.88
241.662	82.88
241.896	76.88
242.13	71.88
242.363	77.88
242.597	75.88
242.83	78.88
243.064	78.88
243.298	76.88
243.531	68.88
243.765	75.88
243.998	89.88
244.232	85.88
244.465	82.88
244.699	77.88
244.932	68.88
245.166	84.88
245.399	76.88
245.633	86.88
245.866	75.88
246.099	80.88
246.333	87.88
246.566	79.88
246.8	74.88
247.033	87.88
247.266	89.88
247.5	86.88
247.733	77.88
247.966	86.88
248.2	81.88
248.433	76.88
248.666	87.88
248.899	91.88
249.133	78.88
249.366	92.88
249.599	103.88
249.832	84.88
250.066	85.88
250.299	86.88
250.532	76.88
250.765	74.88
250.998	72.88
251.231	95.88
251.465	72.88
251.698	88.88
251.931	70.88
252.164	81.88
252.397	64.88
252.63	77.88
252.863	71.88
253.096	78.88
253.329	68.88
253.562	78.88
253.795	73.88
254.028	83.88
254.261	86.88
254.494	80.88
254.727	75.88
254.96	95.88
255.193	81.88
255.426	93.88
255.659	73.88
255.892	92.88
256.124	89.88
256.357	81.88
256.59	79.88
256.823	87.88
257.056	88.88
257.289	86.88
257.521	82.88
257.754	89.88
257.987	88.88
258.22	86.88
258.452	85.88
258.685	81.88
258.918	86.88
259.151	79.88
259.383	77.88
259.616	76.88
259.849	98.88
260.081	84.88
260.314	78.88
260.547	80.88
260.779	80.88
261.012	79.88
261.244	86.88
261.477	87.88
261.71	88.88
261.942	110.88
262.175	112.88
262.407	74.88
262.64	78.88
262.872	87.88
263.105	76.88
263.337	88.88
263.57	72.88
263.802	76.88
264.035	75.88
264.267	80.88
264.499	89.88
264.732	82.88
264.964	84.88
265.197	85.88
265.429	73.88
265.661	64.88
265.894	75.88
266.126	78.88
266.358	88.88
266.591	82.88
266.823	82.88
267.055	81.88
267.287	78.88
267.52	74.88
267.752	83.88
267.984	84.88
268.216	100.88
268.448	79.88
268.681	89.88
268.913	84.88
269.145	84.88
269.377	86.88
269.609	65.88
269.841	87.88
270.073	84.88
270.306	73.88
270.538	76.88
270.77	81.88
271.002	87.88
271.234	86.88
271.466	81.88
271.698	81.88
271.93	101.88
272.162	84.88
272.394	82.88
272.626	86.88
272.858	83.88
273.09	70.88
273.322	89.88
273.553	66.88
273.785	91.88
274.017	71.88
274.249	82.88
274.481	81.88
274.713	87.88
274.945	77.88
275.176	86.88
275.408	90.88
275.64	83.88
275.872	84.88
276.104	86.88
276.335	82.88
276.567	106.88
276.799	102.88
277.031	86.88
277.262	83.88
277.494	87.88
277.726	78.88
277.957	85.88
278.189	75.88
278.421	83.88
278.652	76.88
278.884	83.88
279.115	78.88
279.347	85.88
279.579	83.88
279.81	88.88
280.042	92.88
280.273	77.88
280.505	72.88
280.736	85.88
280.968	89.88
281.199	88.88
281.431	77.88
281.662	91.88
281.894	78.88
282.125	91.88
282.356	106.88
282.588	115.88
282.819	116.88
283.051	100.88
283.282	86.88
283.513	86.88
283.745	93.88
283.976	88.88
284.207	89.88
284.439	82.88
284.67	88.88
284.901	84.88
285.132	63.88
285.364	81.88
285.595	100.88
285.826	79.88
286.057	75.88
286.288	87.88
286.52	76.88
286.751	78.88
286.982	88.88
287.213	80.88
287.444	71.88
287.675	86.88
287.906	93.88
288.138	88.88
288.369	76.88
288.6	92.88
288.831	80.88
289.062	93.88
289.293	86.88
289.524	83.88
289.755	68.88
289.986	83.88
290.217	79.88
290.448	77.88
290.679	81.88
290.91	75.88
291.141	87.88
291.371	82.88
291.602	87.88
291.833	83.88
292.064	85.88
292.295	108.88
292.526	81.88
292.757	90.88
292.987	90.88
293.218	87.88
293.449	88.88
293.68	87.88
293.91	79.88
294.141	88.88
294.372	89.88
294.603	75.88
294.833	86.88
295.064	92.88
295.295	93.88
295.525	77.88
295.756	86.88
295.987	100.88
296.217	116.88
296.448	114.88
296.679	86.88
296.909	78.88
297.14	79.88
297.37	84.88
297.601	100.88
297.831	87.88
298.062	92.88
298.292	85.88
298.523	86.88
298.753	83.88
298.984	93.88
299.214	77.88
299.445	102.88
299.675	95.88
299.905	101.88
300.136	87.88
300.366	100.88
300.597	98.88
300.827	90.88
301.057	97.88
301.288	95.88
301.518	87.88
301.748	84.88
301.979	95.88
302.209	95.88
302.439	81.88
302.669	84.88
302.9	84.88
303.13	88.88
303.36	98.88
303.59	102.88
303.82	100.88
304.051	92.88
304.281	83.88
304.511	107.88
304.741	96.88
304.971	93.88
305.201	96.88
305.431	88.88
305.661	76.88
305.891	95.88
306.121	98.88
306.352	101.88
306.582	97.88
306.812	104.88
307.042	103.88
307.272	72.88
307.502	94.88
307.731	87.88
307.961	80.88
308.191	94.88
308.421	88.88
308.651	93.88
308.881	90.88
309.111	77.88
309.341	89.88
309.571	96.88
309.8	86.88
310.03	89.88
310.26	78.88
310.49	79.88
310.72	89.88
310.949	105.88
311.179	83.88
311.409	96.88
311.639	80.88
311.868	81.88
312.098	78.88
312.328	107.88
312.557	88.88
312.787	92.88
313.017	95.88
313.246	89.88
313.476	93.88
313.706	101.88
313.935	88.88
314.165	89.88
314.394	89.88
314.624	87.88
314.853	99.88
315.083	86.88
315.312	76.88
315.542	88.88
315.771	88.88
316.001	93.88
316.23	84.88
316.46	86.88
316.689	85.88
316.919	88.88
317.148	95.88
317.377	87.88
317.607	104.88
317.836	87.88
318.065	88.88
318.295	81.88
318.524	85.88
318.753	88.88
318.983	85.88
319.212	86.88
319.441	89.88
319.67	105.88
319.9	85.88
320.129	103.88
320.358	96.88
320.587	89.88
320.816	93.88
321.046	107.88
321.275	98.88
321.504	87.88
321.733	100.88
321.962	109.88
322.191	94.88
322.42	107.88
322.649	108.88
322.878	106.88
323.108	103.88
323.337	112.88
323.566	109.88
323.795	142.88
324.024	179.88
324.253	297.88
324.482	595.88
324.71	1183.88
324.939	1468.88
325.168	557.88
325.397	193.88
325.626	128.88
325.855	112.88
326.084	109.88
326.313	122.88
326.542	120.88
326.77	176.88
326.999	333.88
327.228	647.88
327.457	1152.88
327.686	881.88
327.914	271.88
328.143	146.88
328.372	123.88
328.6	102.88
328.829	96.88
329.058	105.88
329.287	111.88
329.515	96.88
329.744	102.88
329.972	95.88
330.201	95.88
330.43	89.88
330.658	95.88
330.887	128.88
331.115	111.88
331.344	96.88
331.572	101.88
331.801	96.88
332.03	93.88
332.258	84.88
332.486	82.88
332.715	89.88
332.943	96.88
333.172	100.88
333.4	96.88
333.629	92.88
333.857	102.88
334.085	97.88
334.314	83.88
334.542	85.88
334.771	97.88
334.999	89.88
335.227	92.88
335.455	96.88
335.684	102.88
335.912	88.88
336.14	96.88
336.369	91.88
336.597	77.88
336.825	100.88
337.053	108.88
337.281	80.88
337.51	76.88
337.738	95.88
337.966	79.88
338.194	80.88
338.422	79.88
338.65	93.88
338.878	97.88
339.106	86.88
339.334	107.88
339.562	108.88
339.79	83.88
340.018	93.88
340.246	87.88
340.474	94.88
340.702	86.88
340.93	72.88
341.158	85.88
341.386	93.88
341.614	98.88
341.842	91.88
342.07	86.88
342.298	87.88
342.526	84.88
342.754	96.88
342.981	93.88
343.209	92.88
343.437	100.88
343.665	95.88
343.893	95.88
344.12	92.88
344.348	82.88
344.576	78.88
344.804	84.88
345.031	85.88
345.259	82.88
345.487	107.88
345.714	91.88
345.942	91.88
346.17	84.88
346.397	84.88
346.625	78.88
346.853	91.88
347.08	98.88
347.308	104.88
347.535	77.88
347.763	82.88
347.99	107.88
348.218	99.88
348.445	100.88
348.673	103.88
348.9	85.88
349.128	83.88
349.355	110.88
349.583	83.88
349.81	91.88
350.037	95.88
350.265	88.88
350.492	85.88
350.72	99.88
350.947	98.88
351.174	96.88
351.402	99.88
351.629	96.88
351.856	96.88
352.083	92.88
352.311	95.88
352.538	86.88
352.765	94.88
352.992	95.88
353.22	93.88
353.447	75.88
353.674	94.88
353.901	93.88
354.128	84.88
354.355	94.88
354.583	87.88
354.81	88.88
355.037	99.88
355.264	87.88
355.491	80.88
355.718	77.88
355.945	93.88
356.172	84.88
356.399	86.88
356.626	95.88
356.853	86.88
357.08	86.88
357.307	92.88
357.534	73.88
357.761	93.88
357.988	84.88
358.215	93.88
358.441	97.88
358.668	98.88
358.895	79.88
359.122	83.88
359.349	87.88
359.576	83.88
359.802	88.88
360.029	92.88
360.256	87.88
360.483	92.88
360.709	91.88
360.936	100.88
361.163	101.88
361.39	102.88
361.616	98.88
361.843	89.88
362.07	98.88
362.296	84.88
362.523	96.88
362.749	92.88
362.976	90.88
363.203	92.88
363.429	95.88
363.656	81.88
363.882	81.88
364.109	95.88
364.335	84.88
364.562	87.88
364.788	93.88
365.015	90.88
365.241	80.88
365.468	94.88
365.694	105.88
365.92	88.88
366.147	75.88
366.373	80.88
366.599	81.88
366.826	85.88
367.052	94.88
367.278	77.88
367.505	77.88
367.731	76.88
367.957	93.88
368.184	82.88
368.41	91.88
368.636	99.88
368.862	99.88
369.089	97.88
369.315	81.88
369.541	96.88
369.767	100.88
369.993	88.88
370.219	81.88
370.445	85.88
370.672	93.88
370.898	88.88
371.124	82.88
371.35	83.88
371.576	84.88
371.802	86.88
372.028	86.88
372.254	85.88
372.48	79.88
372.706	86.88
372.932	75.88
373.158	98.88
373.384	95.88
373.61	79.88
373.835	81.88
374.061	79.88
374.287	96.88
374.513	90.88
374.739	86.88
374.965	80.88
375.191	81.88
375.416	77.88
375.642	92.88
375.868	86.88
376.094	93.88
376.319	104.88
376.545	85.88
376.771	90.88
376.997	80.88
377.222	88.88
377.448	86.88
377.674	84.88
377.899	90.88
378.125	83.88
378.35	79.88
378.576	94.88
378.802	91.88
379.027	98.88
379.253	99.88
379.478	97.88
379.704	81.88
379.929	95.88
380.155	78.88
380.38	93.88
380.606	87.88
380.831	83.88
381.057	94.88
381.282	88.88
381.507	99.88
381.733	96.88
381.958	99.88
382.184	96.88
382.409	84.88
382.634	88.88
382.86	89.88
383.085	84.88
383.31	100.88
383.535	80.88
383.761	96.88
383.986	89.88
384.211	86.88
384.436	108.88
384.662	88.88
384.887	97.88
385.112	87.88
385.337	83.88
385.562	92.88
385.787	93.88
386.013	86.88
386.238	108.88
386.463	94.88
386.688	104.88
386.913	103.88
387.138	99.88
387.363	99.88
387.588	87.88
387.813	101.88
388.038	83.88
388.263	97.88
388.488	99.88
388.713	83.88
388.938	92.88
389.163	95.88
389.387	80.88
389.612	85.88
389.837	98.88
390.062	83.88
390.287	85.88
390.512	84.88
390.736	81.88
390.961	84.88
391.186	96.88
391.411	80.88
391.636	105.88
391.86	88.88
392.085	86.88
392.31	85.88
392.534	66.88
392.759	77.88
392.984	86.88
393.208	100.88
393.433	104.88
393.658	90.88
393.882	84.88
394.107	76.88
394.331	91.88
394.556	89.88
394.78	86.88
395.005	85.88
395.229	84.88
395.454	87.88
395.678	81.88
395.903	98.88
396.127	87.88
396.352	93.88
396.576	95.88
396.801	83.88
397.025	102.88
397.249	84.88
397.474	72.88
397.698	84.88
397.922	84.88
398.147	95.88
398.371	88.88
398.595	80.88
398.82	80.88
399.044	75.88
399.268	91.88
399.492	90.88
399.717	91.88
399.941	75.88
400.165	76.88
400.389	80.88
400.613	92.88
400.837	75.88
401.062	85.88
401.286	79.88
401.51	89.88
401.734	78.88
401.958	101.88
402.182	123.88
402.406	148.88
402.63	117.88
402.854	90.88
403.078	76.88
403.302	70.88
403.526	91.88
403.75	82.88
403.974	80.88
404.198	83.88
404.422	55.88
404.645	88.88
404.869	78.88
405.093	84.88
405.317	105.88
405.541	89.88
405.765	92.88
405.988	116.88
406.212	159.88
406.436	208.88
406.66	117.88
406.883	90.88
407.107	83.88
407.331	103.88
407.555	96.88
407.778	92.88
408.002	91.88
408.226	84.88
408.449	98.88
408.673	74.88
408.896	76.88
409.12	77.88
409.344	98.88
409.567	95.88
409.791	99.88
410.014	85.88
410.238	90.88
410.461	85.88
410.685	75.88
410.908	65.88
411.132	96.88
411.355	92.88
411.578	70.88
411.802	83.88
412.025	83.88
412.249	88.88
412.472	96.88
412.695	89.88
412.919	96.88
413.142	78.88
413.365	72.88
413.589	77.88
413.812	94.88
414.035	77.88
414.258	99.88
414.482	79.88
414.705	87.88
414.928	89.88
415.151	94.88
415.374	79.88
415.597	83.88
415.821	89.88
416.044	92.88
416.267	78.88
416.49	88.88
416.713	76.88
416.936	89.88
417.159	91.88
417.382	84.88
417.605	66.88
417.828	96.88
418.051	94.88
418.274	99.88
418.497	88.88
418.72	90.88
418.943	87.88
419.166	79.88
419.389	81.88
419.611	85.88
419.834	77.88
420.057	83.88
420.28	82.88
420.503	80.88
420.726	91.88
420.948	93.88
421.171	79.88
421.394	99.88
421.617	86.88
421.839	87.88
422.062	100.88
422.285	75.88
422.507	96.88
422.73	99.88
422.953	91.88
423.175	85.88
423.398	80.88
423.621	88.88
423.843	88.88
424.066	82.88
424.288	92.88
424.511	90.88
424.733	94.88
424.956	82.88
425.178	84.88
425.401	87.88
425.623	94.88
425.846	102.88
426.068	87.88
426.291	89.88
426.513	104.88
426.735	88.88
426.958	91.88
427.18	98.88
427.402	88.88
427.625	116.88
427.847	101.88
428.069	99.88
428.292	75.88
428.514	77.88
428.736	87.88
428.958	101.88
429.181	79.88
429.403	85.88
429.625	89.88
429.847	90.88
430.069	86.88
430.292	87.88
430.514	83.88
430.736	85.88
430.958	88.88
431.18	86.88
431.402	75.88
431.624	92.88
431.846	85.88
432.068	83.88
432.29	75.88
432.512	80.88
432.734	74.88
432.956	91.88
433.178	88.88
433.4	91.88
433.622	91.88
433.844	83.88
434.066	92.88
434.287	81.88
434.509	85.88
434.731	94.88
434.953	75.88
435.175	93.88
435.397	79.88
435.618	88.88
435.84	80.88
436.062	104.88
436.284	92.88
436.505	107.88
436.727	101.88
436.949	80.88
437.17	86.88
437.392	82.88
437.614	72.88
437.835	86.88
438.057	108.88
438.278	90.88
438.5	93.88
438.721	87.88
438.943	74.88
439.165	86.88
439.386	73.88
439.608	89.88
439.829	82.88
440.05	103.88
440.272	102.88
440.493	98.88
440.715	81.88
440.936	92.88
441.158	88.88
441.379	84.88
441.6	91.88
441.822	89.88
442.043	90.88
442.264	86.88
442.486	85.88
442.707	85.88
442.928	102.88
443.149	100.88
443.371	121.88
443.592	98.88
443.813	87.88
444.034	100.88
444.255	95.88
444.476	88.88
444.698	78.88
444.919	89.88
445.14	116.88
445.361	100.88
445.582	104.88
445.803	101.88
446.024	106.88
446.245	114.88
446.466	95.88
446.687	87.88
446.908	92.88
447.129	89.88
447.35	81.88
447.571	87.88
447.792	87.88
448.013	86.88
448.234	99.88
448.455	88.88
448.675	88.88
448.896	93.88
449.117	95.88
449.338	89.88
449.559	89.88
449.779	99.88
450	92.88
450.221	89.88
450.442	88.88
450.662	81.88
450.883	99.88
451.104	98.88
451.324	88.88
451.545	93.88
451.766	86.88
451.986	73.88
452.207	101.88
452.428	79.88
452.648	98.88
452.869	125.88
453.089	113.88
453.31	107.88
453.53	86.88
453.751	86.88
453.971	92.88
454.192	93.88
454.412	92.88
454.633	87.88
454.853	81.88
455.073	78.88
455.294	108.88
455.514	101.88
455.734	92.88
455.955	89.88
456.175	93.88
456.395	69.88
456.616	88.88
456.836	93.88
457.056	84.88
457.276	90.88
457.497	102.88
457.717	92.88
457.937	80.88
458.157	85.88
458.377	72.88
458.598	91.88
458.818	119.88
459.038	119.88
459.258	102.88
459.478	94.88
459.698	98.88
459.918	82.88
460.138	92.88
460.358	92.88
460.578	83.88
460.798	90.88
461.018	89.88
461.238	86.88
461.458	78.88
461.678	88.88
461.898	89.88
462.118	86.88
462.338	85.88
462.558	82.88
462.777	67.88
462.997	83.88
463.217	101.88
463.437	101.88
463.657	64.88
463.876	79.88
464.096	88.88
464.316	86.88
464.536	84.88
464.755	95.88
464.975	105.88
465.195	136.88
465.414	140.88
465.634	98.88
465.854	86.88
466.073	88.88
466.293	86.88
466.512	82.88
466.732	85.88
466.951	78.88
467.171	78.88
467.391	86.88
467.61	94.88
467.829	96.88
468.049	90.88
468.268	79.88
468.488	89.88
468.707	84.88
468.927	89.88
469.146	60.88
469.365	87.88
469.585	94.88
469.804	101.88
470.023	78.88
470.243	93.88
470.462	97.88
470.681	100.88
470.901	81.88
471.12	85.88
471.339	74.88
471.558	75.88
471.777	84.88
471.997	84.88
472.216	75.88
472.435	100.88
472.654	81.88
472.873	85.88
473.092	92.88
473.311	87.88
473.53	91.88
473.749	85.88
473.968	82.88
474.187	81.88
474.406	80.88
474.625	85.88
474.844	85.88
475.063	112.88
475.282	73.88
475.501	92.88
475.72	85.88
475.939	75.88
476.158	96.88
476.377	81.88
476.596	91.88
476.814	87.88
477.033	88.88
477.252	75.88
477.471	81.88
477.69	85.88
477.908	102.88
478.127	86.88
478.346	97.88
478.564	87.88
478.783	92.88
479.002	79.88
479.22	78.88
479.439	93.88
479.658	98.88
479.876	89.88
480.095	93.88
480.313	84.88
480.532	100.88
480.751	89.88
480.969	84.88
481.188	102.88
481.406	93.88
481.624	77.88
481.843	84.88
482.061	87.88
482.28	85.88
482.498	95.88
482.717	93.88
482.935	86.88
483.153	81.88
483.372	84.88
483.59	90.88
483.808	92.88
484.027	99.88
484.245	93.88
484.463	96.88
484.681	83.88
484.9	89.88
485.118	90.88
485.336	87.88
485.554	89.88
485.772	81.88
485.99	102.88
486.209	89.88
486.427	100.88
486.645	80.88
486.863	103.88
487.081	97.88
487.299	78.88
487.517	90.88
487.735	99.88
487.953	94.88
488.171	77.88
488.389	80.88
488.607	99.88
488.825	87.88
489.043	80.88
489.261	89.88
489.479	87.88
489.696	84.88
489.914	79.88
490.132	90.88
490.35	82.88
490.568	85.88
490.786	76.88
491.003	92.88
491.221	89.88
491.439	82.88
491.657	76.88
491.874	85.88
492.092	101.88
492.31	81.88
492.527	86.88
492.745	81.88
492.963	81.88
493.18	93.88
493.398	86.88
493.615	93.88
493.833	84.88
494.05	77.88
494.268	89.88
494.485	75.88
494.703	95.88
494.92	88.88
495.138	94.88
495.355	101.88
495.573	108.88
495.79	89.88
496.008	91.88
496.225	96.88
496.442	89.88
496.66	87.88
496.877	91.88
497.094	87.88
497.312	92.88
497.529	81.88
497.746	93.88
497.963	82.88
498.181	74.88
498.398	79.88
498.615	98.88
498.832	96.88
499.049	95.88
499.267	89.88
499.484	78.88
499.701	87.88
499.918	85.88
500.135	72.88
500.352	76.88
500.569	89.88
500.786	101.88
501.003	91.88
501.22	80.88
501.437	82.88
501.654	94.88
501.871	103.88
502.088	88.88
502.305	85.88
502.522	93.88
502.739	95.88
502.956	88.88
503.172	82.88
503.389	91.88
503.606	89.88
503.823	87.88
504.04	79.88
504.256	84.88
504.473	76.88
504.69	93.88
504.907	95.88
505.123	87.88
505.34	91.88
505.557	82.88
505.773	91.88
505.99	88.88
506.207	102.88
506.423	89.88
506.64	82.88
506.856	95.88
507.073	95.88
507.289	79.88
507.506	88.88
507.722	99.88
507.939	106.88
508.155	96.88
508.372	86.88
508.588	85.88
508.805	99.88
509.021	101.88
509.238	97.88
509.454	91.88
509.67	82.88
509.887	100.88
510.103	119.88
510.319	179.88
510.536	650.88
510.752	2190.88
510.968	619.88
511.184	146.88
511.401	113.88
511.617	90.88
511.833	83.88
512.049	89.88
512.265	91.88
512.481	87.88
512.698	89.88
512.914	100.88
513.13	89.88
513.346	96.88
513.562	91.88
513.778	88.88
513.994	95.88
514.21	95.88
514.426	114.88
514.642	130.88
514.858	123.88
515.074	147.88
515.29	401.88
515.506	1262.88
515.721	499.88
515.937	137.88
516.153	101.88
516.369	93.88
516.585	89.88
516.801	89.88
517.016	86.88
517.232	75.88
517.448	100.88
