Data from Uncirc_2005_H10_HRD10591_00073.txt Node
Date: Wed Jan 03 10:28:39 EST 2024
User: Yrep
Spectrometer: HR+D1059
Trigger mode: 1
Integration Time (sec): 1.000000E-1
Scans to average: 1
Electric dark correction enabled: true
Nonlinearity correction enabled: false
Boxcar width: 0
XAxis mode: Wavelengths
Number of Pixels in Spectrum: 2048
>>>>>Begin Spectral Data<<<<<
223.165	-19.06
223.4	-19.06
223.635	-19.06
223.869	-8.06
224.104	-10.06
224.338	-14.06
224.573	-11.06
224.808	-16.06
225.042	-12.06
225.277	-8.06
225.511	-7.06
225.746	-3.06
225.98	-0.06
226.215	10.94
226.449	12.94
226.683	27.94
226.918	32.94
227.152	23.94
227.387	30.94
227.621	36.94
227.856	47.94
228.09	48.94
228.324	63.94
228.559	60.94
228.793	68.94
229.027	62.94
229.262	62.94
229.496	69.94
229.73	71.94
229.964	83.94
230.199	78.94
230.433	78.94
230.667	73.94
230.901	81.94
231.136	79.94
231.37	90.94
231.604	87.94
231.838	93.94
232.072	83.94
232.306	80.94
232.541	66.94
232.775	79.94
233.009	83.94
233.243	75.94
233.477	86.94
233.711	80.94
233.945	90.94
234.179	77.94
234.413	78.94
234.647	89.94
234.881	74.94
235.115	69.94
235.349	65.94
235.583	77.94
235.817	84.94
236.051	77.94
236.285	78.94
236.519	76.94
236.753	73.94
236.987	86.94
237.221	88.94
237.455	79.94
237.689	84.94
237.922	71.94
238.156	79.94
238.39	73.94
238.624	76.94
238.858	77.94
239.091	86.94
239.325	88.94
239.559	89.94
239.793	88.94
240.027	87.94
240.26	73.94
240.494	69.94
240.728	76.94
240.961	66.94
241.195	84.94
241.429	84.94
241.662	68.94
241.896	72.94
242.13	76.94
242.363	76.94
242.597	80.94
242.83	86.94
243.064	76.94
243.298	82.94
243.531	70.94
243.765	71.94
243.998	76.94
244.232	80.94
244.465	80.94
244.699	68.94
244.932	66.94
245.166	62.94
245.399	79.94
245.633	68.94
245.866	71.94
246.099	87.94
246.333	87.94
246.566	81.94
246.8	76.94
247.033	80.94
247.266	81.94
247.5	80.94
247.733	85.94
247.966	87.94
248.2	76.94
248.433	76.94
248.666	79.94
248.899	81.94
249.133	85.94
249.366	102.94
249.599	95.94
249.832	88.94
250.066	85.94
250.299	87.94
250.532	86.94
250.765	87.94
250.998	69.94
251.231	79.94
251.465	75.94
251.698	76.94
251.931	83.94
252.164	81.94
252.397	78.94
252.63	84.94
252.863	78.94
253.096	89.94
253.329	69.94
253.562	85.94
253.795	81.94
254.028	87.94
254.261	86.94
254.494	80.94
254.727	92.94
254.96	78.94
255.193	64.94
255.426	84.94
255.659	81.94
255.892	88.94
256.124	95.94
256.357	88.94
256.59	96.94
256.823	72.94
257.056	78.94
257.289	80.94
257.521	79.94
257.754	92.94
257.987	82.94
258.22	81.94
258.452	98.94
258.685	88.94
258.918	82.94
259.151	89.94
259.383	77.94
259.616	93.94
259.849	85.94
260.081	84.94
260.314	80.94
260.547	79.94
260.779	84.94
261.012	72.94
261.244	96.94
261.477	80.94
261.71	103.94
261.942	104.94
262.175	116.94
262.407	85.94
262.64	75.94
262.872	88.94
263.105	94.94
263.337	77.94
263.57	77.94
263.802	85.94
264.035	80.94
264.267	73.94
264.499	81.94
264.732	75.94
264.964	75.94
265.197	95.94
265.429	81.94
265.661	83.94
265.894	72.94
266.126	88.94
266.358	88.94
266.591	75.94
266.823	104.94
267.055	99.94
267.287	88.94
267.52	84.94
267.752	83.94
267.984	86.94
268.216	84.94
268.448	93.94
268.681	91.94
268.913	81.94
269.145	85.94
269.377	73.94
269.609	89.94
269.841	72.94
270.073	93.94
270.306	92.94
270.538	100.94
270.77	87.94
271.002	88.94
271.234	95.94
271.466	76.94
271.698	77.94
271.93	79.94
272.162	82.94
272.394	79.94
272.626	99.94
272.858	93.94
273.09	88.94
273.322	81.94
273.553	93.94
273.785	86.94
274.017	88.94
274.249	87.94
274.481	91.94
274.713	93.94
274.945	78.94
275.176	76.94
275.408	88.94
275.64	71.94
275.872	99.94
276.104	99.94
276.335	85.94
276.567	93.94
276.799	96.94
277.031	99.94
277.262	91.94
277.494	86.94
277.726	87.94
277.957	77.94
278.189	107.94
278.421	86.94
278.652	84.94
278.884	88.94
279.115	96.94
279.347	88.94
279.579	96.94
279.81	83.94
280.042	88.94
280.273	84.94
280.505	92.94
280.736	94.94
280.968	73.94
281.199	92.94
281.431	75.94
281.662	96.94
281.894	101.94
282.125	83.94
282.356	108.94
282.588	127.94
282.819	107.94
283.051	93.94
283.282	92.94
283.513	71.94
283.745	88.94
283.976	80.94
284.207	78.94
284.439	88.94
284.67	99.94
284.901	95.94
285.132	90.94
285.364	80.94
285.595	83.94
285.826	63.94
286.057	65.94
286.288	86.94
286.52	91.94
286.751	96.94
286.982	94.94
287.213	110.94
287.444	90.94
287.675	87.94
287.906	91.94
288.138	101.94
288.369	96.94
288.6	88.94
288.831	95.94
289.062	94.94
289.293	77.94
289.524	92.94
289.755	89.94
289.986	85.94
290.217	91.94
290.448	79.94
290.679	91.94
290.91	94.94
291.141	89.94
291.371	72.94
291.602	87.94
291.833	87.94
292.064	88.94
292.295	87.94
292.526	95.94
292.757	97.94
292.987	101.94
293.218	85.94
293.449	74.94
293.68	83.94
293.91	83.94
294.141	90.94
294.372	93.94
294.603	88.94
294.833	83.94
295.064	69.94
295.295	89.94
295.525	88.94
295.756	93.94
295.987	101.94
296.217	108.94
296.448	113.94
296.679	88.94
296.909	90.94
297.14	89.94
297.37	84.94
297.601	86.94
297.831	93.94
298.062	82.94
298.292	91.94
298.523	95.94
298.753	90.94
298.984	86.94
299.214	89.94
299.445	89.94
299.675	84.94
299.905	95.94
300.136	98.94
300.366	90.94
300.597	85.94
300.827	87.94
301.057	92.94
301.288	102.94
301.518	87.94
301.748	92.94
301.979	104.94
302.209	105.94
302.439	91.94
302.669	90.94
302.9	92.94
303.13	88.94
303.36	78.94
303.59	95.94
303.82	96.94
304.051	95.94
304.281	100.94
304.511	95.94
304.741	103.94
304.971	90.94
305.201	100.94
305.431	95.94
305.661	98.94
305.891	94.94
306.121	86.94
306.352	84.94
306.582	103.94
306.812	96.94
307.042	103.94
307.272	92.94
307.502	97.94
307.731	93.94
307.961	90.94
308.191	82.94
308.421	86.94
308.651	103.94
308.881	88.94
309.111	90.94
309.341	90.94
309.571	84.94
309.8	89.94
310.03	103.94
310.26	90.94
310.49	86.94
310.72	99.94
310.949	98.94
311.179	77.94
311.409	97.94
311.639	103.94
311.868	103.94
312.098	101.94
312.328	96.94
312.557	101.94
312.787	104.94
313.017	100.94
313.246	88.94
313.476	78.94
313.706	106.94
313.935	105.94
314.165	100.94
314.394	89.94
314.624	101.94
314.853	100.94
315.083	96.94
315.312	98.94
315.542	85.94
315.771	94.94
316.001	87.94
316.23	98.94
316.46	94.94
316.689	84.94
316.919	93.94
317.148	100.94
317.377	86.94
317.607	99.94
317.836	76.94
318.065	96.94
318.295	87.94
318.524	96.94
318.753	101.94
318.983	101.94
319.212	100.94
319.441	89.94
319.67	105.94
319.9	100.94
320.129	92.94
320.358	95.94
320.587	105.94
320.816	97.94
321.046	89.94
321.275	96.94
321.504	84.94
321.733	104.94
321.962	109.94
322.191	92.94
322.42	106.94
322.649	110.94
322.878	92.94
323.108	104.94
323.337	113.94
323.566	126.94
323.795	152.94
324.024	192.94
324.253	385.94
324.482	774.94
324.71	1542.94
324.939	1985.94
325.168	730.94
325.397	227.94
325.626	137.94
325.855	129.94
326.084	127.94
326.313	132.94
326.542	153.94
326.77	217.94
326.999	430.94
327.228	870.94
327.457	1582.94
327.686	1272.94
327.914	336.94
328.143	179.94
328.372	132.94
328.6	104.94
328.829	107.94
329.058	121.94
329.287	115.94
329.515	103.94
329.744	107.94
329.972	108.94
330.201	104.94
330.43	107.94
330.658	123.94
330.887	112.94
331.115	103.94
331.344	94.94
331.572	86.94
331.801	102.94
332.03	99.94
332.258	95.94
332.486	97.94
332.715	99.94
332.943	96.94
333.172	95.94
333.4	107.94
333.629	116.94
333.857	107.94
334.085	90.94
334.314	89.94
334.542	95.94
334.771	97.94
334.999	86.94
335.227	100.94
335.455	93.94
335.684	91.94
335.912	100.94
336.14	111.94
336.369	97.94
336.597	97.94
336.825	106.94
337.053	86.94
337.281	89.94
337.51	83.94
337.738	102.94
337.966	107.94
338.194	105.94
338.422	94.94
338.65	95.94
338.878	81.94
339.106	80.94
339.334	99.94
339.562	101.94
339.79	92.94
340.018	102.94
340.246	111.94
340.474	92.94
340.702	111.94
340.93	108.94
341.158	93.94
341.386	89.94
341.614	93.94
341.842	105.94
342.07	83.94
342.298	92.94
342.526	77.94
342.754	77.94
342.981	94.94
343.209	96.94
343.437	94.94
343.665	92.94
343.893	98.94
344.12	96.94
344.348	93.94
344.576	93.94
344.804	107.94
345.031	103.94
345.259	91.94
345.487	101.94
345.714	96.94
345.942	97.94
346.17	91.94
346.397	90.94
346.625	78.94
346.853	82.94
347.08	87.94
347.308	93.94
347.535	87.94
347.763	98.94
347.99	106.94
348.218	83.94
348.445	102.94
348.673	101.94
348.9	104.94
349.128	109.94
349.355	95.94
349.583	88.94
349.81	85.94
350.037	98.94
350.265	98.94
350.492	92.94
350.72	106.94
350.947	99.94
351.174	101.94
351.402	109.94
351.629	97.94
351.856	96.94
352.083	103.94
352.311	104.94
352.538	101.94
352.765	115.94
352.992	107.94
353.22	94.94
353.447	94.94
353.674	106.94
353.901	93.94
354.128	84.94
354.355	86.94
354.583	111.94
354.81	107.94
355.037	95.94
355.264	104.94
355.491	104.94
355.718	108.94
355.945	100.94
356.172	92.94
356.399	89.94
356.626	95.94
356.853	75.94
357.08	88.94
357.307	87.94
357.534	91.94
357.761	88.94
357.988	87.94
358.215	87.94
358.441	86.94
358.668	87.94
358.895	87.94
359.122	94.94
359.349	93.94
359.576	99.94
359.802	91.94
360.029	99.94
360.256	110.94
360.483	90.94
360.709	84.94
360.936	97.94
361.163	90.94
361.39	96.94
361.616	101.94
361.843	100.94
362.07	98.94
362.296	93.94
362.523	85.94
362.749	83.94
362.976	86.94
363.203	96.94
363.429	76.94
363.656	82.94
363.882	79.94
364.109	88.94
364.335	81.94
364.562	87.94
364.788	88.94
365.015	89.94
365.241	106.94
365.468	107.94
365.694	105.94
365.92	93.94
366.147	75.94
366.373	83.94
366.599	77.94
366.826	78.94
367.052	96.94
367.278	99.94
367.505	97.94
367.731	93.94
367.957	101.94
368.184	86.94
368.41	91.94
368.636	104.94
368.862	107.94
369.089	102.94
369.315	92.94
369.541	84.94
369.767	95.94
369.993	81.94
370.219	92.94
370.445	92.94
370.672	82.94
370.898	84.94
371.124	93.94
371.35	95.94
371.576	85.94
371.802	84.94
372.028	92.94
372.254	82.94
372.48	101.94
372.706	100.94
372.932	103.94
373.158	92.94
373.384	90.94
373.61	86.94
373.835	92.94
374.061	87.94
374.287	88.94
374.513	99.94
374.739	95.94
374.965	96.94
375.191	80.94
375.416	94.94
375.642	100.94
375.868	88.94
376.094	88.94
376.319	82.94
376.545	94.94
376.771	91.94
376.997	93.94
377.222	82.94
377.448	81.94
377.674	95.94
377.899	89.94
378.125	101.94
378.35	92.94
378.576	103.94
378.802	98.94
379.027	84.94
379.253	97.94
379.478	103.94
379.704	94.94
379.929	94.94
380.155	97.94
380.38	95.94
380.606	85.94
380.831	94.94
381.057	99.94
381.282	87.94
381.507	102.94
381.733	101.94
381.958	103.94
382.184	106.94
382.409	96.94
382.634	88.94
382.86	91.94
383.085	102.94
383.31	92.94
383.535	109.94
383.761	106.94
383.986	104.94
384.211	92.94
384.436	99.94
384.662	90.94
384.887	90.94
385.112	110.94
385.337	113.94
385.562	109.94
385.787	103.94
386.013	104.94
386.238	111.94
386.463	94.94
386.688	111.94
386.913	103.94
387.138	104.94
387.363	102.94
387.588	95.94
387.813	95.94
388.038	101.94
388.263	111.94
388.488	101.94
388.713	89.94
388.938	102.94
389.163	105.94
389.387	101.94
389.612	98.94
389.837	93.94
390.062	93.94
390.287	97.94
390.512	87.94
390.736	102.94
390.961	92.94
391.186	97.94
391.411	83.94
391.636	95.94
391.86	91.94
392.085	96.94
392.31	75.94
392.534	89.94
392.759	98.94
392.984	83.94
393.208	82.94
393.433	87.94
393.658	89.94
393.882	88.94
394.107	92.94
394.331	86.94
394.556	76.94
394.78	91.94
395.005	77.94
395.229	88.94
395.454	93.94
395.678	90.94
395.903	86.94
396.127	87.94
396.352	86.94
396.576	98.94
396.801	84.94
397.025	98.94
397.249	83.94
397.474	90.94
397.698	94.94
397.922	97.94
398.147	95.94
398.371	89.94
398.595	97.94
398.82	93.94
399.044	96.94
399.268	71.94
399.492	95.94
399.717	84.94
399.941	80.94
400.165	83.94
400.389	96.94
400.613	80.94
400.837	85.94
401.062	78.94
401.286	85.94
401.51	67.94
401.734	94.94
401.958	92.94
402.182	101.94
402.406	159.94
402.63	109.94
402.854	105.94
403.078	100.94
403.302	96.94
403.526	94.94
403.75	96.94
403.974	83.94
404.198	83.94
404.422	91.94
404.645	92.94
404.869	89.94
405.093	105.94
405.317	98.94
405.541	79.94
405.765	107.94
405.988	105.94
406.212	146.94
406.436	184.94
406.66	129.94
406.883	104.94
407.107	95.94
407.331	95.94
407.555	96.94
407.778	108.94
408.002	80.94
408.226	87.94
408.449	84.94
408.673	80.94
408.896	87.94
409.12	99.94
409.344	79.94
409.567	90.94
409.791	98.94
410.014	94.94
410.238	84.94
410.461	93.94
410.685	87.94
410.908	101.94
411.132	87.94
411.355	99.94
411.578	94.94
411.802	96.94
412.025	88.94
412.249	86.94
412.472	90.94
412.695	96.94
412.919	82.94
413.142	73.94
413.365	81.94
413.589	84.94
413.812	106.94
414.035	109.94
414.258	92.94
414.482	87.94
414.705	93.94
414.928	95.94
415.151	83.94
415.374	110.94
415.597	85.94
415.821	87.94
416.044	89.94
416.267	84.94
416.49	93.94
416.713	96.94
416.936	100.94
417.159	73.94
417.382	92.94
417.605	96.94
417.828	100.94
418.051	96.94
418.274	90.94
418.497	84.94
418.72	93.94
418.943	98.94
419.166	75.94
419.389	84.94
419.611	87.94
419.834	93.94
420.057	79.94
420.28	88.94
420.503	100.94
420.726	75.94
420.948	88.94
421.171	83.94
421.394	94.94
421.617	91.94
421.839	95.94
422.062	90.94
422.285	101.94
422.507	86.94
422.73	98.94
422.953	93.94
423.175	89.94
423.398	99.94
423.621	93.94
423.843	67.94
424.066	76.94
424.288	102.94
424.511	95.94
424.733	95.94
424.956	104.94
425.178	93.94
425.401	104.94
425.623	88.94
425.846	94.94
426.068	81.94
426.291	101.94
426.513	86.94
426.735	80.94
426.958	89.94
427.18	99.94
427.402	112.94
427.625	152.94
427.847	125.94
428.069	93.94
428.292	88.94
428.514	95.94
428.736	75.94
428.958	92.94
429.181	89.94
429.403	87.94
429.625	71.94
429.847	90.94
430.069	99.94
430.292	96.94
430.514	98.94
430.736	84.94
430.958	87.94
431.18	71.94
431.402	84.94
431.624	93.94
431.846	102.94
432.068	87.94
432.29	86.94
432.512	89.94
432.734	85.94
432.956	102.94
433.178	96.94
433.4	96.94
433.622	88.94
433.844	88.94
434.066	87.94
434.287	95.94
434.509	95.94
434.731	95.94
434.953	95.94
435.175	93.94
435.397	95.94
435.618	74.94
435.84	96.94
436.062	120.94
436.284	90.94
436.505	101.94
436.727	81.94
436.949	92.94
437.17	97.94
437.392	78.94
437.614	83.94
437.835	93.94
438.057	104.94
438.278	96.94
438.5	98.94
438.721	119.94
438.943	85.94
439.165	81.94
439.386	87.94
439.608	77.94
439.829	111.94
440.05	112.94
440.272	135.94
440.493	91.94
440.715	87.94
440.936	86.94
441.158	71.94
441.379	86.94
441.6	89.94
441.822	91.94
442.043	83.94
442.264	100.94
442.486	104.94
442.707	99.94
442.928	93.94
443.149	111.94
443.371	118.94
443.592	108.94
443.813	100.94
444.034	88.94
444.255	87.94
444.476	97.94
444.698	95.94
444.919	86.94
445.14	134.94
445.361	112.94
445.582	100.94
445.803	110.94
446.024	120.94
446.245	129.94
446.466	109.94
446.687	108.94
446.908	81.94
447.129	82.94
447.35	88.94
447.571	94.94
447.792	81.94
448.013	92.94
448.234	110.94
448.455	79.94
448.675	111.94
448.896	114.94
449.117	96.94
449.338	99.94
449.559	118.94
449.779	102.94
450	93.94
450.221	71.94
450.442	99.94
450.662	82.94
450.883	100.94
451.104	98.94
451.324	93.94
451.545	89.94
451.766	88.94
451.986	93.94
452.207	90.94
452.428	89.94
452.648	107.94
452.869	94.94
453.089	102.94
453.31	104.94
453.53	95.94
453.751	78.94
453.971	91.94
454.192	93.94
454.412	93.94
454.633	93.94
454.853	86.94
455.073	95.94
455.294	87.94
455.514	72.94
455.734	83.94
455.955	87.94
456.175	76.94
456.395	95.94
456.616	85.94
456.836	95.94
457.056	93.94
457.276	94.94
457.497	96.94
457.717	85.94
457.937	81.94
458.157	81.94
458.377	96.94
458.598	95.94
458.818	139.94
459.038	125.94
459.258	101.94
459.478	89.94
459.698	95.94
459.918	88.94
460.138	75.94
460.358	83.94
460.578	94.94
460.798	91.94
461.018	83.94
461.238	83.94
461.458	89.94
461.678	80.94
461.898	89.94
462.118	81.94
462.338	93.94
462.558	80.94
462.777	91.94
462.997	77.94
463.217	83.94
463.437	88.94
463.657	96.94
463.876	89.94
464.096	88.94
464.316	100.94
464.536	88.94
464.755	85.94
464.975	99.94
465.195	142.94
465.414	149.94
465.634	85.94
465.854	86.94
466.073	91.94
466.293	94.94
466.512	86.94
466.732	74.94
466.951	86.94
467.171	77.94
467.391	86.94
467.61	105.94
467.829	93.94
468.049	101.94
468.268	86.94
468.488	77.94
468.707	103.94
468.927	78.94
469.146	81.94
469.365	86.94
469.585	108.94
469.804	87.94
470.023	80.94
470.243	93.94
470.462	103.94
470.681	104.94
470.901	94.94
471.12	88.94
471.339	93.94
471.558	100.94
471.777	90.94
471.997	81.94
472.216	87.94
472.435	87.94
472.654	84.94
472.873	87.94
473.092	83.94
473.311	78.94
473.53	83.94
473.749	92.94
473.968	92.94
474.187	93.94
474.406	92.94
474.625	74.94
474.844	96.94
475.063	92.94
475.282	77.94
475.501	83.94
475.72	83.94
475.939	88.94
476.158	89.94
476.377	89.94
476.596	94.94
476.814	107.94
477.033	98.94
477.252	95.94
477.471	87.94
477.69	76.94
477.908	88.94
478.127	88.94
478.346	87.94
478.564	89.94
478.783	93.94
479.002	79.94
479.22	93.94
479.439	85.94
479.658	101.94
479.876	92.94
480.095	89.94
480.313	96.94
480.532	89.94
480.751	83.94
480.969	78.94
481.188	109.94
481.406	98.94
481.624	83.94
481.843	87.94
482.061	71.94
482.28	88.94
482.498	79.94
482.717	88.94
482.935	90.94
483.153	90.94
483.372	80.94
483.59	68.94
483.808	93.94
484.027	79.94
484.245	87.94
484.463	86.94
484.681	86.94
484.9	100.94
485.118	74.94
485.336	93.94
485.554	90.94
485.772	84.94
485.99	80.94
486.209	109.94
486.427	107.94
486.645	103.94
486.863	105.94
487.081	100.94
487.299	78.94
487.517	91.94
487.735	94.94
487.953	96.94
488.171	109.94
488.389	112.94
488.607	104.94
488.825	102.94
489.043	92.94
489.261	91.94
489.479	87.94
489.696	100.94
489.914	95.94
490.132	118.94
490.35	99.94
490.568	83.94
490.786	95.94
491.003	87.94
491.221	100.94
491.439	86.94
491.657	81.94
491.874	93.94
492.092	94.94
492.31	96.94
492.527	95.94
492.745	75.94
492.963	87.94
493.18	89.94
493.398	93.94
493.615	96.94
493.833	88.94
494.05	85.94
494.268	101.94
494.485	94.94
494.703	89.94
494.92	89.94
495.138	99.94
495.355	88.94
495.573	90.94
495.79	85.94
496.008	108.94
496.225	86.94
496.442	100.94
496.66	86.94
496.877	83.94
497.094	89.94
497.312	80.94
497.529	108.94
497.746	107.94
497.963	79.94
498.181	101.94
498.398	105.94
498.615	105.94
498.832	108.94
499.049	96.94
499.267	96.94
499.484	99.94
499.701	104.94
499.918	95.94
500.135	95.94
500.352	98.94
500.569	94.94
500.786	105.94
501.003	95.94
501.22	99.94
501.437	100.94
501.654	100.94
501.871	98.94
502.088	88.94
502.305	83.94
502.522	106.94
502.739	94.94
502.956	99.94
503.172	107.94
503.389	96.94
503.606	107.94
503.823	111.94
504.04	93.94
504.256	88.94
504.473	83.94
504.69	79.94
504.907	86.94
505.123	92.94
505.34	93.94
505.557	97.94
505.773	114.94
505.99	85.94
506.207	85.94
506.423	102.94
506.64	93.94
506.856	102.94
507.073	88.94
507.289	98.94
507.506	97.94
507.722	107.94
507.939	113.94
508.155	96.94
508.372	99.94
508.588	101.94
508.805	87.94
509.021	103.94
509.238	99.94
509.454	99.94
509.67	108.94
509.887	101.94
510.103	107.94
510.319	191.94
510.536	614.94
510.752	1891.94
510.968	557.94
511.184	147.94
511.401	109.94
511.617	89.94
511.833	85.94
512.049	84.94
512.265	92.94
512.481	90.94
512.698	99.94
512.914	97.94
513.13	98.94
513.346	101.94
513.562	99.94
513.778	101.94
513.994	87.94
514.21	92.94
514.426	111.94
514.642	103.94
514.858	111.94
515.074	159.94
515.29	387.94
515.506	1153.94
515.721	470.94
