Data from Uncirc_2005_H10_HRD10591_00091.txt Node
Date: Wed Jan 03 10:28:43 EST 2024
User: Yrep
Spectrometer: HR+D1059
Trigger mode: 1
Integration Time (sec): 1.000000E-1
Scans to average: 1
Electric dark correction enabled: true
Nonlinearity correction enabled: false
Boxcar width: 0
XAxis mode: Wavelengths
Number of Pixels in Spectrum: 2048
>>>>>Begin Spectral Data<<<<<
223.165	-21.31
223.4	-21.31
223.635	-21.31
223.869	-10.31
224.104	-18.31
224.338	-20.31
224.573	-20.31
224.808	-7.31
225.042	-7.31
225.277	-2.31
225.511	-1.31
225.746	-0.31
225.98	12.69
226.215	7.69
226.449	19.69
226.683	21.69
226.918	22.69
227.152	24.69
227.387	21.69
227.621	36.69
227.856	46.69
228.09	44.69
228.324	54.69
228.559	45.69
228.793	68.69
229.027	69.69
229.262	82.69
229.496	87.69
229.73	78.69
229.964	64.69
230.199	60.69
230.433	85.69
230.667	76.69
230.901	76.69
231.136	77.69
231.37	74.69
231.604	66.69
231.838	90.69
232.072	83.69
232.306	78.69
232.541	71.69
232.775	61.69
233.009	79.69
233.243	95.69
233.477	87.69
233.711	71.69
233.945	93.69
234.179	79.69
234.413	47.69
234.647	74.69
234.881	71.69
235.115	87.69
235.349	79.69
235.583	73.69
235.817	68.69
236.051	70.69
236.285	82.69
236.519	77.69
236.753	70.69
236.987	82.69
237.221	71.69
237.455	87.69
237.689	79.69
237.922	79.69
238.156	79.69
238.39	78.69
238.624	75.69
238.858	77.69
239.091	81.69
239.325	72.69
239.559	83.69
239.793	69.69
240.027	79.69
240.26	100.69
240.494	87.69
240.728	72.69
240.961	68.69
241.195	65.69
241.429	77.69
241.662	65.69
241.896	85.69
242.13	73.69
242.363	79.69
242.597	82.69
242.83	85.69
243.064	95.69
243.298	79.69
243.531	96.69
243.765	80.69
243.998	81.69
244.232	81.69
244.465	87.69
244.699	79.69
244.932	70.69
245.166	80.69
245.399	69.69
245.633	85.69
245.866	77.69
246.099	85.69
246.333	78.69
246.566	70.69
246.8	82.69
247.033	84.69
247.266	69.69
247.5	77.69
247.733	81.69
247.966	86.69
248.2	75.69
248.433	77.69
248.666	77.69
248.899	84.69
249.133	80.69
249.366	88.69
249.599	103.69
249.832	98.69
250.066	82.69
250.299	78.69
250.532	91.69
250.765	72.69
250.998	78.69
251.231	79.69
251.465	85.69
251.698	79.69
251.931	88.69
252.164	87.69
252.397	82.69
252.63	93.69
252.863	66.69
253.096	76.69
253.329	80.69
253.562	90.69
253.795	98.69
254.028	83.69
254.261	76.69
254.494	82.69
254.727	86.69
254.96	81.69
255.193	93.69
255.426	75.69
255.659	87.69
255.892	75.69
256.124	78.69
256.357	71.69
256.59	87.69
256.823	72.69
257.056	79.69
257.289	78.69
257.521	77.69
257.754	88.69
257.987	82.69
258.22	75.69
258.452	85.69
258.685	83.69
258.918	91.69
259.151	68.69
259.383	72.69
259.616	95.69
259.849	76.69
260.081	93.69
260.314	92.69
260.547	93.69
260.779	75.69
261.012	81.69
261.244	82.69
261.477	99.69
261.71	93.69
261.942	106.69
262.175	113.69
262.407	92.69
262.64	79.69
262.872	82.69
263.105	83.69
263.337	72.69
263.57	88.69
263.802	87.69
264.035	74.69
264.267	79.69
264.499	70.69
264.732	93.69
264.964	67.69
265.197	75.69
265.429	67.69
265.661	101.69
265.894	81.69
266.126	90.69
266.358	84.69
266.591	76.69
266.823	100.69
267.055	77.69
267.287	72.69
267.52	92.69
267.752	88.69
267.984	78.69
268.216	60.69
268.448	85.69
268.681	68.69
268.913	69.69
269.145	80.69
269.377	87.69
269.609	78.69
269.841	92.69
270.073	79.69
270.306	86.69
270.538	92.69
270.77	93.69
271.002	87.69
271.234	77.69
271.466	76.69
271.698	80.69
271.93	78.69
272.162	80.69
272.394	81.69
272.626	93.69
272.858	76.69
273.09	84.69
273.322	91.69
273.553	81.69
273.785	98.69
274.017	78.69
274.249	88.69
274.481	74.69
274.713	82.69
274.945	84.69
275.176	85.69
275.408	79.69
275.64	87.69
275.872	93.69
276.104	94.69
276.335	90.69
276.567	95.69
276.799	128.69
277.031	103.69
277.262	90.69
277.494	103.69
277.726	83.69
277.957	88.69
278.189	88.69
278.421	87.69
278.652	93.69
278.884	82.69
279.115	87.69
279.347	90.69
279.579	82.69
279.81	78.69
280.042	83.69
280.273	93.69
280.505	76.69
280.736	92.69
280.968	94.69
281.199	97.69
281.431	85.69
281.662	104.69
281.894	97.69
282.125	105.69
282.356	124.69
282.588	133.69
282.819	105.69
283.051	88.69
283.282	79.69
283.513	85.69
283.745	107.69
283.976	96.69
284.207	99.69
284.439	78.69
284.67	88.69
284.901	90.69
285.132	85.69
285.364	82.69
285.595	88.69
285.826	79.69
286.057	82.69
286.288	93.69
286.52	82.69
286.751	76.69
286.982	75.69
287.213	94.69
287.444	90.69
287.675	84.69
287.906	83.69
288.138	107.69
288.369	90.69
288.6	87.69
288.831	93.69
289.062	102.69
289.293	97.69
289.524	95.69
289.755	84.69
289.986	79.69
290.217	83.69
290.448	78.69
290.679	84.69
290.91	90.69
291.141	82.69
291.371	82.69
291.602	85.69
291.833	96.69
292.064	85.69
292.295	79.69
292.526	100.69
292.757	79.69
292.987	82.69
293.218	88.69
293.449	95.69
293.68	94.69
293.91	90.69
294.141	94.69
294.372	87.69
294.603	93.69
294.833	85.69
295.064	72.69
295.295	94.69
295.525	87.69
295.756	101.69
295.987	126.69
296.217	147.69
296.448	133.69
296.679	100.69
296.909	107.69
297.14	103.69
297.37	103.69
297.601	92.69
297.831	95.69
298.062	91.69
298.292	88.69
298.523	88.69
298.753	86.69
298.984	86.69
299.214	74.69
299.445	100.69
299.675	94.69
299.905	92.69
300.136	98.69
300.366	80.69
300.597	83.69
300.827	95.69
301.057	101.69
301.288	99.69
301.518	96.69
301.748	81.69
301.979	93.69
302.209	100.69
302.439	73.69
302.669	80.69
302.9	90.69
303.13	87.69
303.36	102.69
303.59	91.69
303.82	108.69
304.051	91.69
304.281	96.69
304.511	80.69
304.741	82.69
304.971	84.69
305.201	85.69
305.431	93.69
305.661	84.69
305.891	104.69
306.121	98.69
306.352	98.69
306.582	100.69
306.812	103.69
307.042	95.69
307.272	103.69
307.502	101.69
307.731	76.69
307.961	100.69
308.191	94.69
308.421	75.69
308.651	102.69
308.881	85.69
309.111	109.69
309.341	99.69
309.571	79.69
309.8	92.69
310.03	99.69
310.26	85.69
310.49	94.69
310.72	95.69
310.949	81.69
311.179	100.69
311.409	106.69
311.639	113.69
311.868	100.69
312.098	98.69
312.328	102.69
312.557	99.69
312.787	98.69
313.017	102.69
313.246	88.69
313.476	98.69
313.706	103.69
313.935	86.69
314.165	96.69
314.394	100.69
314.624	95.69
314.853	91.69
315.083	101.69
315.312	107.69
315.542	97.69
315.771	91.69
316.001	94.69
316.23	88.69
316.46	74.69
316.689	96.69
316.919	92.69
317.148	103.69
317.377	84.69
317.607	93.69
317.836	92.69
318.065	80.69
318.295	94.69
318.524	83.69
318.753	99.69
318.983	107.69
319.212	103.69
319.441	111.69
319.67	107.69
319.9	100.69
320.129	92.69
320.358	93.69
320.587	82.69
320.816	97.69
321.046	106.69
321.275	96.69
321.504	96.69
321.733	96.69
321.962	85.69
322.191	93.69
322.42	99.69
322.649	105.69
322.878	123.69
323.108	126.69
323.337	124.69
323.566	156.69
323.795	153.69
324.024	203.69
324.253	441.69
324.482	938.69
324.71	1930.69
324.939	2607.69
325.168	916.69
325.397	266.69
325.626	161.69
325.855	142.69
326.084	136.69
326.313	147.69
326.542	187.69
326.77	248.69
326.999	522.69
327.228	1092.69
327.457	1963.69
327.686	1601.69
327.914	413.69
328.143	193.69
328.372	144.69
328.6	130.69
328.829	114.69
329.058	119.69
329.287	119.69
329.515	118.69
329.744	92.69
329.972	104.69
330.201	104.69
330.43	105.69
330.658	116.69
330.887	134.69
331.115	122.69
331.344	90.69
331.572	93.69
331.801	100.69
332.03	87.69
332.258	102.69
332.486	93.69
332.715	92.69
332.943	89.69
333.172	106.69
333.4	106.69
333.629	97.69
333.857	112.69
334.085	101.69
334.314	92.69
334.542	92.69
334.771	110.69
334.999	96.69
335.227	84.69
335.455	91.69
335.684	96.69
335.912	98.69
336.14	107.69
336.369	77.69
336.597	103.69
336.825	92.69
337.053	96.69
337.281	91.69
337.51	84.69
337.738	98.69
337.966	86.69
338.194	95.69
338.422	99.69
338.65	87.69
338.878	87.69
339.106	96.69
339.334	81.69
339.562	98.69
339.79	85.69
340.018	90.69
340.246	100.69
340.474	85.69
340.702	90.69
340.93	95.69
341.158	99.69
341.386	100.69
341.614	97.69
341.842	97.69
342.07	82.69
342.298	98.69
342.526	83.69
342.754	70.69
342.981	84.69
343.209	97.69
343.437	94.69
343.665	81.69
343.893	109.69
344.12	106.69
344.348	113.69
344.576	95.69
344.804	104.69
345.031	94.69
345.259	87.69
345.487	99.69
345.714	83.69
345.942	92.69
346.17	77.69
346.397	102.69
346.625	87.69
346.853	78.69
347.08	82.69
347.308	85.69
347.535	91.69
347.763	107.69
347.99	90.69
348.218	97.69
348.445	101.69
348.673	98.69
348.9	96.69
349.128	87.69
349.355	92.69
349.583	102.69
349.81	114.69
350.037	94.69
350.265	96.69
350.492	99.69
350.72	93.69
350.947	107.69
351.174	103.69
351.402	103.69
351.629	93.69
351.856	104.69
352.083	107.69
352.311	109.69
352.538	108.69
352.765	116.69
352.992	122.69
353.22	117.69
353.447	119.69
353.674	94.69
353.901	99.69
354.128	89.69
354.355	100.69
354.583	95.69
354.81	100.69
355.037	90.69
355.264	94.69
355.491	95.69
355.718	88.69
355.945	85.69
356.172	87.69
356.399	111.69
356.626	96.69
356.853	99.69
357.08	87.69
357.307	88.69
357.534	96.69
357.761	92.69
357.988	90.69
358.215	96.69
358.441	70.69
358.668	88.69
358.895	95.69
359.122	94.69
359.349	85.69
359.576	99.69
359.802	97.69
360.029	113.69
360.256	110.69
360.483	97.69
360.709	92.69
360.936	99.69
361.163	92.69
361.39	89.69
361.616	87.69
361.843	86.69
362.07	93.69
362.296	101.69
362.523	79.69
362.749	95.69
362.976	86.69
363.203	96.69
363.429	101.69
363.656	87.69
363.882	83.69
364.109	83.69
364.335	87.69
364.562	90.69
364.788	88.69
365.015	97.69
365.241	103.69
365.468	108.69
365.694	109.69
365.92	102.69
366.147	96.69
366.373	92.69
366.599	93.69
366.826	93.69
367.052	92.69
367.278	87.69
367.505	104.69
367.731	100.69
367.957	84.69
368.184	88.69
368.41	106.69
368.636	125.69
368.862	125.69
369.089	114.69
369.315	106.69
369.541	94.69
369.767	94.69
369.993	90.69
370.219	84.69
370.445	90.69
370.672	82.69
370.898	78.69
371.124	84.69
371.35	83.69
371.576	91.69
371.802	93.69
372.028	100.69
372.254	104.69
372.48	86.69
372.706	99.69
372.932	94.69
373.158	98.69
373.384	100.69
373.61	94.69
373.835	85.69
374.061	93.69
374.287	77.69
374.513	78.69
374.739	89.69
374.965	92.69
375.191	91.69
375.416	80.69
375.642	97.69
375.868	91.69
376.094	80.69
376.319	82.69
376.545	88.69
376.771	77.69
376.997	86.69
377.222	94.69
377.448	94.69
377.674	73.69
377.899	85.69
378.125	91.69
378.35	102.69
378.576	98.69
378.802	103.69
379.027	99.69
379.253	91.69
379.478	94.69
379.704	84.69
379.929	88.69
380.155	97.69
380.38	93.69
380.606	96.69
380.831	96.69
381.057	92.69
381.282	101.69
381.507	92.69
381.733	94.69
381.958	98.69
382.184	85.69
382.409	94.69
382.634	108.69
382.86	108.69
383.085	103.69
383.31	102.69
383.535	86.69
383.761	98.69
383.986	99.69
384.211	92.69
384.436	88.69
384.662	111.69
384.887	103.69
385.112	119.69
385.337	108.69
385.562	106.69
385.787	101.69
386.013	122.69
386.238	102.69
386.463	100.69
386.688	106.69
386.913	103.69
387.138	105.69
387.363	95.69
387.588	104.69
387.813	95.69
388.038	118.69
388.263	116.69
388.488	110.69
388.713	108.69
388.938	105.69
389.163	91.69
389.387	79.69
389.612	87.69
389.837	100.69
390.062	98.69
390.287	85.69
390.512	82.69
390.736	100.69
390.961	97.69
391.186	100.69
391.411	111.69
391.636	80.69
391.86	79.69
392.085	67.69
392.31	83.69
392.534	93.69
392.759	94.69
392.984	93.69
393.208	70.69
393.433	93.69
393.658	90.69
393.882	73.69
394.107	89.69
394.331	78.69
394.556	88.69
394.78	78.69
395.005	91.69
395.229	81.69
395.454	94.69
395.678	89.69
395.903	76.69
396.127	89.69
396.352	85.69
396.576	92.69
396.801	92.69
397.025	77.69
397.249	83.69
397.474	87.69
397.698	93.69
397.922	90.69
398.147	88.69
398.371	106.69
398.595	85.69
398.82	94.69
399.044	94.69
399.268	84.69
399.492	99.69
399.717	95.69
399.941	98.69
400.165	98.69
400.389	95.69
400.613	92.69
400.837	71.69
401.062	96.69
401.286	83.69
401.51	84.69
401.734	105.69
401.958	103.69
402.182	134.69
402.406	170.69
402.63	117.69
402.854	90.69
403.078	72.69
403.302	91.69
403.526	95.69
403.75	78.69
403.974	96.69
404.198	90.69
404.422	101.69
404.645	87.69
404.869	95.69
405.093	92.69
405.317	102.69
405.541	98.69
405.765	103.69
405.988	126.69
406.212	172.69
406.436	228.69
406.66	141.69
406.883	106.69
407.107	88.69
407.331	95.69
407.555	124.69
407.778	96.69
408.002	99.69
408.226	87.69
408.449	87.69
408.673	84.69
408.896	98.69
409.12	95.69
409.344	117.69
409.567	101.69
409.791	89.69
410.014	112.69
410.238	89.69
410.461	94.69
410.685	105.69
410.908	96.69
411.132	98.69
411.355	93.69
411.578	102.69
411.802	86.69
412.025	93.69
412.249	82.69
412.472	87.69
412.695	88.69
412.919	89.69
413.142	82.69
413.365	81.69
413.589	88.69
413.812	93.69
414.035	78.69
414.258	93.69
414.482	95.69
414.705	83.69
414.928	95.69
415.151	92.69
415.374	85.69
415.597	80.69
415.821	80.69
416.044	102.69
416.267	96.69
416.49	89.69
416.713	91.69
416.936	94.69
417.159	74.69
417.382	92.69
417.605	87.69
417.828	88.69
418.051	84.69
418.274	83.69
418.497	73.69
418.72	99.69
418.943	80.69
419.166	77.69
419.389	93.69
419.611	103.69
419.834	86.69
420.057	84.69
420.28	84.69
420.503	99.69
420.726	94.69
420.948	106.69
421.171	89.69
421.394	95.69
421.617	98.69
421.839	100.69
422.062	99.69
422.285	99.69
422.507	98.69
422.73	110.69
422.953	99.69
423.175	87.69
423.398	95.69
423.621	102.69
423.843	95.69
424.066	78.69
424.288	96.69
424.511	82.69
424.733	91.69
424.956	94.69
425.178	105.69
425.401	103.69
425.623	98.69
425.846	91.69
426.068	90.69
426.291	95.69
426.513	87.69
426.735	92.69
426.958	79.69
427.18	97.69
427.402	135.69
427.625	175.69
427.847	134.69
428.069	99.69
428.292	96.69
428.514	82.69
428.736	96.69
428.958	88.69
429.181	92.69
429.403	90.69
429.625	78.69
429.847	94.69
430.069	94.69
430.292	104.69
430.514	83.69
430.736	91.69
430.958	96.69
431.18	83.69
431.402	88.69
431.624	90.69
431.846	91.69
432.068	78.69
432.29	83.69
432.512	88.69
432.734	87.69
432.956	94.69
433.178	80.69
433.4	93.69
433.622	91.69
433.844	91.69
434.066	95.69
434.287	93.69
434.509	99.69
434.731	96.69
434.953	90.69
435.175	85.69
435.397	82.69
435.618	94.69
435.84	93.69
436.062	120.69
436.284	125.69
436.505	102.69
436.727	105.69
436.949	96.69
437.17	98.69
437.392	78.69
437.614	80.69
437.835	103.69
438.057	127.69
438.278	104.69
438.5	115.69
438.721	122.69
438.943	105.69
439.165	92.69
439.386	106.69
439.608	90.69
439.829	116.69
440.05	125.69
440.272	149.69
440.493	100.69
440.715	101.69
440.936	88.69
441.158	85.69
441.379	86.69
441.6	99.69
441.822	90.69
442.043	89.69
442.264	98.69
442.486	101.69
442.707	91.69
442.928	111.69
443.149	125.69
443.371	126.69
443.592	101.69
443.813	110.69
444.034	119.69
444.255	98.69
444.476	108.69
444.698	98.69
444.919	95.69
445.14	111.69
445.361	114.69
445.582	114.69
445.803	139.69
446.024	142.69
446.245	150.69
446.466	110.69
446.687	97.69
446.908	88.69
447.129	90.69
447.35	91.69
447.571	89.69
447.792	97.69
448.013	96.69
448.234	105.69
448.455	106.69
448.675	124.69
448.896	135.69
449.117	102.69
449.338	106.69
449.559	139.69
449.779	139.69
450	93.69
450.221	88.69
450.442	97.69
450.662	100.69
450.883	107.69
451.104	106.69
451.324	107.69
451.545	83.69
451.766	84.69
451.986	90.69
452.207	95.69
452.428	102.69
452.648	87.69
452.869	106.69
453.089	116.69
453.31	114.69
453.53	104.69
453.751	100.69
453.971	107.69
454.192	109.69
454.412	91.69
454.633	86.69
454.853	85.69
455.073	94.69
455.294	97.69
455.514	104.69
455.734	88.69
455.955	84.69
456.175	89.69
456.395	100.69
456.616	89.69
456.836	75.69
457.056	85.69
457.276	98.69
457.497	91.69
457.717	85.69
457.937	82.69
458.157	70.69
458.377	82.69
458.598	87.69
458.818	139.69
459.038	149.69
459.258	115.69
459.478	99.69
459.698	82.69
459.918	85.69
460.138	86.69
460.358	78.69
460.578	77.69
460.798	93.69
461.018	103.69
461.238	84.69
461.458	90.69
461.678	88.69
461.898	85.69
462.118	101.69
462.338	100.69
462.558	91.69
462.777	94.69
462.997	80.69
463.217	88.69
463.437	88.69
463.657	99.69
463.876	86.69
464.096	91.69
464.316	96.69
464.536	106.69
464.755	94.69
464.975	115.69
465.195	172.69
465.414	153.69
465.634	92.69
465.854	95.69
466.073	92.69
466.293	96.69
466.512	96.69
466.732	85.69
466.951	90.69
467.171	92.69
467.391	95.69
467.61	98.69
467.829	105.69
468.049	70.69
468.268	96.69
468.488	87.69
468.707	88.69
468.927	86.69
469.146	87.69
469.365	78.69
469.585	88.69
469.804	97.69
470.023	101.69
470.243	96.69
470.462	92.69
470.681	119.69
470.901	77.69
471.12	87.69
471.339	93.69
471.558	94.69
471.777	80.69
471.997	88.69
472.216	82.69
472.435	82.69
472.654	97.69
472.873	87.69
473.092	95.69
473.311	79.69
473.53	82.69
473.749	92.69
473.968	91.69
474.187	98.69
474.406	110.69
474.625	92.69
474.844	72.69
475.063	74.69
475.282	99.69
475.501	92.69
475.72	104.69
475.939	100.69
476.158	80.69
476.377	79.69
476.596	87.69
476.814	97.69
477.033	102.69
477.252	87.69
477.471	80.69
477.69	103.69
477.908	87.69
478.127	84.69
478.346	92.69
478.564	90.69
478.783	92.69
479.002	97.69
479.22	79.69
479.439	97.69
479.658	115.69
479.876	84.69
480.095	90.69
480.313	93.69
480.532	85.69
480.751	85.69
480.969	99.69
481.188	97.69
481.406	109.69
481.624	95.69
481.843	90.69
482.061	81.69
482.28	90.69
482.498	96.69
482.717	81.69
482.935	80.69
483.153	78.69
483.372	88.69
483.59	91.69
483.808	86.69
484.027	95.69
484.245	83.69
484.463	103.69
484.681	99.69
484.9	91.69
485.118	92.69
485.336	91.69
485.554	94.69
485.772	90.69
485.99	92.69
486.209	116.69
486.427	98.69
486.645	122.69
486.863	120.69
487.081	101.69
487.299	108.69
487.517	96.69
487.735	100.69
487.953	100.69
488.171	90.69
488.389	89.69
488.607	89.69
488.825	88.69
489.043	82.69
489.261	86.69
489.479	84.69
489.696	76.69
489.914	96.69
490.132	101.69
490.35	80.69
490.568	91.69
490.786	81.69
491.003	88.69
491.221	86.69
491.439	92.69
491.657	79.69
491.874	97.69
492.092	81.69
492.31	91.69
492.527	88.69
492.745	80.69
492.963	88.69
493.18	105.69
493.398	110.69
493.615	101.69
493.833	83.69
494.05	92.69
494.268	94.69
494.485	87.69
494.703	94.69
494.92	86.69
495.138	85.69
495.355	86.69
495.573	96.69
495.79	98.69
496.008	85.69
496.225	92.69
496.442	95.69
496.66	79.69
496.877	82.69
497.094	86.69
497.312	102.69
497.529	88.69
497.746	96.69
497.963	95.69
498.181	92.69
498.398	94.69
498.615	109.69
498.832	111.69
499.049	102.69
499.267	98.69
499.484	86.69
499.701	88.69
499.918	95.69
500.135	90.69
500.352	95.69
500.569	100.69
500.786	85.69
501.003	83.69
501.22	99.69
501.437	82.69
501.654	95.69
501.871	111.69
502.088	89.69
502.305	94.69
502.522	100.69
502.739	86.69
502.956	92.69
503.172	92.69
503.389	103.69
503.606	108.69
503.823	99.69
504.04	88.69
504.256	78.69
504.473	85.69
504.69	94.69
504.907	98.69
505.123	78.69
505.34	91.69
505.557	107.69
505.773	99.69
505.99	83.69
506.207	101.69
506.423	88.69
506.64	98.69
506.856	83.69
507.073	91.69
507.289	108.69
507.506	98.69
507.722	108.69
507.939	120.69
508.155	100.69
508.372	99.69
508.588	95.69
508.805	94.69
509.021	93.69
509.238	100.69
509.454	83.69
509.67	109.69
509.887	122.69
510.103	150.69
510.319	223.69
510.536	818.69
510.752	2603.69
510.968	719.69
511.184	156.69
511.401	103.69
511.617	106.69
511.833	81.69
512.049	88.69
512.265	91.69
512.481	93.69
512.698	92.69
512.914	105.69
513.13	101.69
513.346	91.69
513.562	85.69
513.778	97.69
513.994	74.69
514.21	106.69
514.426	131.69
514.642	157.69
514.858	142.69
515.074	178.69
515.29	466.69
